Data from Uncirc_2007_H10_HRD10591_00091.txt Node
Date: Wed Jan 03 10:21:00 EST 2024
User: Yrep
Spectrometer: HR+D1059
Trigger mode: 1
Integration Time (sec): 1.000000E-1
Scans to average: 1
Electric dark correction enabled: true
Nonlinearity correction enabled: false
Boxcar width: 0
XAxis mode: Wavelengths
Number of Pixels in Spectrum: 2048
>>>>>Begin Spectral Data<<<<<
223.165	-16.69
223.4	-16.69
223.635	-16.69
223.869	-14.69
224.104	-13.69
224.338	-9.69
224.573	-23.69
224.808	-17.69
225.042	-12.69
225.277	-8.69
225.511	5.31
225.746	1.31
225.98	0.31
226.215	11.31
226.449	9.31
226.683	22.31
226.918	24.31
227.152	43.31
227.387	43.31
227.621	48.31
227.856	36.31
228.09	50.31
228.324	63.31
228.559	51.31
228.793	53.31
229.027	70.31
229.262	65.31
229.496	78.31
229.73	82.31
229.964	83.31
230.199	83.31
230.433	78.31
230.667	73.31
230.901	78.31
231.136	86.31
231.37	72.31
231.604	80.31
231.838	89.31
232.072	81.31
232.306	82.31
232.541	73.31
232.775	78.31
233.009	82.31
233.243	85.31
233.477	75.31
233.711	72.31
233.945	83.31
234.179	69.31
234.413	92.31
234.647	83.31
234.881	89.31
235.115	91.31
235.349	86.31
235.583	80.31
235.817	80.31
236.051	101.31
236.285	79.31
236.519	79.31
236.753	79.31
236.987	87.31
237.221	85.31
237.455	88.31
237.689	76.31
237.922	70.31
238.156	71.31
238.39	90.31
238.624	76.31
238.858	89.31
239.091	74.31
239.325	69.31
239.559	79.31
239.793	81.31
240.027	79.31
240.26	77.31
240.494	85.31
240.728	67.31
240.961	86.31
241.195	75.31
241.429	62.31
241.662	65.31
241.896	87.31
242.13	52.31
242.363	52.31
242.597	64.31
242.83	87.31
243.064	97.31
243.298	87.31
243.531	82.31
243.765	91.31
243.998	77.31
244.232	75.31
244.465	89.31
244.699	82.31
244.932	81.31
245.166	86.31
245.399	83.31
245.633	92.31
245.866	79.31
246.099	81.31
246.333	83.31
246.566	91.31
246.8	82.31
247.033	87.31
247.266	87.31
247.5	78.31
247.733	80.31
247.966	87.31
248.2	91.31
248.433	75.31
248.666	91.31
248.899	85.31
249.133	78.31
249.366	87.31
249.599	97.31
249.832	95.31
250.066	95.31
250.299	70.31
250.532	73.31
250.765	87.31
250.998	92.31
251.231	85.31
251.465	79.31
251.698	77.31
251.931	76.31
252.164	86.31
252.397	86.31
252.63	85.31
252.863	73.31
253.096	86.31
253.329	85.31
253.562	76.31
253.795	73.31
254.028	80.31
254.261	81.31
254.494	70.31
254.727	81.31
254.96	79.31
255.193	73.31
255.426	81.31
255.659	74.31
255.892	87.31
256.124	74.31
256.357	81.31
256.59	81.31
256.823	79.31
257.056	88.31
257.289	81.31
257.521	75.31
257.754	77.31
257.987	73.31
258.22	86.31
258.452	68.31
258.685	90.31
258.918	86.31
259.151	90.31
259.383	80.31
259.616	93.31
259.849	70.31
260.081	87.31
260.314	81.31
260.547	80.31
260.779	82.31
261.012	75.31
261.244	72.31
261.477	92.31
261.71	82.31
261.942	109.31
262.175	118.31
262.407	101.31
262.64	72.31
262.872	78.31
263.105	83.31
263.337	82.31
263.57	77.31
263.802	91.31
264.035	83.31
264.267	82.31
264.499	80.31
264.732	76.31
264.964	94.31
265.197	84.31
265.429	87.31
265.661	93.31
265.894	69.31
266.126	91.31
266.358	81.31
266.591	94.31
266.823	78.31
267.055	92.31
267.287	88.31
267.52	81.31
267.752	86.31
267.984	86.31
268.216	85.31
268.448	98.31
268.681	86.31
268.913	85.31
269.145	90.31
269.377	81.31
269.609	78.31
269.841	74.31
270.073	84.31
270.306	93.31
270.538	80.31
270.77	83.31
271.002	70.31
271.234	78.31
271.466	94.31
271.698	91.31
271.93	67.31
272.162	76.31
272.394	82.31
272.626	88.31
272.858	89.31
273.09	90.31
273.322	87.31
273.553	73.31
273.785	85.31
274.017	78.31
274.249	84.31
274.481	85.31
274.713	90.31
274.945	85.31
275.176	78.31
275.408	94.31
275.64	83.31
275.872	78.31
276.104	83.31
276.335	86.31
276.567	87.31
276.799	105.31
277.031	103.31
277.262	98.31
277.494	77.31
277.726	84.31
277.957	85.31
278.189	86.31
278.421	82.31
278.652	86.31
278.884	97.31
279.115	79.31
279.347	86.31
279.579	73.31
279.81	91.31
280.042	83.31
280.273	88.31
280.505	90.31
280.736	86.31
280.968	87.31
281.199	86.31
281.431	82.31
281.662	79.31
281.894	85.31
282.125	98.31
282.356	118.31
282.588	158.31
282.819	115.31
283.051	93.31
283.282	83.31
283.513	69.31
283.745	91.31
283.976	91.31
284.207	75.31
284.439	94.31
284.67	96.31
284.901	89.31
285.132	80.31
285.364	79.31
285.595	85.31
285.826	77.31
286.057	81.31
286.288	64.31
286.52	74.31
286.751	77.31
286.982	99.31
287.213	82.31
287.444	93.31
287.675	86.31
287.906	86.31
288.138	82.31
288.369	100.31
288.6	85.31
288.831	80.31
289.062	81.31
289.293	85.31
289.524	69.31
289.755	86.31
289.986	102.31
290.217	87.31
290.448	97.31
290.679	80.31
290.91	93.31
291.141	84.31
291.371	88.31
291.602	93.31
291.833	78.31
292.064	82.31
292.295	94.31
292.526	89.31
292.757	90.31
292.987	77.31
293.218	92.31
293.449	79.31
293.68	91.31
293.91	84.31
294.141	89.31
294.372	84.31
294.603	83.31
294.833	93.31
295.064	96.31
295.295	88.31
295.525	93.31
295.756	88.31
295.987	112.31
296.217	130.31
296.448	123.31
296.679	91.31
296.909	93.31
297.14	97.31
297.37	96.31
297.601	85.31
297.831	88.31
298.062	85.31
298.292	76.31
298.523	93.31
298.753	102.31
298.984	79.31
299.214	87.31
299.445	105.31
299.675	92.31
299.905	100.31
300.136	101.31
300.366	91.31
300.597	86.31
300.827	83.31
301.057	105.31
301.288	92.31
301.518	93.31
301.748	86.31
301.979	86.31
302.209	95.31
302.439	79.31
302.669	89.31
302.9	84.31
303.13	101.31
303.36	94.31
303.59	105.31
303.82	104.31
304.051	87.31
304.281	98.31
304.511	93.31
304.741	94.31
304.971	98.31
305.201	98.31
305.431	84.31
305.661	94.31
305.891	79.31
306.121	85.31
306.352	98.31
306.582	114.31
306.812	101.31
307.042	82.31
307.272	105.31
307.502	92.31
307.731	79.31
307.961	93.31
308.191	75.31
308.421	77.31
308.651	85.31
308.881	82.31
309.111	94.31
309.341	105.31
309.571	101.31
309.8	104.31
310.03	98.31
310.26	89.31
310.49	90.31
310.72	93.31
310.949	98.31
311.179	103.31
311.409	102.31
311.639	105.31
311.868	112.31
312.098	99.31
312.328	107.31
312.557	104.31
312.787	99.31
313.017	100.31
313.246	93.31
313.476	92.31
313.706	87.31
313.935	100.31
314.165	107.31
314.394	103.31
314.624	107.31
314.853	102.31
315.083	98.31
315.312	85.31
315.542	94.31
315.771	100.31
316.001	90.31
316.23	82.31
316.46	86.31
316.689	89.31
316.919	89.31
317.148	87.31
317.377	97.31
317.607	95.31
317.836	101.31
318.065	87.31
318.295	88.31
318.524	85.31
318.753	101.31
318.983	100.31
319.212	101.31
319.441	113.31
319.67	103.31
319.9	97.31
320.129	86.31
320.358	108.31
320.587	91.31
320.816	93.31
321.046	94.31
321.275	97.31
321.504	96.31
321.733	99.31
321.962	77.31
322.191	90.31
322.42	96.31
322.649	117.31
322.878	123.31
323.108	120.31
323.337	125.31
323.566	141.31
323.795	168.31
324.024	220.31
324.253	440.31
324.482	949.31
324.71	1993.31
324.939	2567.31
325.168	924.31
325.397	263.31
325.626	174.31
325.855	123.31
326.084	146.31
326.313	155.31
326.542	164.31
326.77	247.31
326.999	517.31
327.228	1058.31
327.457	2001.31
327.686	1545.31
327.914	412.31
328.143	195.31
328.372	166.31
328.6	132.31
328.829	125.31
329.058	111.31
329.287	125.31
329.515	110.31
329.744	99.31
329.972	73.31
330.201	94.31
330.43	95.31
330.658	122.31
330.887	152.31
331.115	132.31
331.344	95.31
331.572	102.31
331.801	101.31
332.03	95.31
332.258	95.31
332.486	97.31
332.715	102.31
332.943	97.31
333.172	102.31
333.4	92.31
333.629	91.31
333.857	114.31
334.085	98.31
334.314	106.31
334.542	108.31
334.771	94.31
334.999	103.31
335.227	89.31
335.455	100.31
335.684	89.31
335.912	90.31
336.14	110.31
336.369	113.31
336.597	91.31
336.825	89.31
337.053	99.31
337.281	91.31
337.51	97.31
337.738	84.31
337.966	86.31
338.194	69.31
338.422	102.31
338.65	96.31
338.878	102.31
339.106	101.31
339.334	90.31
339.562	77.31
339.79	84.31
340.018	100.31
340.246	86.31
340.474	97.31
340.702	74.31
340.93	99.31
341.158	95.31
341.386	85.31
341.614	96.31
341.842	93.31
342.07	98.31
342.298	82.31
342.526	89.31
342.754	99.31
342.981	96.31
343.209	84.31
343.437	107.31
343.665	80.31
343.893	77.31
344.12	94.31
344.348	102.31
344.576	87.31
344.804	89.31
345.031	105.31
345.259	111.31
345.487	95.31
345.714	106.31
345.942	97.31
346.17	87.31
346.397	115.31
346.625	92.31
346.853	96.31
347.08	101.31
347.308	100.31
347.535	107.31
347.763	105.31
347.99	98.31
348.218	98.31
348.445	102.31
348.673	109.31
348.9	94.31
349.128	93.31
349.355	96.31
349.583	98.31
349.81	93.31
350.037	105.31
350.265	113.31
350.492	100.31
350.72	106.31
350.947	111.31
351.174	103.31
351.402	112.31
351.629	119.31
351.856	101.31
352.083	109.31
352.311	114.31
352.538	107.31
352.765	103.31
352.992	105.31
353.22	109.31
353.447	110.31
353.674	103.31
353.901	92.31
354.128	94.31
354.355	87.31
354.583	98.31
354.81	111.31
355.037	93.31
355.264	96.31
355.491	99.31
355.718	89.31
355.945	92.31
356.172	96.31
356.399	91.31
356.626	82.31
356.853	101.31
357.08	94.31
357.307	76.31
357.534	101.31
357.761	92.31
357.988	105.31
358.215	94.31
358.441	80.31
358.668	103.31
358.895	100.31
359.122	99.31
359.349	95.31
359.576	97.31
359.802	106.31
360.029	106.31
360.256	116.31
360.483	109.31
360.709	80.31
360.936	79.31
361.163	82.31
361.39	104.31
361.616	99.31
361.843	97.31
362.07	95.31
362.296	105.31
362.523	92.31
362.749	90.31
362.976	94.31
363.203	86.31
363.429	85.31
363.656	101.31
363.882	95.31
364.109	79.31
364.335	83.31
364.562	81.31
364.788	75.31
365.015	87.31
365.241	95.31
365.468	107.31
365.694	115.31
365.92	105.31
366.147	104.31
366.373	77.31
366.599	95.31
366.826	103.31
367.052	85.31
367.278	99.31
367.505	92.31
367.731	93.31
367.957	98.31
368.184	104.31
368.41	108.31
368.636	117.31
368.862	121.31
369.089	106.31
369.315	98.31
369.541	93.31
369.767	96.31
369.993	104.31
370.219	91.31
370.445	90.31
370.672	87.31
370.898	82.31
371.124	96.31
371.35	103.31
371.576	90.31
371.802	90.31
372.028	101.31
372.254	96.31
372.48	93.31
372.706	83.31
372.932	86.31
373.158	89.31
373.384	80.31
373.61	69.31
373.835	89.31
374.061	98.31
374.287	99.31
374.513	82.31
374.739	81.31
374.965	81.31
375.191	78.31
375.416	88.31
375.642	85.31
375.868	95.31
376.094	88.31
376.319	91.31
376.545	80.31
376.771	85.31
376.997	91.31
377.222	76.31
377.448	95.31
377.674	98.31
377.899	93.31
378.125	89.31
378.35	99.31
378.576	94.31
378.802	78.31
379.027	92.31
379.253	86.31
379.478	97.31
379.704	93.31
379.929	78.31
380.155	99.31
380.38	101.31
380.606	87.31
380.831	111.31
381.057	106.31
381.282	84.31
381.507	97.31
381.733	98.31
381.958	98.31
382.184	111.31
382.409	98.31
382.634	93.31
382.86	84.31
383.085	94.31
383.31	89.31
383.535	104.31
383.761	98.31
383.986	86.31
384.211	90.31
384.436	92.31
384.662	100.31
384.887	107.31
385.112	106.31
385.337	95.31
385.562	94.31
385.787	90.31
386.013	90.31
386.238	110.31
386.463	108.31
386.688	113.31
386.913	111.31
387.138	99.31
387.363	86.31
387.588	105.31
387.813	105.31
388.038	93.31
388.263	111.31
388.488	106.31
388.713	99.31
388.938	97.31
389.163	93.31
389.387	95.31
389.612	90.31
389.837	94.31
390.062	89.31
390.287	74.31
390.512	82.31
390.736	96.31
390.961	90.31
391.186	89.31
391.411	95.31
391.636	70.31
391.86	90.31
392.085	92.31
392.31	80.31
392.534	89.31
392.759	83.31
392.984	94.31
393.208	97.31
393.433	96.31
393.658	93.31
393.882	88.31
394.107	99.31
394.331	94.31
394.556	84.31
394.78	82.31
395.005	86.31
395.229	84.31
395.454	96.31
395.678	85.31
395.903	83.31
396.127	98.31
396.352	93.31
396.576	84.31
396.801	94.31
397.025	86.31
397.249	87.31
397.474	98.31
397.698	87.31
397.922	89.31
398.147	77.31
398.371	93.31
398.595	100.31
398.82	82.31
399.044	78.31
399.268	83.31
399.492	87.31
399.717	97.31
399.941	86.31
400.165	86.31
400.389	96.31
400.613	98.31
400.837	74.31
401.062	108.31
401.286	92.31
401.51	87.31
401.734	80.31
401.958	74.31
402.182	121.31
402.406	180.31
402.63	123.31
402.854	92.31
403.078	94.31
403.302	94.31
403.526	87.31
403.75	94.31
403.974	87.31
404.198	82.31
404.422	81.31
404.645	100.31
404.869	81.31
405.093	93.31
405.317	106.31
405.541	102.31
405.765	97.31
405.988	123.31
406.212	179.31
406.436	238.31
406.66	135.31
406.883	104.31
407.107	93.31
407.331	86.31
407.555	108.31
407.778	87.31
408.002	90.31
408.226	88.31
408.449	95.31
408.673	87.31
408.896	109.31
409.12	91.31
409.344	104.31
409.567	98.31
409.791	74.31
410.014	107.31
410.238	85.31
410.461	93.31
410.685	87.31
410.908	107.31
411.132	107.31
411.355	103.31
411.578	96.31
411.802	98.31
412.025	85.31
412.249	82.31
412.472	101.31
412.695	93.31
412.919	90.31
413.142	99.31
413.365	86.31
413.589	101.31
413.812	77.31
414.035	103.31
414.258	82.31
414.482	99.31
414.705	86.31
414.928	90.31
415.151	102.31
415.374	87.31
415.597	88.31
415.821	77.31
416.044	91.31
416.267	95.31
416.49	84.31
416.713	89.31
416.936	92.31
417.159	91.31
417.382	87.31
417.605	104.31
417.828	97.31
418.051	86.31
418.274	96.31
418.497	97.31
418.72	87.31
418.943	82.31
419.166	82.31
419.389	90.31
419.611	90.31
419.834	83.31
420.057	89.31
420.28	90.31
420.503	90.31
420.726	87.31
420.948	87.31
421.171	79.31
421.394	116.31
421.617	92.31
421.839	83.31
422.062	100.31
422.285	93.31
422.507	100.31
422.73	129.31
422.953	71.31
423.175	108.31
423.398	82.31
423.621	94.31
423.843	94.31
424.066	87.31
424.288	97.31
424.511	89.31
424.733	97.31
424.956	107.31
425.178	98.31
425.401	102.31
425.623	102.31
425.846	103.31
426.068	102.31
426.291	103.31
426.513	103.31
426.735	85.31
426.958	100.31
427.18	105.31
427.402	145.31
427.625	189.31
427.847	131.31
428.069	111.31
428.292	105.31
428.514	95.31
428.736	81.31
428.958	85.31
429.181	86.31
429.403	95.31
429.625	89.31
429.847	102.31
430.069	99.31
430.292	114.31
430.514	90.31
430.736	80.31
430.958	62.31
431.18	77.31
431.402	72.31
431.624	86.31
431.846	87.31
432.068	83.31
432.29	82.31
432.512	99.31
432.734	89.31
432.956	100.31
433.178	99.31
433.4	93.31
433.622	84.31
433.844	83.31
434.066	104.31
434.287	101.31
434.509	92.31
434.731	96.31
434.953	83.31
435.175	96.31
435.397	94.31
435.618	98.31
435.84	101.31
436.062	125.31
436.284	114.31
436.505	102.31
436.727	105.31
436.949	96.31
437.17	96.31
437.392	84.31
437.614	84.31
437.835	123.31
438.057	123.31
438.278	114.31
438.5	102.31
438.721	130.31
438.943	96.31
439.165	100.31
439.386	91.31
439.608	97.31
439.829	89.31
440.05	125.31
440.272	129.31
440.493	100.31
440.715	94.31
440.936	93.31
441.158	79.31
441.379	86.31
441.6	98.31
441.822	94.31
442.043	98.31
442.264	98.31
442.486	114.31
442.707	109.31
442.928	102.31
443.149	119.31
443.371	130.31
443.592	123.31
443.813	113.31
444.034	124.31
444.255	86.31
444.476	79.31
444.698	99.31
444.919	82.31
445.14	118.31
445.361	138.31
445.582	114.31
445.803	129.31
446.024	146.31
446.245	137.31
446.466	112.31
446.687	100.31
446.908	102.31
447.129	94.31
447.35	77.31
447.571	103.31
447.792	89.31
448.013	98.31
448.234	102.31
448.455	114.31
448.675	124.31
448.896	123.31
449.117	100.31
449.338	111.31
449.559	130.31
449.779	127.31
450	98.31
450.221	102.31
450.442	94.31
450.662	113.31
450.883	104.31
451.104	97.31
451.324	99.31
451.545	94.31
451.766	88.31
451.986	85.31
452.207	85.31
452.428	86.31
452.648	93.31
452.869	107.31
453.089	121.31
453.31	127.31
453.53	95.31
453.751	94.31
453.971	95.31
454.192	98.31
454.412	95.31
454.633	83.31
454.853	96.31
455.073	97.31
455.294	101.31
455.514	106.31
455.734	82.31
455.955	88.31
456.175	77.31
456.395	81.31
456.616	84.31
456.836	74.31
457.056	88.31
457.276	74.31
457.497	77.31
457.717	69.31
457.937	77.31
458.157	85.31
458.377	88.31
458.598	125.31
458.818	151.31
459.038	159.31
459.258	122.31
459.478	103.31
459.698	97.31
459.918	98.31
460.138	84.31
460.358	90.31
460.578	96.31
460.798	93.31
461.018	101.31
461.238	96.31
461.458	78.31
461.678	87.31
461.898	95.31
462.118	93.31
462.338	89.31
462.558	73.31
462.777	82.31
462.997	95.31
463.217	98.31
463.437	85.31
463.657	97.31
463.876	91.31
464.096	86.31
464.316	103.31
464.536	97.31
464.755	79.31
464.975	108.31
465.195	179.31
465.414	159.31
465.634	101.31
465.854	104.31
466.073	84.31
466.293	95.31
466.512	90.31
466.732	93.31
466.951	83.31
467.171	97.31
467.391	98.31
467.61	103.31
467.829	104.31
468.049	88.31
468.268	94.31
468.488	86.31
468.707	81.31
468.927	93.31
469.146	85.31
469.365	84.31
469.585	97.31
469.804	101.31
470.023	95.31
470.243	101.31
470.462	106.31
470.681	110.31
470.901	94.31
471.12	84.31
471.339	87.31
471.558	94.31
471.777	89.31
471.997	81.31
472.216	92.31
472.435	89.31
472.654	87.31
472.873	94.31
473.092	87.31
473.311	87.31
473.53	82.31
473.749	84.31
473.968	92.31
474.187	108.31
474.406	98.31
474.625	94.31
474.844	90.31
475.063	81.31
475.282	96.31
475.501	85.31
475.72	84.31
475.939	90.31
476.158	90.31
476.377	92.31
476.596	102.31
476.814	83.31
477.033	86.31
477.252	85.31
477.471	95.31
477.69	100.31
477.908	87.31
478.127	84.31
478.346	90.31
478.564	92.31
478.783	102.31
479.002	98.31
479.22	101.31
479.439	86.31
479.658	98.31
479.876	113.31
480.095	85.31
480.313	85.31
480.532	99.31
480.751	98.31
480.969	73.31
481.188	85.31
481.406	92.31
481.624	85.31
481.843	84.31
482.061	94.31
482.28	90.31
482.498	91.31
482.717	88.31
482.935	88.31
483.153	91.31
483.372	73.31
483.59	87.31
483.808	92.31
484.027	98.31
484.245	87.31
484.463	77.31
484.681	126.31
484.9	82.31
485.118	92.31
485.336	98.31
485.554	102.31
485.772	111.31
485.99	100.31
486.209	90.31
486.427	96.31
486.645	110.31
486.863	113.31
487.081	106.31
487.299	112.31
487.517	97.31
487.735	91.31
487.953	100.31
488.171	91.31
488.389	94.31
488.607	107.31
488.825	91.31
489.043	92.31
489.261	90.31
489.479	84.31
489.696	99.31
489.914	86.31
490.132	92.31
490.35	88.31
490.568	84.31
490.786	93.31
491.003	105.31
491.221	103.31
491.439	88.31
491.657	84.31
491.874	78.31
492.092	83.31
492.31	94.31
492.527	96.31
492.745	91.31
492.963	73.31
493.18	91.31
493.398	94.31
493.615	95.31
493.833	94.31
494.05	78.31
494.268	86.31
494.485	107.31
494.703	92.31
494.92	101.31
495.138	91.31
495.355	73.31
495.573	100.31
495.79	103.31
496.008	92.31
496.225	91.31
496.442	87.31
496.66	96.31
496.877	75.31
497.094	83.31
497.312	100.31
497.529	107.31
497.746	91.31
497.963	97.31
498.181	92.31
498.398	114.31
498.615	105.31
498.832	108.31
499.049	93.31
499.267	101.31
499.484	82.31
499.701	102.31
499.918	90.31
500.135	93.31
500.352	99.31
500.569	98.31
500.786	96.31
501.003	95.31
501.22	99.31
501.437	90.31
501.654	88.31
501.871	94.31
502.088	104.31
502.305	91.31
502.522	83.31
502.739	103.31
502.956	100.31
503.172	97.31
503.389	94.31
503.606	117.31
503.823	96.31
504.04	102.31
504.256	93.31
504.473	97.31
504.69	67.31
504.907	98.31
505.123	81.31
505.34	95.31
505.557	96.31
505.773	89.31
505.99	93.31
506.207	91.31
506.423	102.31
506.64	77.31
506.856	80.31
507.073	98.31
507.289	99.31
507.506	106.31
507.722	113.31
507.939	115.31
508.155	93.31
508.372	86.31
508.588	103.31
508.805	99.31
509.021	99.31
509.238	90.31
509.454	89.31
509.67	96.31
509.887	125.31
510.103	134.31
510.319	220.31
510.536	834.31
510.752	2802.31
510.968	765.31
511.184	178.31
511.401	117.31
511.617	95.31
511.833	94.31
512.049	101.31
512.265	107.31
512.481	93.31
512.698	99.31
512.914	84.31
513.13	97.31
513.346	100.31
513.562	84.31
513.778	81.31
513.994	95.31
514.21	103.31
514.426	116.31
514.642	133.31
514.858	118.31
515.074	199.31
515.29	493.31
