Data from Uncirc_2007_H10_HRD10591_00078.txt Node
Date: Wed Jan 03 10:20:58 EST 2024
User: Yrep
Spectrometer: HR+D1059
Trigger mode: 1
Integration Time (sec): 1.000000E-1
Scans to average: 1
Electric dark correction enabled: true
Nonlinearity correction enabled: false
Boxcar width: 0
XAxis mode: Wavelengths
Number of Pixels in Spectrum: 2048
>>>>>Begin Spectral Data<<<<<
223.165	-18.94
223.4	-18.94
223.635	-18.94
223.869	-22.94
224.104	-22.94
224.338	-3.94
224.573	-9.94
224.808	-5.94
225.042	-6.94
225.277	-19.94
225.511	-11.94
225.746	15.06
225.98	11.06
226.215	10.06
226.449	21.06
226.683	10.06
226.918	28.06
227.152	28.06
227.387	35.06
227.621	46.06
227.856	43.06
228.09	45.06
228.324	64.06
228.559	46.06
228.793	43.06
229.027	58.06
229.262	69.06
229.496	66.06
229.73	88.06
229.964	81.06
230.199	75.06
230.433	79.06
230.667	79.06
230.901	84.06
231.136	81.06
231.37	77.06
231.604	81.06
231.838	77.06
232.072	81.06
232.306	97.06
232.541	95.06
232.775	79.06
233.009	84.06
233.243	80.06
233.477	89.06
233.711	69.06
233.945	85.06
234.179	91.06
234.413	79.06
234.647	75.06
234.881	94.06
235.115	78.06
235.349	90.06
235.583	80.06
235.817	90.06
236.051	76.06
236.285	86.06
236.519	88.06
236.753	90.06
236.987	93.06
237.221	92.06
237.455	90.06
237.689	89.06
237.922	81.06
238.156	86.06
238.39	69.06
238.624	62.06
238.858	80.06
239.091	82.06
239.325	81.06
239.559	77.06
239.793	87.06
240.027	76.06
240.26	79.06
240.494	73.06
240.728	75.06
240.961	88.06
241.195	89.06
241.429	73.06
241.662	70.06
241.896	74.06
242.13	78.06
242.363	75.06
242.597	81.06
242.83	78.06
243.064	72.06
243.298	90.06
243.531	79.06
243.765	88.06
243.998	68.06
244.232	85.06
244.465	76.06
244.699	70.06
244.932	64.06
245.166	74.06
245.399	84.06
245.633	83.06
245.866	83.06
246.099	83.06
246.333	69.06
246.566	71.06
246.8	66.06
247.033	83.06
247.266	74.06
247.5	87.06
247.733	82.06
247.966	73.06
248.2	70.06
248.433	63.06
248.666	77.06
248.899	87.06
249.133	83.06
249.366	105.06
249.599	95.06
249.832	77.06
250.066	86.06
250.299	90.06
250.532	67.06
250.765	66.06
250.998	77.06
251.231	69.06
251.465	81.06
251.698	78.06
251.931	81.06
252.164	70.06
252.397	98.06
252.63	92.06
252.863	76.06
253.096	95.06
253.329	98.06
253.562	71.06
253.795	78.06
254.028	81.06
254.261	86.06
254.494	77.06
254.727	83.06
254.96	77.06
255.193	93.06
255.426	83.06
255.659	101.06
255.892	91.06
256.124	79.06
256.357	73.06
256.59	97.06
256.823	84.06
257.056	79.06
257.289	74.06
257.521	73.06
257.754	83.06
257.987	83.06
258.22	67.06
258.452	69.06
258.685	77.06
258.918	94.06
259.151	80.06
259.383	85.06
259.616	94.06
259.849	84.06
260.081	93.06
260.314	88.06
260.547	88.06
260.779	84.06
261.012	80.06
261.244	88.06
261.477	92.06
261.71	83.06
261.942	122.06
262.175	113.06
262.407	91.06
262.64	80.06
262.872	71.06
263.105	78.06
263.337	103.06
263.57	88.06
263.802	78.06
264.035	81.06
264.267	74.06
264.499	80.06
264.732	83.06
264.964	89.06
265.197	89.06
265.429	80.06
265.661	86.06
265.894	90.06
266.126	87.06
266.358	90.06
266.591	97.06
266.823	85.06
267.055	84.06
267.287	73.06
267.52	82.06
267.752	74.06
267.984	91.06
268.216	88.06
268.448	89.06
268.681	80.06
268.913	80.06
269.145	86.06
269.377	69.06
269.609	82.06
269.841	79.06
270.073	90.06
270.306	87.06
270.538	87.06
270.77	82.06
271.002	81.06
271.234	86.06
271.466	81.06
271.698	82.06
271.93	79.06
272.162	85.06
272.394	80.06
272.626	80.06
272.858	90.06
273.09	91.06
273.322	88.06
273.553	80.06
273.785	90.06
274.017	88.06
274.249	84.06
274.481	72.06
274.713	86.06
274.945	98.06
275.176	63.06
275.408	87.06
275.64	89.06
275.872	67.06
276.104	90.06
276.335	105.06
276.567	101.06
276.799	104.06
277.031	95.06
277.262	86.06
277.494	85.06
277.726	91.06
277.957	88.06
278.189	92.06
278.421	69.06
278.652	91.06
278.884	95.06
279.115	83.06
279.347	96.06
279.579	93.06
279.81	80.06
280.042	89.06
280.273	88.06
280.505	93.06
280.736	115.06
280.968	86.06
281.199	86.06
281.431	86.06
281.662	87.06
281.894	84.06
282.125	84.06
282.356	117.06
282.588	136.06
282.819	106.06
283.051	87.06
283.282	74.06
283.513	82.06
283.745	94.06
283.976	87.06
284.207	86.06
284.439	93.06
284.67	81.06
284.901	94.06
285.132	78.06
285.364	98.06
285.595	91.06
285.826	84.06
286.057	95.06
286.288	88.06
286.52	82.06
286.751	88.06
286.982	88.06
287.213	85.06
287.444	99.06
287.675	79.06
287.906	93.06
288.138	85.06
288.369	81.06
288.6	93.06
288.831	92.06
289.062	94.06
289.293	78.06
289.524	91.06
289.755	86.06
289.986	80.06
290.217	90.06
290.448	92.06
290.679	93.06
290.91	108.06
291.141	95.06
291.371	78.06
291.602	94.06
291.833	93.06
292.064	86.06
292.295	86.06
292.526	92.06
292.757	89.06
292.987	77.06
293.218	80.06
293.449	93.06
293.68	82.06
293.91	98.06
294.141	89.06
294.372	86.06
294.603	80.06
294.833	83.06
295.064	97.06
295.295	101.06
295.525	98.06
295.756	109.06
295.987	104.06
296.217	128.06
296.448	140.06
296.679	95.06
296.909	96.06
297.14	106.06
297.37	91.06
297.601	101.06
297.831	98.06
298.062	99.06
298.292	84.06
298.523	94.06
298.753	86.06
298.984	95.06
299.214	86.06
299.445	92.06
299.675	80.06
299.905	105.06
300.136	98.06
300.366	85.06
300.597	82.06
300.827	84.06
301.057	89.06
301.288	95.06
301.518	95.06
301.748	90.06
301.979	94.06
302.209	96.06
302.439	84.06
302.669	122.06
302.9	72.06
303.13	82.06
303.36	91.06
303.59	103.06
303.82	123.06
304.051	90.06
304.281	101.06
304.511	90.06
304.741	97.06
304.971	93.06
305.201	90.06
305.431	92.06
305.661	87.06
305.891	85.06
306.121	91.06
306.352	104.06
306.582	98.06
306.812	104.06
307.042	93.06
307.272	93.06
307.502	103.06
307.731	105.06
307.961	90.06
308.191	92.06
308.421	81.06
308.651	104.06
308.881	87.06
309.111	100.06
309.341	104.06
309.571	96.06
309.8	106.06
310.03	104.06
310.26	85.06
310.49	98.06
310.72	82.06
310.949	108.06
311.179	104.06
311.409	106.06
311.639	102.06
311.868	92.06
312.098	109.06
312.328	90.06
312.557	97.06
312.787	110.06
313.017	111.06
313.246	81.06
313.476	81.06
313.706	89.06
313.935	99.06
314.165	107.06
314.394	100.06
314.624	101.06
314.853	98.06
315.083	100.06
315.312	95.06
315.542	92.06
315.771	92.06
316.001	99.06
316.23	94.06
316.46	89.06
316.689	98.06
316.919	98.06
317.148	96.06
317.377	104.06
317.607	108.06
317.836	89.06
318.065	100.06
318.295	88.06
318.524	95.06
318.753	103.06
318.983	103.06
319.212	98.06
319.441	108.06
319.67	130.06
319.9	99.06
320.129	85.06
320.358	85.06
320.587	92.06
320.816	92.06
321.046	108.06
321.275	89.06
321.504	91.06
321.733	110.06
321.962	95.06
322.191	95.06
322.42	115.06
322.649	108.06
322.878	112.06
323.108	134.06
323.337	140.06
323.566	137.06
323.795	169.06
324.024	208.06
324.253	430.06
324.482	964.06
324.71	1992.06
324.939	2673.06
325.168	946.06
325.397	276.06
325.626	165.06
325.855	145.06
326.084	138.06
326.313	123.06
326.542	168.06
326.77	258.06
326.999	535.06
327.228	1107.06
327.457	2017.06
327.686	1564.06
327.914	403.06
328.143	186.06
328.372	152.06
328.6	120.06
328.829	127.06
329.058	124.06
329.287	125.06
329.515	110.06
329.744	106.06
329.972	92.06
330.201	98.06
330.43	111.06
330.658	128.06
330.887	163.06
331.115	134.06
331.344	92.06
331.572	104.06
331.801	101.06
332.03	102.06
332.258	101.06
332.486	90.06
332.715	81.06
332.943	78.06
333.172	90.06
333.4	99.06
333.629	117.06
333.857	115.06
334.085	112.06
334.314	83.06
334.542	87.06
334.771	81.06
334.999	89.06
335.227	116.06
335.455	90.06
335.684	100.06
335.912	98.06
336.14	92.06
336.369	98.06
336.597	104.06
336.825	106.06
337.053	97.06
337.281	100.06
337.51	84.06
337.738	106.06
337.966	96.06
338.194	98.06
338.422	82.06
338.65	94.06
338.878	97.06
339.106	86.06
339.334	93.06
339.562	96.06
339.79	111.06
340.018	100.06
340.246	94.06
340.474	91.06
340.702	93.06
340.93	88.06
341.158	85.06
341.386	106.06
341.614	97.06
341.842	93.06
342.07	94.06
342.298	80.06
342.526	80.06
342.754	87.06
342.981	95.06
343.209	94.06
343.437	107.06
343.665	92.06
343.893	98.06
344.12	99.06
344.348	90.06
344.576	92.06
344.804	86.06
345.031	112.06
345.259	102.06
345.487	88.06
345.714	84.06
345.942	91.06
346.17	81.06
346.397	81.06
346.625	86.06
346.853	87.06
347.08	92.06
347.308	100.06
347.535	95.06
347.763	107.06
347.99	97.06
348.218	108.06
348.445	104.06
348.673	103.06
348.9	93.06
349.128	107.06
349.355	99.06
349.583	96.06
349.81	93.06
350.037	85.06
350.265	91.06
350.492	98.06
350.72	100.06
350.947	95.06
351.174	108.06
351.402	107.06
351.629	91.06
351.856	99.06
352.083	92.06
352.311	107.06
352.538	103.06
352.765	110.06
352.992	108.06
353.22	111.06
353.447	106.06
353.674	97.06
353.901	93.06
354.128	93.06
354.355	94.06
354.583	98.06
354.81	84.06
355.037	82.06
355.264	92.06
355.491	97.06
355.718	92.06
355.945	105.06
356.172	104.06
356.399	97.06
356.626	105.06
356.853	105.06
357.08	96.06
357.307	89.06
357.534	92.06
357.761	97.06
357.988	100.06
358.215	86.06
358.441	93.06
358.668	93.06
358.895	92.06
359.122	88.06
359.349	85.06
359.576	99.06
359.802	102.06
360.029	108.06
360.256	112.06
360.483	107.06
360.709	102.06
360.936	92.06
361.163	93.06
361.39	105.06
361.616	93.06
361.843	86.06
362.07	98.06
362.296	93.06
362.523	92.06
362.749	81.06
362.976	84.06
363.203	83.06
363.429	87.06
363.656	90.06
363.882	84.06
364.109	97.06
364.335	89.06
364.562	81.06
364.788	92.06
365.015	95.06
365.241	101.06
365.468	91.06
365.694	98.06
365.92	93.06
366.147	89.06
366.373	77.06
366.599	97.06
366.826	87.06
367.052	84.06
367.278	100.06
367.505	91.06
367.731	80.06
367.957	98.06
368.184	94.06
368.41	104.06
368.636	117.06
368.862	117.06
369.089	100.06
369.315	93.06
369.541	81.06
369.767	107.06
369.993	101.06
370.219	84.06
370.445	101.06
370.672	96.06
370.898	89.06
371.124	96.06
371.35	90.06
371.576	113.06
371.802	83.06
372.028	88.06
372.254	92.06
372.48	91.06
372.706	88.06
372.932	91.06
373.158	97.06
373.384	83.06
373.61	94.06
373.835	90.06
374.061	89.06
374.287	102.06
374.513	100.06
374.739	91.06
374.965	84.06
375.191	88.06
375.416	86.06
375.642	82.06
375.868	98.06
376.094	90.06
376.319	87.06
376.545	69.06
376.771	88.06
376.997	85.06
377.222	75.06
377.448	98.06
377.674	97.06
377.899	85.06
378.125	76.06
378.35	89.06
378.576	73.06
378.802	84.06
379.027	82.06
379.253	99.06
379.478	93.06
379.704	84.06
379.929	98.06
380.155	86.06
380.38	77.06
380.606	94.06
380.831	95.06
381.057	96.06
381.282	101.06
381.507	91.06
381.733	91.06
381.958	91.06
382.184	98.06
382.409	94.06
382.634	101.06
382.86	102.06
383.085	95.06
383.31	99.06
383.535	105.06
383.761	97.06
383.986	100.06
384.211	93.06
384.436	98.06
384.662	92.06
384.887	105.06
385.112	102.06
385.337	101.06
385.562	113.06
385.787	99.06
386.013	113.06
386.238	106.06
386.463	93.06
386.688	101.06
386.913	107.06
387.138	100.06
387.363	102.06
387.588	97.06
387.813	89.06
388.038	114.06
388.263	102.06
388.488	107.06
388.713	85.06
388.938	93.06
389.163	100.06
389.387	99.06
389.612	99.06
389.837	96.06
390.062	94.06
390.287	102.06
390.512	85.06
390.736	92.06
390.961	78.06
391.186	104.06
391.411	86.06
391.636	82.06
391.86	86.06
392.085	98.06
392.31	80.06
392.534	98.06
392.759	101.06
392.984	81.06
393.208	90.06
393.433	86.06
393.658	92.06
393.882	93.06
394.107	78.06
394.331	88.06
394.556	74.06
394.78	82.06
395.005	89.06
395.229	89.06
395.454	90.06
395.678	85.06
395.903	81.06
396.127	91.06
396.352	86.06
396.576	76.06
396.801	97.06
397.025	82.06
397.249	77.06
397.474	74.06
397.698	93.06
397.922	85.06
398.147	85.06
398.371	92.06
398.595	90.06
398.82	97.06
399.044	86.06
399.268	102.06
399.492	64.06
399.717	89.06
399.941	96.06
400.165	91.06
400.389	82.06
400.613	94.06
400.837	79.06
401.062	96.06
401.286	83.06
401.51	90.06
401.734	93.06
401.958	99.06
402.182	124.06
402.406	160.06
402.63	114.06
402.854	86.06
403.078	92.06
403.302	79.06
403.526	89.06
403.75	86.06
403.974	93.06
404.198	82.06
404.422	83.06
404.645	85.06
404.869	94.06
405.093	97.06
405.317	90.06
405.541	100.06
405.765	104.06
405.988	117.06
406.212	174.06
406.436	242.06
406.66	160.06
406.883	97.06
407.107	92.06
407.331	100.06
407.555	94.06
407.778	92.06
408.002	96.06
408.226	74.06
408.449	81.06
408.673	85.06
408.896	79.06
409.12	87.06
409.344	92.06
409.567	91.06
409.791	86.06
410.014	77.06
410.238	82.06
410.461	97.06
410.685	101.06
410.908	91.06
411.132	98.06
411.355	94.06
411.578	105.06
411.802	75.06
412.025	93.06
412.249	91.06
412.472	83.06
412.695	110.06
412.919	84.06
413.142	82.06
413.365	105.06
413.589	104.06
413.812	102.06
414.035	98.06
414.258	94.06
414.482	84.06
414.705	77.06
414.928	91.06
415.151	89.06
415.374	96.06
415.597	81.06
415.821	86.06
416.044	79.06
416.267	90.06
416.49	88.06
416.713	78.06
416.936	99.06
417.159	91.06
417.382	91.06
417.605	83.06
417.828	94.06
418.051	92.06
418.274	90.06
418.497	92.06
418.72	83.06
418.943	84.06
419.166	90.06
419.389	89.06
419.611	90.06
419.834	77.06
420.057	88.06
420.28	88.06
420.503	89.06
420.726	80.06
420.948	99.06
421.171	99.06
421.394	86.06
421.617	108.06
421.839	99.06
422.062	88.06
422.285	88.06
422.507	98.06
422.73	86.06
422.953	90.06
423.175	85.06
423.398	86.06
423.621	92.06
423.843	85.06
424.066	89.06
424.288	81.06
424.511	88.06
424.733	85.06
424.956	101.06
425.178	102.06
425.401	92.06
425.623	105.06
425.846	82.06
426.068	96.06
426.291	86.06
426.513	101.06
426.735	102.06
426.958	83.06
427.18	109.06
427.402	128.06
427.625	157.06
427.847	122.06
428.069	104.06
428.292	91.06
428.514	68.06
428.736	93.06
428.958	88.06
429.181	85.06
429.403	79.06
429.625	88.06
429.847	85.06
430.069	105.06
430.292	74.06
430.514	83.06
430.736	78.06
430.958	85.06
431.18	75.06
431.402	75.06
431.624	80.06
431.846	88.06
432.068	93.06
432.29	80.06
432.512	96.06
432.734	76.06
432.956	92.06
433.178	101.06
433.4	94.06
433.622	81.06
433.844	92.06
434.066	92.06
434.287	76.06
434.509	77.06
434.731	92.06
434.953	94.06
435.175	94.06
435.397	79.06
435.618	82.06
435.84	99.06
436.062	143.06
436.284	100.06
436.505	112.06
436.727	125.06
436.949	94.06
437.17	98.06
437.392	93.06
437.614	93.06
437.835	108.06
438.057	122.06
438.278	113.06
438.5	109.06
438.721	119.06
438.943	101.06
439.165	98.06
439.386	82.06
439.608	87.06
439.829	100.06
440.05	126.06
440.272	158.06
440.493	97.06
440.715	106.06
440.936	96.06
441.158	101.06
441.379	101.06
441.6	81.06
441.822	77.06
442.043	90.06
442.264	109.06
442.486	97.06
442.707	81.06
442.928	103.06
443.149	132.06
443.371	138.06
443.592	110.06
443.813	116.06
444.034	120.06
444.255	98.06
444.476	76.06
444.698	93.06
444.919	97.06
445.14	116.06
445.361	113.06
445.582	120.06
445.803	138.06
446.024	140.06
446.245	125.06
446.466	106.06
446.687	94.06
446.908	80.06
447.129	104.06
447.35	84.06
447.571	89.06
447.792	78.06
448.013	115.06
448.234	122.06
448.455	105.06
448.675	117.06
448.896	111.06
449.117	120.06
449.338	111.06
449.559	120.06
449.779	135.06
450	94.06
450.221	95.06
450.442	84.06
450.662	83.06
450.883	101.06
451.104	104.06
451.324	88.06
451.545	99.06
451.766	89.06
451.986	91.06
452.207	88.06
452.428	84.06
452.648	92.06
452.869	110.06
453.089	107.06
453.31	117.06
453.53	96.06
453.751	111.06
453.971	99.06
454.192	108.06
454.412	90.06
454.633	84.06
454.853	90.06
455.073	85.06
455.294	80.06
455.514	90.06
455.734	78.06
455.955	92.06
456.175	100.06
456.395	104.06
456.616	92.06
456.836	84.06
457.056	85.06
457.276	85.06
457.497	89.06
457.717	97.06
457.937	86.06
458.157	96.06
458.377	96.06
458.598	126.06
458.818	154.06
459.038	173.06
459.258	118.06
459.478	100.06
459.698	88.06
459.918	97.06
460.138	100.06
460.358	88.06
460.578	82.06
460.798	96.06
461.018	101.06
461.238	88.06
461.458	99.06
461.678	89.06
461.898	84.06
462.118	94.06
462.338	96.06
462.558	86.06
462.777	85.06
462.997	90.06
463.217	91.06
463.437	90.06
463.657	81.06
463.876	81.06
464.096	86.06
464.316	98.06
464.536	99.06
464.755	102.06
464.975	111.06
465.195	177.06
465.414	166.06
465.634	97.06
465.854	91.06
466.073	89.06
466.293	74.06
466.512	85.06
466.732	107.06
466.951	81.06
467.171	79.06
467.391	100.06
467.61	99.06
467.829	91.06
468.049	91.06
468.268	69.06
468.488	78.06
468.707	84.06
468.927	84.06
469.146	92.06
469.365	79.06
469.585	90.06
469.804	103.06
470.023	98.06
470.243	93.06
470.462	102.06
470.681	113.06
470.901	100.06
471.12	101.06
471.339	77.06
471.558	80.06
471.777	94.06
471.997	92.06
472.216	83.06
472.435	94.06
472.654	72.06
472.873	78.06
473.092	83.06
473.311	90.06
473.53	93.06
473.749	81.06
473.968	101.06
474.187	112.06
474.406	117.06
474.625	75.06
474.844	89.06
475.063	85.06
475.282	74.06
475.501	84.06
475.72	84.06
475.939	104.06
476.158	89.06
476.377	82.06
476.596	82.06
476.814	94.06
477.033	76.06
477.252	100.06
477.471	89.06
477.69	83.06
477.908	93.06
478.127	85.06
478.346	75.06
478.564	71.06
478.783	97.06
479.002	85.06
479.22	86.06
479.439	108.06
479.658	110.06
479.876	95.06
480.095	94.06
480.313	100.06
480.532	94.06
480.751	90.06
480.969	97.06
481.188	95.06
481.406	85.06
481.624	92.06
481.843	89.06
482.061	91.06
482.28	81.06
482.498	92.06
482.717	102.06
482.935	87.06
483.153	81.06
483.372	96.06
483.59	104.06
483.808	98.06
484.027	91.06
484.245	82.06
484.463	73.06
484.681	89.06
484.9	78.06
485.118	97.06
485.336	93.06
485.554	85.06
485.772	86.06
485.99	103.06
486.209	85.06
486.427	95.06
486.645	110.06
486.863	107.06
487.081	111.06
487.299	102.06
487.517	106.06
487.735	85.06
487.953	89.06
488.171	89.06
488.389	108.06
488.607	117.06
488.825	86.06
489.043	81.06
489.261	97.06
489.479	107.06
489.696	92.06
489.914	81.06
490.132	79.06
490.35	95.06
490.568	86.06
490.786	87.06
491.003	76.06
491.221	97.06
491.439	93.06
491.657	84.06
491.874	91.06
492.092	92.06
492.31	82.06
492.527	84.06
492.745	87.06
492.963	95.06
493.18	78.06
493.398	95.06
493.615	86.06
493.833	83.06
494.05	74.06
494.268	92.06
494.485	84.06
494.703	81.06
494.92	90.06
495.138	77.06
495.355	98.06
495.573	75.06
495.79	92.06
496.008	99.06
496.225	83.06
496.442	99.06
496.66	103.06
496.877	92.06
497.094	92.06
497.312	74.06
497.529	75.06
497.746	83.06
497.963	72.06
498.181	88.06
498.398	105.06
498.615	110.06
498.832	107.06
499.049	91.06
499.267	93.06
499.484	88.06
499.701	90.06
499.918	90.06
500.135	93.06
500.352	88.06
500.569	85.06
500.786	92.06
501.003	86.06
501.22	93.06
501.437	102.06
501.654	100.06
501.871	113.06
502.088	97.06
502.305	92.06
502.522	100.06
502.739	79.06
502.956	108.06
503.172	81.06
503.389	95.06
503.606	110.06
503.823	106.06
504.04	96.06
504.256	94.06
504.473	92.06
504.69	86.06
504.907	80.06
505.123	86.06
505.34	89.06
505.557	97.06
505.773	105.06
505.99	95.06
506.207	89.06
506.423	85.06
506.64	85.06
506.856	81.06
507.073	94.06
507.289	93.06
507.506	94.06
507.722	99.06
507.939	116.06
508.155	87.06
508.372	83.06
508.588	93.06
508.805	91.06
509.021	100.06
509.238	104.06
509.454	91.06
509.67	96.06
509.887	122.06
510.103	132.06
510.319	239.06
510.536	821.06
510.752	2658.06
510.968	740.06
511.184	165.06
511.401	118.06
511.617	93.06
511.833	93.06
512.049	84.06
512.265	85.06
512.481	97.06
512.698	91.06
512.914	103.06
513.13	95.06
513.346	83.06
513.562	82.06
513.778	106.06
513.994	100.06
514.21	105.06
514.426	140.06
514.642	146.06
514.858	156.06
515.074	167.06
515.29	464.06
515.506	1646.06
