Data from Uncirc_2007_H10_HRD10591_00005.txt Node
Date: Wed Jan 03 10:20:43 EST 2024
User: Yrep
Spectrometer: HR+D1059
Trigger mode: 1
Integration Time (sec): 1.000000E-1
Scans to average: 1
Electric dark correction enabled: true
Nonlinearity correction enabled: false
Boxcar width: 0
XAxis mode: Wavelengths
Number of Pixels in Spectrum: 2048
>>>>>Begin Spectral Data<<<<<
223.165	-26.94
223.4	-26.94
223.635	-26.94
223.869	-9.94
224.104	-20.94
224.338	-14.94
224.573	-10.94
224.808	-2.94
225.042	-9.94
225.277	-3.94
225.511	0.06
225.746	2.06
225.98	8.06
226.215	2.06
226.449	19.06
226.683	18.06
226.918	30.06
227.152	21.06
227.387	36.06
227.621	46.06
227.856	53.06
228.09	51.06
228.324	41.06
228.559	63.06
228.793	166.06
229.027	450.06
229.262	536.06
229.496	619.06
229.73	848.06
229.964	872.06
230.199	579.06
230.433	499.06
230.667	474.06
230.901	472.06
231.136	433.06
231.37	475.06
231.604	453.06
231.838	480.06
232.072	478.06
232.306	475.06
232.541	476.06
232.775	480.06
233.009	462.06
233.243	486.06
233.477	489.06
233.711	495.06
233.945	517.06
234.179	530.06
234.413	526.06
234.647	521.06
234.881	521.06
235.115	528.06
235.349	563.06
235.583	572.06
235.817	604.06
236.051	628.06
236.285	602.06
236.519	625.06
236.753	713.06
236.987	956.06
237.221	1419.06
237.455	1582.06
237.689	954.06
237.922	753.06
238.156	739.06
238.39	674.06
238.624	672.06
238.858	646.06
239.091	666.06
239.325	661.06
239.559	682.06
239.793	703.06
240.027	766.06
240.26	930.06
240.494	990.06
240.728	1000.06
240.961	913.06
241.195	846.06
241.429	793.06
241.662	781.06
241.896	788.06
242.13	782.06
242.363	773.06
242.597	796.06
242.83	845.06
243.064	842.06
243.298	849.06
243.531	842.06
243.765	856.06
243.998	867.06
244.232	854.06
244.465	877.06
244.699	946.06
244.932	927.06
245.166	925.06
245.399	962.06
245.633	925.06
245.866	935.06
246.099	933.06
246.333	936.06
246.566	1001.06
246.8	989.06
247.033	994.06
247.266	1090.06
247.5	1120.06
247.733	1217.06
247.966	1176.06
248.2	1170.06
248.433	1196.06
248.666	1269.06
248.899	1402.06
249.133	1506.06
249.366	1468.06
249.599	1346.06
249.832	1247.06
250.066	1189.06
250.299	1252.06
250.532	1393.06
250.765	1558.06
250.998	1722.06
251.231	1668.06
251.465	1566.06
251.698	1462.06
251.931	1427.06
252.164	1426.06
252.397	1469.06
252.63	1517.06
252.863	1584.06
253.096	1717.06
253.329	1827.06
253.562	1709.06
253.795	1613.06
254.028	1556.06
254.261	1646.06
254.494	1897.06
254.727	2261.06
254.96	2314.06
255.193	2009.06
255.426	1807.06
255.659	1672.06
255.892	1588.06
256.124	1572.06
256.357	1545.06
256.59	1490.06
256.823	1530.06
257.056	1499.06
257.289	1537.06
257.521	1587.06
257.754	1580.06
257.987	1540.06
258.22	1548.06
258.452	1568.06
258.685	1563.06
258.918	1577.06
259.151	1680.06
259.383	1732.06
259.616	1732.06
259.849	1837.06
260.081	1948.06
260.314	2176.06
260.547	2079.06
260.779	1903.06
261.012	1815.06
261.244	1742.06
261.477	1733.06
261.71	1736.06
261.942	1763.06
262.175	1806.06
262.407	1712.06
262.64	1659.06
262.872	1660.06
263.105	1688.06
263.337	1661.06
263.57	1676.06
263.802	1709.06
264.035	1676.06
264.267	1704.06
264.499	1714.06
264.732	1705.06
264.964	1721.06
265.197	1737.06
265.429	1762.06
265.661	1733.06
265.894	1738.06
266.126	1736.06
266.358	1763.06
266.591	1801.06
266.823	1915.06
267.055	1932.06
267.287	1901.06
267.52	1847.06
267.752	1870.06
267.984	1884.06
268.216	1931.06
268.448	1994.06
268.681	2049.06
268.913	2211.06
269.145	2395.06
269.377	2444.06
269.609	2370.06
269.841	2311.06
270.073	2453.06
270.306	2758.06
270.538	2903.06
270.77	2752.06
271.002	2565.06
271.234	2552.06
271.466	2693.06
271.698	2820.06
271.93	2885.06
272.162	2899.06
272.394	2762.06
272.626	2568.06
272.858	2469.06
273.09	2370.06
273.322	2293.06
273.553	2279.06
273.785	2323.06
274.017	2257.06
274.249	2321.06
274.481	2354.06
274.713	2314.06
274.945	2327.06
275.176	2320.06
275.408	2302.06
275.64	2313.06
275.872	2286.06
276.104	2308.06
276.335	2354.06
276.567	2454.06
276.799	2612.06
277.031	2843.06
277.262	2968.06
277.494	2844.06
277.726	2614.06
277.957	2547.06
278.189	2466.06
278.421	2428.06
278.652	2431.06
278.884	2438.06
279.115	2395.06
279.347	2418.06
279.579	2374.06
279.81	2415.06
280.042	2414.06
280.273	2464.06
280.505	2427.06
280.736	2442.06
280.968	2467.06
281.199	2462.06
281.431	2504.06
281.662	2543.06
281.894	2509.06
282.125	2565.06
282.356	2753.06
282.588	2895.06
282.819	2692.06
283.051	2564.06
283.282	2542.06
283.513	2643.06
283.745	2675.06
283.976	2686.06
284.207	2743.06
284.439	2681.06
284.67	2715.06
284.901	2646.06
285.132	2720.06
285.364	2652.06
285.595	2669.06
285.826	2705.06
286.057	2686.06
286.288	2746.06
286.52	2741.06
286.751	2746.06
286.982	2774.06
287.213	2756.06
287.444	2824.06
287.675	2855.06
287.906	2973.06
288.138	2997.06
288.369	2994.06
288.6	3005.06
288.831	2896.06
289.062	2882.06
289.293	2857.06
289.524	2923.06
289.755	2821.06
289.986	2832.06
290.217	2839.06
290.448	2849.06
290.679	2927.06
290.91	2838.06
291.141	2828.06
291.371	2895.06
291.602	2889.06
291.833	2868.06
292.064	2868.06
292.295	2883.06
292.526	2861.06
292.757	2892.06
292.987	2891.06
293.218	2838.06
293.449	2909.06
293.68	2867.06
293.91	2867.06
294.141	2881.06
294.372	2867.06
294.603	2935.06
294.833	2922.06
295.064	2948.06
295.295	2928.06
295.525	2963.06
295.756	3016.06
295.987	3091.06
296.217	3252.06
296.448	3155.06
296.679	3007.06
296.909	2987.06
297.14	3020.06
297.37	3076.06
297.601	3141.06
297.831	3081.06
298.062	3097.06
298.292	3122.06
298.523	3201.06
298.753	3197.06
298.984	3154.06
299.214	3154.06
299.445	3178.06
299.675	3183.06
299.905	3224.06
300.136	3172.06
300.366	3240.06
300.597	3249.06
300.827	3322.06
301.057	3422.06
301.288	3461.06
301.518	3445.06
301.748	3405.06
301.979	3528.06
302.209	3482.06
302.439	3461.06
302.669	3481.06
302.9	3394.06
303.13	3351.06
303.36	3414.06
303.59	3385.06
303.82	3460.06
304.051	3435.06
304.281	3403.06
304.511	3364.06
304.741	3339.06
304.971	3362.06
305.201	3373.06
305.431	3379.06
305.661	3385.06
305.891	3330.06
306.121	3357.06
306.352	3365.06
306.582	3403.06
306.812	3313.06
307.042	3368.06
307.272	3361.06
307.502	3352.06
307.731	3356.06
307.961	3364.06
308.191	3301.06
308.421	3321.06
308.651	3426.06
308.881	3392.06
309.111	3463.06
309.341	3447.06
309.571	3534.06
309.8	3636.06
310.03	3614.06
310.26	3691.06
310.49	3635.06
310.72	3781.06
310.949	3876.06
311.179	3788.06
311.409	3697.06
311.639	3728.06
311.868	3761.06
312.098	3814.06
312.328	3880.06
312.557	4041.06
312.787	4053.06
313.017	3953.06
313.246	3791.06
313.476	3808.06
313.706	3866.06
313.935	3926.06
314.165	4059.06
314.394	4041.06
314.624	4021.06
314.853	3886.06
315.083	3840.06
315.312	3823.06
315.542	3792.06
315.771	3743.06
316.001	3742.06
316.23	3763.06
316.46	3772.06
316.689	3825.06
316.919	3860.06
317.148	3852.06
317.377	3848.06
317.607	3864.06
317.836	3768.06
318.065	3725.06
318.295	3760.06
318.524	3765.06
318.753	3746.06
318.983	3773.06
319.212	3704.06
319.441	3835.06
319.67	3771.06
319.9	3704.06
320.129	3723.06
320.358	3767.06
320.587	3844.06
320.816	3908.06
321.046	3945.06
321.275	3916.06
321.504	3968.06
321.733	3919.06
321.962	4026.06
322.191	4150.06
322.42	4235.06
322.649	4291.06
322.878	4378.06
323.108	4421.06
323.337	4652.06
323.566	4820.06
323.795	5152.06
324.024	5822.06
324.253	7537.06
324.482	11422.06
324.71	15606.06
324.939	15606.06
325.168	13445.06
325.397	6751.06
325.626	5416.06
325.855	4940.06
326.084	4828.06
326.313	4903.06
326.542	5053.06
326.77	5713.06
326.999	7412.06
327.228	10725.06
327.457	14771.06
327.686	14098.06
327.914	7589.06
328.143	6017.06
328.372	5535.06
328.6	5259.06
328.829	5313.06
329.058	5528.06
329.287	5411.06
329.515	5054.06
329.744	4899.06
329.972	4838.06
330.201	4904.06
330.43	5221.06
330.658	5505.06
330.887	5904.06
331.115	5450.06
331.344	5097.06
331.572	4975.06
331.801	5060.06
332.03	5086.06
332.258	5020.06
332.486	5045.06
332.715	5180.06
332.943	5282.06
333.172	5424.06
333.4	5549.06
333.629	5632.06
333.857	5715.06
334.085	5631.06
334.314	5426.06
334.542	5434.06
334.771	5395.06
334.999	5339.06
335.227	5244.06
335.455	5198.06
335.684	5101.06
335.912	5078.06
336.14	5041.06
336.369	5060.06
336.597	5170.06
336.825	5105.06
337.053	5005.06
337.281	4884.06
337.51	4828.06
337.738	4812.06
337.966	4795.06
338.194	4783.06
338.422	4762.06
338.65	4691.06
338.878	4670.06
339.106	4632.06
339.334	4587.06
339.562	4520.06
339.79	4502.06
340.018	4540.06
340.246	4533.06
340.474	4527.06
340.702	4488.06
340.93	4544.06
341.158	4531.06
341.386	4514.06
341.614	4563.06
341.842	4466.06
342.07	4459.06
342.298	4440.06
342.526	4472.06
342.754	4420.06
342.981	4346.06
343.209	4546.06
343.437	4787.06
343.665	5027.06
343.893	5251.06
344.12	5250.06
344.348	5114.06
344.576	4902.06
344.804	4867.06
345.031	4718.06
345.259	4665.06
345.487	4510.06
345.714	4447.06
345.942	4402.06
346.17	4286.06
346.397	4265.06
346.625	4368.06
346.853	4300.06
347.08	4321.06
347.308	4365.06
347.535	4432.06
347.763	4452.06
347.99	4360.06
348.218	4402.06
348.445	4439.06
348.673	4341.06
348.9	4280.06
349.128	4214.06
349.355	4237.06
349.583	4166.06
349.81	4183.06
350.037	4105.06
350.265	4127.06
350.492	4181.06
350.72	4170.06
350.947	4254.06
351.174	4283.06
351.402	4286.06
351.629	4305.06
351.856	4256.06
352.083	4393.06
352.311	4344.06
352.538	4290.06
352.765	4288.06
352.992	4213.06
353.22	4242.06
353.447	4191.06
353.674	4124.06
353.901	4084.06
354.128	4074.06
354.355	4075.06
354.583	4086.06
354.81	4056.06
355.037	4021.06
355.264	4070.06
355.491	4036.06
355.718	4034.06
355.945	4042.06
356.172	4027.06
356.399	4028.06
356.626	3999.06
356.853	4118.06
357.08	4098.06
357.307	4040.06
357.534	4092.06
357.761	4061.06
357.988	4050.06
358.215	4066.06
358.441	4103.06
358.668	4085.06
358.895	4178.06
359.122	4220.06
359.349	4277.06
359.576	4421.06
359.802	4550.06
360.029	4777.06
360.256	4695.06
360.483	4541.06
360.709	4334.06
360.936	4269.06
361.163	4290.06
361.39	4341.06
361.616	4314.06
361.843	4264.06
362.07	4316.06
362.296	4320.06
362.523	4281.06
362.749	4278.06
362.976	4206.06
363.203	4140.06
363.429	4147.06
363.656	4126.06
363.882	4160.06
364.109	4172.06
364.335	4082.06
364.562	4160.06
364.788	4100.06
365.015	4170.06
365.241	4219.06
365.468	4190.06
365.694	4257.06
365.92	4192.06
366.147	4192.06
366.373	4176.06
366.599	4127.06
366.826	4081.06
367.052	4055.06
367.278	4110.06
367.505	4144.06
367.731	4218.06
367.957	4130.06
368.184	4206.06
368.41	4338.06
368.636	4395.06
368.862	4364.06
369.089	4335.06
369.315	4218.06
369.541	4248.06
369.767	4226.06
369.993	4262.06
370.219	4273.06
370.445	4276.06
370.672	4326.06
370.898	4360.06
371.124	4384.06
371.35	4421.06
371.576	4429.06
371.802	4403.06
372.028	4350.06
372.254	4413.06
372.48	4488.06
372.706	4551.06
372.932	4607.06
373.158	4508.06
373.384	4522.06
373.61	4385.06
373.835	4391.06
374.061	4447.06
374.287	4564.06
374.513	4614.06
374.739	4707.06
374.965	4863.06
375.191	4829.06
375.416	4747.06
375.642	4649.06
375.868	4590.06
376.094	4501.06
376.319	4450.06
376.545	4490.06
376.771	4433.06
376.997	4463.06
377.222	4491.06
377.448	4373.06
377.674	4377.06
377.899	4390.06
378.125	4417.06
378.35	4374.06
378.576	4376.06
378.802	4351.06
379.027	4368.06
379.253	4424.06
379.478	4365.06
379.704	4358.06
379.929	4408.06
380.155	4412.06
380.38	4419.06
380.606	4504.06
380.831	4423.06
381.057	4413.06
381.282	4485.06
381.507	4415.06
381.733	4516.06
381.958	4544.06
382.184	4557.06
382.409	4656.06
382.634	4628.06
382.86	4650.06
383.085	4753.06
383.31	4828.06
383.535	4794.06
383.761	4844.06
383.986	5018.06
384.211	5120.06
384.436	5156.06
384.662	5169.06
384.887	5245.06
385.112	5324.06
385.337	5318.06
385.562	5387.06
385.787	5398.06
386.013	5413.06
386.238	5430.06
386.463	5450.06
386.688	5389.06
386.913	5257.06
387.138	5289.06
387.363	5281.06
387.588	5184.06
387.813	5241.06
388.038	5292.06
388.263	5342.06
388.488	5341.06
388.713	5277.06
388.938	5260.06
389.163	5250.06
389.387	5250.06
389.612	5180.06
389.837	5158.06
390.062	5132.06
390.287	5200.06
390.512	5209.06
390.736	5301.06
390.961	5298.06
391.186	5437.06
391.411	5608.06
391.636	5742.06
391.86	5876.06
392.085	5957.06
392.31	5824.06
392.534	5721.06
392.759	5608.06
392.984	5538.06
393.208	5505.06
393.433	5473.06
393.658	5450.06
393.882	5500.06
394.107	5539.06
394.331	5512.06
394.556	5632.06
394.78	5700.06
395.005	5658.06
395.229	5698.06
395.454	5845.06
395.678	5991.06
395.903	5965.06
396.127	5989.06
396.352	5831.06
396.576	5611.06
396.801	5624.06
397.025	5714.06
397.249	5809.06
397.474	5900.06
397.698	5884.06
397.922	6099.06
398.147	6260.06
398.371	6331.06
398.595	6477.06
398.82	6664.06
399.044	7219.06
399.268	8065.06
399.492	9155.06
399.717	9862.06
399.941	9616.06
400.165	8982.06
400.389	8308.06
400.613	7468.06
400.837	7027.06
401.062	6844.06
401.286	6730.06
401.51	6648.06
401.734	6664.06
401.958	6850.06
402.182	6896.06
402.406	7054.06
402.63	7044.06
402.854	7162.06
403.078	7258.06
403.302	7350.06
403.526	7509.06
403.75	7533.06
403.974	7519.06
404.198	7616.06
404.422	7660.06
404.645	7495.06
404.869	7416.06
405.093	7565.06
405.317	7680.06
405.541	7649.06
405.765	7390.06
405.988	7398.06
406.212	7624.06
406.436	7850.06
406.66	7984.06
406.883	7938.06
407.107	8717.06
407.331	9049.06
407.555	9674.06
407.778	9279.06
408.002	8454.06
408.226	8105.06
408.449	8002.06
408.673	7893.06
408.896	8012.06
409.12	8197.06
409.344	7784.06
409.567	7391.06
409.791	7334.06
410.014	7229.06
410.238	7033.06
410.461	7201.06
410.685	7235.06
410.908	7355.06
411.132	7552.06
411.355	7553.06
411.578	7243.06
411.802	6924.06
412.025	6936.06
412.249	6896.06
412.472	6883.06
412.695	6750.06
412.919	6608.06
413.142	6618.06
413.365	6519.06
413.589	6643.06
413.812	6473.06
414.035	6458.06
414.258	6493.06
414.482	6450.06
414.705	6662.06
414.928	6545.06
415.151	6472.06
415.374	6525.06
415.597	6501.06
415.821	6405.06
416.044	6407.06
416.267	6432.06
416.49	6405.06
416.713	6401.06
416.936	6473.06
417.159	6509.06
417.382	6523.06
417.605	6474.06
417.828	6667.06
418.051	6837.06
418.274	6738.06
418.497	6586.06
418.72	6744.06
418.943	6598.06
419.166	7115.06
419.389	7422.06
419.611	7251.06
419.834	7109.06
420.057	6965.06
420.28	6804.06
420.503	6547.06
420.726	6648.06
420.948	6853.06
421.171	7291.06
421.394	7236.06
421.617	6767.06
421.839	6632.06
422.062	6778.06
422.285	6919.06
422.507	7772.06
422.73	8224.06
422.953	7538.06
423.175	7192.06
423.398	7198.06
423.621	7125.06
423.843	7432.06
424.066	7413.06
424.288	7335.06
424.511	7630.06
424.733	7994.06
424.956	8493.06
425.178	8024.06
425.401	8248.06
425.623	8037.06
425.846	7066.06
426.068	6874.06
426.291	6738.06
426.513	6728.06
426.735	6897.06
426.958	7401.06
427.18	8142.06
427.402	9342.06
427.625	9378.06
427.847	7896.06
428.069	6896.06
428.292	6612.06
428.514	6234.06
428.736	6264.06
428.958	6173.06
429.181	5977.06
429.403	5938.06
429.625	6194.06
429.847	6503.06
430.069	7141.06
430.292	6570.06
430.514	6058.06
430.736	6039.06
430.958	5969.06
431.18	5874.06
431.402	5875.06
431.624	5829.06
431.846	5883.06
432.068	5940.06
432.29	5980.06
432.512	5908.06
432.734	5944.06
432.956	5912.06
433.178	5979.06
433.4	5973.06
433.622	5799.06
433.844	5950.06
434.066	5969.06
434.287	6047.06
434.509	6277.06
434.731	6490.06
434.953	6753.06
435.175	6766.06
435.397	6912.06
435.618	6868.06
435.84	7236.06
436.062	8104.06
436.284	8096.06
436.505	6842.06
436.727	6436.06
436.949	6120.06
437.17	6037.06
437.392	6036.06
437.614	6180.06
437.835	6590.06
438.057	7584.06
438.278	8206.06
438.5	8176.06
438.721	9070.06
438.943	7931.06
439.165	6642.06
439.386	6426.06
439.608	6513.06
439.829	6590.06
440.05	6959.06
440.272	7310.06
440.493	6666.06
440.715	6436.06
440.936	6282.06
441.158	6294.06
441.379	6441.06
441.6	6799.06
441.822	7101.06
442.043	7477.06
442.264	8445.06
442.486	8011.06
442.707	7200.06
442.928	7002.06
443.149	7187.06
443.371	7409.06
443.592	7979.06
443.813	8974.06
444.034	8853.06
444.255	7734.06
444.476	7608.06
444.698	7680.06
444.919	7867.06
445.14	7639.06
445.361	7460.06
445.582	7649.06
445.803	8323.06
446.024	8994.06
446.245	8685.06
446.466	7734.06
446.687	6676.06
446.908	6396.06
447.129	6012.06
447.35	5895.06
447.571	5889.06
447.792	5699.06
448.013	5845.06
448.234	6099.06
448.455	6726.06
448.675	8021.06
448.896	8506.06
449.117	6969.06
449.338	7169.06
449.559	8541.06
449.779	8736.06
450	6715.06
450.221	6017.06
450.442	5646.06
450.662	5650.06
450.883	5706.06
451.104	5870.06
451.324	5765.06
451.545	5547.06
451.766	5373.06
451.986	5322.06
452.207	5220.06
452.428	5186.06
452.648	5163.06
452.869	5319.06
453.089	5320.06
453.31	5494.06
453.53	5275.06
453.751	5108.06
453.971	5217.06
454.192	5300.06
454.412	5174.06
454.633	5061.06
454.853	5103.06
455.073	5185.06
455.294	5627.06
455.514	6127.06
455.734	5556.06
455.955	5042.06
456.175	4916.06
456.395	4812.06
456.616	4757.06
456.836	4792.06
457.056	4783.06
457.276	4704.06
457.497	4868.06
457.717	4892.06
457.937	4923.06
458.157	4994.06
458.377	5086.06
458.598	5484.06
458.818	6247.06
459.038	7087.06
459.258	6970.06
459.478	6160.06
459.698	5959.06
459.918	6044.06
460.138	6206.06
460.358	6460.06
460.578	6394.06
460.798	6575.06
461.018	6572.06
461.238	6456.06
461.458	6380.06
461.678	6350.06
461.898	6485.06
462.118	6578.06
462.338	6859.06
462.558	6992.06
462.777	7299.06
462.997	8010.06
463.217	8318.06
463.437	8126.06
463.657	7513.06
463.876	7316.06
464.096	7387.06
464.316	7364.06
464.536	7404.06
464.755	7123.06
464.975	7036.06
465.195	7218.06
465.414	7232.06
465.634	6481.06
465.854	6080.06
466.073	5874.06
466.293	5647.06
466.512	5426.06
466.732	5280.06
466.951	5422.06
467.171	5422.06
467.391	5480.06
467.61	5520.06
467.829	5416.06
468.049	5362.06
468.268	5200.06
468.488	5122.06
468.707	5029.06
468.927	5128.06
469.146	5130.06
469.365	5151.06
469.585	5215.06
469.804	5387.06
470.023	5658.06
470.243	5624.06
470.462	5724.06
470.681	5770.06
470.901	5624.06
471.12	5549.06
471.339	5442.06
471.558	5437.06
471.777	5271.06
471.997	5231.06
472.216	5134.06
472.435	5111.06
472.654	5038.06
472.873	5052.06
473.092	5085.06
473.311	5089.06
473.53	5029.06
473.749	5230.06
473.968	5828.06
474.187	7002.06
474.406	6484.06
474.625	5493.06
474.844	5224.06
475.063	5207.06
475.282	5109.06
475.501	5219.06
475.72	5298.06
475.939	5297.06
476.158	5288.06
476.377	5312.06
476.596	5322.06
476.814	5416.06
477.033	5521.06
477.252	5557.06
477.471	5609.06
477.69	5777.06
477.908	5958.06
478.127	6093.06
478.346	6146.06
478.564	6285.06
478.783	6313.06
479.002	6435.06
479.22	6560.06
479.439	6581.06
479.658	6687.06
479.876	6757.06
480.095	7036.06
480.313	7357.06
480.532	7229.06
480.751	7119.06
480.969	7001.06
481.188	6792.06
481.406	6619.06
481.624	6454.06
481.843	6226.06
482.061	6152.06
482.28	6123.06
482.498	6027.06
482.717	6036.06
482.935	6029.06
483.153	6028.06
483.372	6064.06
483.59	5984.06
483.808	6024.06
484.027	5991.06
484.245	6118.06
484.463	6164.06
484.681	6186.06
484.9	6234.06
485.118	6227.06
485.336	6368.06
485.554	6419.06
485.772	6536.06
485.99	6486.06
486.209	6453.06
486.427	6569.06
486.645	6571.06
486.863	6664.06
487.081	6547.06
487.299	6461.06
487.517	6482.06
487.735	6414.06
487.953	6464.06
