Data from Uncirc_2007_H10_HRD10591_00081.txt Node
Date: Wed Jan 03 10:20:58 EST 2024
User: Yrep
Spectrometer: HR+D1059
Trigger mode: 1
Integration Time (sec): 1.000000E-1
Scans to average: 1
Electric dark correction enabled: true
Nonlinearity correction enabled: false
Boxcar width: 0
XAxis mode: Wavelengths
Number of Pixels in Spectrum: 2048
>>>>>Begin Spectral Data<<<<<
223.165	-19.19
223.4	-19.19
223.635	-19.19
223.869	-18.19
224.104	-21.19
224.338	-8.19
224.573	-11.19
224.808	-5.19
225.042	2.81
225.277	-4.19
225.511	-7.19
225.746	-1.19
225.98	2.81
226.215	19.81
226.449	10.81
226.683	17.81
226.918	12.81
227.152	28.81
227.387	28.81
227.621	33.81
227.856	33.81
228.09	50.81
228.324	41.81
228.559	59.81
228.793	52.81
229.027	58.81
229.262	58.81
229.496	63.81
229.73	88.81
229.964	78.81
230.199	74.81
230.433	75.81
230.667	76.81
230.901	84.81
231.136	85.81
231.37	85.81
231.604	68.81
231.838	72.81
232.072	75.81
232.306	88.81
232.541	71.81
232.775	72.81
233.009	75.81
233.243	67.81
233.477	81.81
233.711	83.81
233.945	65.81
234.179	71.81
234.413	91.81
234.647	73.81
234.881	72.81
235.115	80.81
235.349	64.81
235.583	89.81
235.817	80.81
236.051	67.81
236.285	83.81
236.519	85.81
236.753	76.81
236.987	70.81
237.221	71.81
237.455	88.81
237.689	70.81
237.922	61.81
238.156	71.81
238.39	66.81
238.624	68.81
238.858	79.81
239.091	83.81
239.325	65.81
239.559	70.81
239.793	83.81
240.027	80.81
240.26	87.81
240.494	72.81
240.728	66.81
240.961	77.81
241.195	80.81
241.429	74.81
241.662	72.81
241.896	70.81
242.13	84.81
242.363	84.81
242.597	69.81
242.83	80.81
243.064	60.81
243.298	85.81
243.531	66.81
243.765	76.81
243.998	95.81
244.232	78.81
244.465	69.81
244.699	71.81
244.932	72.81
245.166	90.81
245.399	70.81
245.633	70.81
245.866	71.81
246.099	72.81
246.333	78.81
246.566	81.81
246.8	78.81
247.033	82.81
247.266	77.81
247.5	75.81
247.733	73.81
247.966	82.81
248.2	84.81
248.433	76.81
248.666	68.81
248.899	96.81
249.133	91.81
249.366	94.81
249.599	97.81
249.832	91.81
250.066	84.81
250.299	80.81
250.532	74.81
250.765	61.81
250.998	65.81
251.231	62.81
251.465	81.81
251.698	80.81
251.931	75.81
252.164	83.81
252.397	87.81
252.63	83.81
252.863	75.81
253.096	90.81
253.329	70.81
253.562	72.81
253.795	67.81
254.028	79.81
254.261	88.81
254.494	72.81
254.727	80.81
254.96	75.81
255.193	76.81
255.426	84.81
255.659	84.81
255.892	84.81
256.124	76.81
256.357	93.81
256.59	87.81
256.823	87.81
257.056	69.81
257.289	72.81
257.521	80.81
257.754	78.81
257.987	76.81
258.22	78.81
258.452	79.81
258.685	72.81
258.918	72.81
259.151	81.81
259.383	82.81
259.616	59.81
259.849	65.81
260.081	81.81
260.314	87.81
260.547	69.81
260.779	88.81
261.012	90.81
261.244	73.81
261.477	91.81
261.71	90.81
261.942	92.81
262.175	111.81
262.407	89.81
262.64	75.81
262.872	90.81
263.105	74.81
263.337	80.81
263.57	84.81
263.802	81.81
264.035	72.81
264.267	87.81
264.499	81.81
264.732	92.81
264.964	82.81
265.197	87.81
265.429	84.81
265.661	88.81
265.894	67.81
266.126	76.81
266.358	76.81
266.591	87.81
266.823	76.81
267.055	88.81
267.287	96.81
267.52	71.81
267.752	67.81
267.984	81.81
268.216	88.81
268.448	92.81
268.681	85.81
268.913	86.81
269.145	99.81
269.377	91.81
269.609	88.81
269.841	91.81
270.073	70.81
270.306	74.81
270.538	79.81
270.77	87.81
271.002	79.81
271.234	87.81
271.466	77.81
271.698	77.81
271.93	70.81
272.162	80.81
272.394	67.81
272.626	98.81
272.858	79.81
273.09	85.81
273.322	81.81
273.553	70.81
273.785	76.81
274.017	86.81
274.249	88.81
274.481	76.81
274.713	84.81
274.945	81.81
275.176	88.81
275.408	98.81
275.64	84.81
275.872	92.81
276.104	96.81
276.335	88.81
276.567	75.81
276.799	104.81
277.031	100.81
277.262	82.81
277.494	79.81
277.726	90.81
277.957	90.81
278.189	80.81
278.421	83.81
278.652	77.81
278.884	98.81
279.115	84.81
279.347	85.81
279.579	90.81
279.81	72.81
280.042	87.81
280.273	81.81
280.505	90.81
280.736	90.81
280.968	79.81
281.199	79.81
281.431	78.81
281.662	87.81
281.894	90.81
282.125	103.81
282.356	124.81
282.588	136.81
282.819	128.81
283.051	88.81
283.282	98.81
283.513	111.81
283.745	82.81
283.976	72.81
284.207	83.81
284.439	93.81
284.67	78.81
284.901	68.81
285.132	83.81
285.364	98.81
285.595	91.81
285.826	102.81
286.057	91.81
286.288	89.81
286.52	82.81
286.751	95.81
286.982	84.81
287.213	98.81
287.444	92.81
287.675	92.81
287.906	80.81
288.138	106.81
288.369	88.81
288.6	89.81
288.831	89.81
289.062	87.81
289.293	92.81
289.524	78.81
289.755	81.81
289.986	83.81
290.217	93.81
290.448	75.81
290.679	82.81
290.91	91.81
291.141	74.81
291.371	94.81
291.602	86.81
291.833	97.81
292.064	84.81
292.295	79.81
292.526	87.81
292.757	73.81
292.987	98.81
293.218	90.81
293.449	92.81
293.68	98.81
293.91	79.81
294.141	84.81
294.372	86.81
294.603	88.81
294.833	93.81
295.064	89.81
295.295	87.81
295.525	90.81
295.756	107.81
295.987	131.81
296.217	138.81
296.448	119.81
296.679	90.81
296.909	89.81
297.14	88.81
297.37	98.81
297.601	90.81
297.831	86.81
298.062	84.81
298.292	83.81
298.523	94.81
298.753	97.81
298.984	77.81
299.214	87.81
299.445	86.81
299.675	94.81
299.905	102.81
300.136	83.81
300.366	90.81
300.597	91.81
300.827	94.81
301.057	87.81
301.288	96.81
301.518	91.81
301.748	82.81
301.979	96.81
302.209	88.81
302.439	77.81
302.669	96.81
302.9	96.81
303.13	90.81
303.36	90.81
303.59	99.81
303.82	85.81
304.051	91.81
304.281	90.81
304.511	83.81
304.741	94.81
304.971	95.81
305.201	97.81
305.431	82.81
305.661	84.81
305.891	92.81
306.121	95.81
306.352	101.81
306.582	87.81
306.812	96.81
307.042	98.81
307.272	81.81
307.502	72.81
307.731	90.81
307.961	72.81
308.191	94.81
308.421	84.81
308.651	82.81
308.881	96.81
309.111	84.81
309.341	97.81
309.571	80.81
309.8	106.81
310.03	103.81
310.26	84.81
310.49	91.81
310.72	93.81
310.949	105.81
311.179	95.81
311.409	88.81
311.639	102.81
311.868	95.81
312.098	104.81
312.328	99.81
312.557	105.81
312.787	112.81
313.017	98.81
313.246	84.81
313.476	83.81
313.706	80.81
313.935	100.81
314.165	89.81
314.394	85.81
314.624	103.81
314.853	93.81
315.083	108.81
315.312	93.81
315.542	95.81
315.771	83.81
316.001	72.81
316.23	92.81
316.46	88.81
316.689	80.81
316.919	98.81
317.148	94.81
317.377	105.81
317.607	87.81
317.836	85.81
318.065	92.81
318.295	96.81
318.524	99.81
318.753	95.81
318.983	82.81
319.212	102.81
319.441	102.81
319.67	99.81
319.9	100.81
320.129	97.81
320.358	80.81
320.587	93.81
320.816	95.81
321.046	101.81
321.275	95.81
321.504	89.81
321.733	90.81
321.962	95.81
322.191	97.81
322.42	96.81
322.649	104.81
322.878	110.81
323.108	102.81
323.337	130.81
323.566	133.81
323.795	148.81
324.024	211.81
324.253	419.81
324.482	908.81
324.71	1830.81
324.939	2460.81
325.168	868.81
325.397	266.81
325.626	152.81
325.855	140.81
326.084	125.81
326.313	134.81
326.542	154.81
326.77	230.81
326.999	487.81
327.228	1008.81
327.457	1902.81
327.686	1507.81
327.914	396.81
328.143	195.81
328.372	152.81
328.6	129.81
328.829	108.81
329.058	126.81
329.287	111.81
329.515	112.81
329.744	94.81
329.972	100.81
330.201	90.81
330.43	114.81
330.658	122.81
330.887	141.81
331.115	137.81
331.344	103.81
331.572	112.81
331.801	118.81
332.03	95.81
332.258	81.81
332.486	86.81
332.715	93.81
332.943	94.81
333.172	115.81
333.4	67.81
333.629	105.81
333.857	102.81
334.085	102.81
334.314	87.81
334.542	115.81
334.771	99.81
334.999	88.81
335.227	103.81
335.455	84.81
335.684	95.81
335.912	99.81
336.14	82.81
336.369	86.81
336.597	110.81
336.825	88.81
337.053	94.81
337.281	91.81
337.51	91.81
337.738	99.81
337.966	99.81
338.194	81.81
338.422	102.81
338.65	86.81
338.878	82.81
339.106	79.81
339.334	75.81
339.562	74.81
339.79	91.81
340.018	85.81
340.246	95.81
340.474	101.81
340.702	96.81
340.93	90.81
341.158	94.81
341.386	97.81
341.614	91.81
341.842	78.81
342.07	96.81
342.298	96.81
342.526	84.81
342.754	78.81
342.981	98.81
343.209	87.81
343.437	95.81
343.665	87.81
343.893	87.81
344.12	90.81
344.348	86.81
344.576	81.81
344.804	85.81
345.031	95.81
345.259	81.81
345.487	99.81
345.714	104.81
345.942	96.81
346.17	78.81
346.397	99.81
346.625	90.81
346.853	91.81
347.08	88.81
347.308	90.81
347.535	105.81
347.763	99.81
347.99	93.81
348.218	107.81
348.445	95.81
348.673	106.81
348.9	112.81
349.128	97.81
349.355	97.81
349.583	95.81
349.81	96.81
350.037	87.81
350.265	86.81
350.492	105.81
350.72	97.81
350.947	87.81
351.174	125.81
351.402	107.81
351.629	107.81
351.856	109.81
352.083	91.81
352.311	109.81
352.538	102.81
352.765	105.81
352.992	91.81
353.22	111.81
353.447	111.81
353.674	99.81
353.901	91.81
354.128	107.81
354.355	101.81
354.583	93.81
354.81	99.81
355.037	98.81
355.264	95.81
355.491	95.81
355.718	97.81
355.945	81.81
356.172	91.81
356.399	95.81
356.626	98.81
356.853	101.81
357.08	86.81
357.307	81.81
357.534	92.81
357.761	93.81
357.988	109.81
358.215	93.81
358.441	97.81
358.668	89.81
358.895	100.81
359.122	95.81
359.349	88.81
359.576	91.81
359.802	94.81
360.029	106.81
360.256	113.81
360.483	102.81
360.709	86.81
360.936	93.81
361.163	101.81
361.39	104.81
361.616	83.81
361.843	86.81
362.07	88.81
362.296	94.81
362.523	83.81
362.749	86.81
362.976	96.81
363.203	91.81
363.429	71.81
363.656	98.81
363.882	86.81
364.109	87.81
364.335	90.81
364.562	89.81
364.788	73.81
365.015	73.81
365.241	92.81
365.468	96.81
365.694	100.81
365.92	84.81
366.147	83.81
366.373	91.81
366.599	71.81
366.826	90.81
367.052	91.81
367.278	76.81
367.505	93.81
367.731	94.81
367.957	99.81
368.184	92.81
368.41	92.81
368.636	107.81
368.862	132.81
369.089	99.81
369.315	93.81
369.541	82.81
369.767	85.81
369.993	101.81
370.219	83.81
370.445	96.81
370.672	85.81
370.898	90.81
371.124	92.81
371.35	81.81
371.576	80.81
371.802	86.81
372.028	96.81
372.254	74.81
372.48	73.81
372.706	81.81
372.932	81.81
373.158	88.81
373.384	100.81
373.61	87.81
373.835	75.81
374.061	74.81
374.287	92.81
374.513	79.81
374.739	95.81
374.965	79.81
375.191	79.81
375.416	101.81
375.642	83.81
375.868	95.81
376.094	99.81
376.319	83.81
376.545	71.81
376.771	89.81
376.997	85.81
377.222	89.81
377.448	88.81
377.674	98.81
377.899	96.81
378.125	83.81
378.35	78.81
378.576	95.81
378.802	97.81
379.027	75.81
379.253	88.81
379.478	83.81
379.704	85.81
379.929	93.81
380.155	100.81
380.38	95.81
380.606	89.81
380.831	86.81
381.057	106.81
381.282	82.81
381.507	96.81
381.733	86.81
381.958	93.81
382.184	87.81
382.409	77.81
382.634	111.81
382.86	104.81
383.085	82.81
383.31	96.81
383.535	100.81
383.761	105.81
383.986	99.81
384.211	82.81
384.436	89.81
384.662	93.81
384.887	94.81
385.112	77.81
385.337	97.81
385.562	104.81
385.787	96.81
386.013	98.81
386.238	102.81
386.463	99.81
386.688	114.81
386.913	91.81
387.138	106.81
387.363	103.81
387.588	96.81
387.813	90.81
388.038	100.81
388.263	93.81
388.488	104.81
388.713	84.81
388.938	91.81
389.163	90.81
389.387	82.81
389.612	92.81
389.837	91.81
390.062	90.81
390.287	93.81
390.512	78.81
390.736	80.81
390.961	85.81
391.186	102.81
391.411	83.81
391.636	93.81
391.86	80.81
392.085	86.81
392.31	94.81
392.534	85.81
392.759	88.81
392.984	85.81
393.208	81.81
393.433	89.81
393.658	84.81
393.882	90.81
394.107	90.81
394.331	84.81
394.556	88.81
394.78	85.81
395.005	95.81
395.229	80.81
395.454	81.81
395.678	80.81
395.903	86.81
396.127	94.81
396.352	96.81
396.576	91.81
396.801	75.81
397.025	86.81
397.249	90.81
397.474	72.81
397.698	86.81
397.922	90.81
398.147	88.81
398.371	89.81
398.595	83.81
398.82	88.81
399.044	83.81
399.268	78.81
399.492	79.81
399.717	92.81
399.941	98.81
400.165	92.81
400.389	87.81
400.613	80.81
400.837	87.81
401.062	90.81
401.286	66.81
401.51	95.81
401.734	86.81
401.958	92.81
402.182	112.81
402.406	157.81
402.63	122.81
402.854	82.81
403.078	96.81
403.302	79.81
403.526	80.81
403.75	76.81
403.974	85.81
404.198	99.81
404.422	86.81
404.645	95.81
404.869	83.81
405.093	103.81
405.317	96.81
405.541	89.81
405.765	93.81
405.988	114.81
406.212	157.81
406.436	245.81
406.66	158.81
406.883	95.81
407.107	94.81
407.331	89.81
407.555	94.81
407.778	89.81
408.002	95.81
408.226	79.81
408.449	85.81
408.673	101.81
408.896	90.81
409.12	90.81
409.344	99.81
409.567	95.81
409.791	95.81
410.014	78.81
410.238	91.81
410.461	86.81
410.685	90.81
410.908	99.81
411.132	100.81
411.355	94.81
411.578	92.81
411.802	85.81
412.025	94.81
412.249	68.81
412.472	77.81
412.695	86.81
412.919	84.81
413.142	90.81
413.365	98.81
413.589	96.81
413.812	86.81
414.035	98.81
414.258	92.81
414.482	76.81
414.705	80.81
414.928	84.81
415.151	83.81
415.374	83.81
415.597	82.81
415.821	84.81
416.044	80.81
416.267	83.81
416.49	99.81
416.713	92.81
416.936	96.81
417.159	83.81
417.382	103.81
417.605	89.81
417.828	98.81
418.051	92.81
418.274	87.81
418.497	92.81
418.72	74.81
418.943	81.81
419.166	86.81
419.389	92.81
419.611	94.81
419.834	91.81
420.057	82.81
420.28	91.81
420.503	82.81
420.726	90.81
420.948	97.81
421.171	107.81
421.394	96.81
421.617	89.81
421.839	93.81
422.062	79.81
422.285	95.81
422.507	90.81
422.73	111.81
422.953	97.81
423.175	88.81
423.398	88.81
423.621	84.81
423.843	75.81
424.066	86.81
424.288	88.81
424.511	87.81
424.733	88.81
424.956	106.81
425.178	91.81
425.401	106.81
425.623	95.81
425.846	100.81
426.068	80.81
426.291	91.81
426.513	78.81
426.735	88.81
426.958	100.81
427.18	103.81
427.402	129.81
427.625	166.81
427.847	124.81
428.069	98.81
428.292	86.81
428.514	88.81
428.736	85.81
428.958	96.81
429.181	95.81
429.403	86.81
429.625	84.81
429.847	80.81
430.069	94.81
430.292	87.81
430.514	83.81
430.736	78.81
430.958	87.81
431.18	75.81
431.402	74.81
431.624	83.81
431.846	86.81
432.068	88.81
432.29	72.81
432.512	82.81
432.734	88.81
432.956	94.81
433.178	103.81
433.4	99.81
433.622	90.81
433.844	87.81
434.066	74.81
434.287	88.81
434.509	77.81
434.731	82.81
434.953	93.81
435.175	86.81
435.397	87.81
435.618	81.81
435.84	93.81
436.062	120.81
436.284	116.81
436.505	100.81
436.727	111.81
436.949	89.81
437.17	78.81
437.392	98.81
437.614	83.81
437.835	97.81
438.057	117.81
438.278	106.81
438.5	114.81
438.721	121.81
438.943	94.81
439.165	86.81
439.386	80.81
439.608	84.81
439.829	106.81
440.05	103.81
440.272	144.81
440.493	100.81
440.715	83.81
440.936	95.81
441.158	84.81
441.379	71.81
441.6	88.81
441.822	102.81
442.043	103.81
442.264	99.81
442.486	101.81
442.707	86.81
442.928	97.81
443.149	124.81
443.371	132.81
443.592	112.81
443.813	98.81
444.034	116.81
444.255	72.81
444.476	102.81
444.698	74.81
444.919	75.81
445.14	127.81
445.361	111.81
445.582	128.81
445.803	140.81
446.024	148.81
446.245	136.81
446.466	104.81
446.687	90.81
446.908	90.81
447.129	87.81
447.35	93.81
447.571	73.81
447.792	76.81
448.013	97.81
448.234	109.81
448.455	97.81
448.675	120.81
448.896	140.81
449.117	86.81
449.338	98.81
449.559	127.81
449.779	134.81
450	100.81
450.221	78.81
450.442	79.81
450.662	100.81
450.883	102.81
451.104	106.81
451.324	97.81
451.545	83.81
451.766	87.81
451.986	86.81
452.207	92.81
452.428	75.81
452.648	92.81
452.869	95.81
453.089	113.81
453.31	104.81
453.53	91.81
453.751	84.81
453.971	100.81
454.192	108.81
454.412	90.81
454.633	86.81
454.853	89.81
455.073	86.81
455.294	88.81
455.514	102.81
455.734	94.81
455.955	79.81
456.175	66.81
456.395	83.81
456.616	80.81
456.836	92.81
457.056	84.81
457.276	90.81
457.497	81.81
457.717	88.81
457.937	79.81
458.157	96.81
458.377	97.81
458.598	114.81
458.818	152.81
459.038	177.81
459.258	99.81
459.478	81.81
459.698	83.81
459.918	83.81
460.138	83.81
460.358	83.81
460.578	86.81
460.798	85.81
461.018	88.81
461.238	98.81
461.458	80.81
461.678	93.81
461.898	89.81
462.118	75.81
462.338	82.81
462.558	80.81
462.777	74.81
462.997	73.81
463.217	88.81
463.437	102.81
463.657	76.81
463.876	74.81
464.096	68.81
464.316	81.81
464.536	97.81
464.755	92.81
464.975	111.81
465.195	148.81
465.414	167.81
465.634	93.81
465.854	88.81
466.073	92.81
466.293	80.81
466.512	88.81
466.732	72.81
466.951	74.81
467.171	76.81
467.391	89.81
467.61	105.81
467.829	95.81
468.049	94.81
468.268	84.81
468.488	89.81
468.707	97.81
468.927	84.81
469.146	94.81
469.365	79.81
469.585	91.81
469.804	89.81
470.023	78.81
470.243	102.81
470.462	104.81
470.681	98.81
470.901	96.81
471.12	78.81
471.339	84.81
471.558	81.81
471.777	93.81
471.997	92.81
472.216	91.81
472.435	94.81
472.654	90.81
472.873	75.81
473.092	88.81
473.311	81.81
473.53	81.81
473.749	83.81
473.968	93.81
474.187	94.81
474.406	95.81
474.625	88.81
474.844	97.81
475.063	95.81
475.282	83.81
475.501	86.81
475.72	81.81
475.939	84.81
476.158	72.81
476.377	91.81
476.596	98.81
476.814	87.81
477.033	93.81
477.252	102.81
477.471	82.81
477.69	100.81
477.908	75.81
478.127	75.81
478.346	94.81
478.564	97.81
478.783	79.81
479.002	83.81
479.22	90.81
479.439	95.81
479.658	115.81
479.876	98.81
480.095	79.81
480.313	93.81
480.532	89.81
480.751	89.81
480.969	86.81
481.188	82.81
481.406	90.81
481.624	85.81
481.843	89.81
482.061	83.81
482.28	87.81
482.498	98.81
482.717	88.81
482.935	89.81
483.153	87.81
483.372	83.81
483.59	102.81
483.808	92.81
484.027	82.81
484.245	76.81
484.463	85.81
484.681	99.81
484.9	99.81
485.118	97.81
485.336	87.81
485.554	78.81
485.772	114.81
485.99	95.81
486.209	108.81
486.427	83.81
486.645	106.81
486.863	120.81
487.081	83.81
487.299	81.81
487.517	75.81
487.735	97.81
487.953	88.81
488.171	94.81
488.389	94.81
488.607	103.81
488.825	89.81
489.043	89.81
489.261	87.81
489.479	81.81
489.696	70.81
489.914	80.81
490.132	78.81
490.35	91.81
490.568	98.81
490.786	90.81
491.003	91.81
491.221	88.81
491.439	77.81
491.657	81.81
491.874	92.81
492.092	97.81
492.31	95.81
492.527	86.81
492.745	85.81
492.963	85.81
493.18	92.81
493.398	69.81
493.615	99.81
493.833	100.81
494.05	92.81
494.268	73.81
494.485	83.81
494.703	72.81
494.92	83.81
495.138	94.81
495.355	96.81
495.573	93.81
495.79	81.81
496.008	94.81
496.225	100.81
496.442	78.81
496.66	90.81
496.877	95.81
497.094	96.81
497.312	80.81
497.529	77.81
497.746	97.81
497.963	81.81
498.181	94.81
498.398	89.81
498.615	118.81
498.832	92.81
499.049	81.81
499.267	77.81
499.484	75.81
499.701	82.81
499.918	77.81
500.135	92.81
500.352	90.81
500.569	104.81
500.786	71.81
501.003	81.81
501.22	86.81
501.437	104.81
501.654	95.81
501.871	111.81
502.088	93.81
502.305	89.81
502.522	87.81
502.739	89.81
502.956	95.81
503.172	84.81
503.389	108.81
503.606	91.81
503.823	111.81
504.04	95.81
504.256	98.81
504.473	86.81
504.69	86.81
504.907	83.81
505.123	83.81
505.34	83.81
505.557	84.81
505.773	81.81
505.99	85.81
506.207	88.81
506.423	94.81
506.64	92.81
506.856	92.81
507.073	95.81
507.289	97.81
507.506	110.81
507.722	108.81
507.939	111.81
508.155	88.81
508.372	76.81
508.588	99.81
508.805	93.81
509.021	98.81
509.238	99.81
509.454	99.81
509.67	111.81
509.887	109.81
510.103	136.81
510.319	203.81
510.536	786.81
510.752	2503.81
510.968	702.81
511.184	170.81
511.401	110.81
511.617	94.81
511.833	83.81
512.049	90.81
512.265	93.81
512.481	86.81
512.698	85.81
512.914	96.81
513.13	95.81
513.346	80.81
513.562	85.81
513.778	97.81
513.994	81.81
514.21	104.81
514.426	111.81
514.642	119.81
514.858	123.81
515.074	161.81
515.29	465.81
515.506	1574.81
515.721	568.81
515.937	152.81
516.153	107.81
516.369	109.81
516.585	90.81
516.801	93.81
