Data from Uncirc_2007_H10_HRD10591_00017.txt Node
Date: Wed Jan 03 10:20:46 EST 2024
User: Yrep
Spectrometer: HR+D1059
Trigger mode: 1
Integration Time (sec): 1.000000E-1
Scans to average: 1
Electric dark correction enabled: true
Nonlinearity correction enabled: false
Boxcar width: 0
XAxis mode: Wavelengths
Number of Pixels in Spectrum: 2048
>>>>>Begin Spectral Data<<<<<
223.165	-11.44
223.4	-11.44
223.635	-11.44
223.869	-25.44
224.104	-22.44
224.338	-13.44
224.573	-9.44
224.808	-15.44
225.042	-10.44
225.277	-10.44
225.511	-1.44
225.746	10.56
225.98	13.56
226.215	8.56
226.449	21.56
226.683	6.56
226.918	30.56
227.152	28.56
227.387	43.56
227.621	33.56
227.856	48.56
228.09	40.56
228.324	61.56
228.559	49.56
228.793	53.56
229.027	73.56
229.262	81.56
229.496	83.56
229.73	80.56
229.964	80.56
230.199	77.56
230.433	82.56
230.667	80.56
230.901	66.56
231.136	85.56
231.37	66.56
231.604	78.56
231.838	87.56
232.072	74.56
232.306	79.56
232.541	69.56
232.775	78.56
233.009	83.56
233.243	70.56
233.477	88.56
233.711	83.56
233.945	95.56
234.179	81.56
234.413	71.56
234.647	69.56
234.881	95.56
235.115	73.56
235.349	78.56
235.583	84.56
235.817	91.56
236.051	84.56
236.285	60.56
236.519	84.56
236.753	81.56
236.987	77.56
237.221	72.56
237.455	77.56
237.689	59.56
237.922	72.56
238.156	91.56
238.39	83.56
238.624	75.56
238.858	83.56
239.091	84.56
239.325	85.56
239.559	87.56
239.793	84.56
240.027	86.56
240.26	69.56
240.494	74.56
240.728	72.56
240.961	68.56
241.195	90.56
241.429	75.56
241.662	68.56
241.896	70.56
242.13	96.56
242.363	77.56
242.597	88.56
242.83	84.56
243.064	69.56
243.298	79.56
243.531	67.56
243.765	74.56
243.998	72.56
244.232	86.56
244.465	84.56
244.699	74.56
244.932	80.56
245.166	72.56
245.399	64.56
245.633	80.56
245.866	79.56
246.099	76.56
246.333	82.56
246.566	75.56
246.8	81.56
247.033	88.56
247.266	88.56
247.5	87.56
247.733	72.56
247.966	93.56
248.2	87.56
248.433	83.56
248.666	76.56
248.899	79.56
249.133	94.56
249.366	109.56
249.599	93.56
249.832	88.56
250.066	86.56
250.299	72.56
250.532	78.56
250.765	81.56
250.998	83.56
251.231	88.56
251.465	77.56
251.698	78.56
251.931	75.56
252.164	75.56
252.397	82.56
252.63	85.56
252.863	75.56
253.096	72.56
253.329	82.56
253.562	84.56
253.795	95.56
254.028	74.56
254.261	81.56
254.494	79.56
254.727	91.56
254.96	78.56
255.193	74.56
255.426	69.56
255.659	87.56
255.892	85.56
256.124	76.56
256.357	67.56
256.59	73.56
256.823	73.56
257.056	73.56
257.289	91.56
257.521	79.56
257.754	72.56
257.987	72.56
258.22	90.56
258.452	91.56
258.685	79.56
258.918	90.56
259.151	70.56
259.383	78.56
259.616	83.56
259.849	82.56
260.081	100.56
260.314	82.56
260.547	86.56
260.779	96.56
261.012	95.56
261.244	84.56
261.477	92.56
261.71	93.56
261.942	116.56
262.175	114.56
262.407	95.56
262.64	93.56
262.872	86.56
263.105	76.56
263.337	79.56
263.57	88.56
263.802	89.56
264.035	92.56
264.267	89.56
264.499	86.56
264.732	79.56
264.964	87.56
265.197	96.56
265.429	77.56
265.661	89.56
265.894	80.56
266.126	88.56
266.358	94.56
266.591	86.56
266.823	82.56
267.055	84.56
267.287	90.56
267.52	88.56
267.752	97.56
267.984	86.56
268.216	84.56
268.448	86.56
268.681	85.56
268.913	98.56
269.145	89.56
269.377	85.56
269.609	85.56
269.841	96.56
270.073	80.56
270.306	92.56
270.538	95.56
270.77	84.56
271.002	95.56
271.234	92.56
271.466	77.56
271.698	92.56
271.93	102.56
272.162	96.56
272.394	84.56
272.626	82.56
272.858	88.56
273.09	85.56
273.322	77.56
273.553	85.56
273.785	91.56
274.017	90.56
274.249	79.56
274.481	96.56
274.713	91.56
274.945	81.56
275.176	80.56
275.408	73.56
275.64	86.56
275.872	86.56
276.104	96.56
276.335	95.56
276.567	99.56
276.799	103.56
277.031	108.56
277.262	101.56
277.494	87.56
277.726	88.56
277.957	81.56
278.189	84.56
278.421	81.56
278.652	90.56
278.884	89.56
279.115	86.56
279.347	88.56
279.579	86.56
279.81	81.56
280.042	94.56
280.273	86.56
280.505	76.56
280.736	79.56
280.968	81.56
281.199	84.56
281.431	81.56
281.662	103.56
281.894	93.56
282.125	98.56
282.356	118.56
282.588	130.56
282.819	124.56
283.051	86.56
283.282	90.56
283.513	87.56
283.745	84.56
283.976	83.56
284.207	89.56
284.439	91.56
284.67	105.56
284.901	84.56
285.132	83.56
285.364	82.56
285.595	89.56
285.826	89.56
286.057	93.56
286.288	89.56
286.52	91.56
286.751	83.56
286.982	80.56
287.213	88.56
287.444	90.56
287.675	99.56
287.906	89.56
288.138	98.56
288.369	99.56
288.6	101.56
288.831	88.56
289.062	85.56
289.293	91.56
289.524	84.56
289.755	92.56
289.986	90.56
290.217	108.56
290.448	88.56
290.679	82.56
290.91	93.56
291.141	101.56
291.371	85.56
291.602	96.56
291.833	80.56
292.064	92.56
292.295	95.56
292.526	103.56
292.757	75.56
292.987	81.56
293.218	75.56
293.449	90.56
293.68	107.56
293.91	85.56
294.141	104.56
294.372	102.56
294.603	77.56
294.833	85.56
295.064	93.56
295.295	85.56
295.525	86.56
295.756	105.56
295.987	123.56
296.217	146.56
296.448	126.56
296.679	81.56
296.909	100.56
297.14	80.56
297.37	98.56
297.601	85.56
297.831	76.56
298.062	98.56
298.292	87.56
298.523	87.56
298.753	81.56
298.984	84.56
299.214	92.56
299.445	112.56
299.675	86.56
299.905	108.56
300.136	94.56
300.366	104.56
300.597	86.56
300.827	109.56
301.057	87.56
301.288	101.56
301.518	106.56
301.748	91.56
301.979	90.56
302.209	93.56
302.439	88.56
302.669	93.56
302.9	86.56
303.13	84.56
303.36	99.56
303.59	100.56
303.82	109.56
304.051	100.56
304.281	84.56
304.511	93.56
304.741	77.56
304.971	100.56
305.201	84.56
305.431	97.56
305.661	89.56
305.891	100.56
306.121	95.56
306.352	105.56
306.582	111.56
306.812	88.56
307.042	95.56
307.272	106.56
307.502	90.56
307.731	112.56
307.961	90.56
308.191	89.56
308.421	94.56
308.651	87.56
308.881	63.56
309.111	88.56
309.341	96.56
309.571	101.56
309.8	88.56
310.03	102.56
310.26	104.56
310.49	99.56
310.72	96.56
310.949	95.56
311.179	98.56
311.409	91.56
311.639	87.56
311.868	95.56
312.098	103.56
312.328	98.56
312.557	110.56
312.787	102.56
313.017	94.56
313.246	88.56
313.476	98.56
313.706	86.56
313.935	107.56
314.165	112.56
314.394	98.56
314.624	104.56
314.853	95.56
315.083	97.56
315.312	99.56
315.542	100.56
315.771	84.56
316.001	89.56
316.23	91.56
316.46	94.56
316.689	91.56
316.919	103.56
317.148	97.56
317.377	100.56
317.607	99.56
317.836	83.56
318.065	75.56
318.295	96.56
318.524	106.56
318.753	75.56
318.983	85.56
319.212	108.56
319.441	100.56
319.67	117.56
319.9	99.56
320.129	94.56
320.358	98.56
320.587	104.56
320.816	107.56
321.046	86.56
321.275	85.56
321.504	92.56
321.733	97.56
321.962	100.56
322.191	95.56
322.42	108.56
322.649	105.56
322.878	124.56
323.108	120.56
323.337	144.56
323.566	154.56
323.795	177.56
324.024	230.56
324.253	460.56
324.482	954.56
324.71	1989.56
324.939	2622.56
325.168	937.56
325.397	260.56
325.626	165.56
325.855	124.56
326.084	132.56
326.313	159.56
326.542	157.56
326.77	262.56
326.999	526.56
327.228	1107.56
327.457	2040.56
327.686	1600.56
327.914	415.56
328.143	208.56
328.372	150.56
328.6	119.56
328.829	120.56
329.058	127.56
329.287	132.56
329.515	121.56
329.744	96.56
329.972	102.56
330.201	110.56
330.43	132.56
330.658	104.56
330.887	133.56
331.115	125.56
331.344	94.56
331.572	111.56
331.801	108.56
332.03	105.56
332.258	105.56
332.486	79.56
332.715	90.56
332.943	93.56
333.172	98.56
333.4	97.56
333.629	118.56
333.857	111.56
334.085	85.56
334.314	91.56
334.542	109.56
334.771	108.56
334.999	96.56
335.227	101.56
335.455	82.56
335.684	90.56
335.912	105.56
336.14	107.56
336.369	110.56
336.597	97.56
336.825	92.56
337.053	88.56
337.281	100.56
337.51	98.56
337.738	99.56
337.966	88.56
338.194	94.56
338.422	105.56
338.65	91.56
338.878	85.56
339.106	97.56
339.334	89.56
339.562	89.56
339.79	88.56
340.018	97.56
340.246	96.56
340.474	97.56
340.702	94.56
340.93	101.56
341.158	87.56
341.386	98.56
341.614	110.56
341.842	108.56
342.07	81.56
342.298	101.56
342.526	83.56
342.754	84.56
342.981	81.56
343.209	98.56
343.437	105.56
343.665	93.56
343.893	88.56
344.12	105.56
344.348	85.56
344.576	91.56
344.804	99.56
345.031	85.56
345.259	102.56
345.487	103.56
345.714	97.56
345.942	92.56
346.17	94.56
346.397	91.56
346.625	92.56
346.853	96.56
347.08	93.56
347.308	95.56
347.535	95.56
347.763	92.56
347.99	101.56
348.218	115.56
348.445	93.56
348.673	96.56
348.9	100.56
349.128	105.56
349.355	110.56
349.583	89.56
349.81	90.56
350.037	103.56
350.265	89.56
350.492	94.56
350.72	90.56
350.947	98.56
351.174	112.56
351.402	106.56
351.629	109.56
351.856	93.56
352.083	93.56
352.311	99.56
352.538	112.56
352.765	110.56
352.992	125.56
353.22	102.56
353.447	117.56
353.674	96.56
353.901	96.56
354.128	95.56
354.355	89.56
354.583	89.56
354.81	102.56
355.037	113.56
355.264	103.56
355.491	89.56
355.718	92.56
355.945	101.56
356.172	97.56
356.399	99.56
356.626	95.56
356.853	92.56
357.08	82.56
357.307	85.56
357.534	101.56
357.761	93.56
357.988	94.56
358.215	104.56
358.441	91.56
358.668	88.56
358.895	79.56
359.122	91.56
359.349	79.56
359.576	100.56
359.802	118.56
360.029	111.56
360.256	117.56
360.483	100.56
360.709	82.56
360.936	96.56
361.163	104.56
361.39	97.56
361.616	94.56
361.843	97.56
362.07	83.56
362.296	104.56
362.523	102.56
362.749	91.56
362.976	96.56
363.203	92.56
363.429	81.56
363.656	96.56
363.882	94.56
364.109	97.56
364.335	96.56
364.562	88.56
364.788	80.56
365.015	86.56
365.241	98.56
365.468	104.56
365.694	104.56
365.92	98.56
366.147	91.56
366.373	94.56
366.599	93.56
366.826	105.56
367.052	99.56
367.278	92.56
367.505	89.56
367.731	90.56
367.957	88.56
368.184	83.56
368.41	83.56
368.636	115.56
368.862	109.56
369.089	102.56
369.315	105.56
369.541	86.56
369.767	92.56
369.993	90.56
370.219	98.56
370.445	81.56
370.672	90.56
370.898	76.56
371.124	70.56
371.35	99.56
371.576	96.56
371.802	81.56
372.028	95.56
372.254	97.56
372.48	90.56
372.706	89.56
372.932	92.56
373.158	99.56
373.384	97.56
373.61	87.56
373.835	90.56
374.061	97.56
374.287	94.56
374.513	77.56
374.739	98.56
374.965	82.56
375.191	93.56
375.416	86.56
375.642	94.56
375.868	85.56
376.094	88.56
376.319	92.56
376.545	94.56
376.771	97.56
376.997	99.56
377.222	93.56
377.448	83.56
377.674	92.56
377.899	83.56
378.125	93.56
378.35	90.56
378.576	101.56
378.802	84.56
379.027	93.56
379.253	83.56
379.478	104.56
379.704	92.56
379.929	89.56
380.155	100.56
380.38	96.56
380.606	96.56
380.831	102.56
381.057	88.56
381.282	84.56
381.507	90.56
381.733	108.56
381.958	106.56
382.184	99.56
382.409	112.56
382.634	107.56
382.86	82.56
383.085	103.56
383.31	96.56
383.535	106.56
383.761	89.56
383.986	96.56
384.211	87.56
384.436	97.56
384.662	101.56
384.887	101.56
385.112	98.56
385.337	96.56
385.562	109.56
385.787	106.56
386.013	94.56
386.238	105.56
386.463	124.56
386.688	113.56
386.913	105.56
387.138	97.56
387.363	105.56
387.588	94.56
387.813	102.56
388.038	93.56
388.263	111.56
388.488	115.56
388.713	102.56
388.938	93.56
389.163	99.56
389.387	96.56
389.612	94.56
389.837	107.56
390.062	96.56
390.287	98.56
390.512	93.56
390.736	86.56
390.961	94.56
391.186	90.56
391.411	96.56
391.636	100.56
391.86	90.56
392.085	93.56
392.31	93.56
392.534	89.56
392.759	94.56
392.984	86.56
393.208	89.56
393.433	98.56
393.658	93.56
393.882	81.56
394.107	78.56
394.331	83.56
394.556	92.56
394.78	92.56
395.005	90.56
395.229	82.56
395.454	89.56
395.678	81.56
395.903	77.56
396.127	92.56
396.352	97.56
396.576	86.56
396.801	80.56
397.025	94.56
397.249	82.56
397.474	93.56
397.698	94.56
397.922	83.56
398.147	82.56
398.371	79.56
398.595	100.56
398.82	90.56
399.044	85.56
399.268	97.56
399.492	83.56
399.717	92.56
399.941	95.56
400.165	118.56
400.389	97.56
400.613	65.56
400.837	91.56
401.062	97.56
401.286	84.56
401.51	82.56
401.734	87.56
401.958	106.56
402.182	137.56
402.406	167.56
402.63	114.56
402.854	102.56
403.078	85.56
403.302	84.56
403.526	74.56
403.75	91.56
403.974	90.56
404.198	90.56
404.422	96.56
404.645	88.56
404.869	82.56
405.093	93.56
405.317	96.56
405.541	92.56
405.765	108.56
405.988	133.56
406.212	186.56
406.436	251.56
406.66	153.56
406.883	94.56
407.107	90.56
407.331	84.56
407.555	89.56
407.778	91.56
408.002	94.56
408.226	90.56
408.449	79.56
408.673	99.56
408.896	113.56
409.12	100.56
409.344	93.56
409.567	91.56
409.791	108.56
410.014	89.56
410.238	94.56
410.461	91.56
410.685	78.56
410.908	92.56
411.132	110.56
411.355	105.56
411.578	84.56
411.802	82.56
412.025	92.56
412.249	89.56
412.472	82.56
412.695	83.56
412.919	99.56
413.142	85.56
413.365	97.56
413.589	84.56
413.812	83.56
414.035	87.56
414.258	89.56
414.482	82.56
414.705	84.56
414.928	95.56
415.151	83.56
415.374	93.56
415.597	101.56
415.821	100.56
416.044	79.56
416.267	76.56
416.49	89.56
416.713	76.56
416.936	82.56
417.159	76.56
417.382	82.56
417.605	83.56
417.828	93.56
418.051	87.56
418.274	84.56
418.497	72.56
418.72	84.56
418.943	85.56
419.166	90.56
419.389	83.56
419.611	86.56
419.834	94.56
420.057	95.56
420.28	94.56
420.503	73.56
420.726	82.56
420.948	89.56
421.171	79.56
421.394	98.56
421.617	101.56
421.839	90.56
422.062	93.56
422.285	91.56
422.507	95.56
422.73	99.56
422.953	91.56
423.175	93.56
423.398	82.56
423.621	96.56
423.843	102.56
424.066	97.56
424.288	93.56
424.511	81.56
424.733	98.56
424.956	112.56
425.178	100.56
425.401	92.56
425.623	105.56
425.846	100.56
426.068	99.56
426.291	93.56
426.513	101.56
426.735	89.56
426.958	105.56
427.18	106.56
427.402	142.56
427.625	155.56
427.847	145.56
428.069	101.56
428.292	90.56
428.514	96.56
428.736	90.56
428.958	91.56
429.181	88.56
429.403	82.56
429.625	84.56
429.847	87.56
430.069	91.56
430.292	107.56
430.514	79.56
430.736	81.56
430.958	84.56
431.18	83.56
431.402	100.56
431.624	97.56
431.846	85.56
432.068	93.56
432.29	89.56
432.512	99.56
432.734	98.56
432.956	88.56
433.178	106.56
433.4	123.56
433.622	95.56
433.844	86.56
434.066	88.56
434.287	97.56
434.509	96.56
434.731	92.56
434.953	77.56
435.175	89.56
435.397	97.56
435.618	102.56
435.84	106.56
436.062	131.56
436.284	116.56
436.505	107.56
436.727	104.56
436.949	91.56
437.17	86.56
437.392	92.56
437.614	73.56
437.835	96.56
438.057	118.56
438.278	118.56
438.5	109.56
438.721	114.56
438.943	97.56
439.165	99.56
439.386	84.56
439.608	92.56
439.829	101.56
440.05	125.56
440.272	141.56
440.493	108.56
440.715	91.56
440.936	93.56
441.158	88.56
441.379	86.56
441.6	93.56
441.822	90.56
442.043	107.56
442.264	106.56
442.486	104.56
442.707	89.56
442.928	108.56
443.149	123.56
443.371	128.56
443.592	116.56
443.813	116.56
444.034	117.56
444.255	98.56
444.476	84.56
444.698	84.56
444.919	89.56
445.14	149.56
445.361	127.56
445.582	128.56
445.803	142.56
446.024	131.56
446.245	124.56
446.466	112.56
446.687	93.56
446.908	84.56
447.129	81.56
447.35	86.56
447.571	89.56
447.792	79.56
448.013	84.56
448.234	102.56
448.455	111.56
448.675	127.56
448.896	115.56
449.117	113.56
449.338	106.56
449.559	134.56
449.779	124.56
450	86.56
450.221	89.56
450.442	82.56
450.662	86.56
450.883	117.56
451.104	101.56
451.324	91.56
451.545	89.56
451.766	85.56
451.986	72.56
452.207	92.56
452.428	94.56
452.648	97.56
452.869	102.56
453.089	113.56
453.31	115.56
453.53	97.56
453.751	97.56
453.971	101.56
454.192	112.56
454.412	101.56
454.633	76.56
454.853	80.56
455.073	82.56
455.294	84.56
455.514	102.56
455.734	111.56
455.955	88.56
456.175	92.56
456.395	89.56
456.616	76.56
456.836	85.56
457.056	83.56
457.276	95.56
457.497	85.56
457.717	82.56
457.937	78.56
458.157	98.56
458.377	89.56
458.598	123.56
458.818	160.56
459.038	169.56
459.258	120.56
459.478	86.56
459.698	89.56
459.918	88.56
460.138	95.56
460.358	86.56
460.578	101.56
460.798	81.56
461.018	92.56
461.238	80.56
461.458	83.56
461.678	91.56
461.898	75.56
462.118	78.56
462.338	85.56
462.558	83.56
462.777	81.56
462.997	88.56
463.217	78.56
463.437	85.56
463.657	93.56
463.876	84.56
464.096	96.56
464.316	111.56
464.536	99.56
464.755	96.56
464.975	121.56
465.195	168.56
465.414	175.56
465.634	101.56
465.854	98.56
466.073	92.56
466.293	92.56
466.512	82.56
466.732	105.56
466.951	86.56
467.171	90.56
467.391	90.56
467.61	102.56
467.829	98.56
468.049	91.56
468.268	93.56
468.488	89.56
468.707	83.56
468.927	95.56
469.146	82.56
469.365	98.56
469.585	76.56
469.804	99.56
470.023	90.56
470.243	82.56
470.462	96.56
470.681	112.56
470.901	83.56
471.12	81.56
471.339	85.56
471.558	81.56
471.777	106.56
471.997	88.56
472.216	78.56
472.435	82.56
472.654	80.56
472.873	91.56
473.092	89.56
473.311	97.56
473.53	86.56
473.749	86.56
473.968	85.56
474.187	106.56
474.406	86.56
474.625	99.56
474.844	98.56
475.063	82.56
475.282	79.56
475.501	87.56
475.72	102.56
475.939	75.56
476.158	81.56
476.377	102.56
476.596	85.56
476.814	86.56
477.033	86.56
477.252	99.56
477.471	81.56
477.69	89.56
477.908	95.56
478.127	83.56
478.346	84.56
478.564	93.56
478.783	112.56
479.002	98.56
479.22	99.56
479.439	102.56
479.658	79.56
479.876	98.56
480.095	91.56
480.313	96.56
480.532	93.56
480.751	87.56
480.969	83.56
481.188	94.56
481.406	89.56
481.624	98.56
481.843	89.56
482.061	75.56
482.28	76.56
482.498	81.56
482.717	89.56
482.935	73.56
483.153	78.56
483.372	92.56
483.59	77.56
483.808	93.56
484.027	95.56
484.245	89.56
484.463	94.56
484.681	108.56
484.9	71.56
485.118	86.56
485.336	92.56
485.554	103.56
485.772	114.56
485.99	100.56
486.209	101.56
486.427	113.56
486.645	115.56
486.863	113.56
487.081	91.56
487.299	92.56
487.517	92.56
487.735	93.56
487.953	88.56
488.171	100.56
488.389	84.56
488.607	100.56
488.825	75.56
489.043	92.56
489.261	85.56
489.479	93.56
489.696	89.56
489.914	92.56
490.132	86.56
490.35	97.56
490.568	86.56
490.786	80.56
491.003	71.56
491.221	77.56
491.439	81.56
491.657	93.56
491.874	84.56
492.092	81.56
492.31	98.56
492.527	89.56
492.745	88.56
492.963	92.56
493.18	86.56
493.398	102.56
493.615	107.56
493.833	92.56
494.05	95.56
494.268	101.56
494.485	93.56
494.703	80.56
494.92	90.56
495.138	94.56
495.355	105.56
495.573	96.56
495.79	86.56
496.008	86.56
496.225	89.56
496.442	84.56
496.66	92.56
496.877	94.56
497.094	96.56
497.312	86.56
497.529	85.56
497.746	86.56
497.963	77.56
498.181	85.56
498.398	92.56
498.615	106.56
498.832	102.56
499.049	90.56
499.267	95.56
499.484	79.56
499.701	92.56
499.918	96.56
500.135	96.56
500.352	92.56
500.569	81.56
500.786	104.56
501.003	87.56
501.22	80.56
501.437	104.56
501.654	86.56
501.871	104.56
502.088	84.56
502.305	91.56
502.522	91.56
502.739	82.56
502.956	107.56
503.172	107.56
503.389	99.56
503.606	109.56
503.823	86.56
504.04	88.56
504.256	97.56
504.473	100.56
504.69	91.56
504.907	88.56
505.123	105.56
505.34	91.56
505.557	99.56
505.773	94.56
505.99	91.56
506.207	91.56
506.423	100.56
506.64	97.56
506.856	92.56
507.073	88.56
507.289	97.56
507.506	101.56
507.722	99.56
507.939	106.56
508.155	99.56
508.372	97.56
508.588	92.56
508.805	94.56
509.021	101.56
509.238	102.56
509.454	96.56
509.67	90.56
509.887	104.56
510.103	142.56
510.319	232.56
510.536	873.56
510.752	2711.56
510.968	763.56
511.184	150.56
511.401	136.56
511.617	100.56
511.833	85.56
512.049	90.56
512.265	86.56
512.481	99.56
512.698	92.56
512.914	89.56
513.13	93.56
513.346	91.56
513.562	98.56
513.778	104.56
513.994	102.56
514.21	101.56
514.426	137.56
514.642	132.56
514.858	135.56
515.074	174.56
515.29	514.56
