Data from Uncirc_2007_H10_HRD10591_00043.txt Node
Date: Wed Jan 03 10:20:51 EST 2024
User: Yrep
Spectrometer: HR+D1059
Trigger mode: 1
Integration Time (sec): 1.000000E-1
Scans to average: 1
Electric dark correction enabled: true
Nonlinearity correction enabled: false
Boxcar width: 0
XAxis mode: Wavelengths
Number of Pixels in Spectrum: 2048
>>>>>Begin Spectral Data<<<<<
223.165	-12.31
223.4	-12.31
223.635	-12.31
223.869	-14.31
224.104	-27.31
224.338	-16.31
224.573	-10.31
224.808	-19.31
225.042	-6.31
225.277	-9.31
225.511	-26.31
225.746	8.69
225.98	7.69
226.215	20.69
226.449	18.69
226.683	23.69
226.918	34.69
227.152	27.69
227.387	27.69
227.621	49.69
227.856	38.69
228.09	53.69
228.324	50.69
228.559	48.69
228.793	38.69
229.027	52.69
229.262	57.69
229.496	68.69
229.73	75.69
229.964	78.69
230.199	65.69
230.433	74.69
230.667	79.69
230.901	64.69
231.136	67.69
231.37	76.69
231.604	66.69
231.838	85.69
232.072	78.69
232.306	62.69
232.541	61.69
232.775	98.69
233.009	69.69
233.243	81.69
233.477	78.69
233.711	80.69
233.945	75.69
234.179	85.69
234.413	72.69
234.647	59.69
234.881	72.69
235.115	76.69
235.349	82.69
235.583	85.69
235.817	74.69
236.051	76.69
236.285	72.69
236.519	66.69
236.753	73.69
236.987	79.69
237.221	84.69
237.455	87.69
237.689	84.69
237.922	82.69
238.156	79.69
238.39	69.69
238.624	87.69
238.858	64.69
239.091	69.69
239.325	69.69
239.559	82.69
239.793	88.69
240.027	95.69
240.26	79.69
240.494	65.69
240.728	73.69
240.961	76.69
241.195	75.69
241.429	72.69
241.662	71.69
241.896	75.69
242.13	78.69
242.363	55.69
242.597	65.69
242.83	61.69
243.064	66.69
243.298	57.69
243.531	86.69
243.765	69.69
243.998	86.69
244.232	79.69
244.465	82.69
244.699	81.69
244.932	73.69
245.166	70.69
245.399	70.69
245.633	64.69
245.866	83.69
246.099	63.69
246.333	77.69
246.566	77.69
246.8	80.69
247.033	65.69
247.266	72.69
247.5	63.69
247.733	66.69
247.966	89.69
248.2	53.69
248.433	70.69
248.666	76.69
248.899	75.69
249.133	68.69
249.366	89.69
249.599	97.69
249.832	105.69
250.066	77.69
250.299	83.69
250.532	71.69
250.765	77.69
250.998	76.69
251.231	79.69
251.465	77.69
251.698	68.69
251.931	91.69
252.164	76.69
252.397	86.69
252.63	70.69
252.863	76.69
253.096	64.69
253.329	62.69
253.562	69.69
253.795	67.69
254.028	83.69
254.261	76.69
254.494	73.69
254.727	80.69
254.96	80.69
255.193	70.69
255.426	72.69
255.659	55.69
255.892	71.69
256.124	66.69
256.357	81.69
256.59	80.69
256.823	71.69
257.056	68.69
257.289	80.69
257.521	80.69
257.754	72.69
257.987	81.69
258.22	72.69
258.452	86.69
258.685	87.69
258.918	63.69
259.151	75.69
259.383	73.69
259.616	93.69
259.849	83.69
260.081	71.69
260.314	77.69
260.547	85.69
260.779	71.69
261.012	65.69
261.244	79.69
261.477	89.69
261.71	82.69
261.942	110.69
262.175	108.69
262.407	89.69
262.64	86.69
262.872	81.69
263.105	83.69
263.337	78.69
263.57	68.69
263.802	71.69
264.035	80.69
264.267	75.69
264.499	80.69
264.732	89.69
264.964	87.69
265.197	82.69
265.429	77.69
265.661	63.69
265.894	73.69
266.126	85.69
266.358	85.69
266.591	64.69
266.823	88.69
267.055	80.69
267.287	84.69
267.52	69.69
267.752	74.69
267.984	63.69
268.216	70.69
268.448	88.69
268.681	97.69
268.913	85.69
269.145	69.69
269.377	69.69
269.609	76.69
269.841	88.69
270.073	71.69
270.306	73.69
270.538	92.69
270.77	74.69
271.002	86.69
271.234	74.69
271.466	73.69
271.698	63.69
271.93	87.69
272.162	82.69
272.394	80.69
272.626	70.69
272.858	85.69
273.09	74.69
273.322	69.69
273.553	76.69
273.785	98.69
274.017	97.69
274.249	67.69
274.481	74.69
274.713	84.69
274.945	76.69
275.176	77.69
275.408	84.69
275.64	79.69
275.872	67.69
276.104	79.69
276.335	96.69
276.567	99.69
276.799	108.69
277.031	84.69
277.262	84.69
277.494	66.69
277.726	74.69
277.957	87.69
278.189	93.69
278.421	70.69
278.652	84.69
278.884	93.69
279.115	88.69
279.347	93.69
279.579	87.69
279.81	87.69
280.042	85.69
280.273	79.69
280.505	94.69
280.736	77.69
280.968	65.69
281.199	67.69
281.431	69.69
281.662	81.69
281.894	80.69
282.125	95.69
282.356	117.69
282.588	133.69
282.819	103.69
283.051	92.69
283.282	79.69
283.513	79.69
283.745	84.69
283.976	76.69
284.207	81.69
284.439	85.69
284.67	79.69
284.901	90.69
285.132	83.69
285.364	76.69
285.595	85.69
285.826	81.69
286.057	82.69
286.288	79.69
286.52	70.69
286.751	71.69
286.982	93.69
287.213	83.69
287.444	80.69
287.675	78.69
287.906	86.69
288.138	95.69
288.369	75.69
288.6	80.69
288.831	79.69
289.062	100.69
289.293	79.69
289.524	83.69
289.755	85.69
289.986	84.69
290.217	89.69
290.448	84.69
290.679	98.69
290.91	89.69
291.141	98.69
291.371	74.69
291.602	66.69
291.833	75.69
292.064	90.69
292.295	89.69
292.526	100.69
292.757	82.69
292.987	92.69
293.218	78.69
293.449	76.69
293.68	63.69
293.91	79.69
294.141	100.69
294.372	84.69
294.603	85.69
294.833	84.69
295.064	78.69
295.295	88.69
295.525	90.69
295.756	92.69
295.987	121.69
296.217	141.69
296.448	106.69
296.679	99.69
296.909	81.69
297.14	90.69
297.37	71.69
297.601	79.69
297.831	79.69
298.062	93.69
298.292	77.69
298.523	94.69
298.753	87.69
298.984	87.69
299.214	81.69
299.445	85.69
299.675	93.69
299.905	86.69
300.136	87.69
300.366	82.69
300.597	96.69
300.827	86.69
301.057	80.69
301.288	106.69
301.518	98.69
301.748	80.69
301.979	81.69
302.209	91.69
302.439	77.69
302.669	77.69
302.9	69.69
303.13	79.69
303.36	93.69
303.59	96.69
303.82	98.69
304.051	89.69
304.281	87.69
304.511	96.69
304.741	89.69
304.971	79.69
305.201	84.69
305.431	91.69
305.661	76.69
305.891	83.69
306.121	94.69
306.352	102.69
306.582	94.69
306.812	85.69
307.042	80.69
307.272	96.69
307.502	79.69
307.731	88.69
307.961	87.69
308.191	88.69
308.421	92.69
308.651	80.69
308.881	93.69
309.111	89.69
309.341	91.69
309.571	90.69
309.8	84.69
310.03	85.69
310.26	91.69
310.49	85.69
310.72	92.69
310.949	79.69
311.179	100.69
311.409	85.69
311.639	89.69
311.868	94.69
312.098	91.69
312.328	94.69
312.557	87.69
312.787	91.69
313.017	96.69
313.246	95.69
313.476	86.69
313.706	76.69
313.935	89.69
314.165	90.69
314.394	103.69
314.624	95.69
314.853	89.69
315.083	94.69
315.312	78.69
315.542	84.69
315.771	101.69
316.001	82.69
316.23	103.69
316.46	87.69
316.689	95.69
316.919	75.69
317.148	91.69
317.377	86.69
317.607	94.69
317.836	83.69
318.065	86.69
318.295	87.69
318.524	72.69
318.753	81.69
318.983	79.69
319.212	94.69
319.441	102.69
319.67	94.69
319.9	77.69
320.129	89.69
320.358	97.69
320.587	91.69
320.816	95.69
321.046	84.69
321.275	95.69
321.504	83.69
321.733	88.69
321.962	103.69
322.191	98.69
322.42	97.69
322.649	97.69
322.878	109.69
323.108	108.69
323.337	124.69
323.566	157.69
323.795	148.69
324.024	205.69
324.253	409.69
324.482	901.69
324.71	1896.69
324.939	2453.69
325.168	873.69
325.397	268.69
325.626	154.69
325.855	118.69
326.084	127.69
326.313	140.69
326.542	176.69
326.77	234.69
326.999	497.69
327.228	1055.69
327.457	1910.69
327.686	1520.69
327.914	375.69
328.143	188.69
328.372	147.69
328.6	115.69
328.829	113.69
329.058	115.69
329.287	131.69
329.515	110.69
329.744	98.69
329.972	94.69
330.201	111.69
330.43	95.69
330.658	114.69
330.887	126.69
331.115	115.69
331.344	81.69
331.572	104.69
331.801	85.69
332.03	100.69
332.258	92.69
332.486	85.69
332.715	102.69
332.943	89.69
333.172	91.69
333.4	93.69
333.629	100.69
333.857	85.69
334.085	95.69
334.314	98.69
334.542	104.69
334.771	81.69
334.999	79.69
335.227	84.69
335.455	89.69
335.684	89.69
335.912	87.69
336.14	100.69
336.369	93.69
336.597	76.69
336.825	87.69
337.053	89.69
337.281	84.69
337.51	90.69
337.738	81.69
337.966	88.69
338.194	93.69
338.422	91.69
338.65	81.69
338.878	89.69
339.106	90.69
339.334	83.69
339.562	89.69
339.79	89.69
340.018	99.69
340.246	89.69
340.474	102.69
340.702	97.69
340.93	86.69
341.158	84.69
341.386	86.69
341.614	90.69
341.842	94.69
342.07	93.69
342.298	83.69
342.526	83.69
342.754	85.69
342.981	86.69
343.209	99.69
343.437	95.69
343.665	75.69
343.893	92.69
344.12	85.69
344.348	80.69
344.576	74.69
344.804	80.69
345.031	85.69
345.259	93.69
345.487	79.69
345.714	92.69
345.942	89.69
346.17	71.69
346.397	84.69
346.625	91.69
346.853	84.69
347.08	88.69
347.308	96.69
347.535	104.69
347.763	93.69
347.99	105.69
348.218	87.69
348.445	102.69
348.673	100.69
348.9	99.69
349.128	80.69
349.355	76.69
349.583	91.69
349.81	83.69
350.037	84.69
350.265	86.69
350.492	84.69
350.72	93.69
350.947	100.69
351.174	102.69
351.402	94.69
351.629	108.69
351.856	91.69
352.083	96.69
352.311	100.69
352.538	96.69
352.765	104.69
352.992	108.69
353.22	90.69
353.447	99.69
353.674	91.69
353.901	83.69
354.128	89.69
354.355	100.69
354.583	84.69
354.81	99.69
355.037	86.69
355.264	85.69
355.491	92.69
355.718	94.69
355.945	89.69
356.172	88.69
356.399	75.69
356.626	92.69
356.853	94.69
357.08	94.69
357.307	100.69
357.534	92.69
357.761	88.69
357.988	90.69
358.215	93.69
358.441	84.69
358.668	69.69
358.895	79.69
359.122	82.69
359.349	88.69
359.576	89.69
359.802	85.69
360.029	105.69
360.256	91.69
360.483	100.69
360.709	86.69
360.936	90.69
361.163	94.69
361.39	91.69
361.616	83.69
361.843	83.69
362.07	101.69
362.296	81.69
362.523	87.69
362.749	83.69
362.976	87.69
363.203	92.69
363.429	95.69
363.656	91.69
363.882	89.69
364.109	77.69
364.335	81.69
364.562	86.69
364.788	99.69
365.015	86.69
365.241	100.69
365.468	98.69
365.694	103.69
365.92	77.69
366.147	80.69
366.373	70.69
366.599	75.69
366.826	98.69
367.052	71.69
367.278	97.69
367.505	92.69
367.731	99.69
367.957	87.69
368.184	92.69
368.41	107.69
368.636	109.69
368.862	115.69
369.089	94.69
369.315	81.69
369.541	88.69
369.767	89.69
369.993	80.69
370.219	58.69
370.445	72.69
370.672	81.69
370.898	84.69
371.124	66.69
371.35	84.69
371.576	83.69
371.802	76.69
372.028	86.69
372.254	69.69
372.48	91.69
372.706	83.69
372.932	81.69
373.158	86.69
373.384	92.69
373.61	91.69
373.835	82.69
374.061	84.69
374.287	75.69
374.513	94.69
374.739	73.69
374.965	96.69
375.191	79.69
375.416	81.69
375.642	81.69
375.868	81.69
376.094	74.69
376.319	86.69
376.545	92.69
376.771	70.69
376.997	83.69
377.222	89.69
377.448	94.69
377.674	99.69
377.899	87.69
378.125	92.69
378.35	88.69
378.576	100.69
378.802	91.69
379.027	92.69
379.253	92.69
379.478	70.69
379.704	75.69
379.929	71.69
380.155	93.69
380.38	92.69
380.606	77.69
380.831	94.69
381.057	88.69
381.282	98.69
381.507	83.69
381.733	99.69
381.958	94.69
382.184	86.69
382.409	75.69
382.634	97.69
382.86	96.69
383.085	91.69
383.31	83.69
383.535	81.69
383.761	80.69
383.986	100.69
384.211	87.69
384.436	92.69
384.662	100.69
384.887	109.69
385.112	109.69
385.337	94.69
385.562	89.69
385.787	80.69
386.013	96.69
386.238	95.69
386.463	104.69
386.688	84.69
386.913	94.69
387.138	102.69
387.363	107.69
387.588	97.69
387.813	86.69
388.038	95.69
388.263	92.69
388.488	94.69
388.713	104.69
388.938	100.69
389.163	89.69
389.387	89.69
389.612	72.69
389.837	81.69
390.062	81.69
390.287	88.69
390.512	80.69
390.736	80.69
390.961	88.69
391.186	80.69
391.411	82.69
391.636	79.69
391.86	86.69
392.085	87.69
392.31	82.69
392.534	78.69
392.759	87.69
392.984	81.69
393.208	92.69
393.433	74.69
393.658	83.69
393.882	78.69
394.107	81.69
394.331	78.69
394.556	77.69
394.78	76.69
395.005	91.69
395.229	88.69
395.454	83.69
395.678	74.69
395.903	80.69
396.127	89.69
396.352	80.69
396.576	85.69
396.801	87.69
397.025	88.69
397.249	83.69
397.474	83.69
397.698	77.69
397.922	76.69
398.147	70.69
398.371	84.69
398.595	93.69
398.82	85.69
399.044	75.69
399.268	81.69
399.492	86.69
399.717	87.69
399.941	80.69
400.165	87.69
400.389	79.69
400.613	85.69
400.837	81.69
401.062	88.69
401.286	99.69
401.51	80.69
401.734	91.69
401.958	93.69
402.182	125.69
402.406	152.69
402.63	111.69
402.854	99.69
403.078	76.69
403.302	68.69
403.526	91.69
403.75	80.69
403.974	75.69
404.198	83.69
404.422	67.69
404.645	88.69
404.869	91.69
405.093	86.69
405.317	96.69
405.541	101.69
405.765	96.69
405.988	104.69
406.212	163.69
406.436	201.69
406.66	135.69
406.883	91.69
407.107	96.69
407.331	81.69
407.555	84.69
407.778	92.69
408.002	87.69
408.226	62.69
408.449	78.69
408.673	94.69
408.896	86.69
409.12	96.69
409.344	87.69
409.567	83.69
409.791	91.69
410.014	89.69
410.238	104.69
410.461	85.69
410.685	92.69
410.908	97.69
411.132	89.69
411.355	86.69
411.578	96.69
411.802	80.69
412.025	90.69
412.249	81.69
412.472	90.69
412.695	82.69
412.919	88.69
413.142	84.69
413.365	85.69
413.589	67.69
413.812	79.69
414.035	90.69
414.258	85.69
414.482	80.69
414.705	87.69
414.928	79.69
415.151	86.69
415.374	93.69
415.597	88.69
415.821	86.69
416.044	83.69
416.267	91.69
416.49	76.69
416.713	97.69
416.936	99.69
417.159	78.69
417.382	92.69
417.605	85.69
417.828	96.69
418.051	91.69
418.274	95.69
418.497	76.69
418.72	83.69
418.943	81.69
419.166	84.69
419.389	71.69
419.611	80.69
419.834	87.69
420.057	81.69
420.28	91.69
420.503	80.69
420.726	76.69
420.948	75.69
421.171	78.69
421.394	96.69
421.617	83.69
421.839	72.69
422.062	86.69
422.285	95.69
422.507	97.69
422.73	96.69
422.953	79.69
423.175	87.69
423.398	74.69
423.621	83.69
423.843	82.69
424.066	73.69
424.288	93.69
424.511	88.69
424.733	96.69
424.956	94.69
425.178	87.69
425.401	97.69
425.623	93.69
425.846	82.69
426.068	76.69
426.291	78.69
426.513	82.69
426.735	76.69
426.958	93.69
427.18	87.69
427.402	143.69
427.625	167.69
427.847	120.69
428.069	99.69
428.292	90.69
428.514	66.69
428.736	66.69
428.958	78.69
429.181	88.69
429.403	86.69
429.625	75.69
429.847	83.69
430.069	100.69
430.292	84.69
430.514	84.69
430.736	87.69
430.958	72.69
431.18	81.69
431.402	65.69
431.624	69.69
431.846	81.69
432.068	81.69
432.29	80.69
432.512	83.69
432.734	88.69
432.956	105.69
433.178	98.69
433.4	94.69
433.622	83.69
433.844	78.69
434.066	91.69
434.287	78.69
434.509	81.69
434.731	73.69
434.953	91.69
435.175	83.69
435.397	81.69
435.618	74.69
435.84	98.69
436.062	111.69
436.284	103.69
436.505	100.69
436.727	93.69
436.949	99.69
437.17	97.69
437.392	89.69
437.614	84.69
437.835	99.69
438.057	110.69
438.278	103.69
438.5	96.69
438.721	110.69
438.943	91.69
439.165	80.69
439.386	81.69
439.608	77.69
439.829	96.69
440.05	120.69
440.272	144.69
440.493	116.69
440.715	92.69
440.936	83.69
441.158	80.69
441.379	78.69
441.6	93.69
441.822	87.69
442.043	86.69
442.264	94.69
442.486	92.69
442.707	77.69
442.928	109.69
443.149	118.69
443.371	121.69
443.592	107.69
443.813	107.69
444.034	102.69
444.255	93.69
444.476	84.69
444.698	88.69
444.919	84.69
445.14	142.69
445.361	119.69
445.582	105.69
445.803	146.69
446.024	145.69
446.245	147.69
446.466	105.69
446.687	79.69
446.908	69.69
447.129	77.69
447.35	80.69
447.571	79.69
447.792	86.69
448.013	91.69
448.234	96.69
448.455	89.69
448.675	116.69
448.896	116.69
449.117	91.69
449.338	93.69
449.559	112.69
449.779	117.69
450	92.69
450.221	83.69
450.442	87.69
450.662	98.69
450.883	86.69
451.104	100.69
451.324	96.69
451.545	87.69
451.766	90.69
451.986	90.69
452.207	88.69
452.428	102.69
452.648	92.69
452.869	91.69
453.089	96.69
453.31	112.69
453.53	90.69
453.751	85.69
453.971	87.69
454.192	93.69
454.412	89.69
454.633	76.69
454.853	68.69
455.073	80.69
455.294	79.69
455.514	97.69
455.734	91.69
455.955	85.69
456.175	72.69
456.395	69.69
456.616	74.69
456.836	74.69
457.056	72.69
457.276	77.69
457.497	77.69
457.717	87.69
457.937	76.69
458.157	83.69
458.377	81.69
458.598	107.69
458.818	140.69
459.038	146.69
459.258	119.69
459.478	85.69
459.698	89.69
459.918	80.69
460.138	90.69
460.358	89.69
460.578	68.69
460.798	88.69
461.018	86.69
461.238	93.69
461.458	92.69
461.678	69.69
461.898	88.69
462.118	85.69
462.338	73.69
462.558	74.69
462.777	74.69
462.997	81.69
463.217	94.69
463.437	77.69
463.657	88.69
463.876	90.69
464.096	79.69
464.316	84.69
464.536	92.69
464.755	95.69
464.975	88.69
465.195	162.69
465.414	159.69
465.634	92.69
465.854	106.69
466.073	81.69
466.293	78.69
466.512	78.69
466.732	83.69
466.951	74.69
467.171	67.69
467.391	95.69
467.61	98.69
467.829	81.69
468.049	84.69
468.268	89.69
468.488	86.69
468.707	83.69
468.927	87.69
469.146	80.69
469.365	99.69
469.585	95.69
469.804	80.69
470.023	85.69
470.243	83.69
470.462	83.69
470.681	97.69
470.901	83.69
471.12	82.69
471.339	89.69
471.558	70.69
471.777	87.69
471.997	89.69
472.216	91.69
472.435	88.69
472.654	78.69
472.873	84.69
473.092	87.69
473.311	85.69
473.53	90.69
473.749	67.69
473.968	91.69
474.187	108.69
474.406	88.69
474.625	56.69
474.844	80.69
475.063	84.69
475.282	89.69
475.501	68.69
475.72	75.69
475.939	82.69
476.158	81.69
476.377	80.69
476.596	82.69
476.814	85.69
477.033	92.69
477.252	87.69
477.471	92.69
477.69	85.69
477.908	80.69
478.127	69.69
478.346	75.69
478.564	93.69
478.783	94.69
479.002	67.69
479.22	83.69
479.439	104.69
479.658	92.69
479.876	79.69
480.095	92.69
480.313	93.69
480.532	94.69
480.751	85.69
480.969	84.69
481.188	96.69
481.406	83.69
481.624	89.69
481.843	83.69
482.061	104.69
482.28	99.69
482.498	81.69
482.717	91.69
482.935	87.69
483.153	74.69
483.372	92.69
483.59	81.69
483.808	75.69
484.027	83.69
484.245	91.69
484.463	89.69
484.681	87.69
484.9	89.69
485.118	73.69
485.336	96.69
485.554	102.69
485.772	97.69
485.99	97.69
486.209	112.69
486.427	91.69
486.645	112.69
486.863	89.69
487.081	99.69
487.299	94.69
487.517	94.69
487.735	96.69
487.953	79.69
488.171	85.69
488.389	86.69
488.607	101.69
488.825	87.69
489.043	70.69
489.261	86.69
489.479	86.69
489.696	77.69
489.914	79.69
490.132	90.69
490.35	77.69
490.568	70.69
490.786	92.69
491.003	89.69
491.221	89.69
491.439	75.69
491.657	75.69
491.874	87.69
492.092	77.69
492.31	96.69
492.527	74.69
492.745	99.69
492.963	86.69
493.18	97.69
493.398	90.69
493.615	85.69
493.833	95.69
494.05	97.69
494.268	99.69
494.485	70.69
494.703	73.69
494.92	78.69
495.138	77.69
495.355	94.69
495.573	84.69
495.79	81.69
496.008	77.69
496.225	71.69
496.442	77.69
496.66	84.69
496.877	92.69
497.094	91.69
497.312	79.69
497.529	70.69
497.746	91.69
497.963	86.69
498.181	103.69
498.398	85.69
498.615	96.69
498.832	111.69
499.049	102.69
499.267	66.69
499.484	79.69
499.701	79.69
499.918	107.69
500.135	73.69
500.352	86.69
500.569	81.69
500.786	78.69
501.003	88.69
501.22	87.69
501.437	79.69
501.654	89.69
501.871	104.69
502.088	98.69
502.305	80.69
502.522	91.69
502.739	83.69
502.956	90.69
503.172	87.69
503.389	93.69
503.606	101.69
503.823	87.69
504.04	65.69
504.256	88.69
504.473	83.69
504.69	80.69
504.907	95.69
505.123	71.69
505.34	80.69
505.557	81.69
505.773	68.69
505.99	69.69
506.207	87.69
506.423	86.69
506.64	99.69
506.856	83.69
507.073	78.69
507.289	83.69
507.506	90.69
507.722	105.69
507.939	111.69
508.155	100.69
508.372	103.69
508.588	85.69
508.805	93.69
509.021	84.69
509.238	94.69
509.454	89.69
509.67	90.69
509.887	94.69
510.103	117.69
510.319	197.69
510.536	746.69
510.752	2427.69
510.968	667.69
511.184	170.69
511.401	133.69
511.617	95.69
511.833	81.69
512.049	92.69
512.265	80.69
512.481	97.69
512.698	96.69
512.914	82.69
513.13	80.69
513.346	94.69
513.562	84.69
513.778	93.69
513.994	100.69
514.21	94.69
514.426	116.69
514.642	141.69
514.858	110.69
515.074	156.69
515.29	441.69
515.506	1457.69
515.721	549.69
515.937	164.69
516.153	108.69
516.369	92.69
516.585	83.69
516.801	97.69
517.016	88.69
517.232	85.69
517.448	93.69
