Data from Uncirc_2007_H10_HRD10591_00055.txt Node
Date: Wed Jan 03 10:20:53 EST 2024
User: Yrep
Spectrometer: HR+D1059
Trigger mode: 1
Integration Time (sec): 1.000000E-1
Scans to average: 1
Electric dark correction enabled: true
Nonlinearity correction enabled: false
Boxcar width: 0
XAxis mode: Wavelengths
Number of Pixels in Spectrum: 2048
>>>>>Begin Spectral Data<<<<<
223.165	-11.38
223.4	-11.38
223.635	-11.38
223.869	-13.38
224.104	-33.38
224.338	-13.38
224.573	-13.38
224.808	-5.38
225.042	-13.38
225.277	-12.38
225.511	0.62
225.746	7.62
225.98	-3.38
226.215	7.62
226.449	29.62
226.683	27.62
226.918	14.62
227.152	31.62
227.387	34.62
227.621	32.62
227.856	42.62
228.09	55.62
228.324	59.62
228.559	61.62
228.793	52.62
229.027	42.62
229.262	53.62
229.496	67.62
229.73	79.62
229.964	83.62
230.199	68.62
230.433	60.62
230.667	72.62
230.901	79.62
231.136	77.62
231.37	70.62
231.604	71.62
231.838	72.62
232.072	73.62
232.306	92.62
232.541	96.62
232.775	90.62
233.009	92.62
233.243	79.62
233.477	92.62
233.711	82.62
233.945	73.62
234.179	84.62
234.413	85.62
234.647	82.62
234.881	90.62
235.115	78.62
235.349	88.62
235.583	85.62
235.817	71.62
236.051	84.62
236.285	88.62
236.519	88.62
236.753	79.62
236.987	71.62
237.221	88.62
237.455	80.62
237.689	79.62
237.922	78.62
238.156	74.62
238.39	74.62
238.624	92.62
238.858	92.62
239.091	79.62
239.325	86.62
239.559	99.62
239.793	73.62
240.027	82.62
240.26	73.62
240.494	80.62
240.728	75.62
240.961	73.62
241.195	89.62
241.429	80.62
241.662	70.62
241.896	76.62
242.13	72.62
242.363	77.62
242.597	72.62
242.83	71.62
243.064	83.62
243.298	77.62
243.531	90.62
243.765	85.62
243.998	92.62
244.232	80.62
244.465	81.62
244.699	74.62
244.932	77.62
245.166	61.62
245.399	75.62
245.633	89.62
245.866	91.62
246.099	82.62
246.333	82.62
246.566	90.62
246.8	91.62
247.033	74.62
247.266	80.62
247.5	67.62
247.733	82.62
247.966	94.62
248.2	79.62
248.433	82.62
248.666	85.62
248.899	71.62
249.133	74.62
249.366	105.62
249.599	109.62
249.832	76.62
250.066	76.62
250.299	73.62
250.532	71.62
250.765	84.62
250.998	84.62
251.231	79.62
251.465	83.62
251.698	71.62
251.931	85.62
252.164	71.62
252.397	87.62
252.63	83.62
252.863	80.62
253.096	73.62
253.329	78.62
253.562	79.62
253.795	83.62
254.028	84.62
254.261	80.62
254.494	75.62
254.727	88.62
254.96	91.62
255.193	78.62
255.426	81.62
255.659	77.62
255.892	91.62
256.124	91.62
256.357	76.62
256.59	85.62
256.823	72.62
257.056	65.62
257.289	84.62
257.521	84.62
257.754	95.62
257.987	82.62
258.22	97.62
258.452	85.62
258.685	83.62
258.918	89.62
259.151	66.62
259.383	80.62
259.616	91.62
259.849	72.62
260.081	90.62
260.314	89.62
260.547	79.62
260.779	76.62
261.012	93.62
261.244	84.62
261.477	83.62
261.71	88.62
261.942	96.62
262.175	107.62
262.407	96.62
262.64	77.62
262.872	91.62
263.105	92.62
263.337	82.62
263.57	83.62
263.802	85.62
264.035	87.62
264.267	84.62
264.499	84.62
264.732	83.62
264.964	96.62
265.197	90.62
265.429	78.62
265.661	92.62
265.894	82.62
266.126	79.62
266.358	87.62
266.591	93.62
266.823	75.62
267.055	77.62
267.287	95.62
267.52	81.62
267.752	84.62
267.984	93.62
268.216	86.62
268.448	80.62
268.681	76.62
268.913	86.62
269.145	89.62
269.377	80.62
269.609	86.62
269.841	78.62
270.073	89.62
270.306	93.62
270.538	81.62
270.77	77.62
271.002	82.62
271.234	61.62
271.466	99.62
271.698	95.62
271.93	90.62
272.162	81.62
272.394	92.62
272.626	84.62
272.858	82.62
273.09	77.62
273.322	100.62
273.553	92.62
273.785	84.62
274.017	73.62
274.249	77.62
274.481	81.62
274.713	93.62
274.945	90.62
275.176	97.62
275.408	89.62
275.64	82.62
275.872	80.62
276.104	97.62
276.335	104.62
276.567	104.62
276.799	103.62
277.031	103.62
277.262	89.62
277.494	79.62
277.726	89.62
277.957	87.62
278.189	84.62
278.421	81.62
278.652	90.62
278.884	88.62
279.115	95.62
279.347	89.62
279.579	81.62
279.81	87.62
280.042	82.62
280.273	86.62
280.505	88.62
280.736	92.62
280.968	98.62
281.199	93.62
281.431	92.62
281.662	101.62
281.894	98.62
282.125	97.62
282.356	121.62
282.588	154.62
282.819	115.62
283.051	86.62
283.282	91.62
283.513	91.62
283.745	92.62
283.976	93.62
284.207	98.62
284.439	89.62
284.67	98.62
284.901	91.62
285.132	94.62
285.364	75.62
285.595	92.62
285.826	85.62
286.057	90.62
286.288	88.62
286.52	98.62
286.751	90.62
286.982	82.62
287.213	81.62
287.444	83.62
287.675	89.62
287.906	81.62
288.138	95.62
288.369	104.62
288.6	101.62
288.831	91.62
289.062	87.62
289.293	80.62
289.524	89.62
289.755	94.62
289.986	100.62
290.217	96.62
290.448	102.62
290.679	91.62
290.91	84.62
291.141	80.62
291.371	80.62
291.602	102.62
291.833	99.62
292.064	94.62
292.295	85.62
292.526	91.62
292.757	91.62
292.987	101.62
293.218	96.62
293.449	92.62
293.68	96.62
293.91	96.62
294.141	91.62
294.372	84.62
294.603	83.62
294.833	106.62
295.064	86.62
295.295	95.62
295.525	88.62
295.756	85.62
295.987	123.62
296.217	123.62
296.448	124.62
296.679	99.62
296.909	84.62
297.14	89.62
297.37	78.62
297.601	93.62
297.831	86.62
298.062	106.62
298.292	88.62
298.523	92.62
298.753	80.62
298.984	99.62
299.214	72.62
299.445	80.62
299.675	87.62
299.905	97.62
300.136	97.62
300.366	111.62
300.597	88.62
300.827	86.62
301.057	92.62
301.288	100.62
301.518	91.62
301.748	95.62
301.979	91.62
302.209	101.62
302.439	83.62
302.669	77.62
302.9	87.62
303.13	88.62
303.36	93.62
303.59	97.62
303.82	106.62
304.051	94.62
304.281	79.62
304.511	99.62
304.741	90.62
304.971	98.62
305.201	92.62
305.431	86.62
305.661	90.62
305.891	81.62
306.121	99.62
306.352	112.62
306.582	116.62
306.812	75.62
307.042	84.62
307.272	93.62
307.502	95.62
307.731	87.62
307.961	89.62
308.191	93.62
308.421	107.62
308.651	95.62
308.881	108.62
309.111	83.62
309.341	92.62
309.571	100.62
309.8	112.62
310.03	106.62
310.26	102.62
310.49	91.62
310.72	103.62
310.949	95.62
311.179	85.62
311.409	89.62
311.639	95.62
311.868	98.62
312.098	99.62
312.328	99.62
312.557	113.62
312.787	110.62
313.017	110.62
313.246	97.62
313.476	84.62
313.706	79.62
313.935	108.62
314.165	95.62
314.394	92.62
314.624	100.62
314.853	108.62
315.083	76.62
315.312	101.62
315.542	81.62
315.771	97.62
316.001	95.62
316.23	92.62
316.46	86.62
316.689	102.62
316.919	89.62
317.148	114.62
317.377	102.62
317.607	96.62
317.836	97.62
318.065	90.62
318.295	84.62
318.524	92.62
318.753	89.62
318.983	90.62
319.212	99.62
319.441	109.62
319.67	115.62
319.9	105.62
320.129	94.62
320.358	105.62
320.587	96.62
320.816	91.62
321.046	112.62
321.275	92.62
321.504	96.62
321.733	108.62
321.962	109.62
322.191	114.62
322.42	103.62
322.649	110.62
322.878	101.62
323.108	125.62
323.337	120.62
323.566	145.62
323.795	149.62
324.024	225.62
324.253	421.62
324.482	911.62
324.71	1859.62
324.939	2450.62
325.168	884.62
325.397	259.62
325.626	148.62
325.855	145.62
326.084	122.62
326.313	133.62
326.542	162.62
326.77	233.62
326.999	472.62
327.228	1026.62
327.457	1875.62
327.686	1496.62
327.914	386.62
328.143	195.62
328.372	160.62
328.6	123.62
328.829	109.62
329.058	136.62
329.287	127.62
329.515	131.62
329.744	103.62
329.972	97.62
330.201	112.62
330.43	105.62
330.658	123.62
330.887	137.62
331.115	108.62
331.344	117.62
331.572	99.62
331.801	121.62
332.03	106.62
332.258	116.62
332.486	78.62
332.715	92.62
332.943	93.62
333.172	98.62
333.4	98.62
333.629	111.62
333.857	94.62
334.085	99.62
334.314	98.62
334.542	97.62
334.771	88.62
334.999	84.62
335.227	97.62
335.455	93.62
335.684	95.62
335.912	90.62
336.14	98.62
336.369	91.62
336.597	115.62
336.825	96.62
337.053	93.62
337.281	104.62
337.51	86.62
337.738	92.62
337.966	86.62
338.194	88.62
338.422	98.62
338.65	110.62
338.878	87.62
339.106	96.62
339.334	95.62
339.562	89.62
339.79	83.62
340.018	97.62
340.246	110.62
340.474	89.62
340.702	92.62
340.93	86.62
341.158	99.62
341.386	108.62
341.614	106.62
341.842	95.62
342.07	97.62
342.298	104.62
342.526	84.62
342.754	102.62
342.981	93.62
343.209	87.62
343.437	101.62
343.665	99.62
343.893	88.62
344.12	91.62
344.348	89.62
344.576	89.62
344.804	96.62
345.031	96.62
345.259	78.62
345.487	104.62
345.714	96.62
345.942	83.62
346.17	85.62
346.397	94.62
346.625	95.62
346.853	105.62
347.08	94.62
347.308	84.62
347.535	101.62
347.763	96.62
347.99	100.62
348.218	107.62
348.445	132.62
348.673	117.62
348.9	114.62
349.128	105.62
349.355	91.62
349.583	94.62
349.81	96.62
350.037	105.62
350.265	101.62
350.492	89.62
350.72	93.62
350.947	97.62
351.174	106.62
351.402	119.62
351.629	96.62
351.856	108.62
352.083	105.62
352.311	108.62
352.538	116.62
352.765	119.62
352.992	105.62
353.22	116.62
353.447	104.62
353.674	94.62
353.901	103.62
354.128	94.62
354.355	89.62
354.583	103.62
354.81	105.62
355.037	90.62
355.264	92.62
355.491	96.62
355.718	78.62
355.945	83.62
356.172	79.62
356.399	93.62
356.626	85.62
356.853	90.62
357.08	80.62
357.307	102.62
357.534	81.62
357.761	103.62
357.988	102.62
358.215	82.62
358.441	93.62
358.668	90.62
358.895	89.62
359.122	94.62
359.349	89.62
359.576	92.62
359.802	91.62
360.029	102.62
360.256	116.62
360.483	102.62
360.709	102.62
360.936	103.62
361.163	96.62
361.39	92.62
361.616	91.62
361.843	84.62
362.07	88.62
362.296	84.62
362.523	92.62
362.749	82.62
362.976	96.62
363.203	95.62
363.429	92.62
363.656	97.62
363.882	99.62
364.109	97.62
364.335	94.62
364.562	96.62
364.788	83.62
365.015	92.62
365.241	105.62
365.468	96.62
365.694	103.62
365.92	99.62
366.147	88.62
366.373	91.62
366.599	88.62
366.826	98.62
367.052	87.62
367.278	103.62
367.505	86.62
367.731	90.62
367.957	93.62
368.184	83.62
368.41	92.62
368.636	111.62
368.862	110.62
369.089	110.62
369.315	94.62
369.541	95.62
369.767	91.62
369.993	88.62
370.219	73.62
370.445	85.62
370.672	78.62
370.898	93.62
371.124	85.62
371.35	82.62
371.576	101.62
371.802	88.62
372.028	91.62
372.254	90.62
372.48	70.62
372.706	100.62
372.932	93.62
373.158	97.62
373.384	92.62
373.61	88.62
373.835	85.62
374.061	81.62
374.287	80.62
374.513	83.62
374.739	91.62
374.965	88.62
375.191	84.62
375.416	91.62
375.642	77.62
375.868	91.62
376.094	95.62
376.319	82.62
376.545	99.62
376.771	96.62
376.997	86.62
377.222	96.62
377.448	79.62
377.674	84.62
377.899	82.62
378.125	81.62
378.35	87.62
378.576	92.62
378.802	87.62
379.027	93.62
379.253	106.62
379.478	96.62
379.704	100.62
379.929	83.62
380.155	104.62
380.38	94.62
380.606	85.62
380.831	87.62
381.057	93.62
381.282	92.62
381.507	93.62
381.733	90.62
381.958	89.62
382.184	106.62
382.409	74.62
382.634	108.62
382.86	97.62
383.085	102.62
383.31	78.62
383.535	101.62
383.761	97.62
383.986	91.62
384.211	89.62
384.436	88.62
384.662	99.62
384.887	99.62
385.112	97.62
385.337	97.62
385.562	102.62
385.787	102.62
386.013	107.62
386.238	111.62
386.463	113.62
386.688	107.62
386.913	99.62
387.138	95.62
387.363	114.62
387.588	99.62
387.813	105.62
388.038	108.62
388.263	109.62
388.488	109.62
388.713	95.62
388.938	105.62
389.163	103.62
389.387	98.62
389.612	97.62
389.837	86.62
390.062	97.62
390.287	85.62
390.512	78.62
390.736	82.62
390.961	89.62
391.186	96.62
391.411	84.62
391.636	87.62
391.86	83.62
392.085	90.62
392.31	89.62
392.534	93.62
392.759	105.62
392.984	95.62
393.208	79.62
393.433	96.62
393.658	93.62
393.882	81.62
394.107	89.62
394.331	87.62
394.556	87.62
394.78	89.62
395.005	84.62
395.229	77.62
395.454	107.62
395.678	86.62
395.903	104.62
396.127	93.62
396.352	92.62
396.576	90.62
396.801	87.62
397.025	80.62
397.249	68.62
397.474	89.62
397.698	89.62
397.922	86.62
398.147	81.62
398.371	92.62
398.595	72.62
398.82	75.62
399.044	75.62
399.268	71.62
399.492	83.62
399.717	85.62
399.941	83.62
400.165	104.62
400.389	87.62
400.613	77.62
400.837	84.62
401.062	99.62
401.286	88.62
401.51	84.62
401.734	85.62
401.958	82.62
402.182	136.62
402.406	142.62
402.63	110.62
402.854	99.62
403.078	89.62
403.302	89.62
403.526	96.62
403.75	92.62
403.974	91.62
404.198	89.62
404.422	89.62
404.645	90.62
404.869	95.62
405.093	107.62
405.317	90.62
405.541	94.62
405.765	91.62
405.988	119.62
406.212	184.62
406.436	233.62
406.66	147.62
406.883	97.62
407.107	81.62
407.331	77.62
407.555	105.62
407.778	89.62
408.002	85.62
408.226	88.62
408.449	80.62
408.673	80.62
408.896	88.62
409.12	91.62
409.344	96.62
409.567	100.62
409.791	81.62
410.014	87.62
410.238	103.62
410.461	83.62
410.685	99.62
410.908	91.62
411.132	106.62
411.355	105.62
411.578	80.62
411.802	93.62
412.025	83.62
412.249	96.62
412.472	83.62
412.695	92.62
412.919	89.62
413.142	74.62
413.365	84.62
413.589	89.62
413.812	83.62
414.035	77.62
414.258	85.62
414.482	89.62
414.705	82.62
414.928	89.62
415.151	95.62
415.374	102.62
415.597	90.62
415.821	86.62
416.044	82.62
416.267	83.62
416.49	89.62
416.713	81.62
416.936	92.62
417.159	89.62
417.382	95.62
417.605	90.62
417.828	87.62
418.051	94.62
418.274	95.62
418.497	87.62
418.72	88.62
418.943	96.62
419.166	93.62
419.389	85.62
419.611	89.62
419.834	91.62
420.057	89.62
420.28	87.62
420.503	88.62
420.726	81.62
420.948	80.62
421.171	91.62
421.394	91.62
421.617	97.62
421.839	88.62
422.062	81.62
422.285	80.62
422.507	85.62
422.73	108.62
422.953	93.62
423.175	87.62
423.398	92.62
423.621	84.62
423.843	87.62
424.066	95.62
424.288	77.62
424.511	100.62
424.733	95.62
424.956	90.62
425.178	105.62
425.401	112.62
425.623	94.62
425.846	89.62
426.068	93.62
426.291	95.62
426.513	81.62
426.735	88.62
426.958	105.62
427.18	111.62
427.402	155.62
427.625	171.62
427.847	115.62
428.069	103.62
428.292	70.62
428.514	81.62
428.736	89.62
428.958	89.62
429.181	84.62
429.403	65.62
429.625	96.62
429.847	86.62
430.069	97.62
430.292	72.62
430.514	87.62
430.736	80.62
430.958	98.62
431.18	78.62
431.402	88.62
431.624	75.62
431.846	75.62
432.068	76.62
432.29	79.62
432.512	94.62
432.734	76.62
432.956	85.62
433.178	101.62
433.4	105.62
433.622	90.62
433.844	83.62
434.066	92.62
434.287	115.62
434.509	92.62
434.731	94.62
434.953	95.62
435.175	86.62
435.397	79.62
435.618	89.62
435.84	98.62
436.062	118.62
436.284	104.62
436.505	93.62
436.727	95.62
436.949	87.62
437.17	89.62
437.392	96.62
437.614	103.62
437.835	89.62
438.057	125.62
438.278	109.62
438.5	107.62
438.721	115.62
438.943	94.62
439.165	85.62
439.386	89.62
439.608	96.62
439.829	106.62
440.05	124.62
440.272	153.62
440.493	91.62
440.715	92.62
440.936	82.62
441.158	79.62
441.379	90.62
441.6	92.62
441.822	92.62
442.043	110.62
442.264	97.62
442.486	88.62
442.707	102.62
442.928	114.62
443.149	114.62
443.371	129.62
443.592	101.62
443.813	108.62
444.034	110.62
444.255	104.62
444.476	97.62
444.698	86.62
444.919	96.62
445.14	137.62
445.361	129.62
445.582	114.62
445.803	128.62
446.024	136.62
446.245	139.62
446.466	115.62
446.687	100.62
446.908	95.62
447.129	83.62
447.35	92.62
447.571	74.62
447.792	71.62
448.013	107.62
448.234	111.62
448.455	101.62
448.675	109.62
448.896	110.62
449.117	102.62
449.338	95.62
449.559	123.62
449.779	149.62
450	95.62
450.221	84.62
450.442	93.62
450.662	104.62
450.883	90.62
451.104	119.62
451.324	97.62
451.545	95.62
451.766	88.62
451.986	83.62
452.207	82.62
452.428	99.62
452.648	95.62
452.869	107.62
453.089	106.62
453.31	117.62
453.53	93.62
453.751	89.62
453.971	97.62
454.192	100.62
454.412	91.62
454.633	91.62
454.853	92.62
455.073	86.62
455.294	99.62
455.514	104.62
455.734	90.62
455.955	76.62
456.175	88.62
456.395	87.62
456.616	80.62
456.836	81.62
457.056	91.62
457.276	81.62
457.497	92.62
457.717	92.62
457.937	95.62
458.157	96.62
458.377	88.62
458.598	109.62
458.818	158.62
459.038	148.62
459.258	122.62
459.478	89.62
459.698	83.62
459.918	78.62
460.138	88.62
460.358	91.62
460.578	83.62
460.798	93.62
461.018	89.62
461.238	59.62
461.458	83.62
461.678	95.62
461.898	90.62
462.118	83.62
462.338	76.62
462.558	77.62
462.777	86.62
462.997	97.62
463.217	71.62
463.437	82.62
463.657	85.62
463.876	79.62
464.096	96.62
464.316	89.62
464.536	99.62
464.755	88.62
464.975	121.62
465.195	157.62
465.414	143.62
465.634	99.62
465.854	90.62
466.073	91.62
466.293	92.62
466.512	90.62
466.732	92.62
466.951	89.62
467.171	84.62
467.391	104.62
467.61	113.62
467.829	92.62
468.049	87.62
468.268	100.62
468.488	89.62
468.707	80.62
468.927	88.62
469.146	77.62
469.365	75.62
469.585	87.62
469.804	107.62
470.023	95.62
470.243	106.62
470.462	97.62
470.681	111.62
470.901	75.62
471.12	79.62
471.339	86.62
471.558	66.62
471.777	100.62
471.997	65.62
472.216	84.62
472.435	80.62
472.654	99.62
472.873	93.62
473.092	81.62
473.311	85.62
473.53	85.62
473.749	100.62
473.968	89.62
474.187	109.62
474.406	99.62
474.625	88.62
474.844	77.62
475.063	88.62
475.282	83.62
475.501	78.62
475.72	81.62
475.939	82.62
476.158	94.62
476.377	88.62
476.596	91.62
476.814	92.62
477.033	95.62
477.252	84.62
477.471	98.62
477.69	93.62
477.908	85.62
478.127	83.62
478.346	74.62
478.564	80.62
478.783	82.62
479.002	93.62
479.22	101.62
479.439	96.62
479.658	99.62
479.876	90.62
480.095	84.62
480.313	86.62
480.532	90.62
480.751	81.62
480.969	83.62
481.188	103.62
481.406	77.62
481.624	98.62
481.843	82.62
482.061	85.62
482.28	82.62
482.498	91.62
482.717	85.62
482.935	85.62
483.153	82.62
483.372	76.62
483.59	97.62
483.808	97.62
484.027	81.62
484.245	97.62
484.463	106.62
484.681	99.62
484.9	86.62
485.118	93.62
485.336	96.62
485.554	85.62
485.772	108.62
485.99	102.62
486.209	99.62
486.427	111.62
486.645	100.62
486.863	100.62
487.081	104.62
487.299	98.62
487.517	93.62
487.735	86.62
487.953	95.62
488.171	100.62
488.389	98.62
488.607	105.62
488.825	100.62
489.043	106.62
489.261	94.62
489.479	89.62
489.696	109.62
489.914	77.62
490.132	88.62
490.35	103.62
490.568	91.62
490.786	97.62
491.003	89.62
491.221	83.62
491.439	82.62
491.657	97.62
491.874	79.62
492.092	83.62
492.31	90.62
492.527	90.62
492.745	88.62
492.963	97.62
493.18	93.62
493.398	82.62
493.615	90.62
493.833	90.62
494.05	102.62
494.268	101.62
494.485	85.62
494.703	81.62
494.92	89.62
495.138	92.62
495.355	94.62
495.573	89.62
495.79	99.62
496.008	94.62
496.225	94.62
496.442	84.62
496.66	85.62
496.877	89.62
497.094	94.62
497.312	89.62
497.529	98.62
497.746	103.62
497.963	91.62
498.181	106.62
498.398	82.62
498.615	102.62
498.832	109.62
499.049	98.62
499.267	84.62
499.484	98.62
499.701	98.62
499.918	96.62
500.135	82.62
500.352	91.62
500.569	84.62
500.786	92.62
501.003	89.62
501.22	80.62
501.437	80.62
501.654	98.62
501.871	109.62
502.088	91.62
502.305	96.62
502.522	86.62
502.739	95.62
502.956	89.62
503.172	89.62
503.389	103.62
503.606	85.62
503.823	94.62
504.04	92.62
504.256	100.62
504.473	81.62
504.69	87.62
504.907	100.62
505.123	108.62
505.34	85.62
505.557	80.62
505.773	90.62
505.99	91.62
506.207	91.62
506.423	80.62
506.64	97.62
506.856	92.62
507.073	91.62
507.289	100.62
507.506	93.62
507.722	105.62
507.939	90.62
508.155	87.62
508.372	84.62
508.588	79.62
508.805	88.62
509.021	89.62
509.238	95.62
509.454	86.62
509.67	108.62
509.887	123.62
510.103	131.62
510.319	224.62
510.536	783.62
510.752	2527.62
510.968	677.62
511.184	157.62
511.401	104.62
511.617	100.62
511.833	81.62
512.049	96.62
512.265	84.62
512.481	78.62
512.698	87.62
512.914	94.62
513.13	91.62
513.346	87.62
513.562	90.62
513.778	86.62
513.994	103.62
514.21	99.62
514.426	139.62
514.642	143.62
514.858	128.62
515.074	160.62
515.29	458.62
515.506	1540.62
515.721	564.62
