Data from Uncirc_2007_H10_HRD10591_00061.txt Node
Date: Wed Jan 03 10:20:54 EST 2024
User: Yrep
Spectrometer: HR+D1059
Trigger mode: 1
Integration Time (sec): 1.000000E-1
Scans to average: 1
Electric dark correction enabled: true
Nonlinearity correction enabled: false
Boxcar width: 0
XAxis mode: Wavelengths
Number of Pixels in Spectrum: 2048
>>>>>Begin Spectral Data<<<<<
223.165	-11.62
223.4	-11.62
223.635	-11.62
223.869	-17.62
224.104	-18.62
224.338	-14.62
224.573	-15.62
224.808	-12.62
225.042	-7.62
225.277	-4.62
225.511	-5.62
225.746	-14.62
225.98	14.38
226.215	7.38
226.449	16.38
226.683	27.38
226.918	28.38
227.152	29.38
227.387	28.38
227.621	30.38
227.856	32.38
228.09	48.38
228.324	50.38
228.559	55.38
228.793	51.38
229.027	65.38
229.262	66.38
229.496	68.38
229.73	83.38
229.964	76.38
230.199	67.38
230.433	74.38
230.667	66.38
230.901	75.38
231.136	85.38
231.37	80.38
231.604	81.38
231.838	73.38
232.072	69.38
232.306	78.38
232.541	58.38
232.775	81.38
233.009	79.38
233.243	88.38
233.477	79.38
233.711	70.38
233.945	70.38
234.179	73.38
234.413	77.38
234.647	66.38
234.881	81.38
235.115	76.38
235.349	76.38
235.583	65.38
235.817	70.38
236.051	76.38
236.285	68.38
236.519	94.38
236.753	65.38
236.987	83.38
237.221	66.38
237.455	89.38
237.689	80.38
237.922	83.38
238.156	61.38
238.39	69.38
238.624	77.38
238.858	71.38
239.091	77.38
239.325	65.38
239.559	62.38
239.793	82.38
240.027	89.38
240.26	78.38
240.494	88.38
240.728	74.38
240.961	80.38
241.195	92.38
241.429	78.38
241.662	78.38
241.896	63.38
242.13	62.38
242.363	73.38
242.597	73.38
242.83	71.38
243.064	80.38
243.298	74.38
243.531	61.38
243.765	79.38
243.998	83.38
244.232	75.38
244.465	80.38
244.699	76.38
244.932	71.38
245.166	53.38
245.399	78.38
245.633	82.38
245.866	78.38
246.099	85.38
246.333	82.38
246.566	73.38
246.8	69.38
247.033	73.38
247.266	90.38
247.5	73.38
247.733	76.38
247.966	73.38
248.2	80.38
248.433	76.38
248.666	81.38
248.899	66.38
249.133	65.38
249.366	89.38
249.599	96.38
249.832	80.38
250.066	83.38
250.299	84.38
250.532	78.38
250.765	76.38
250.998	81.38
251.231	77.38
251.465	74.38
251.698	72.38
251.931	70.38
252.164	73.38
252.397	80.38
252.63	76.38
252.863	86.38
253.096	78.38
253.329	60.38
253.562	83.38
253.795	81.38
254.028	77.38
254.261	82.38
254.494	90.38
254.727	66.38
254.96	69.38
255.193	66.38
255.426	82.38
255.659	70.38
255.892	86.38
256.124	82.38
256.357	78.38
256.59	72.38
256.823	90.38
257.056	86.38
257.289	83.38
257.521	71.38
257.754	92.38
257.987	81.38
258.22	78.38
258.452	82.38
258.685	95.38
258.918	76.38
259.151	98.38
259.383	68.38
259.616	82.38
259.849	90.38
260.081	89.38
260.314	81.38
260.547	72.38
260.779	66.38
261.012	72.38
261.244	80.38
261.477	78.38
261.71	86.38
261.942	119.38
262.175	100.38
262.407	87.38
262.64	80.38
262.872	88.38
263.105	82.38
263.337	82.38
263.57	88.38
263.802	79.38
264.035	86.38
264.267	86.38
264.499	90.38
264.732	80.38
264.964	82.38
265.197	81.38
265.429	77.38
265.661	100.38
265.894	92.38
266.126	82.38
266.358	90.38
266.591	82.38
266.823	80.38
267.055	75.38
267.287	80.38
267.52	74.38
267.752	83.38
267.984	82.38
268.216	90.38
268.448	90.38
268.681	80.38
268.913	87.38
269.145	83.38
269.377	85.38
269.609	81.38
269.841	64.38
270.073	80.38
270.306	90.38
270.538	74.38
270.77	83.38
271.002	77.38
271.234	81.38
271.466	85.38
271.698	87.38
271.93	77.38
272.162	93.38
272.394	68.38
272.626	78.38
272.858	94.38
273.09	96.38
273.322	77.38
273.553	79.38
273.785	91.38
274.017	75.38
274.249	74.38
274.481	77.38
274.713	93.38
274.945	75.38
275.176	92.38
275.408	82.38
275.64	80.38
275.872	75.38
276.104	85.38
276.335	80.38
276.567	97.38
276.799	97.38
277.031	86.38
277.262	94.38
277.494	98.38
277.726	86.38
277.957	82.38
278.189	89.38
278.421	89.38
278.652	88.38
278.884	73.38
279.115	78.38
279.347	81.38
279.579	85.38
279.81	89.38
280.042	91.38
280.273	87.38
280.505	90.38
280.736	94.38
280.968	92.38
281.199	91.38
281.431	94.38
281.662	85.38
281.894	88.38
282.125	95.38
282.356	122.38
282.588	159.38
282.819	123.38
283.051	88.38
283.282	87.38
283.513	80.38
283.745	84.38
283.976	93.38
284.207	86.38
284.439	86.38
284.67	71.38
284.901	98.38
285.132	78.38
285.364	78.38
285.595	86.38
285.826	91.38
286.057	84.38
286.288	75.38
286.52	85.38
286.751	79.38
286.982	89.38
287.213	77.38
287.444	73.38
287.675	73.38
287.906	101.38
288.138	84.38
288.369	95.38
288.6	81.38
288.831	82.38
289.062	82.38
289.293	74.38
289.524	80.38
289.755	83.38
289.986	76.38
290.217	81.38
290.448	81.38
290.679	78.38
290.91	94.38
291.141	80.38
291.371	79.38
291.602	90.38
291.833	71.38
292.064	87.38
292.295	85.38
292.526	93.38
292.757	88.38
292.987	83.38
293.218	97.38
293.449	75.38
293.68	88.38
293.91	86.38
294.141	86.38
294.372	65.38
294.603	93.38
294.833	83.38
295.064	94.38
295.295	79.38
295.525	78.38
295.756	100.38
295.987	114.38
296.217	133.38
296.448	117.38
296.679	89.38
296.909	93.38
297.14	89.38
297.37	80.38
297.601	74.38
297.831	107.38
298.062	88.38
298.292	88.38
298.523	86.38
298.753	63.38
298.984	79.38
299.214	72.38
299.445	85.38
299.675	82.38
299.905	92.38
300.136	95.38
300.366	83.38
300.597	77.38
300.827	91.38
301.057	98.38
301.288	108.38
301.518	90.38
301.748	82.38
301.979	92.38
302.209	77.38
302.439	88.38
302.669	98.38
302.9	83.38
303.13	98.38
303.36	87.38
303.59	91.38
303.82	107.38
304.051	78.38
304.281	84.38
304.511	77.38
304.741	87.38
304.971	76.38
305.201	99.38
305.431	77.38
305.661	75.38
305.891	78.38
306.121	97.38
306.352	98.38
306.582	97.38
306.812	90.38
307.042	91.38
307.272	82.38
307.502	72.38
307.731	98.38
307.961	89.38
308.191	95.38
308.421	108.38
308.651	87.38
308.881	96.38
309.111	82.38
309.341	97.38
309.571	99.38
309.8	81.38
310.03	106.38
310.26	103.38
310.49	79.38
310.72	94.38
310.949	119.38
311.179	108.38
311.409	92.38
311.639	92.38
311.868	98.38
312.098	93.38
312.328	94.38
312.557	90.38
312.787	111.38
313.017	101.38
313.246	97.38
313.476	95.38
313.706	94.38
313.935	103.38
314.165	85.38
314.394	87.38
314.624	100.38
314.853	101.38
315.083	97.38
315.312	91.38
315.542	103.38
315.771	90.38
316.001	88.38
316.23	97.38
316.46	77.38
316.689	85.38
316.919	91.38
317.148	87.38
317.377	85.38
317.607	94.38
317.836	87.38
318.065	95.38
318.295	84.38
318.524	82.38
318.753	95.38
318.983	77.38
319.212	106.38
319.441	99.38
319.67	118.38
319.9	97.38
320.129	103.38
320.358	95.38
320.587	93.38
320.816	107.38
321.046	100.38
321.275	102.38
321.504	73.38
321.733	91.38
321.962	88.38
322.191	93.38
322.42	96.38
322.649	107.38
322.878	104.38
323.108	117.38
323.337	144.38
323.566	134.38
323.795	159.38
324.024	202.38
324.253	409.38
324.482	925.38
324.71	1917.38
324.939	2479.38
325.168	888.38
325.397	261.38
325.626	147.38
325.855	127.38
326.084	116.38
326.313	135.38
326.542	151.38
326.77	256.38
326.999	503.38
327.228	1029.38
327.457	1920.38
327.686	1487.38
327.914	391.38
328.143	200.38
328.372	135.38
328.6	128.38
328.829	115.38
329.058	141.38
329.287	119.38
329.515	114.38
329.744	109.38
329.972	99.38
330.201	90.38
330.43	107.38
330.658	111.38
330.887	138.38
331.115	125.38
331.344	104.38
331.572	101.38
331.801	101.38
332.03	113.38
332.258	91.38
332.486	89.38
332.715	79.38
332.943	86.38
333.172	95.38
333.4	96.38
333.629	91.38
333.857	101.38
334.085	94.38
334.314	81.38
334.542	100.38
334.771	104.38
334.999	88.38
335.227	87.38
335.455	75.38
335.684	106.38
335.912	94.38
336.14	100.38
336.369	92.38
336.597	102.38
336.825	94.38
337.053	82.38
337.281	94.38
337.51	100.38
337.738	100.38
337.966	106.38
338.194	94.38
338.422	92.38
338.65	88.38
338.878	90.38
339.106	99.38
339.334	96.38
339.562	93.38
339.79	84.38
340.018	86.38
340.246	90.38
340.474	87.38
340.702	105.38
340.93	90.38
341.158	83.38
341.386	81.38
341.614	94.38
341.842	97.38
342.07	97.38
342.298	83.38
342.526	92.38
342.754	86.38
342.981	85.38
343.209	85.38
343.437	104.38
343.665	87.38
343.893	77.38
344.12	71.38
344.348	76.38
344.576	93.38
344.804	89.38
345.031	103.38
345.259	110.38
345.487	88.38
345.714	97.38
345.942	94.38
346.17	77.38
346.397	98.38
346.625	87.38
346.853	101.38
347.08	84.38
347.308	92.38
347.535	93.38
347.763	88.38
347.99	84.38
348.218	98.38
348.445	108.38
348.673	107.38
348.9	91.38
349.128	106.38
349.355	90.38
349.583	92.38
349.81	83.38
350.037	93.38
350.265	78.38
350.492	79.38
350.72	78.38
350.947	94.38
351.174	103.38
351.402	120.38
351.629	101.38
351.856	108.38
352.083	113.38
352.311	110.38
352.538	108.38
352.765	107.38
352.992	120.38
353.22	106.38
353.447	99.38
353.674	89.38
353.901	97.38
354.128	90.38
354.355	87.38
354.583	103.38
354.81	97.38
355.037	89.38
355.264	81.38
355.491	86.38
355.718	95.38
355.945	86.38
356.172	89.38
356.399	90.38
356.626	90.38
356.853	96.38
357.08	89.38
357.307	77.38
357.534	95.38
357.761	62.38
357.988	93.38
358.215	97.38
358.441	96.38
358.668	96.38
358.895	82.38
359.122	109.38
359.349	98.38
359.576	96.38
359.802	103.38
360.029	110.38
360.256	114.38
360.483	95.38
360.709	81.38
360.936	102.38
361.163	101.38
361.39	96.38
361.616	98.38
361.843	82.38
362.07	102.38
362.296	81.38
362.523	91.38
362.749	101.38
362.976	87.38
363.203	95.38
363.429	84.38
363.656	81.38
363.882	94.38
364.109	86.38
364.335	104.38
364.562	111.38
364.788	75.38
365.015	103.38
365.241	101.38
365.468	114.38
365.694	94.38
365.92	96.38
366.147	84.38
366.373	88.38
366.599	88.38
366.826	106.38
367.052	80.38
367.278	85.38
367.505	85.38
367.731	95.38
367.957	89.38
368.184	91.38
368.41	97.38
368.636	114.38
368.862	108.38
369.089	106.38
369.315	99.38
369.541	109.38
369.767	88.38
369.993	78.38
370.219	84.38
370.445	85.38
370.672	82.38
370.898	86.38
371.124	91.38
371.35	80.38
371.576	86.38
371.802	79.38
372.028	89.38
372.254	79.38
372.48	79.38
372.706	86.38
372.932	84.38
373.158	83.38
373.384	88.38
373.61	102.38
373.835	101.38
374.061	89.38
374.287	89.38
374.513	87.38
374.739	84.38
374.965	87.38
375.191	90.38
375.416	86.38
375.642	83.38
375.868	90.38
376.094	97.38
376.319	85.38
376.545	81.38
376.771	99.38
376.997	79.38
377.222	82.38
377.448	89.38
377.674	76.38
377.899	87.38
378.125	84.38
378.35	113.38
378.576	102.38
378.802	97.38
379.027	85.38
379.253	89.38
379.478	97.38
379.704	90.38
379.929	89.38
380.155	82.38
380.38	91.38
380.606	97.38
380.831	105.38
381.057	92.38
381.282	99.38
381.507	93.38
381.733	83.38
381.958	77.38
382.184	88.38
382.409	91.38
382.634	97.38
382.86	88.38
383.085	98.38
383.31	89.38
383.535	88.38
383.761	88.38
383.986	113.38
384.211	96.38
384.436	93.38
384.662	99.38
384.887	103.38
385.112	87.38
385.337	85.38
385.562	104.38
385.787	91.38
386.013	109.38
386.238	86.38
386.463	117.38
386.688	117.38
386.913	99.38
387.138	89.38
387.363	83.38
387.588	87.38
387.813	99.38
388.038	90.38
388.263	98.38
388.488	101.38
388.713	90.38
388.938	96.38
389.163	93.38
389.387	102.38
389.612	91.38
389.837	82.38
390.062	90.38
390.287	91.38
390.512	82.38
390.736	97.38
390.961	97.38
391.186	95.38
391.411	87.38
391.636	95.38
391.86	102.38
392.085	90.38
392.31	88.38
392.534	77.38
392.759	81.38
392.984	93.38
393.208	96.38
393.433	75.38
393.658	89.38
393.882	83.38
394.107	76.38
394.331	91.38
394.556	107.38
394.78	79.38
395.005	95.38
395.229	102.38
395.454	90.38
395.678	87.38
395.903	87.38
396.127	86.38
396.352	73.38
396.576	80.38
396.801	91.38
397.025	84.38
397.249	94.38
397.474	97.38
397.698	88.38
397.922	81.38
398.147	89.38
398.371	93.38
398.595	77.38
398.82	99.38
399.044	89.38
399.268	91.38
399.492	91.38
399.717	102.38
399.941	85.38
400.165	101.38
400.389	93.38
400.613	72.38
400.837	81.38
401.062	85.38
401.286	87.38
401.51	90.38
401.734	91.38
401.958	102.38
402.182	124.38
402.406	145.38
402.63	116.38
402.854	108.38
403.078	83.38
403.302	83.38
403.526	86.38
403.75	99.38
403.974	95.38
404.198	96.38
404.422	93.38
404.645	82.38
404.869	77.38
405.093	93.38
405.317	94.38
405.541	105.38
405.765	90.38
405.988	107.38
406.212	177.38
406.436	238.38
406.66	135.38
406.883	98.38
407.107	103.38
407.331	89.38
407.555	88.38
407.778	107.38
408.002	98.38
408.226	77.38
408.449	97.38
408.673	96.38
408.896	87.38
409.12	94.38
409.344	88.38
409.567	106.38
409.791	92.38
410.014	91.38
410.238	62.38
410.461	78.38
410.685	86.38
410.908	94.38
411.132	108.38
411.355	98.38
411.578	87.38
411.802	93.38
412.025	94.38
412.249	82.38
412.472	91.38
412.695	85.38
412.919	89.38
413.142	92.38
413.365	96.38
413.589	75.38
413.812	90.38
414.035	86.38
414.258	89.38
414.482	94.38
414.705	78.38
414.928	90.38
415.151	94.38
415.374	92.38
415.597	77.38
415.821	90.38
416.044	91.38
416.267	80.38
416.49	75.38
416.713	92.38
416.936	81.38
417.159	99.38
417.382	82.38
417.605	73.38
417.828	96.38
418.051	87.38
418.274	85.38
418.497	88.38
418.72	91.38
418.943	81.38
419.166	89.38
419.389	77.38
419.611	94.38
419.834	76.38
420.057	85.38
420.28	87.38
420.503	84.38
420.726	90.38
420.948	71.38
421.171	99.38
421.394	88.38
421.617	95.38
421.839	89.38
422.062	77.38
422.285	103.38
422.507	95.38
422.73	86.38
422.953	87.38
423.175	87.38
423.398	83.38
423.621	102.38
423.843	79.38
424.066	94.38
424.288	80.38
424.511	90.38
424.733	88.38
424.956	110.38
425.178	92.38
425.401	91.38
425.623	96.38
425.846	94.38
426.068	93.38
426.291	94.38
426.513	93.38
426.735	96.38
426.958	88.38
427.18	97.38
427.402	133.38
427.625	178.38
427.847	129.38
428.069	98.38
428.292	85.38
428.514	83.38
428.736	82.38
428.958	75.38
429.181	70.38
429.403	73.38
429.625	82.38
429.847	93.38
430.069	96.38
430.292	85.38
430.514	92.38
430.736	94.38
430.958	80.38
431.18	72.38
431.402	81.38
431.624	87.38
431.846	85.38
432.068	100.38
432.29	88.38
432.512	73.38
432.734	89.38
432.956	93.38
433.178	96.38
433.4	95.38
433.622	89.38
433.844	99.38
434.066	91.38
434.287	87.38
434.509	87.38
434.731	85.38
434.953	94.38
435.175	72.38
435.397	87.38
435.618	74.38
435.84	99.38
436.062	121.38
436.284	110.38
436.505	114.38
436.727	105.38
436.949	91.38
437.17	89.38
437.392	99.38
437.614	86.38
437.835	110.38
438.057	122.38
438.278	119.38
438.5	114.38
438.721	125.38
438.943	94.38
439.165	87.38
439.386	85.38
439.608	86.38
439.829	85.38
440.05	120.38
440.272	153.38
440.493	102.38
440.715	86.38
440.936	83.38
441.158	92.38
441.379	89.38
441.6	100.38
441.822	87.38
442.043	91.38
442.264	104.38
442.486	97.38
442.707	91.38
442.928	91.38
443.149	121.38
443.371	127.38
443.592	114.38
443.813	105.38
444.034	101.38
444.255	89.38
444.476	86.38
444.698	82.38
444.919	78.38
445.14	113.38
445.361	114.38
445.582	127.38
445.803	139.38
446.024	138.38
446.245	125.38
446.466	109.38
446.687	79.38
446.908	81.38
447.129	87.38
447.35	89.38
447.571	96.38
447.792	95.38
448.013	93.38
448.234	111.38
448.455	87.38
448.675	126.38
448.896	139.38
449.117	116.38
449.338	94.38
449.559	140.38
449.779	128.38
450	102.38
450.221	87.38
450.442	78.38
450.662	95.38
450.883	96.38
451.104	92.38
451.324	104.38
451.545	74.38
451.766	82.38
451.986	77.38
452.207	85.38
452.428	91.38
452.648	94.38
452.869	112.38
453.089	113.38
453.31	119.38
453.53	102.38
453.751	92.38
453.971	101.38
454.192	109.38
454.412	93.38
454.633	80.38
454.853	85.38
455.073	97.38
455.294	88.38
455.514	106.38
455.734	103.38
455.955	91.38
456.175	81.38
456.395	70.38
456.616	85.38
456.836	82.38
457.056	77.38
457.276	83.38
457.497	81.38
457.717	93.38
457.937	76.38
458.157	94.38
458.377	101.38
458.598	117.38
458.818	148.38
459.038	165.38
459.258	115.38
459.478	88.38
459.698	82.38
459.918	80.38
460.138	88.38
460.358	90.38
460.578	97.38
460.798	94.38
461.018	81.38
461.238	92.38
461.458	85.38
461.678	94.38
461.898	88.38
462.118	82.38
462.338	81.38
462.558	81.38
462.777	77.38
462.997	95.38
463.217	79.38
463.437	67.38
463.657	83.38
463.876	97.38
464.096	94.38
464.316	94.38
464.536	76.38
464.755	90.38
464.975	111.38
465.195	161.38
465.414	161.38
465.634	96.38
465.854	100.38
466.073	78.38
466.293	83.38
466.512	81.38
466.732	83.38
466.951	82.38
467.171	89.38
467.391	92.38
467.61	104.38
467.829	98.38
468.049	87.38
468.268	73.38
468.488	89.38
468.707	80.38
468.927	89.38
469.146	78.38
469.365	91.38
469.585	91.38
469.804	91.38
470.023	91.38
470.243	107.38
470.462	108.38
470.681	109.38
470.901	91.38
471.12	87.38
471.339	87.38
471.558	66.38
471.777	74.38
471.997	78.38
472.216	83.38
472.435	86.38
472.654	83.38
472.873	94.38
473.092	92.38
473.311	91.38
473.53	72.38
473.749	79.38
473.968	87.38
474.187	105.38
474.406	89.38
474.625	77.38
474.844	81.38
475.063	82.38
475.282	86.38
475.501	76.38
475.72	89.38
475.939	93.38
476.158	98.38
476.377	80.38
476.596	81.38
476.814	94.38
477.033	97.38
477.252	77.38
477.471	86.38
477.69	88.38
477.908	79.38
478.127	89.38
478.346	70.38
478.564	93.38
478.783	82.38
479.002	82.38
479.22	99.38
479.439	87.38
479.658	98.38
479.876	97.38
480.095	79.38
480.313	78.38
480.532	80.38
480.751	82.38
480.969	91.38
481.188	87.38
481.406	91.38
481.624	91.38
481.843	89.38
482.061	74.38
482.28	86.38
482.498	85.38
482.717	71.38
482.935	76.38
483.153	81.38
483.372	80.38
483.59	86.38
483.808	94.38
484.027	90.38
484.245	90.38
484.463	88.38
484.681	93.38
484.9	89.38
485.118	89.38
485.336	100.38
485.554	82.38
485.772	103.38
485.99	98.38
486.209	105.38
486.427	107.38
486.645	102.38
486.863	107.38
487.081	98.38
487.299	93.38
487.517	77.38
487.735	81.38
487.953	93.38
488.171	83.38
488.389	92.38
488.607	78.38
488.825	99.38
489.043	94.38
489.261	98.38
489.479	90.38
489.696	85.38
489.914	92.38
490.132	78.38
490.35	86.38
490.568	95.38
490.786	82.38
491.003	95.38
491.221	91.38
491.439	96.38
491.657	83.38
491.874	88.38
492.092	79.38
492.31	94.38
492.527	84.38
492.745	81.38
492.963	98.38
493.18	88.38
493.398	83.38
493.615	83.38
493.833	105.38
494.05	69.38
494.268	81.38
494.485	80.38
494.703	94.38
494.92	95.38
495.138	82.38
495.355	79.38
495.573	80.38
495.79	79.38
496.008	89.38
496.225	90.38
496.442	77.38
496.66	79.38
496.877	99.38
497.094	93.38
497.312	79.38
497.529	97.38
497.746	89.38
497.963	89.38
498.181	82.38
498.398	95.38
498.615	104.38
498.832	94.38
499.049	79.38
499.267	89.38
499.484	89.38
499.701	89.38
499.918	86.38
500.135	87.38
500.352	86.38
500.569	86.38
500.786	102.38
501.003	83.38
501.22	86.38
501.437	85.38
501.654	81.38
501.871	97.38
502.088	82.38
502.305	82.38
502.522	88.38
502.739	83.38
502.956	80.38
503.172	91.38
503.389	85.38
503.606	87.38
503.823	106.38
504.04	82.38
504.256	91.38
504.473	95.38
504.69	84.38
504.907	81.38
505.123	99.38
505.34	74.38
505.557	93.38
505.773	87.38
505.99	107.38
506.207	76.38
506.423	81.38
506.64	78.38
506.856	93.38
507.073	86.38
507.289	91.38
507.506	86.38
507.722	113.38
507.939	117.38
508.155	79.38
508.372	102.38
508.588	92.38
508.805	96.38
509.021	98.38
509.238	106.38
509.454	88.38
509.67	108.38
509.887	110.38
510.103	120.38
510.319	236.38
510.536	801.38
510.752	2596.38
510.968	735.38
511.184	155.38
511.401	103.38
511.617	86.38
511.833	90.38
512.049	100.38
512.265	88.38
512.481	97.38
512.698	76.38
512.914	88.38
513.13	90.38
513.346	97.38
513.562	92.38
513.778	83.38
513.994	79.38
514.21	107.38
514.426	110.38
514.642	127.38
514.858	122.38
515.074	173.38
515.29	485.38
515.506	1598.38
515.721	612.38
515.937	157.38
516.153	126.38
516.369	94.38
516.585	94.38
