Data from Uncirc_2007_H10_HRD10591_00054.txt Node
Date: Wed Jan 03 10:20:53 EST 2024
User: Yrep
Spectrometer: HR+D1059
Trigger mode: 1
Integration Time (sec): 1.000000E-1
Scans to average: 1
Electric dark correction enabled: true
Nonlinearity correction enabled: false
Boxcar width: 0
XAxis mode: Wavelengths
Number of Pixels in Spectrum: 2048
>>>>>Begin Spectral Data<<<<<
223.165	-10.44
223.4	-10.44
223.635	-10.44
223.869	-17.44
224.104	-11.44
224.338	-24.44
224.573	-2.44
224.808	-9.44
225.042	-20.44
225.277	-0.44
225.511	0.56
225.746	6.56
225.98	-6.44
226.215	12.56
226.449	15.56
226.683	13.56
226.918	24.56
227.152	29.56
227.387	27.56
227.621	17.56
227.856	44.56
228.09	41.56
228.324	31.56
228.559	61.56
228.793	60.56
229.027	48.56
229.262	76.56
229.496	68.56
229.73	81.56
229.964	88.56
230.199	77.56
230.433	66.56
230.667	79.56
230.901	69.56
231.136	91.56
231.37	90.56
231.604	82.56
231.838	71.56
232.072	69.56
232.306	83.56
232.541	81.56
232.775	84.56
233.009	63.56
233.243	76.56
233.477	78.56
233.711	86.56
233.945	77.56
234.179	82.56
234.413	78.56
234.647	85.56
234.881	71.56
235.115	67.56
235.349	69.56
235.583	72.56
235.817	70.56
236.051	70.56
236.285	80.56
236.519	79.56
236.753	77.56
236.987	73.56
237.221	82.56
237.455	87.56
237.689	74.56
237.922	68.56
238.156	70.56
238.39	63.56
238.624	73.56
238.858	92.56
239.091	75.56
239.325	73.56
239.559	84.56
239.793	68.56
240.027	82.56
240.26	76.56
240.494	70.56
240.728	69.56
240.961	76.56
241.195	72.56
241.429	79.56
241.662	85.56
241.896	83.56
242.13	71.56
242.363	78.56
242.597	82.56
242.83	80.56
243.064	75.56
243.298	82.56
243.531	74.56
243.765	73.56
243.998	69.56
244.232	73.56
244.465	71.56
244.699	63.56
244.932	71.56
245.166	75.56
245.399	67.56
245.633	71.56
245.866	71.56
246.099	60.56
246.333	71.56
246.566	60.56
246.8	71.56
247.033	77.56
247.266	81.56
247.5	78.56
247.733	66.56
247.966	87.56
248.2	72.56
248.433	68.56
248.666	79.56
248.899	82.56
249.133	89.56
249.366	92.56
249.599	98.56
249.832	69.56
250.066	80.56
250.299	79.56
250.532	68.56
250.765	74.56
250.998	69.56
251.231	73.56
251.465	84.56
251.698	75.56
251.931	79.56
252.164	80.56
252.397	65.56
252.63	81.56
252.863	75.56
253.096	69.56
253.329	79.56
253.562	76.56
253.795	84.56
254.028	69.56
254.261	91.56
254.494	87.56
254.727	77.56
254.96	79.56
255.193	78.56
255.426	78.56
255.659	76.56
255.892	81.56
256.124	81.56
256.357	101.56
256.59	79.56
256.823	64.56
257.056	85.56
257.289	78.56
257.521	73.56
257.754	73.56
257.987	68.56
258.22	74.56
258.452	68.56
258.685	74.56
258.918	68.56
259.151	64.56
259.383	75.56
259.616	79.56
259.849	80.56
260.081	86.56
260.314	80.56
260.547	81.56
260.779	90.56
261.012	75.56
261.244	81.56
261.477	85.56
261.71	98.56
261.942	98.56
262.175	111.56
262.407	84.56
262.64	66.56
262.872	94.56
263.105	103.56
263.337	94.56
263.57	88.56
263.802	87.56
264.035	70.56
264.267	71.56
264.499	74.56
264.732	91.56
264.964	94.56
265.197	86.56
265.429	80.56
265.661	74.56
265.894	66.56
266.126	77.56
266.358	86.56
266.591	77.56
266.823	91.56
267.055	82.56
267.287	83.56
267.52	83.56
267.752	85.56
267.984	85.56
268.216	77.56
268.448	85.56
268.681	77.56
268.913	72.56
269.145	69.56
269.377	73.56
269.609	77.56
269.841	75.56
270.073	77.56
270.306	78.56
270.538	89.56
270.77	89.56
271.002	88.56
271.234	79.56
271.466	86.56
271.698	86.56
271.93	83.56
272.162	86.56
272.394	92.56
272.626	59.56
272.858	84.56
273.09	85.56
273.322	77.56
273.553	78.56
273.785	72.56
274.017	67.56
274.249	73.56
274.481	82.56
274.713	87.56
274.945	72.56
275.176	85.56
275.408	77.56
275.64	95.56
275.872	82.56
276.104	95.56
276.335	101.56
276.567	95.56
276.799	101.56
277.031	92.56
277.262	80.56
277.494	78.56
277.726	89.56
277.957	83.56
278.189	70.56
278.421	88.56
278.652	81.56
278.884	88.56
279.115	81.56
279.347	88.56
279.579	77.56
279.81	87.56
280.042	75.56
280.273	89.56
280.505	72.56
280.736	95.56
280.968	76.56
281.199	91.56
281.431	87.56
281.662	88.56
281.894	97.56
282.125	95.56
282.356	101.56
282.588	124.56
282.819	118.56
283.051	93.56
283.282	81.56
283.513	76.56
283.745	74.56
283.976	74.56
284.207	95.56
284.439	75.56
284.67	79.56
284.901	82.56
285.132	73.56
285.364	75.56
285.595	90.56
285.826	85.56
286.057	85.56
286.288	88.56
286.52	73.56
286.751	91.56
286.982	96.56
287.213	77.56
287.444	77.56
287.675	79.56
287.906	84.56
288.138	79.56
288.369	89.56
288.6	100.56
288.831	67.56
289.062	90.56
289.293	81.56
289.524	92.56
289.755	82.56
289.986	77.56
290.217	86.56
290.448	88.56
290.679	87.56
290.91	80.56
291.141	72.56
291.371	86.56
291.602	87.56
291.833	83.56
292.064	75.56
292.295	83.56
292.526	82.56
292.757	104.56
292.987	91.56
293.218	90.56
293.449	70.56
293.68	87.56
293.91	88.56
294.141	82.56
294.372	83.56
294.603	80.56
294.833	96.56
295.064	93.56
295.295	96.56
295.525	100.56
295.756	110.56
295.987	103.56
296.217	132.56
296.448	118.56
296.679	95.56
296.909	95.56
297.14	86.56
297.37	95.56
297.601	74.56
297.831	86.56
298.062	82.56
298.292	83.56
298.523	93.56
298.753	77.56
298.984	84.56
299.214	75.56
299.445	92.56
299.675	80.56
299.905	78.56
300.136	77.56
300.366	72.56
300.597	85.56
300.827	79.56
301.057	95.56
301.288	87.56
301.518	92.56
301.748	89.56
301.979	100.56
302.209	85.56
302.439	79.56
302.669	86.56
302.9	90.56
303.13	96.56
303.36	88.56
303.59	92.56
303.82	91.56
304.051	88.56
304.281	97.56
304.511	82.56
304.741	82.56
304.971	77.56
305.201	94.56
305.431	94.56
305.661	83.56
305.891	83.56
306.121	89.56
306.352	105.56
306.582	110.56
306.812	89.56
307.042	89.56
307.272	89.56
307.502	91.56
307.731	95.56
307.961	79.56
308.191	75.56
308.421	79.56
308.651	94.56
308.881	93.56
309.111	96.56
309.341	97.56
309.571	114.56
309.8	99.56
310.03	101.56
310.26	87.56
310.49	80.56
310.72	107.56
310.949	107.56
311.179	105.56
311.409	85.56
311.639	106.56
311.868	90.56
312.098	81.56
312.328	99.56
312.557	107.56
312.787	99.56
313.017	104.56
313.246	84.56
313.476	88.56
313.706	87.56
313.935	80.56
314.165	90.56
314.394	94.56
314.624	92.56
314.853	103.56
315.083	92.56
315.312	92.56
315.542	86.56
315.771	85.56
316.001	88.56
316.23	84.56
316.46	98.56
316.689	106.56
316.919	96.56
317.148	106.56
317.377	100.56
317.607	83.56
317.836	97.56
318.065	74.56
318.295	77.56
318.524	66.56
318.753	97.56
318.983	109.56
319.212	97.56
319.441	97.56
319.67	108.56
319.9	87.56
320.129	86.56
320.358	88.56
320.587	87.56
320.816	90.56
321.046	86.56
321.275	93.56
321.504	86.56
321.733	85.56
321.962	89.56
322.191	88.56
322.42	105.56
322.649	109.56
322.878	117.56
323.108	114.56
323.337	101.56
323.566	145.56
323.795	153.56
324.024	209.56
324.253	416.56
324.482	939.56
324.71	1940.56
324.939	2545.56
325.168	908.56
325.397	251.56
325.626	139.56
325.855	136.56
326.084	118.56
326.313	130.56
326.542	160.56
326.77	244.56
326.999	486.56
327.228	1055.56
327.457	1935.56
327.686	1542.56
327.914	417.56
328.143	188.56
328.372	143.56
328.6	119.56
328.829	117.56
329.058	124.56
329.287	118.56
329.515	109.56
329.744	95.56
329.972	90.56
330.201	90.56
330.43	102.56
330.658	134.56
330.887	138.56
331.115	104.56
331.344	89.56
331.572	92.56
331.801	91.56
332.03	87.56
332.258	105.56
332.486	93.56
332.715	96.56
332.943	104.56
333.172	91.56
333.4	90.56
333.629	111.56
333.857	107.56
334.085	99.56
334.314	92.56
334.542	80.56
334.771	93.56
334.999	81.56
335.227	106.56
335.455	88.56
335.684	93.56
335.912	99.56
336.14	92.56
336.369	89.56
336.597	102.56
336.825	95.56
337.053	97.56
337.281	78.56
337.51	90.56
337.738	99.56
337.966	79.56
338.194	101.56
338.422	96.56
338.65	85.56
338.878	91.56
339.106	78.56
339.334	95.56
339.562	98.56
339.79	96.56
340.018	83.56
340.246	96.56
340.474	90.56
340.702	85.56
340.93	96.56
341.158	83.56
341.386	80.56
341.614	93.56
341.842	84.56
342.07	86.56
342.298	81.56
342.526	94.56
342.754	71.56
342.981	88.56
343.209	81.56
343.437	94.56
343.665	77.56
343.893	77.56
344.12	90.56
344.348	82.56
344.576	88.56
344.804	102.56
345.031	90.56
345.259	93.56
345.487	87.56
345.714	90.56
345.942	86.56
346.17	90.56
346.397	87.56
346.625	87.56
346.853	77.56
347.08	94.56
347.308	83.56
347.535	92.56
347.763	96.56
347.99	110.56
348.218	102.56
348.445	105.56
348.673	104.56
348.9	96.56
349.128	73.56
349.355	88.56
349.583	92.56
349.81	86.56
350.037	68.56
350.265	82.56
350.492	102.56
350.72	101.56
350.947	96.56
351.174	107.56
351.402	104.56
351.629	111.56
351.856	87.56
352.083	101.56
352.311	104.56
352.538	93.56
352.765	102.56
352.992	109.56
353.22	112.56
353.447	95.56
353.674	93.56
353.901	103.56
354.128	100.56
354.355	94.56
354.583	96.56
354.81	113.56
355.037	97.56
355.264	92.56
355.491	93.56
355.718	91.56
355.945	80.56
356.172	92.56
356.399	101.56
356.626	103.56
356.853	88.56
357.08	89.56
357.307	86.56
357.534	80.56
357.761	96.56
357.988	103.56
358.215	90.56
358.441	92.56
358.668	83.56
358.895	98.56
359.122	86.56
359.349	85.56
359.576	89.56
359.802	91.56
360.029	119.56
360.256	118.56
360.483	97.56
360.709	88.56
360.936	79.56
361.163	85.56
361.39	92.56
361.616	86.56
361.843	76.56
362.07	98.56
362.296	68.56
362.523	79.56
362.749	93.56
362.976	96.56
363.203	94.56
363.429	83.56
363.656	81.56
363.882	94.56
364.109	88.56
364.335	88.56
364.562	86.56
364.788	91.56
365.015	87.56
365.241	84.56
365.468	95.56
365.694	96.56
365.92	92.56
366.147	89.56
366.373	111.56
366.599	83.56
366.826	78.56
367.052	88.56
367.278	84.56
367.505	101.56
367.731	91.56
367.957	91.56
368.184	83.56
368.41	92.56
368.636	98.56
368.862	108.56
369.089	105.56
369.315	88.56
369.541	85.56
369.767	92.56
369.993	100.56
370.219	80.56
370.445	88.56
370.672	86.56
370.898	80.56
371.124	77.56
371.35	92.56
371.576	95.56
371.802	87.56
372.028	69.56
372.254	92.56
372.48	83.56
372.706	78.56
372.932	86.56
373.158	85.56
373.384	91.56
373.61	89.56
373.835	96.56
374.061	86.56
374.287	94.56
374.513	86.56
374.739	81.56
374.965	73.56
375.191	82.56
375.416	79.56
375.642	86.56
375.868	85.56
376.094	88.56
376.319	67.56
376.545	64.56
376.771	85.56
376.997	79.56
377.222	87.56
377.448	95.56
377.674	77.56
377.899	80.56
378.125	103.56
378.35	81.56
378.576	96.56
378.802	88.56
379.027	95.56
379.253	103.56
379.478	90.56
379.704	88.56
379.929	87.56
380.155	86.56
380.38	98.56
380.606	97.56
380.831	97.56
381.057	79.56
381.282	87.56
381.507	101.56
381.733	104.56
381.958	97.56
382.184	90.56
382.409	107.56
382.634	92.56
382.86	107.56
383.085	82.56
383.31	97.56
383.535	99.56
383.761	92.56
383.986	96.56
384.211	89.56
384.436	93.56
384.662	95.56
384.887	94.56
385.112	96.56
385.337	91.56
385.562	96.56
385.787	109.56
386.013	90.56
386.238	118.56
386.463	107.56
386.688	107.56
386.913	85.56
387.138	94.56
387.363	108.56
387.588	92.56
387.813	86.56
388.038	94.56
388.263	97.56
388.488	81.56
388.713	71.56
388.938	97.56
389.163	96.56
389.387	88.56
389.612	92.56
389.837	91.56
390.062	96.56
390.287	83.56
390.512	92.56
390.736	82.56
390.961	88.56
391.186	88.56
391.411	79.56
391.636	84.56
391.86	84.56
392.085	88.56
392.31	61.56
392.534	93.56
392.759	82.56
392.984	85.56
393.208	80.56
393.433	79.56
393.658	79.56
393.882	73.56
394.107	89.56
394.331	69.56
394.556	87.56
394.78	84.56
395.005	84.56
395.229	82.56
395.454	90.56
395.678	81.56
395.903	89.56
396.127	90.56
396.352	84.56
396.576	100.56
396.801	93.56
397.025	96.56
397.249	90.56
397.474	94.56
397.698	92.56
397.922	94.56
398.147	81.56
398.371	82.56
398.595	79.56
398.82	81.56
399.044	82.56
399.268	77.56
399.492	89.56
399.717	89.56
399.941	87.56
400.165	87.56
400.389	90.56
400.613	85.56
400.837	86.56
401.062	89.56
401.286	65.56
401.51	89.56
401.734	88.56
401.958	116.56
402.182	135.56
402.406	157.56
402.63	111.56
402.854	89.56
403.078	96.56
403.302	81.56
403.526	95.56
403.75	92.56
403.974	90.56
404.198	92.56
404.422	83.56
404.645	89.56
404.869	73.56
405.093	91.56
405.317	104.56
405.541	103.56
405.765	105.56
405.988	100.56
406.212	187.56
406.436	226.56
406.66	142.56
406.883	87.56
407.107	115.56
407.331	104.56
407.555	91.56
407.778	100.56
408.002	63.56
408.226	91.56
408.449	85.56
408.673	77.56
408.896	89.56
409.12	94.56
409.344	63.56
409.567	76.56
409.791	82.56
410.014	84.56
410.238	86.56
410.461	85.56
410.685	98.56
410.908	93.56
411.132	100.56
411.355	89.56
411.578	85.56
411.802	81.56
412.025	83.56
412.249	87.56
412.472	77.56
412.695	76.56
412.919	81.56
413.142	87.56
413.365	81.56
413.589	90.56
413.812	86.56
414.035	87.56
414.258	85.56
414.482	86.56
414.705	85.56
414.928	81.56
415.151	89.56
415.374	74.56
415.597	90.56
415.821	87.56
416.044	85.56
416.267	100.56
416.49	89.56
416.713	78.56
416.936	85.56
417.159	102.56
417.382	85.56
417.605	74.56
417.828	102.56
418.051	90.56
418.274	89.56
418.497	75.56
418.72	82.56
418.943	77.56
419.166	81.56
419.389	91.56
419.611	81.56
419.834	81.56
420.057	81.56
420.28	94.56
420.503	93.56
420.726	90.56
420.948	86.56
421.171	92.56
421.394	98.56
421.617	93.56
421.839	80.56
422.062	78.56
422.285	89.56
422.507	88.56
422.73	93.56
422.953	96.56
423.175	79.56
423.398	91.56
423.621	110.56
423.843	82.56
424.066	91.56
424.288	87.56
424.511	73.56
424.733	100.56
424.956	93.56
425.178	105.56
425.401	106.56
425.623	94.56
425.846	80.56
426.068	95.56
426.291	94.56
426.513	103.56
426.735	87.56
426.958	95.56
427.18	94.56
427.402	144.56
427.625	169.56
427.847	139.56
428.069	103.56
428.292	88.56
428.514	79.56
428.736	67.56
428.958	98.56
429.181	86.56
429.403	95.56
429.625	68.56
429.847	96.56
430.069	91.56
430.292	87.56
430.514	91.56
430.736	77.56
430.958	84.56
431.18	93.56
431.402	84.56
431.624	80.56
431.846	79.56
432.068	92.56
432.29	92.56
432.512	78.56
432.734	101.56
432.956	106.56
433.178	93.56
433.4	95.56
433.622	81.56
433.844	95.56
434.066	89.56
434.287	89.56
434.509	90.56
434.731	93.56
434.953	88.56
435.175	91.56
435.397	85.56
435.618	100.56
435.84	108.56
436.062	121.56
436.284	103.56
436.505	89.56
436.727	107.56
436.949	98.56
437.17	86.56
437.392	86.56
437.614	96.56
437.835	93.56
438.057	100.56
438.278	114.56
438.5	108.56
438.721	121.56
438.943	93.56
439.165	75.56
439.386	81.56
439.608	72.56
439.829	99.56
440.05	120.56
440.272	146.56
440.493	92.56
440.715	88.56
440.936	86.56
441.158	72.56
441.379	95.56
441.6	96.56
441.822	109.56
442.043	97.56
442.264	105.56
442.486	105.56
442.707	84.56
442.928	93.56
443.149	134.56
443.371	134.56
443.592	110.56
443.813	106.56
444.034	93.56
444.255	78.56
444.476	79.56
444.698	84.56
444.919	78.56
445.14	122.56
445.361	135.56
445.582	128.56
445.803	136.56
446.024	141.56
446.245	122.56
446.466	103.56
446.687	92.56
446.908	69.56
447.129	89.56
447.35	83.56
447.571	87.56
447.792	95.56
448.013	110.56
448.234	113.56
448.455	93.56
448.675	113.56
448.896	128.56
449.117	88.56
449.338	109.56
449.559	131.56
449.779	129.56
450	108.56
450.221	74.56
450.442	97.56
450.662	80.56
450.883	103.56
451.104	99.56
451.324	81.56
451.545	93.56
451.766	74.56
451.986	87.56
452.207	87.56
452.428	81.56
452.648	91.56
452.869	122.56
453.089	105.56
453.31	131.56
453.53	96.56
453.751	93.56
453.971	98.56
454.192	120.56
454.412	87.56
454.633	97.56
454.853	78.56
455.073	86.56
455.294	91.56
455.514	93.56
455.734	92.56
455.955	85.56
456.175	62.56
456.395	77.56
456.616	70.56
456.836	82.56
457.056	83.56
457.276	88.56
457.497	68.56
457.717	85.56
457.937	76.56
458.157	87.56
458.377	82.56
458.598	121.56
458.818	147.56
459.038	152.56
459.258	121.56
459.478	81.56
459.698	79.56
459.918	68.56
460.138	78.56
460.358	58.56
460.578	72.56
460.798	81.56
461.018	81.56
461.238	81.56
461.458	85.56
461.678	86.56
461.898	90.56
462.118	78.56
462.338	86.56
462.558	86.56
462.777	69.56
462.997	86.56
463.217	78.56
463.437	76.56
463.657	80.56
463.876	71.56
464.096	93.56
464.316	92.56
464.536	81.56
464.755	99.56
464.975	105.56
465.195	162.56
465.414	157.56
465.634	87.56
465.854	73.56
466.073	101.56
466.293	82.56
466.512	90.56
466.732	94.56
466.951	84.56
467.171	85.56
467.391	94.56
467.61	100.56
467.829	92.56
468.049	94.56
468.268	80.56
468.488	92.56
468.707	84.56
468.927	84.56
469.146	78.56
469.365	89.56
469.585	88.56
469.804	92.56
470.023	85.56
470.243	92.56
470.462	100.56
470.681	105.56
470.901	106.56
471.12	90.56
471.339	82.56
471.558	77.56
471.777	101.56
471.997	76.56
472.216	77.56
472.435	88.56
472.654	83.56
472.873	85.56
473.092	69.56
473.311	93.56
473.53	70.56
473.749	82.56
473.968	108.56
474.187	108.56
474.406	82.56
474.625	104.56
474.844	106.56
475.063	83.56
475.282	102.56
475.501	96.56
475.72	93.56
475.939	77.56
476.158	84.56
476.377	98.56
476.596	93.56
476.814	80.56
477.033	91.56
477.252	76.56
477.471	87.56
477.69	102.56
477.908	95.56
478.127	93.56
478.346	81.56
478.564	83.56
478.783	96.56
479.002	82.56
479.22	81.56
479.439	96.56
479.658	98.56
479.876	95.56
480.095	95.56
480.313	91.56
480.532	79.56
480.751	83.56
480.969	86.56
481.188	80.56
481.406	91.56
481.624	91.56
481.843	98.56
482.061	80.56
482.28	78.56
482.498	75.56
482.717	89.56
482.935	78.56
483.153	91.56
483.372	101.56
483.59	87.56
483.808	85.56
484.027	100.56
484.245	79.56
484.463	82.56
484.681	90.56
484.9	97.56
485.118	95.56
485.336	101.56
485.554	93.56
485.772	84.56
485.99	102.56
486.209	93.56
486.427	104.56
486.645	119.56
486.863	91.56
487.081	96.56
487.299	90.56
487.517	87.56
487.735	86.56
487.953	80.56
488.171	112.56
488.389	88.56
488.607	96.56
488.825	92.56
489.043	94.56
489.261	85.56
489.479	79.56
489.696	88.56
489.914	76.56
490.132	92.56
490.35	87.56
490.568	73.56
490.786	88.56
491.003	98.56
491.221	93.56
491.439	87.56
491.657	77.56
491.874	77.56
492.092	88.56
492.31	86.56
492.527	94.56
492.745	82.56
492.963	101.56
493.18	74.56
493.398	88.56
493.615	85.56
493.833	93.56
494.05	99.56
494.268	90.56
494.485	80.56
494.703	94.56
494.92	85.56
495.138	84.56
495.355	86.56
495.573	88.56
495.79	91.56
496.008	94.56
496.225	75.56
496.442	86.56
496.66	91.56
496.877	81.56
497.094	74.56
497.312	86.56
497.529	80.56
497.746	71.56
497.963	97.56
498.181	93.56
498.398	83.56
498.615	111.56
498.832	107.56
499.049	95.56
499.267	93.56
499.484	94.56
499.701	88.56
499.918	94.56
500.135	80.56
500.352	84.56
500.569	82.56
500.786	93.56
501.003	76.56
501.22	72.56
501.437	93.56
501.654	76.56
501.871	118.56
502.088	84.56
502.305	85.56
502.522	78.56
502.739	86.56
502.956	86.56
503.172	93.56
503.389	98.56
503.606	100.56
503.823	103.56
504.04	90.56
504.256	83.56
504.473	94.56
504.69	89.56
504.907	84.56
505.123	93.56
505.34	89.56
505.557	101.56
505.773	99.56
505.99	107.56
506.207	91.56
506.423	88.56
506.64	76.56
506.856	70.56
507.073	83.56
507.289	87.56
507.506	103.56
507.722	101.56
507.939	116.56
508.155	98.56
508.372	101.56
508.588	99.56
508.805	89.56
509.021	101.56
509.238	89.56
509.454	106.56
509.67	119.56
509.887	110.56
510.103	138.56
510.319	226.56
510.536	808.56
510.752	2660.56
510.968	727.56
511.184	157.56
511.401	94.56
511.617	95.56
511.833	97.56
512.049	96.56
512.265	105.56
512.481	89.56
512.698	110.56
512.914	97.56
513.13	89.56
513.346	100.56
513.562	82.56
513.778	100.56
513.994	107.56
514.21	100.56
514.426	124.56
514.642	142.56
514.858	120.56
515.074	175.56
515.29	483.56
515.506	1625.56
515.721	626.56
515.937	151.56
516.153	113.56
516.369	98.56
516.585	100.56
