Data from Uncirc_2007_H10_HRD10591_00011.txt Node
Date: Wed Jan 03 10:20:44 EST 2024
User: Yrep
Spectrometer: HR+D1059
Trigger mode: 1
Integration Time (sec): 1.000000E-1
Scans to average: 1
Electric dark correction enabled: true
Nonlinearity correction enabled: false
Boxcar width: 0
XAxis mode: Wavelengths
Number of Pixels in Spectrum: 2048
>>>>>Begin Spectral Data<<<<<
223.165	-13.06
223.4	-13.06
223.635	-13.06
223.869	-23.06
224.104	-29.06
224.338	-12.06
224.573	-27.06
224.808	-12.06
225.042	-0.06
225.277	3.94
225.511	-1.06
225.746	-3.06
225.98	2.94
226.215	9.94
226.449	10.94
226.683	19.94
226.918	30.94
227.152	41.94
227.387	35.94
227.621	32.94
227.856	30.94
228.09	59.94
228.324	40.94
228.559	61.94
228.793	62.94
229.027	55.94
229.262	60.94
229.496	79.94
229.73	67.94
229.964	79.94
230.199	72.94
230.433	68.94
230.667	75.94
230.901	69.94
231.136	76.94
231.37	82.94
231.604	77.94
231.838	77.94
232.072	66.94
232.306	75.94
232.541	84.94
232.775	65.94
233.009	83.94
233.243	73.94
233.477	87.94
233.711	75.94
233.945	74.94
234.179	82.94
234.413	62.94
234.647	91.94
234.881	73.94
235.115	89.94
235.349	76.94
235.583	67.94
235.817	65.94
236.051	78.94
236.285	66.94
236.519	76.94
236.753	79.94
236.987	73.94
237.221	73.94
237.455	83.94
237.689	67.94
237.922	71.94
238.156	78.94
238.39	79.94
238.624	61.94
238.858	82.94
239.091	87.94
239.325	66.94
239.559	89.94
239.793	77.94
240.027	79.94
240.26	88.94
240.494	73.94
240.728	76.94
240.961	82.94
241.195	78.94
241.429	76.94
241.662	79.94
241.896	76.94
242.13	71.94
242.363	79.94
242.597	80.94
242.83	82.94
243.064	83.94
243.298	88.94
243.531	70.94
243.765	80.94
243.998	76.94
244.232	76.94
244.465	66.94
244.699	84.94
244.932	73.94
245.166	63.94
245.399	76.94
245.633	72.94
245.866	68.94
246.099	64.94
246.333	61.94
246.566	75.94
246.8	67.94
247.033	77.94
247.266	72.94
247.5	61.94
247.733	78.94
247.966	78.94
248.2	81.94
248.433	91.94
248.666	78.94
248.899	84.94
249.133	83.94
249.366	93.94
249.599	81.94
249.832	83.94
250.066	91.94
250.299	74.94
250.532	86.94
250.765	79.94
250.998	78.94
251.231	83.94
251.465	71.94
251.698	75.94
251.931	73.94
252.164	67.94
252.397	68.94
252.63	78.94
252.863	72.94
253.096	70.94
253.329	76.94
253.562	92.94
253.795	73.94
254.028	74.94
254.261	76.94
254.494	70.94
254.727	75.94
254.96	79.94
255.193	80.94
255.426	79.94
255.659	81.94
255.892	64.94
256.124	72.94
256.357	65.94
256.59	88.94
256.823	81.94
257.056	73.94
257.289	76.94
257.521	80.94
257.754	76.94
257.987	66.94
258.22	74.94
258.452	79.94
258.685	75.94
258.918	63.94
259.151	83.94
259.383	67.94
259.616	85.94
259.849	87.94
260.081	81.94
260.314	73.94
260.547	94.94
260.779	85.94
261.012	84.94
261.244	78.94
261.477	85.94
261.71	106.94
261.942	98.94
262.175	103.94
262.407	84.94
262.64	77.94
262.872	84.94
263.105	86.94
263.337	93.94
263.57	80.94
263.802	81.94
264.035	86.94
264.267	72.94
264.499	95.94
264.732	82.94
264.964	86.94
265.197	89.94
265.429	85.94
265.661	81.94
265.894	67.94
266.126	79.94
266.358	66.94
266.591	79.94
266.823	68.94
267.055	70.94
267.287	82.94
267.52	81.94
267.752	71.94
267.984	74.94
268.216	80.94
268.448	95.94
268.681	90.94
268.913	87.94
269.145	72.94
269.377	90.94
269.609	77.94
269.841	81.94
270.073	74.94
270.306	82.94
270.538	59.94
270.77	85.94
271.002	73.94
271.234	96.94
271.466	89.94
271.698	80.94
271.93	68.94
272.162	90.94
272.394	90.94
272.626	85.94
272.858	77.94
273.09	87.94
273.322	86.94
273.553	82.94
273.785	84.94
274.017	81.94
274.249	71.94
274.481	72.94
274.713	77.94
274.945	82.94
275.176	91.94
275.408	81.94
275.64	81.94
275.872	90.94
276.104	85.94
276.335	89.94
276.567	83.94
276.799	87.94
277.031	88.94
277.262	84.94
277.494	100.94
277.726	107.94
277.957	88.94
278.189	100.94
278.421	93.94
278.652	84.94
278.884	94.94
279.115	98.94
279.347	66.94
279.579	76.94
279.81	81.94
280.042	75.94
280.273	81.94
280.505	71.94
280.736	73.94
280.968	65.94
281.199	85.94
281.431	92.94
281.662	85.94
281.894	96.94
282.125	83.94
282.356	98.94
282.588	100.94
282.819	108.94
283.051	91.94
283.282	81.94
283.513	82.94
283.745	81.94
283.976	89.94
284.207	89.94
284.439	94.94
284.67	82.94
284.901	79.94
285.132	81.94
285.364	98.94
285.595	87.94
285.826	91.94
286.057	85.94
286.288	78.94
286.52	96.94
286.751	84.94
286.982	84.94
287.213	93.94
287.444	83.94
287.675	81.94
287.906	87.94
288.138	78.94
288.369	103.94
288.6	92.94
288.831	91.94
289.062	93.94
289.293	80.94
289.524	83.94
289.755	89.94
289.986	67.94
290.217	80.94
290.448	91.94
290.679	78.94
290.91	87.94
291.141	89.94
291.371	89.94
291.602	90.94
291.833	83.94
292.064	81.94
292.295	91.94
292.526	76.94
292.757	75.94
292.987	93.94
293.218	96.94
293.449	73.94
293.68	89.94
293.91	90.94
294.141	83.94
294.372	82.94
294.603	82.94
294.833	81.94
295.064	72.94
295.295	79.94
295.525	92.94
295.756	95.94
295.987	97.94
296.217	111.94
296.448	104.94
296.679	94.94
296.909	94.94
297.14	85.94
297.37	89.94
297.601	88.94
297.831	78.94
298.062	98.94
298.292	93.94
298.523	75.94
298.753	81.94
298.984	95.94
299.214	81.94
299.445	99.94
299.675	89.94
299.905	84.94
300.136	82.94
300.366	65.94
300.597	89.94
300.827	84.94
301.057	100.94
301.288	99.94
301.518	85.94
301.748	82.94
301.979	111.94
302.209	79.94
302.439	88.94
302.669	81.94
302.9	75.94
303.13	76.94
303.36	94.94
303.59	96.94
303.82	94.94
304.051	85.94
304.281	79.94
304.511	93.94
304.741	95.94
304.971	84.94
305.201	98.94
305.431	85.94
305.661	81.94
305.891	86.94
306.121	82.94
306.352	99.94
306.582	79.94
306.812	92.94
307.042	94.94
307.272	90.94
307.502	76.94
307.731	82.94
307.961	95.94
308.191	89.94
308.421	95.94
308.651	81.94
308.881	96.94
309.111	76.94
309.341	92.94
309.571	103.94
309.8	87.94
310.03	100.94
310.26	93.94
310.49	89.94
310.72	85.94
310.949	100.94
311.179	81.94
311.409	76.94
311.639	74.94
311.868	87.94
312.098	91.94
312.328	93.94
312.557	94.94
312.787	95.94
313.017	92.94
313.246	101.94
313.476	97.94
313.706	90.94
313.935	87.94
314.165	87.94
314.394	88.94
314.624	92.94
314.853	85.94
315.083	90.94
315.312	85.94
315.542	85.94
315.771	83.94
316.001	82.94
316.23	83.94
316.46	76.94
316.689	88.94
316.919	87.94
317.148	95.94
317.377	90.94
317.607	87.94
317.836	71.94
318.065	83.94
318.295	74.94
318.524	83.94
318.753	81.94
318.983	103.94
319.212	100.94
319.441	86.94
319.67	100.94
319.9	82.94
320.129	81.94
320.358	84.94
320.587	86.94
320.816	87.94
321.046	86.94
321.275	92.94
321.504	84.94
321.733	89.94
321.962	83.94
322.191	96.94
322.42	97.94
322.649	81.94
322.878	109.94
323.108	95.94
323.337	99.94
323.566	114.94
323.795	106.94
324.024	150.94
324.253	249.94
324.482	467.94
324.71	901.94
324.939	1212.94
325.168	489.94
325.397	184.94
325.626	119.94
325.855	104.94
326.084	104.94
326.313	110.94
326.542	114.94
326.77	159.94
326.999	267.94
327.228	523.94
327.457	903.94
327.686	763.94
327.914	235.94
328.143	152.94
328.372	125.94
328.6	99.94
328.829	102.94
329.058	106.94
329.287	104.94
329.515	100.94
329.744	87.94
329.972	79.94
330.201	92.94
330.43	98.94
330.658	97.94
330.887	123.94
331.115	107.94
331.344	91.94
331.572	97.94
331.801	80.94
332.03	83.94
332.258	91.94
332.486	83.94
332.715	87.94
332.943	96.94
333.172	83.94
333.4	90.94
333.629	89.94
333.857	88.94
334.085	100.94
334.314	80.94
334.542	89.94
334.771	86.94
334.999	94.94
335.227	93.94
335.455	93.94
335.684	90.94
335.912	103.94
336.14	82.94
336.369	81.94
336.597	94.94
336.825	93.94
337.053	95.94
337.281	83.94
337.51	91.94
337.738	92.94
337.966	89.94
338.194	81.94
338.422	89.94
338.65	82.94
338.878	85.94
339.106	88.94
339.334	95.94
339.562	83.94
339.79	84.94
340.018	89.94
340.246	83.94
340.474	74.94
340.702	95.94
340.93	79.94
341.158	81.94
341.386	98.94
341.614	91.94
341.842	99.94
342.07	89.94
342.298	92.94
342.526	84.94
342.754	80.94
342.981	67.94
343.209	85.94
343.437	100.94
343.665	89.94
343.893	80.94
344.12	85.94
344.348	85.94
344.576	84.94
344.804	97.94
345.031	84.94
345.259	91.94
345.487	79.94
345.714	90.94
345.942	82.94
346.17	79.94
346.397	88.94
346.625	96.94
346.853	84.94
347.08	83.94
347.308	82.94
347.535	97.94
347.763	90.94
347.99	85.94
348.218	74.94
348.445	91.94
348.673	81.94
348.9	93.94
349.128	94.94
349.355	84.94
349.583	96.94
349.81	83.94
350.037	87.94
350.265	87.94
350.492	89.94
350.72	80.94
350.947	87.94
351.174	93.94
351.402	85.94
351.629	89.94
351.856	75.94
352.083	84.94
352.311	98.94
352.538	96.94
352.765	99.94
352.992	90.94
353.22	92.94
353.447	108.94
353.674	79.94
353.901	84.94
354.128	91.94
354.355	74.94
354.583	79.94
354.81	95.94
355.037	88.94
355.264	68.94
355.491	85.94
355.718	87.94
355.945	95.94
356.172	88.94
356.399	88.94
356.626	80.94
356.853	95.94
357.08	86.94
357.307	86.94
357.534	96.94
357.761	94.94
357.988	77.94
358.215	82.94
358.441	86.94
358.668	103.94
358.895	82.94
359.122	85.94
359.349	108.94
359.576	76.94
359.802	86.94
360.029	93.94
360.256	85.94
360.483	84.94
360.709	75.94
360.936	81.94
361.163	98.94
361.39	90.94
361.616	88.94
361.843	90.94
362.07	84.94
362.296	105.94
362.523	88.94
362.749	92.94
362.976	87.94
363.203	84.94
363.429	76.94
363.656	81.94
363.882	90.94
364.109	91.94
364.335	92.94
364.562	91.94
364.788	86.94
365.015	83.94
365.241	93.94
365.468	96.94
365.694	98.94
365.92	91.94
366.147	98.94
366.373	83.94
366.599	84.94
366.826	92.94
367.052	99.94
367.278	97.94
367.505	80.94
367.731	94.94
367.957	71.94
368.184	74.94
368.41	94.94
368.636	96.94
368.862	98.94
369.089	107.94
369.315	83.94
369.541	77.94
369.767	104.94
369.993	96.94
370.219	81.94
370.445	91.94
370.672	79.94
370.898	104.94
371.124	90.94
371.35	74.94
371.576	96.94
371.802	82.94
372.028	95.94
372.254	90.94
372.48	92.94
372.706	93.94
372.932	85.94
373.158	84.94
373.384	84.94
373.61	77.94
373.835	82.94
374.061	88.94
374.287	89.94
374.513	80.94
374.739	79.94
374.965	89.94
375.191	74.94
375.416	67.94
375.642	80.94
375.868	94.94
376.094	77.94
376.319	96.94
376.545	81.94
376.771	89.94
376.997	85.94
377.222	93.94
377.448	82.94
377.674	75.94
377.899	89.94
378.125	87.94
378.35	82.94
378.576	84.94
378.802	93.94
379.027	71.94
379.253	83.94
379.478	76.94
379.704	83.94
379.929	102.94
380.155	84.94
380.38	93.94
380.606	83.94
380.831	89.94
381.057	83.94
381.282	82.94
381.507	74.94
381.733	78.94
381.958	96.94
382.184	80.94
382.409	86.94
382.634	91.94
382.86	84.94
383.085	92.94
383.31	92.94
383.535	85.94
383.761	92.94
383.986	88.94
384.211	78.94
384.436	82.94
384.662	75.94
384.887	91.94
385.112	81.94
385.337	95.94
385.562	84.94
385.787	97.94
386.013	94.94
386.238	77.94
386.463	81.94
386.688	81.94
386.913	78.94
387.138	88.94
387.363	82.94
387.588	92.94
387.813	79.94
388.038	83.94
388.263	80.94
388.488	95.94
388.713	83.94
388.938	84.94
389.163	99.94
389.387	83.94
389.612	78.94
389.837	88.94
390.062	92.94
390.287	68.94
390.512	73.94
390.736	108.94
390.961	94.94
391.186	75.94
391.411	71.94
391.636	89.94
391.86	90.94
392.085	84.94
392.31	79.94
392.534	92.94
392.759	83.94
392.984	86.94
393.208	91.94
393.433	93.94
393.658	92.94
393.882	75.94
394.107	89.94
394.331	79.94
394.556	70.94
394.78	84.94
395.005	87.94
395.229	71.94
395.454	85.94
395.678	89.94
395.903	89.94
396.127	90.94
396.352	87.94
396.576	64.94
396.801	77.94
397.025	91.94
397.249	94.94
397.474	78.94
397.698	82.94
397.922	81.94
398.147	75.94
398.371	92.94
398.595	81.94
398.82	90.94
399.044	77.94
399.268	83.94
399.492	76.94
399.717	87.94
399.941	89.94
400.165	90.94
400.389	67.94
400.613	92.94
400.837	82.94
401.062	89.94
401.286	90.94
401.51	83.94
401.734	91.94
401.958	82.94
402.182	100.94
402.406	128.94
402.63	103.94
402.854	87.94
403.078	88.94
403.302	88.94
403.526	83.94
403.75	95.94
403.974	78.94
404.198	101.94
404.422	91.94
404.645	89.94
404.869	83.94
405.093	81.94
405.317	95.94
405.541	100.94
405.765	97.94
405.988	98.94
406.212	148.94
406.436	179.94
406.66	114.94
406.883	91.94
407.107	89.94
407.331	79.94
407.555	76.94
407.778	85.94
408.002	75.94
408.226	71.94
408.449	98.94
408.673	87.94
408.896	87.94
409.12	82.94
409.344	83.94
409.567	91.94
409.791	89.94
410.014	83.94
410.238	81.94
410.461	72.94
410.685	76.94
410.908	88.94
411.132	80.94
411.355	89.94
411.578	82.94
411.802	94.94
412.025	76.94
412.249	79.94
412.472	87.94
412.695	90.94
412.919	79.94
413.142	86.94
413.365	97.94
413.589	82.94
413.812	83.94
414.035	93.94
414.258	91.94
414.482	89.94
414.705	90.94
414.928	73.94
415.151	86.94
415.374	86.94
415.597	80.94
415.821	76.94
416.044	88.94
416.267	82.94
416.49	80.94
416.713	74.94
416.936	83.94
417.159	67.94
417.382	94.94
417.605	85.94
417.828	85.94
418.051	85.94
418.274	85.94
418.497	71.94
418.72	88.94
418.943	82.94
419.166	100.94
419.389	92.94
419.611	80.94
419.834	73.94
420.057	88.94
420.28	93.94
420.503	86.94
420.726	82.94
420.948	86.94
421.171	81.94
421.394	84.94
421.617	87.94
421.839	75.94
422.062	95.94
422.285	92.94
422.507	81.94
422.73	88.94
422.953	74.94
423.175	84.94
423.398	76.94
423.621	85.94
423.843	75.94
424.066	79.94
424.288	76.94
424.511	85.94
424.733	89.94
424.956	101.94
425.178	105.94
425.401	76.94
425.623	95.94
425.846	88.94
426.068	87.94
426.291	95.94
426.513	89.94
426.735	80.94
426.958	74.94
427.18	96.94
427.402	111.94
427.625	144.94
427.847	111.94
428.069	74.94
428.292	76.94
428.514	89.94
428.736	74.94
428.958	72.94
429.181	85.94
429.403	76.94
429.625	79.94
429.847	97.94
430.069	83.94
430.292	88.94
430.514	79.94
430.736	81.94
430.958	84.94
431.18	85.94
431.402	83.94
431.624	67.94
431.846	92.94
432.068	76.94
432.29	75.94
432.512	85.94
432.734	81.94
432.956	83.94
433.178	89.94
433.4	98.94
433.622	82.94
433.844	96.94
434.066	83.94
434.287	81.94
434.509	86.94
434.731	71.94
434.953	72.94
435.175	76.94
435.397	68.94
435.618	70.94
435.84	93.94
436.062	90.94
436.284	85.94
436.505	91.94
436.727	84.94
436.949	80.94
437.17	72.94
437.392	89.94
437.614	80.94
437.835	102.94
438.057	105.94
438.278	91.94
438.5	84.94
438.721	94.94
438.943	95.94
439.165	72.94
439.386	93.94
439.608	89.94
439.829	76.94
440.05	89.94
440.272	123.94
440.493	90.94
440.715	83.94
440.936	79.94
441.158	85.94
441.379	88.94
441.6	85.94
441.822	79.94
442.043	90.94
442.264	94.94
442.486	80.94
442.707	82.94
442.928	91.94
443.149	118.94
443.371	103.94
443.592	96.94
443.813	92.94
444.034	92.94
444.255	90.94
444.476	67.94
444.698	78.94
444.919	82.94
445.14	113.94
445.361	96.94
445.582	88.94
445.803	105.94
446.024	128.94
446.245	105.94
446.466	95.94
446.687	75.94
446.908	82.94
447.129	83.94
447.35	78.94
447.571	92.94
447.792	92.94
448.013	82.94
448.234	96.94
448.455	91.94
448.675	96.94
448.896	107.94
449.117	98.94
449.338	98.94
449.559	90.94
449.779	84.94
450	89.94
450.221	87.94
450.442	92.94
450.662	91.94
450.883	107.94
451.104	101.94
451.324	89.94
451.545	91.94
451.766	72.94
451.986	83.94
452.207	79.94
452.428	81.94
452.648	80.94
452.869	105.94
453.089	101.94
453.31	103.94
453.53	88.94
453.751	83.94
453.971	104.94
454.192	101.94
454.412	99.94
454.633	81.94
454.853	79.94
455.073	75.94
455.294	87.94
455.514	99.94
455.734	87.94
455.955	69.94
456.175	81.94
456.395	88.94
456.616	80.94
456.836	85.94
457.056	82.94
457.276	82.94
457.497	82.94
457.717	87.94
457.937	77.94
458.157	77.94
458.377	76.94
458.598	92.94
458.818	116.94
459.038	123.94
459.258	104.94
459.478	75.94
459.698	96.94
459.918	79.94
460.138	84.94
460.358	80.94
460.578	80.94
460.798	83.94
461.018	79.94
461.238	83.94
461.458	76.94
461.678	71.94
461.898	78.94
462.118	92.94
462.338	77.94
462.558	68.94
462.777	81.94
462.997	80.94
463.217	77.94
463.437	72.94
463.657	90.94
463.876	78.94
464.096	86.94
464.316	76.94
464.536	77.94
464.755	82.94
464.975	87.94
465.195	124.94
465.414	121.94
465.634	87.94
465.854	92.94
466.073	85.94
466.293	79.94
466.512	78.94
466.732	84.94
466.951	71.94
467.171	82.94
467.391	70.94
467.61	91.94
467.829	94.94
468.049	89.94
468.268	95.94
468.488	94.94
468.707	77.94
468.927	67.94
469.146	76.94
469.365	84.94
469.585	88.94
469.804	91.94
470.023	93.94
470.243	90.94
470.462	98.94
470.681	97.94
470.901	90.94
471.12	84.94
471.339	68.94
471.558	88.94
471.777	79.94
471.997	93.94
472.216	83.94
472.435	99.94
472.654	67.94
472.873	87.94
473.092	76.94
473.311	92.94
473.53	80.94
473.749	77.94
473.968	87.94
474.187	97.94
474.406	87.94
474.625	85.94
474.844	90.94
475.063	80.94
475.282	96.94
475.501	88.94
475.72	96.94
475.939	77.94
476.158	88.94
476.377	89.94
476.596	85.94
476.814	76.94
477.033	88.94
477.252	90.94
477.471	84.94
477.69	87.94
477.908	75.94
478.127	84.94
478.346	84.94
478.564	87.94
478.783	80.94
479.002	77.94
479.22	93.94
479.439	86.94
479.658	92.94
479.876	83.94
480.095	71.94
480.313	90.94
480.532	66.94
480.751	77.94
480.969	76.94
481.188	82.94
481.406	79.94
481.624	74.94
481.843	83.94
482.061	85.94
482.28	78.94
482.498	72.94
482.717	69.94
482.935	94.94
483.153	79.94
483.372	70.94
483.59	87.94
483.808	78.94
484.027	90.94
484.245	81.94
484.463	81.94
484.681	91.94
484.9	79.94
485.118	93.94
485.336	79.94
485.554	96.94
485.772	80.94
485.99	88.94
486.209	79.94
486.427	87.94
486.645	86.94
486.863	82.94
487.081	79.94
487.299	79.94
487.517	77.94
487.735	68.94
487.953	86.94
488.171	88.94
488.389	90.94
488.607	88.94
488.825	99.94
489.043	78.94
489.261	86.94
489.479	91.94
489.696	94.94
489.914	78.94
490.132	82.94
490.35	80.94
490.568	84.94
490.786	93.94
491.003	76.94
491.221	81.94
491.439	96.94
491.657	73.94
491.874	80.94
492.092	88.94
492.31	76.94
492.527	79.94
492.745	91.94
492.963	83.94
493.18	84.94
493.398	86.94
493.615	79.94
493.833	95.94
494.05	88.94
494.268	73.94
494.485	99.94
494.703	82.94
494.92	88.94
495.138	84.94
495.355	89.94
495.573	84.94
495.79	95.94
496.008	84.94
496.225	77.94
496.442	99.94
496.66	93.94
496.877	78.94
497.094	86.94
497.312	90.94
497.529	85.94
497.746	96.94
497.963	83.94
498.181	82.94
498.398	80.94
498.615	84.94
498.832	97.94
499.049	70.94
499.267	82.94
499.484	85.94
499.701	91.94
499.918	94.94
500.135	84.94
500.352	92.94
500.569	85.94
500.786	82.94
501.003	88.94
501.22	84.94
501.437	106.94
501.654	88.94
501.871	99.94
502.088	90.94
502.305	91.94
502.522	83.94
502.739	83.94
502.956	98.94
503.172	93.94
503.389	81.94
503.606	105.94
503.823	96.94
504.04	90.94
504.256	91.94
504.473	85.94
504.69	99.94
504.907	71.94
505.123	89.94
505.34	99.94
505.557	88.94
505.773	88.94
505.99	88.94
506.207	82.94
506.423	78.94
506.64	99.94
506.856	91.94
507.073	90.94
507.289	93.94
507.506	97.94
507.722	83.94
507.939	95.94
508.155	93.94
508.372	77.94
508.588	91.94
508.805	88.94
509.021	73.94
509.238	75.94
509.454	93.94
509.67	88.94
509.887	106.94
510.103	112.94
510.319	183.94
510.536	570.94
510.752	1691.94
510.968	515.94
511.184	123.94
511.401	97.94
511.617	83.94
511.833	80.94
512.049	78.94
512.265	84.94
512.481	75.94
512.698	80.94
512.914	83.94
513.13	90.94
513.346	96.94
513.562	88.94
513.778	88.94
513.994	95.94
514.21	94.94
514.426	99.94
514.642	98.94
514.858	100.94
515.074	124.94
515.29	339.94
515.506	1065.94
515.721	429.94
515.937	117.94
516.153	90.94
516.369	95.94
516.585	95.94
516.801	92.94
517.016	92.94
517.232	90.94
517.448	82.94
517.664	78.94
517.879	71.94
518.095	84.94
518.311	97.94
518.527	76.94
