Data from Uncirc_2007_H10_HRD10591_00032.txt Node
Date: Wed Jan 03 10:20:49 EST 2024
User: Yrep
Spectrometer: HR+D1059
Trigger mode: 1
Integration Time (sec): 1.000000E-1
Scans to average: 1
Electric dark correction enabled: true
Nonlinearity correction enabled: false
Boxcar width: 0
XAxis mode: Wavelengths
Number of Pixels in Spectrum: 2048
>>>>>Begin Spectral Data<<<<<
223.165	-14.88
223.4	-14.88
223.635	-14.88
223.869	-5.88
224.104	-17.88
224.338	-8.88
224.573	-16.88
224.808	-25.88
225.042	-2.88
225.277	-0.88
225.511	-0.88
225.746	-1.88
225.98	2.12
226.215	10.12
226.449	17.12
226.683	18.12
226.918	26.12
227.152	23.12
227.387	38.12
227.621	29.12
227.856	43.12
228.09	43.12
228.324	59.12
228.559	59.12
228.793	47.12
229.027	52.12
229.262	84.12
229.496	60.12
229.73	80.12
229.964	76.12
230.199	86.12
230.433	76.12
230.667	75.12
230.901	86.12
231.136	74.12
231.37	80.12
231.604	86.12
231.838	88.12
232.072	74.12
232.306	74.12
232.541	65.12
232.775	88.12
233.009	60.12
233.243	79.12
233.477	74.12
233.711	80.12
233.945	76.12
234.179	79.12
234.413	81.12
234.647	77.12
234.881	85.12
235.115	67.12
235.349	78.12
235.583	88.12
235.817	78.12
236.051	83.12
236.285	80.12
236.519	81.12
236.753	70.12
236.987	78.12
237.221	72.12
237.455	73.12
237.689	76.12
237.922	67.12
238.156	77.12
238.39	68.12
238.624	67.12
238.858	77.12
239.091	83.12
239.325	83.12
239.559	95.12
239.793	83.12
240.027	73.12
240.26	74.12
240.494	75.12
240.728	87.12
240.961	68.12
241.195	74.12
241.429	65.12
241.662	72.12
241.896	86.12
242.13	74.12
242.363	77.12
242.597	73.12
242.83	81.12
243.064	64.12
243.298	66.12
243.531	89.12
243.765	77.12
243.998	72.12
244.232	82.12
244.465	81.12
244.699	88.12
244.932	79.12
245.166	76.12
245.399	80.12
245.633	76.12
245.866	89.12
246.099	76.12
246.333	73.12
246.566	74.12
246.8	79.12
247.033	87.12
247.266	90.12
247.5	83.12
247.733	83.12
247.966	75.12
248.2	78.12
248.433	83.12
248.666	69.12
248.899	76.12
249.133	77.12
249.366	90.12
249.599	100.12
249.832	82.12
250.066	83.12
250.299	76.12
250.532	75.12
250.765	88.12
250.998	73.12
251.231	89.12
251.465	80.12
251.698	81.12
251.931	90.12
252.164	91.12
252.397	75.12
252.63	78.12
252.863	67.12
253.096	83.12
253.329	81.12
253.562	91.12
253.795	73.12
254.028	87.12
254.261	81.12
254.494	96.12
254.727	76.12
254.96	83.12
255.193	81.12
255.426	81.12
255.659	66.12
255.892	76.12
256.124	76.12
256.357	92.12
256.59	87.12
256.823	85.12
257.056	102.12
257.289	81.12
257.521	66.12
257.754	92.12
257.987	70.12
258.22	87.12
258.452	87.12
258.685	65.12
258.918	77.12
259.151	81.12
259.383	92.12
259.616	71.12
259.849	84.12
260.081	93.12
260.314	81.12
260.547	94.12
260.779	89.12
261.012	84.12
261.244	87.12
261.477	81.12
261.71	96.12
261.942	109.12
262.175	106.12
262.407	98.12
262.64	84.12
262.872	87.12
263.105	90.12
263.337	82.12
263.57	78.12
263.802	87.12
264.035	96.12
264.267	90.12
264.499	82.12
264.732	75.12
264.964	84.12
265.197	75.12
265.429	86.12
265.661	70.12
265.894	74.12
266.126	78.12
266.358	92.12
266.591	67.12
266.823	81.12
267.055	82.12
267.287	59.12
267.52	81.12
267.752	83.12
267.984	93.12
268.216	83.12
268.448	78.12
268.681	90.12
268.913	82.12
269.145	68.12
269.377	75.12
269.609	82.12
269.841	89.12
270.073	80.12
270.306	83.12
270.538	91.12
270.77	82.12
271.002	84.12
271.234	86.12
271.466	74.12
271.698	81.12
271.93	100.12
272.162	74.12
272.394	84.12
272.626	72.12
272.858	86.12
273.09	86.12
273.322	88.12
273.553	78.12
273.785	76.12
274.017	87.12
274.249	92.12
274.481	85.12
274.713	84.12
274.945	77.12
275.176	86.12
275.408	87.12
275.64	75.12
275.872	58.12
276.104	87.12
276.335	82.12
276.567	99.12
276.799	104.12
277.031	95.12
277.262	78.12
277.494	84.12
277.726	88.12
277.957	94.12
278.189	76.12
278.421	84.12
278.652	77.12
278.884	89.12
279.115	83.12
279.347	83.12
279.579	87.12
279.81	97.12
280.042	84.12
280.273	94.12
280.505	98.12
280.736	84.12
280.968	86.12
281.199	91.12
281.431	81.12
281.662	83.12
281.894	88.12
282.125	95.12
282.356	114.12
282.588	141.12
282.819	101.12
283.051	82.12
283.282	84.12
283.513	96.12
283.745	86.12
283.976	84.12
284.207	77.12
284.439	74.12
284.67	84.12
284.901	88.12
285.132	72.12
285.364	79.12
285.595	76.12
285.826	88.12
286.057	83.12
286.288	88.12
286.52	95.12
286.751	84.12
286.982	83.12
287.213	74.12
287.444	70.12
287.675	82.12
287.906	74.12
288.138	78.12
288.369	91.12
288.6	95.12
288.831	79.12
289.062	95.12
289.293	97.12
289.524	92.12
289.755	98.12
289.986	91.12
290.217	74.12
290.448	80.12
290.679	85.12
290.91	82.12
291.141	80.12
291.371	92.12
291.602	90.12
291.833	78.12
292.064	73.12
292.295	93.12
292.526	91.12
292.757	84.12
292.987	90.12
293.218	89.12
293.449	89.12
293.68	90.12
293.91	97.12
294.141	96.12
294.372	92.12
294.603	98.12
294.833	83.12
295.064	81.12
295.295	75.12
295.525	90.12
295.756	93.12
295.987	118.12
296.217	133.12
296.448	127.12
296.679	103.12
296.909	77.12
297.14	76.12
297.37	68.12
297.601	78.12
297.831	100.12
298.062	75.12
298.292	100.12
298.523	85.12
298.753	81.12
298.984	77.12
299.214	84.12
299.445	83.12
299.675	74.12
299.905	89.12
300.136	94.12
300.366	90.12
300.597	76.12
300.827	88.12
301.057	103.12
301.288	95.12
301.518	96.12
301.748	79.12
301.979	89.12
302.209	83.12
302.439	93.12
302.669	88.12
302.9	95.12
303.13	83.12
303.36	93.12
303.59	107.12
303.82	93.12
304.051	96.12
304.281	87.12
304.511	85.12
304.741	88.12
304.971	82.12
305.201	100.12
305.431	105.12
305.661	94.12
305.891	96.12
306.121	90.12
306.352	112.12
306.582	100.12
306.812	93.12
307.042	95.12
307.272	95.12
307.502	84.12
307.731	84.12
307.961	93.12
308.191	86.12
308.421	80.12
308.651	95.12
308.881	110.12
309.111	81.12
309.341	100.12
309.571	96.12
309.8	103.12
310.03	98.12
310.26	89.12
310.49	96.12
310.72	90.12
310.949	107.12
311.179	105.12
311.409	98.12
311.639	99.12
311.868	86.12
312.098	90.12
312.328	98.12
312.557	97.12
312.787	102.12
313.017	104.12
313.246	96.12
313.476	89.12
313.706	100.12
313.935	103.12
314.165	100.12
314.394	102.12
314.624	99.12
314.853	94.12
315.083	92.12
315.312	98.12
315.542	80.12
315.771	99.12
316.001	87.12
316.23	87.12
316.46	84.12
316.689	78.12
316.919	85.12
317.148	94.12
317.377	90.12
317.607	91.12
317.836	93.12
318.065	89.12
318.295	87.12
318.524	111.12
318.753	96.12
318.983	100.12
319.212	95.12
319.441	128.12
319.67	103.12
319.9	95.12
320.129	103.12
320.358	103.12
320.587	89.12
320.816	94.12
321.046	92.12
321.275	94.12
321.504	106.12
321.733	87.12
321.962	100.12
322.191	111.12
322.42	99.12
322.649	94.12
322.878	97.12
323.108	120.12
323.337	113.12
323.566	150.12
323.795	179.12
324.024	219.12
324.253	444.12
324.482	913.12
324.71	1970.12
324.939	2571.12
325.168	892.12
325.397	247.12
325.626	165.12
325.855	138.12
326.084	134.12
326.313	131.12
326.542	150.12
326.77	240.12
326.999	506.12
327.228	1056.12
327.457	1994.12
327.686	1571.12
327.914	409.12
328.143	199.12
328.372	156.12
328.6	114.12
328.829	106.12
329.058	121.12
329.287	125.12
329.515	123.12
329.744	107.12
329.972	90.12
330.201	107.12
330.43	102.12
330.658	104.12
330.887	128.12
331.115	115.12
331.344	90.12
331.572	104.12
331.801	104.12
332.03	104.12
332.258	93.12
332.486	95.12
332.715	92.12
332.943	98.12
333.172	84.12
333.4	89.12
333.629	107.12
333.857	99.12
334.085	101.12
334.314	91.12
334.542	89.12
334.771	111.12
334.999	103.12
335.227	96.12
335.455	87.12
335.684	90.12
335.912	98.12
336.14	90.12
336.369	88.12
336.597	96.12
336.825	89.12
337.053	87.12
337.281	79.12
337.51	91.12
337.738	88.12
337.966	95.12
338.194	95.12
338.422	103.12
338.65	102.12
338.878	106.12
339.106	77.12
339.334	93.12
339.562	86.12
339.79	102.12
340.018	97.12
340.246	77.12
340.474	93.12
340.702	82.12
340.93	94.12
341.158	90.12
341.386	98.12
341.614	100.12
341.842	87.12
342.07	99.12
342.298	90.12
342.526	81.12
342.754	91.12
342.981	99.12
343.209	86.12
343.437	91.12
343.665	88.12
343.893	82.12
344.12	89.12
344.348	91.12
344.576	98.12
344.804	100.12
345.031	97.12
345.259	90.12
345.487	89.12
345.714	97.12
345.942	104.12
346.17	90.12
346.397	84.12
346.625	101.12
346.853	92.12
347.08	91.12
347.308	88.12
347.535	92.12
347.763	102.12
347.99	103.12
348.218	95.12
348.445	90.12
348.673	86.12
348.9	103.12
349.128	89.12
349.355	101.12
349.583	90.12
349.81	87.12
350.037	92.12
350.265	86.12
350.492	88.12
350.72	97.12
350.947	112.12
351.174	107.12
351.402	92.12
351.629	91.12
351.856	75.12
352.083	96.12
352.311	93.12
352.538	93.12
352.765	95.12
352.992	118.12
353.22	104.12
353.447	101.12
353.674	115.12
353.901	102.12
354.128	99.12
354.355	82.12
354.583	84.12
354.81	94.12
355.037	90.12
355.264	99.12
355.491	89.12
355.718	105.12
355.945	94.12
356.172	85.12
356.399	95.12
356.626	96.12
356.853	92.12
357.08	86.12
357.307	86.12
357.534	103.12
357.761	83.12
357.988	96.12
358.215	94.12
358.441	96.12
358.668	84.12
358.895	88.12
359.122	92.12
359.349	93.12
359.576	94.12
359.802	100.12
360.029	107.12
360.256	97.12
360.483	101.12
360.709	91.12
360.936	84.12
361.163	91.12
361.39	99.12
361.616	96.12
361.843	90.12
362.07	95.12
362.296	88.12
362.523	93.12
362.749	84.12
362.976	95.12
363.203	90.12
363.429	80.12
363.656	88.12
363.882	83.12
364.109	88.12
364.335	90.12
364.562	81.12
364.788	73.12
365.015	86.12
365.241	100.12
365.468	104.12
365.694	90.12
365.92	84.12
366.147	97.12
366.373	87.12
366.599	84.12
366.826	78.12
367.052	93.12
367.278	80.12
367.505	112.12
367.731	114.12
367.957	87.12
368.184	78.12
368.41	93.12
368.636	106.12
368.862	122.12
369.089	107.12
369.315	106.12
369.541	103.12
369.767	76.12
369.993	73.12
370.219	94.12
370.445	95.12
370.672	76.12
370.898	89.12
371.124	88.12
371.35	85.12
371.576	86.12
371.802	88.12
372.028	93.12
372.254	83.12
372.48	82.12
372.706	97.12
372.932	76.12
373.158	98.12
373.384	84.12
373.61	82.12
373.835	80.12
374.061	76.12
374.287	90.12
374.513	96.12
374.739	87.12
374.965	88.12
375.191	91.12
375.416	92.12
375.642	77.12
375.868	103.12
376.094	83.12
376.319	88.12
376.545	90.12
376.771	87.12
376.997	84.12
377.222	82.12
377.448	89.12
377.674	95.12
377.899	89.12
378.125	85.12
378.35	90.12
378.576	88.12
378.802	77.12
379.027	83.12
379.253	93.12
379.478	90.12
379.704	82.12
379.929	92.12
380.155	92.12
380.38	98.12
380.606	75.12
380.831	114.12
381.057	88.12
381.282	105.12
381.507	99.12
381.733	88.12
381.958	90.12
382.184	83.12
382.409	91.12
382.634	95.12
382.86	98.12
383.085	92.12
383.31	109.12
383.535	100.12
383.761	90.12
383.986	90.12
384.211	115.12
384.436	103.12
384.662	92.12
384.887	90.12
385.112	107.12
385.337	107.12
385.562	98.12
385.787	109.12
386.013	101.12
386.238	113.12
386.463	124.12
386.688	109.12
386.913	104.12
387.138	101.12
387.363	101.12
387.588	85.12
387.813	99.12
388.038	94.12
388.263	93.12
388.488	102.12
388.713	92.12
388.938	91.12
389.163	95.12
389.387	81.12
389.612	87.12
389.837	103.12
390.062	106.12
390.287	82.12
390.512	89.12
390.736	84.12
390.961	92.12
391.186	99.12
391.411	97.12
391.636	84.12
391.86	84.12
392.085	68.12
392.31	78.12
392.534	96.12
392.759	80.12
392.984	81.12
393.208	91.12
393.433	83.12
393.658	73.12
393.882	84.12
394.107	91.12
394.331	84.12
394.556	86.12
394.78	86.12
395.005	80.12
395.229	74.12
395.454	80.12
395.678	67.12
395.903	89.12
396.127	82.12
396.352	84.12
396.576	89.12
396.801	101.12
397.025	78.12
397.249	95.12
397.474	92.12
397.698	94.12
397.922	70.12
398.147	80.12
398.371	78.12
398.595	93.12
398.82	86.12
399.044	93.12
399.268	87.12
399.492	83.12
399.717	87.12
399.941	96.12
400.165	92.12
400.389	91.12
400.613	94.12
400.837	78.12
401.062	95.12
401.286	78.12
401.51	98.12
401.734	104.12
401.958	119.12
402.182	123.12
402.406	159.12
402.63	111.12
402.854	109.12
403.078	98.12
403.302	84.12
403.526	92.12
403.75	78.12
403.974	95.12
404.198	93.12
404.422	78.12
404.645	89.12
404.869	72.12
405.093	93.12
405.317	93.12
405.541	81.12
405.765	112.12
405.988	122.12
406.212	155.12
406.436	237.12
406.66	136.12
406.883	114.12
407.107	73.12
407.331	98.12
407.555	95.12
407.778	102.12
408.002	88.12
408.226	88.12
408.449	86.12
408.673	78.12
408.896	96.12
409.12	76.12
409.344	87.12
409.567	79.12
409.791	95.12
410.014	88.12
410.238	66.12
410.461	90.12
410.685	89.12
410.908	86.12
411.132	107.12
411.355	98.12
411.578	95.12
411.802	84.12
412.025	90.12
412.249	87.12
412.472	85.12
412.695	75.12
412.919	82.12
413.142	74.12
413.365	80.12
413.589	82.12
413.812	80.12
414.035	97.12
414.258	84.12
414.482	90.12
414.705	91.12
414.928	84.12
415.151	89.12
415.374	89.12
415.597	96.12
415.821	81.12
416.044	79.12
416.267	93.12
416.49	77.12
416.713	76.12
416.936	95.12
417.159	81.12
417.382	84.12
417.605	87.12
417.828	86.12
418.051	80.12
418.274	97.12
418.497	90.12
418.72	84.12
418.943	96.12
419.166	104.12
419.389	91.12
419.611	70.12
419.834	85.12
420.057	67.12
420.28	81.12
420.503	79.12
420.726	73.12
420.948	76.12
421.171	82.12
421.394	91.12
421.617	80.12
421.839	92.12
422.062	89.12
422.285	86.12
422.507	90.12
422.73	111.12
422.953	81.12
423.175	93.12
423.398	91.12
423.621	80.12
423.843	80.12
424.066	82.12
424.288	67.12
424.511	87.12
424.733	97.12
424.956	86.12
425.178	105.12
425.401	107.12
425.623	93.12
425.846	96.12
426.068	95.12
426.291	80.12
426.513	86.12
426.735	88.12
426.958	84.12
427.18	105.12
427.402	122.12
427.625	175.12
427.847	124.12
428.069	89.12
428.292	71.12
428.514	80.12
428.736	88.12
428.958	98.12
429.181	95.12
429.403	88.12
429.625	82.12
429.847	98.12
430.069	110.12
430.292	96.12
430.514	82.12
430.736	70.12
430.958	103.12
431.18	84.12
431.402	86.12
431.624	88.12
431.846	79.12
432.068	81.12
432.29	86.12
432.512	94.12
432.734	80.12
432.956	92.12
433.178	103.12
433.4	97.12
433.622	83.12
433.844	89.12
434.066	87.12
434.287	85.12
434.509	81.12
434.731	92.12
434.953	80.12
435.175	88.12
435.397	83.12
435.618	94.12
435.84	94.12
436.062	126.12
436.284	104.12
436.505	97.12
436.727	101.12
436.949	98.12
437.17	82.12
437.392	105.12
437.614	87.12
437.835	110.12
438.057	119.12
438.278	119.12
438.5	103.12
438.721	120.12
438.943	97.12
439.165	83.12
439.386	92.12
439.608	87.12
439.829	107.12
440.05	127.12
440.272	144.12
440.493	99.12
440.715	78.12
440.936	82.12
441.158	71.12
441.379	86.12
441.6	102.12
441.822	96.12
442.043	84.12
442.264	90.12
442.486	99.12
442.707	87.12
442.928	111.12
443.149	138.12
443.371	130.12
443.592	100.12
443.813	104.12
444.034	100.12
444.255	95.12
444.476	101.12
444.698	90.12
444.919	88.12
445.14	114.12
445.361	134.12
445.582	107.12
445.803	138.12
446.024	138.12
446.245	137.12
446.466	103.12
446.687	97.12
446.908	94.12
447.129	98.12
447.35	92.12
447.571	86.12
447.792	87.12
448.013	101.12
448.234	110.12
448.455	98.12
448.675	98.12
448.896	95.12
449.117	99.12
449.338	96.12
449.559	116.12
449.779	128.12
450	92.12
450.221	104.12
450.442	83.12
450.662	75.12
450.883	90.12
451.104	108.12
451.324	91.12
451.545	81.12
451.766	81.12
451.986	70.12
452.207	79.12
452.428	99.12
452.648	100.12
452.869	105.12
453.089	121.12
453.31	96.12
453.53	91.12
453.751	95.12
453.971	99.12
454.192	115.12
454.412	88.12
454.633	88.12
454.853	76.12
455.073	92.12
455.294	75.12
455.514	96.12
455.734	97.12
455.955	83.12
456.175	83.12
456.395	86.12
456.616	83.12
456.836	92.12
457.056	91.12
457.276	82.12
457.497	82.12
457.717	102.12
457.937	81.12
458.157	89.12
458.377	78.12
458.598	100.12
458.818	145.12
459.038	147.12
459.258	131.12
459.478	93.12
459.698	88.12
459.918	88.12
460.138	77.12
460.358	88.12
460.578	71.12
460.798	84.12
461.018	78.12
461.238	83.12
461.458	80.12
461.678	72.12
461.898	87.12
462.118	98.12
462.338	70.12
462.558	77.12
462.777	99.12
462.997	89.12
463.217	78.12
463.437	94.12
463.657	75.12
463.876	84.12
464.096	97.12
464.316	93.12
464.536	86.12
464.755	82.12
464.975	93.12
465.195	153.12
465.414	148.12
465.634	107.12
465.854	80.12
466.073	81.12
466.293	88.12
466.512	86.12
466.732	95.12
466.951	83.12
467.171	94.12
467.391	87.12
467.61	108.12
467.829	91.12
468.049	70.12
468.268	70.12
468.488	89.12
468.707	73.12
468.927	90.12
469.146	92.12
469.365	75.12
469.585	90.12
469.804	96.12
470.023	98.12
470.243	82.12
470.462	106.12
470.681	100.12
470.901	90.12
471.12	82.12
471.339	82.12
471.558	89.12
471.777	73.12
471.997	72.12
472.216	84.12
472.435	95.12
472.654	74.12
472.873	76.12
473.092	92.12
473.311	104.12
473.53	74.12
473.749	75.12
473.968	91.12
474.187	82.12
474.406	89.12
474.625	93.12
474.844	89.12
475.063	84.12
475.282	90.12
475.501	89.12
475.72	76.12
475.939	94.12
476.158	81.12
476.377	92.12
476.596	88.12
476.814	84.12
477.033	102.12
477.252	83.12
477.471	80.12
477.69	71.12
477.908	90.12
478.127	91.12
478.346	83.12
478.564	92.12
478.783	85.12
479.002	94.12
479.22	99.12
479.439	102.12
479.658	106.12
479.876	92.12
480.095	90.12
480.313	76.12
480.532	90.12
480.751	95.12
480.969	91.12
481.188	88.12
481.406	102.12
481.624	86.12
481.843	84.12
482.061	80.12
482.28	84.12
482.498	87.12
482.717	96.12
482.935	88.12
483.153	79.12
483.372	74.12
483.59	88.12
483.808	88.12
484.027	96.12
484.245	98.12
484.463	105.12
484.681	83.12
484.9	90.12
485.118	84.12
485.336	98.12
485.554	87.12
485.772	90.12
485.99	97.12
486.209	109.12
486.427	100.12
486.645	116.12
486.863	109.12
487.081	95.12
487.299	98.12
487.517	96.12
487.735	83.12
487.953	103.12
488.171	96.12
488.389	110.12
488.607	109.12
488.825	87.12
489.043	90.12
489.261	95.12
489.479	86.12
489.696	101.12
489.914	87.12
490.132	65.12
490.35	92.12
490.568	96.12
490.786	80.12
491.003	102.12
491.221	94.12
491.439	97.12
491.657	78.12
491.874	89.12
492.092	78.12
492.31	87.12
492.527	94.12
492.745	74.12
492.963	99.12
493.18	92.12
493.398	92.12
493.615	91.12
493.833	100.12
494.05	88.12
494.268	91.12
494.485	94.12
494.703	96.12
494.92	95.12
495.138	81.12
495.355	91.12
495.573	70.12
495.79	89.12
496.008	105.12
496.225	86.12
496.442	73.12
496.66	100.12
496.877	95.12
497.094	89.12
497.312	93.12
497.529	94.12
497.746	96.12
497.963	98.12
498.181	83.12
498.398	87.12
498.615	101.12
498.832	109.12
499.049	98.12
499.267	77.12
499.484	93.12
499.701	87.12
499.918	71.12
500.135	90.12
500.352	101.12
500.569	82.12
500.786	94.12
501.003	74.12
501.22	96.12
501.437	92.12
501.654	84.12
501.871	82.12
502.088	93.12
502.305	86.12
502.522	94.12
502.739	93.12
502.956	80.12
503.172	95.12
503.389	103.12
503.606	110.12
503.823	89.12
504.04	91.12
504.256	87.12
504.473	95.12
504.69	97.12
504.907	94.12
505.123	80.12
505.34	96.12
505.557	89.12
505.773	74.12
505.99	80.12
506.207	82.12
506.423	83.12
506.64	95.12
506.856	84.12
507.073	102.12
507.289	90.12
507.506	111.12
507.722	111.12
507.939	125.12
508.155	89.12
508.372	95.12
508.588	92.12
508.805	90.12
509.021	97.12
509.238	104.12
509.454	103.12
509.67	102.12
509.887	107.12
510.103	138.12
510.319	220.12
510.536	805.12
510.752	2539.12
510.968	692.12
511.184	160.12
511.401	114.12
511.617	91.12
511.833	94.12
512.049	85.12
512.265	89.12
512.481	95.12
512.698	102.12
512.914	91.12
513.13	101.12
513.346	98.12
513.562	103.12
513.778	96.12
513.994	99.12
514.21	107.12
514.426	116.12
514.642	140.12
514.858	122.12
515.074	163.12
515.29	471.12
515.506	1574.12
515.721	575.12
515.937	152.12
516.153	115.12
516.369	91.12
