Data from Uncirc_2007_H10_HRD10591_00039.txt Node
Date: Wed Jan 03 10:20:50 EST 2024
User: Yrep
Spectrometer: HR+D1059
Trigger mode: 1
Integration Time (sec): 1.000000E-1
Scans to average: 1
Electric dark correction enabled: true
Nonlinearity correction enabled: false
Boxcar width: 0
XAxis mode: Wavelengths
Number of Pixels in Spectrum: 2048
>>>>>Begin Spectral Data<<<<<
223.165	-6.12
223.4	-6.12
223.635	-6.12
223.869	-20.12
224.104	-15.12
224.338	-8.12
224.573	-28.12
224.808	-21.12
225.042	-3.12
225.277	-6.12
225.511	-9.12
225.746	6.88
225.98	0.88
226.215	7.88
226.449	12.88
226.683	26.88
226.918	24.88
227.152	36.88
227.387	42.88
227.621	29.88
227.856	40.88
228.09	42.88
228.324	42.88
228.559	54.88
228.793	52.88
229.027	47.88
229.262	71.88
229.496	72.88
229.73	70.88
229.964	69.88
230.199	70.88
230.433	67.88
230.667	83.88
230.901	79.88
231.136	61.88
231.37	82.88
231.604	83.88
231.838	102.88
232.072	80.88
232.306	87.88
232.541	84.88
232.775	74.88
233.009	75.88
233.243	87.88
233.477	73.88
233.711	81.88
233.945	83.88
234.179	77.88
234.413	79.88
234.647	91.88
234.881	77.88
235.115	67.88
235.349	77.88
235.583	83.88
235.817	75.88
236.051	90.88
236.285	80.88
236.519	82.88
236.753	77.88
236.987	74.88
237.221	65.88
237.455	77.88
237.689	70.88
237.922	76.88
238.156	76.88
238.39	73.88
238.624	82.88
238.858	66.88
239.091	61.88
239.325	73.88
239.559	79.88
239.793	84.88
240.027	91.88
240.26	84.88
240.494	87.88
240.728	74.88
240.961	70.88
241.195	79.88
241.429	74.88
241.662	80.88
241.896	75.88
242.13	73.88
242.363	76.88
242.597	74.88
242.83	74.88
243.064	76.88
243.298	74.88
243.531	82.88
243.765	71.88
243.998	62.88
244.232	94.88
244.465	86.88
244.699	87.88
244.932	75.88
245.166	67.88
245.399	78.88
245.633	80.88
245.866	65.88
246.099	66.88
246.333	80.88
246.566	89.88
246.8	70.88
247.033	66.88
247.266	66.88
247.5	79.88
247.733	64.88
247.966	75.88
248.2	79.88
248.433	78.88
248.666	80.88
248.899	62.88
249.133	82.88
249.366	84.88
249.599	97.88
249.832	83.88
250.066	74.88
250.299	74.88
250.532	69.88
250.765	89.88
250.998	76.88
251.231	82.88
251.465	75.88
251.698	82.88
251.931	68.88
252.164	67.88
252.397	88.88
252.63	76.88
252.863	78.88
253.096	73.88
253.329	82.88
253.562	87.88
253.795	82.88
254.028	79.88
254.261	86.88
254.494	88.88
254.727	75.88
254.96	73.88
255.193	81.88
255.426	79.88
255.659	82.88
255.892	87.88
256.124	79.88
256.357	76.88
256.59	81.88
256.823	67.88
257.056	71.88
257.289	67.88
257.521	78.88
257.754	82.88
257.987	73.88
258.22	83.88
258.452	67.88
258.685	77.88
258.918	94.88
259.151	75.88
259.383	91.88
259.616	79.88
259.849	74.88
260.081	99.88
260.314	78.88
260.547	82.88
260.779	89.88
261.012	72.88
261.244	74.88
261.477	93.88
261.71	75.88
261.942	106.88
262.175	107.88
262.407	105.88
262.64	84.88
262.872	73.88
263.105	82.88
263.337	87.88
263.57	66.88
263.802	82.88
264.035	82.88
264.267	85.88
264.499	88.88
264.732	76.88
264.964	86.88
265.197	69.88
265.429	76.88
265.661	73.88
265.894	82.88
266.126	83.88
266.358	85.88
266.591	94.88
266.823	85.88
267.055	79.88
267.287	86.88
267.52	89.88
267.752	78.88
267.984	87.88
268.216	79.88
268.448	84.88
268.681	86.88
268.913	73.88
269.145	82.88
269.377	89.88
269.609	83.88
269.841	96.88
270.073	87.88
270.306	93.88
270.538	86.88
270.77	76.88
271.002	85.88
271.234	89.88
271.466	93.88
271.698	95.88
271.93	87.88
272.162	79.88
272.394	100.88
272.626	91.88
272.858	87.88
273.09	91.88
273.322	84.88
273.553	81.88
273.785	81.88
274.017	74.88
274.249	87.88
274.481	90.88
274.713	94.88
274.945	86.88
275.176	84.88
275.408	82.88
275.64	87.88
275.872	66.88
276.104	92.88
276.335	84.88
276.567	93.88
276.799	99.88
277.031	93.88
277.262	105.88
277.494	85.88
277.726	80.88
277.957	86.88
278.189	90.88
278.421	81.88
278.652	103.88
278.884	87.88
279.115	71.88
279.347	86.88
279.579	81.88
279.81	93.88
280.042	89.88
280.273	90.88
280.505	84.88
280.736	85.88
280.968	87.88
281.199	82.88
281.431	75.88
281.662	85.88
281.894	83.88
282.125	96.88
282.356	117.88
282.588	130.88
282.819	113.88
283.051	79.88
283.282	74.88
283.513	91.88
283.745	74.88
283.976	100.88
284.207	90.88
284.439	81.88
284.67	76.88
284.901	77.88
285.132	94.88
285.364	72.88
285.595	81.88
285.826	95.88
286.057	89.88
286.288	94.88
286.52	90.88
286.751	88.88
286.982	95.88
287.213	77.88
287.444	95.88
287.675	92.88
287.906	91.88
288.138	86.88
288.369	93.88
288.6	82.88
288.831	94.88
289.062	92.88
289.293	83.88
289.524	82.88
289.755	86.88
289.986	84.88
290.217	75.88
290.448	90.88
290.679	77.88
290.91	84.88
291.141	84.88
291.371	87.88
291.602	81.88
291.833	89.88
292.064	88.88
292.295	99.88
292.526	102.88
292.757	97.88
292.987	79.88
293.218	79.88
293.449	79.88
293.68	92.88
293.91	96.88
294.141	102.88
294.372	87.88
294.603	85.88
294.833	79.88
295.064	88.88
295.295	82.88
295.525	84.88
295.756	91.88
295.987	95.88
296.217	139.88
296.448	122.88
296.679	98.88
296.909	91.88
297.14	97.88
297.37	84.88
297.601	103.88
297.831	82.88
298.062	86.88
298.292	91.88
298.523	88.88
298.753	86.88
298.984	78.88
299.214	93.88
299.445	89.88
299.675	100.88
299.905	92.88
300.136	80.88
300.366	82.88
300.597	82.88
300.827	77.88
301.057	90.88
301.288	97.88
301.518	104.88
301.748	89.88
301.979	98.88
302.209	75.88
302.439	83.88
302.669	79.88
302.9	99.88
303.13	97.88
303.36	94.88
303.59	87.88
303.82	103.88
304.051	93.88
304.281	104.88
304.511	88.88
304.741	96.88
304.971	86.88
305.201	75.88
305.431	104.88
305.661	94.88
305.891	91.88
306.121	87.88
306.352	98.88
306.582	91.88
306.812	80.88
307.042	96.88
307.272	99.88
307.502	89.88
307.731	86.88
307.961	96.88
308.191	95.88
308.421	86.88
308.651	81.88
308.881	83.88
309.111	90.88
309.341	94.88
309.571	107.88
309.8	95.88
310.03	88.88
310.26	83.88
310.49	104.88
310.72	88.88
310.949	100.88
311.179	102.88
311.409	88.88
311.639	102.88
311.868	92.88
312.098	91.88
312.328	93.88
312.557	111.88
312.787	88.88
313.017	99.88
313.246	94.88
313.476	103.88
313.706	84.88
313.935	86.88
314.165	97.88
314.394	99.88
314.624	88.88
314.853	91.88
315.083	83.88
315.312	88.88
315.542	87.88
315.771	103.88
316.001	85.88
316.23	87.88
316.46	82.88
316.689	97.88
316.919	98.88
317.148	88.88
317.377	83.88
317.607	104.88
317.836	88.88
318.065	84.88
318.295	95.88
318.524	82.88
318.753	96.88
318.983	90.88
319.212	84.88
319.441	111.88
319.67	119.88
319.9	98.88
320.129	81.88
320.358	84.88
320.587	100.88
320.816	96.88
321.046	91.88
321.275	90.88
321.504	99.88
321.733	88.88
321.962	91.88
322.191	99.88
322.42	107.88
322.649	112.88
322.878	106.88
323.108	123.88
323.337	115.88
323.566	134.88
323.795	163.88
324.024	234.88
324.253	408.88
324.482	870.88
324.71	1843.88
324.939	2396.88
325.168	898.88
325.397	270.88
325.626	159.88
325.855	132.88
326.084	132.88
326.313	133.88
326.542	164.88
326.77	242.88
326.999	498.88
327.228	1023.88
327.457	1846.88
327.686	1482.88
327.914	386.88
328.143	202.88
328.372	144.88
328.6	112.88
328.829	103.88
329.058	121.88
329.287	120.88
329.515	115.88
329.744	107.88
329.972	96.88
330.201	106.88
330.43	88.88
330.658	111.88
330.887	119.88
331.115	110.88
331.344	99.88
331.572	114.88
331.801	110.88
332.03	98.88
332.258	106.88
332.486	89.88
332.715	84.88
332.943	102.88
333.172	97.88
333.4	104.88
333.629	110.88
333.857	108.88
334.085	101.88
334.314	87.88
334.542	92.88
334.771	97.88
334.999	103.88
335.227	84.88
335.455	88.88
335.684	99.88
335.912	95.88
336.14	105.88
336.369	101.88
336.597	87.88
336.825	96.88
337.053	82.88
337.281	102.88
337.51	82.88
337.738	105.88
337.966	85.88
338.194	85.88
338.422	103.88
338.65	85.88
338.878	95.88
339.106	88.88
339.334	81.88
339.562	87.88
339.79	77.88
340.018	94.88
340.246	92.88
340.474	96.88
340.702	86.88
340.93	100.88
341.158	79.88
341.386	91.88
341.614	93.88
341.842	83.88
342.07	95.88
342.298	100.88
342.526	83.88
342.754	81.88
342.981	91.88
343.209	88.88
343.437	98.88
343.665	90.88
343.893	96.88
344.12	94.88
344.348	87.88
344.576	87.88
344.804	85.88
345.031	104.88
345.259	90.88
345.487	81.88
345.714	90.88
345.942	95.88
346.17	90.88
346.397	79.88
346.625	99.88
346.853	99.88
347.08	105.88
347.308	92.88
347.535	113.88
347.763	107.88
347.99	99.88
348.218	106.88
348.445	91.88
348.673	92.88
348.9	92.88
349.128	103.88
349.355	102.88
349.583	73.88
349.81	77.88
350.037	85.88
350.265	93.88
350.492	96.88
350.72	87.88
350.947	99.88
351.174	115.88
351.402	111.88
351.629	96.88
351.856	93.88
352.083	88.88
352.311	105.88
352.538	103.88
352.765	106.88
352.992	118.88
353.22	104.88
353.447	99.88
353.674	99.88
353.901	100.88
354.128	91.88
354.355	99.88
354.583	94.88
354.81	103.88
355.037	100.88
355.264	93.88
355.491	95.88
355.718	94.88
355.945	89.88
356.172	91.88
356.399	85.88
356.626	93.88
356.853	95.88
357.08	87.88
357.307	94.88
357.534	91.88
357.761	92.88
357.988	94.88
358.215	95.88
358.441	91.88
358.668	93.88
358.895	94.88
359.122	85.88
359.349	84.88
359.576	83.88
359.802	102.88
360.029	96.88
360.256	102.88
360.483	107.88
360.709	86.88
360.936	88.88
361.163	97.88
361.39	84.88
361.616	108.88
361.843	82.88
362.07	90.88
362.296	97.88
362.523	78.88
362.749	79.88
362.976	92.88
363.203	90.88
363.429	90.88
363.656	90.88
363.882	87.88
364.109	104.88
364.335	95.88
364.562	74.88
364.788	105.88
365.015	100.88
365.241	97.88
365.468	101.88
365.694	105.88
365.92	94.88
366.147	88.88
366.373	89.88
366.599	90.88
366.826	93.88
367.052	92.88
367.278	105.88
367.505	79.88
367.731	96.88
367.957	93.88
368.184	104.88
368.41	97.88
368.636	107.88
368.862	104.88
369.089	104.88
369.315	89.88
369.541	93.88
369.767	100.88
369.993	90.88
370.219	104.88
370.445	86.88
370.672	88.88
370.898	91.88
371.124	94.88
371.35	88.88
371.576	88.88
371.802	77.88
372.028	100.88
372.254	81.88
372.48	88.88
372.706	88.88
372.932	94.88
373.158	88.88
373.384	92.88
373.61	79.88
373.835	81.88
374.061	81.88
374.287	92.88
374.513	90.88
374.739	84.88
374.965	83.88
375.191	97.88
375.416	98.88
375.642	94.88
375.868	81.88
376.094	87.88
376.319	81.88
376.545	89.88
376.771	88.88
376.997	87.88
377.222	79.88
377.448	81.88
377.674	81.88
377.899	87.88
378.125	94.88
378.35	80.88
378.576	95.88
378.802	88.88
379.027	97.88
379.253	108.88
379.478	86.88
379.704	87.88
379.929	93.88
380.155	94.88
380.38	111.88
380.606	99.88
380.831	103.88
381.057	118.88
381.282	96.88
381.507	90.88
381.733	97.88
381.958	94.88
382.184	93.88
382.409	98.88
382.634	92.88
382.86	83.88
383.085	98.88
383.31	106.88
383.535	91.88
383.761	94.88
383.986	99.88
384.211	91.88
384.436	94.88
384.662	96.88
384.887	101.88
385.112	99.88
385.337	89.88
385.562	79.88
385.787	95.88
386.013	105.88
386.238	91.88
386.463	106.88
386.688	122.88
386.913	91.88
387.138	106.88
387.363	112.88
387.588	102.88
387.813	98.88
388.038	111.88
388.263	100.88
388.488	99.88
388.713	94.88
388.938	91.88
389.163	104.88
389.387	109.88
389.612	87.88
389.837	107.88
390.062	88.88
390.287	98.88
390.512	89.88
390.736	97.88
390.961	103.88
391.186	84.88
391.411	75.88
391.636	82.88
391.86	68.88
392.085	74.88
392.31	82.88
392.534	95.88
392.759	87.88
392.984	82.88
393.208	104.88
393.433	73.88
393.658	87.88
393.882	76.88
394.107	85.88
394.331	88.88
394.556	80.88
394.78	88.88
395.005	81.88
395.229	87.88
395.454	79.88
395.678	75.88
395.903	83.88
396.127	80.88
396.352	95.88
396.576	76.88
396.801	88.88
397.025	84.88
397.249	72.88
397.474	103.88
397.698	100.88
397.922	94.88
398.147	93.88
398.371	89.88
398.595	95.88
398.82	90.88
399.044	91.88
399.268	88.88
399.492	99.88
399.717	89.88
399.941	82.88
400.165	96.88
400.389	88.88
400.613	90.88
400.837	84.88
401.062	85.88
401.286	89.88
401.51	88.88
401.734	96.88
401.958	101.88
402.182	124.88
402.406	150.88
402.63	125.88
402.854	91.88
403.078	79.88
403.302	83.88
403.526	79.88
403.75	78.88
403.974	90.88
404.198	91.88
404.422	74.88
404.645	77.88
404.869	91.88
405.093	98.88
405.317	91.88
405.541	83.88
405.765	95.88
405.988	134.88
406.212	167.88
406.436	224.88
406.66	149.88
406.883	103.88
407.107	98.88
407.331	81.88
407.555	81.88
407.778	96.88
408.002	82.88
408.226	90.88
408.449	77.88
408.673	96.88
408.896	82.88
409.12	102.88
409.344	94.88
409.567	82.88
409.791	98.88
410.014	83.88
410.238	81.88
410.461	86.88
410.685	86.88
410.908	92.88
411.132	100.88
411.355	99.88
411.578	81.88
411.802	89.88
412.025	82.88
412.249	81.88
412.472	87.88
412.695	83.88
412.919	68.88
413.142	90.88
413.365	96.88
413.589	73.88
413.812	92.88
414.035	96.88
414.258	90.88
414.482	85.88
414.705	77.88
414.928	87.88
415.151	87.88
415.374	87.88
415.597	88.88
415.821	79.88
416.044	90.88
416.267	90.88
416.49	82.88
416.713	104.88
416.936	96.88
417.159	80.88
417.382	85.88
417.605	80.88
417.828	100.88
418.051	95.88
418.274	84.88
418.497	93.88
418.72	83.88
418.943	77.88
419.166	85.88
419.389	91.88
419.611	85.88
419.834	88.88
420.057	89.88
420.28	94.88
420.503	100.88
420.726	77.88
420.948	94.88
421.171	94.88
421.394	104.88
421.617	88.88
421.839	92.88
422.062	83.88
422.285	100.88
422.507	106.88
422.73	99.88
422.953	92.88
423.175	81.88
423.398	90.88
423.621	86.88
423.843	91.88
424.066	80.88
424.288	97.88
424.511	92.88
424.733	99.88
424.956	95.88
425.178	93.88
425.401	107.88
425.623	88.88
425.846	78.88
426.068	82.88
426.291	94.88
426.513	97.88
426.735	94.88
426.958	100.88
427.18	96.88
427.402	150.88
427.625	160.88
427.847	124.88
428.069	98.88
428.292	99.88
428.514	88.88
428.736	78.88
428.958	87.88
429.181	86.88
429.403	94.88
429.625	86.88
429.847	90.88
430.069	100.88
430.292	85.88
430.514	95.88
430.736	95.88
430.958	80.88
431.18	95.88
431.402	96.88
431.624	74.88
431.846	88.88
432.068	76.88
432.29	93.88
432.512	88.88
432.734	97.88
432.956	101.88
433.178	99.88
433.4	106.88
433.622	94.88
433.844	97.88
434.066	76.88
434.287	88.88
434.509	83.88
434.731	85.88
434.953	90.88
435.175	90.88
435.397	81.88
435.618	98.88
435.84	102.88
436.062	122.88
436.284	121.88
436.505	106.88
436.727	104.88
436.949	91.88
437.17	96.88
437.392	101.88
437.614	97.88
437.835	113.88
438.057	116.88
438.278	103.88
438.5	109.88
438.721	111.88
438.943	94.88
439.165	72.88
439.386	99.88
439.608	97.88
439.829	105.88
440.05	123.88
440.272	136.88
440.493	103.88
440.715	100.88
440.936	89.88
441.158	88.88
441.379	96.88
441.6	83.88
441.822	97.88
442.043	92.88
442.264	97.88
442.486	95.88
442.707	74.88
442.928	109.88
443.149	127.88
443.371	122.88
443.592	102.88
443.813	111.88
444.034	97.88
444.255	84.88
444.476	83.88
444.698	90.88
444.919	79.88
445.14	114.88
445.361	131.88
445.582	114.88
445.803	131.88
446.024	132.88
446.245	136.88
446.466	118.88
446.687	88.88
446.908	92.88
447.129	74.88
447.35	84.88
447.571	105.88
447.792	94.88
448.013	109.88
448.234	113.88
448.455	95.88
448.675	109.88
448.896	120.88
449.117	90.88
449.338	96.88
449.559	119.88
449.779	138.88
450	98.88
450.221	88.88
450.442	99.88
450.662	92.88
450.883	90.88
451.104	112.88
451.324	92.88
451.545	100.88
451.766	91.88
451.986	85.88
452.207	96.88
452.428	98.88
452.648	83.88
452.869	109.88
453.089	105.88
453.31	104.88
453.53	95.88
453.751	85.88
453.971	92.88
454.192	119.88
454.412	92.88
454.633	77.88
454.853	82.88
455.073	88.88
455.294	88.88
455.514	104.88
455.734	78.88
455.955	74.88
456.175	83.88
456.395	90.88
456.616	74.88
456.836	80.88
457.056	90.88
457.276	89.88
457.497	85.88
457.717	78.88
457.937	87.88
458.157	84.88
458.377	83.88
458.598	110.88
458.818	154.88
459.038	152.88
459.258	119.88
459.478	103.88
459.698	84.88
459.918	76.88
460.138	74.88
460.358	89.88
460.578	95.88
460.798	106.88
461.018	92.88
461.238	92.88
461.458	74.88
461.678	72.88
461.898	88.88
462.118	77.88
462.338	78.88
462.558	94.88
462.777	88.88
462.997	97.88
463.217	78.88
463.437	92.88
463.657	85.88
463.876	86.88
464.096	89.88
464.316	90.88
464.536	86.88
464.755	85.88
464.975	103.88
465.195	171.88
465.414	160.88
465.634	118.88
465.854	86.88
466.073	94.88
466.293	90.88
466.512	89.88
466.732	97.88
466.951	76.88
467.171	98.88
467.391	90.88
467.61	106.88
467.829	105.88
468.049	96.88
468.268	84.88
468.488	71.88
468.707	83.88
468.927	74.88
469.146	78.88
469.365	79.88
469.585	90.88
469.804	99.88
470.023	83.88
470.243	97.88
470.462	92.88
470.681	109.88
470.901	91.88
471.12	84.88
471.339	83.88
471.558	86.88
471.777	78.88
471.997	84.88
472.216	79.88
472.435	82.88
472.654	85.88
472.873	94.88
473.092	93.88
473.311	101.88
473.53	92.88
473.749	83.88
473.968	89.88
474.187	89.88
474.406	88.88
474.625	90.88
474.844	88.88
475.063	87.88
475.282	75.88
475.501	96.88
475.72	105.88
475.939	84.88
476.158	87.88
476.377	95.88
476.596	102.88
476.814	88.88
477.033	93.88
477.252	77.88
477.471	90.88
477.69	88.88
477.908	92.88
478.127	92.88
478.346	84.88
478.564	90.88
478.783	92.88
479.002	89.88
479.22	84.88
479.439	105.88
479.658	99.88
479.876	67.88
480.095	88.88
480.313	94.88
480.532	82.88
480.751	105.88
480.969	73.88
481.188	91.88
481.406	86.88
481.624	72.88
481.843	75.88
482.061	89.88
482.28	81.88
482.498	98.88
482.717	77.88
482.935	90.88
483.153	85.88
483.372	76.88
483.59	74.88
483.808	83.88
484.027	91.88
484.245	79.88
484.463	94.88
484.681	96.88
484.9	76.88
485.118	95.88
485.336	107.88
485.554	89.88
485.772	94.88
485.99	103.88
486.209	94.88
486.427	98.88
486.645	97.88
486.863	96.88
487.081	100.88
487.299	93.88
487.517	104.88
487.735	86.88
487.953	91.88
488.171	93.88
488.389	87.88
488.607	96.88
488.825	84.88
489.043	91.88
489.261	94.88
489.479	89.88
489.696	97.88
489.914	86.88
490.132	94.88
490.35	79.88
490.568	83.88
490.786	85.88
491.003	88.88
491.221	82.88
491.439	82.88
491.657	73.88
491.874	90.88
492.092	83.88
492.31	90.88
492.527	99.88
492.745	81.88
492.963	89.88
493.18	94.88
493.398	99.88
493.615	95.88
493.833	82.88
494.05	90.88
494.268	93.88
494.485	99.88
494.703	89.88
494.92	93.88
495.138	98.88
495.355	99.88
495.573	79.88
495.79	88.88
496.008	88.88
496.225	81.88
496.442	77.88
496.66	90.88
496.877	93.88
497.094	83.88
497.312	104.88
497.529	99.88
497.746	99.88
497.963	87.88
498.181	86.88
498.398	87.88
498.615	106.88
498.832	105.88
499.049	97.88
499.267	93.88
499.484	88.88
499.701	92.88
499.918	82.88
500.135	86.88
500.352	86.88
500.569	96.88
500.786	90.88
501.003	90.88
501.22	93.88
501.437	79.88
501.654	94.88
501.871	86.88
502.088	101.88
502.305	90.88
502.522	79.88
502.739	93.88
502.956	90.88
503.172	80.88
503.389	86.88
503.606	108.88
503.823	97.88
504.04	96.88
504.256	69.88
504.473	89.88
504.69	76.88
504.907	89.88
505.123	86.88
505.34	87.88
505.557	93.88
505.773	92.88
505.99	92.88
506.207	93.88
506.423	95.88
506.64	82.88
506.856	88.88
507.073	80.88
507.289	96.88
507.506	97.88
507.722	105.88
507.939	107.88
508.155	91.88
508.372	84.88
508.588	98.88
508.805	88.88
509.021	74.88
509.238	105.88
509.454	104.88
509.67	112.88
509.887	106.88
510.103	129.88
510.319	211.88
510.536	795.88
510.752	2513.88
510.968	732.88
511.184	150.88
511.401	111.88
511.617	102.88
511.833	102.88
512.049	97.88
512.265	95.88
512.481	74.88
512.698	96.88
512.914	77.88
513.13	84.88
513.346	87.88
513.562	90.88
513.778	105.88
513.994	91.88
514.21	100.88
514.426	109.88
514.642	122.88
514.858	120.88
515.074	157.88
515.29	468.88
515.506	1574.88
515.721	593.88
515.937	161.88
516.153	124.88
516.369	99.88
