Data from Uncirc_2007_H10_HRD10591_00076.txt Node
Date: Wed Jan 03 10:20:57 EST 2024
User: Yrep
Spectrometer: HR+D1059
Trigger mode: 1
Integration Time (sec): 1.000000E-1
Scans to average: 1
Electric dark correction enabled: true
Nonlinearity correction enabled: false
Boxcar width: 0
XAxis mode: Wavelengths
Number of Pixels in Spectrum: 2048
>>>>>Begin Spectral Data<<<<<
223.165	-24.56
223.4	-24.56
223.635	-24.56
223.869	-25.56
224.104	-21.56
224.338	-3.56
224.573	-17.56
224.808	-4.56
225.042	-9.56
225.277	-1.56
225.511	-1.56
225.746	10.44
225.98	4.44
226.215	10.44
226.449	17.44
226.683	17.44
226.918	21.44
227.152	28.44
227.387	31.44
227.621	37.44
227.856	36.44
228.09	46.44
228.324	53.44
228.559	55.44
228.793	59.44
229.027	67.44
229.262	78.44
229.496	75.44
229.73	94.44
229.964	82.44
230.199	78.44
230.433	77.44
230.667	81.44
230.901	75.44
231.136	84.44
231.37	77.44
231.604	76.44
231.838	83.44
232.072	83.44
232.306	84.44
232.541	72.44
232.775	89.44
233.009	82.44
233.243	74.44
233.477	82.44
233.711	80.44
233.945	79.44
234.179	93.44
234.413	83.44
234.647	78.44
234.881	83.44
235.115	78.44
235.349	78.44
235.583	87.44
235.817	86.44
236.051	77.44
236.285	82.44
236.519	77.44
236.753	72.44
236.987	77.44
237.221	89.44
237.455	81.44
237.689	74.44
237.922	81.44
238.156	74.44
238.39	58.44
238.624	80.44
238.858	81.44
239.091	93.44
239.325	76.44
239.559	70.44
239.793	75.44
240.027	85.44
240.26	85.44
240.494	73.44
240.728	79.44
240.961	78.44
241.195	90.44
241.429	86.44
241.662	68.44
241.896	84.44
242.13	86.44
242.363	66.44
242.597	80.44
242.83	89.44
243.064	79.44
243.298	83.44
243.531	80.44
243.765	66.44
243.998	74.44
244.232	86.44
244.465	76.44
244.699	72.44
244.932	84.44
245.166	75.44
245.399	73.44
245.633	65.44
245.866	76.44
246.099	86.44
246.333	76.44
246.566	95.44
246.8	88.44
247.033	75.44
247.266	64.44
247.5	95.44
247.733	84.44
247.966	86.44
248.2	82.44
248.433	69.44
248.666	73.44
248.899	73.44
249.133	87.44
249.366	90.44
249.599	116.44
249.832	82.44
250.066	67.44
250.299	74.44
250.532	81.44
250.765	84.44
250.998	79.44
251.231	68.44
251.465	92.44
251.698	91.44
251.931	83.44
252.164	81.44
252.397	65.44
252.63	79.44
252.863	79.44
253.096	73.44
253.329	82.44
253.562	78.44
253.795	85.44
254.028	74.44
254.261	78.44
254.494	78.44
254.727	87.44
254.96	83.44
255.193	90.44
255.426	79.44
255.659	90.44
255.892	78.44
256.124	74.44
256.357	85.44
256.59	85.44
256.823	67.44
257.056	82.44
257.289	86.44
257.521	84.44
257.754	87.44
257.987	78.44
258.22	75.44
258.452	62.44
258.685	89.44
258.918	80.44
259.151	73.44
259.383	87.44
259.616	84.44
259.849	86.44
260.081	80.44
260.314	78.44
260.547	80.44
260.779	80.44
261.012	91.44
261.244	82.44
261.477	94.44
261.71	106.44
261.942	108.44
262.175	122.44
262.407	91.44
262.64	79.44
262.872	87.44
263.105	73.44
263.337	78.44
263.57	93.44
263.802	89.44
264.035	102.44
264.267	78.44
264.499	79.44
264.732	84.44
264.964	76.44
265.197	83.44
265.429	83.44
265.661	91.44
265.894	94.44
266.126	84.44
266.358	88.44
266.591	95.44
266.823	85.44
267.055	80.44
267.287	83.44
267.52	89.44
267.752	76.44
267.984	79.44
268.216	86.44
268.448	87.44
268.681	82.44
268.913	78.44
269.145	87.44
269.377	84.44
269.609	88.44
269.841	75.44
270.073	84.44
270.306	99.44
270.538	85.44
270.77	72.44
271.002	87.44
271.234	86.44
271.466	87.44
271.698	77.44
271.93	72.44
272.162	81.44
272.394	85.44
272.626	86.44
272.858	75.44
273.09	88.44
273.322	86.44
273.553	86.44
273.785	90.44
274.017	81.44
274.249	87.44
274.481	84.44
274.713	84.44
274.945	92.44
275.176	76.44
275.408	93.44
275.64	78.44
275.872	89.44
276.104	97.44
276.335	75.44
276.567	90.44
276.799	99.44
277.031	91.44
277.262	100.44
277.494	91.44
277.726	87.44
277.957	94.44
278.189	72.44
278.421	93.44
278.652	85.44
278.884	99.44
279.115	87.44
279.347	79.44
279.579	81.44
279.81	91.44
280.042	90.44
280.273	86.44
280.505	80.44
280.736	84.44
280.968	84.44
281.199	79.44
281.431	95.44
281.662	89.44
281.894	89.44
282.125	85.44
282.356	115.44
282.588	142.44
282.819	108.44
283.051	89.44
283.282	80.44
283.513	91.44
283.745	85.44
283.976	91.44
284.207	82.44
284.439	96.44
284.67	93.44
284.901	75.44
285.132	84.44
285.364	89.44
285.595	100.44
285.826	98.44
286.057	100.44
286.288	98.44
286.52	85.44
286.751	91.44
286.982	85.44
287.213	92.44
287.444	94.44
287.675	84.44
287.906	100.44
288.138	97.44
288.369	109.44
288.6	90.44
288.831	93.44
289.062	79.44
289.293	93.44
289.524	93.44
289.755	71.44
289.986	80.44
290.217	85.44
290.448	93.44
290.679	79.44
290.91	94.44
291.141	87.44
291.371	86.44
291.602	90.44
291.833	85.44
292.064	86.44
292.295	84.44
292.526	90.44
292.757	90.44
292.987	88.44
293.218	95.44
293.449	88.44
293.68	92.44
293.91	84.44
294.141	84.44
294.372	82.44
294.603	78.44
294.833	84.44
295.064	82.44
295.295	90.44
295.525	94.44
295.756	94.44
295.987	103.44
296.217	127.44
296.448	130.44
296.679	106.44
296.909	81.44
297.14	73.44
297.37	81.44
297.601	91.44
297.831	92.44
298.062	82.44
298.292	95.44
298.523	84.44
298.753	89.44
298.984	107.44
299.214	101.44
299.445	109.44
299.675	82.44
299.905	85.44
300.136	91.44
300.366	92.44
300.597	88.44
300.827	81.44
301.057	97.44
301.288	106.44
301.518	113.44
301.748	96.44
301.979	93.44
302.209	97.44
302.439	87.44
302.669	81.44
302.9	88.44
303.13	79.44
303.36	99.44
303.59	101.44
303.82	97.44
304.051	93.44
304.281	99.44
304.511	75.44
304.741	90.44
304.971	77.44
305.201	100.44
305.431	81.44
305.661	89.44
305.891	96.44
306.121	106.44
306.352	97.44
306.582	108.44
306.812	85.44
307.042	96.44
307.272	107.44
307.502	102.44
307.731	87.44
307.961	93.44
308.191	81.44
308.421	97.44
308.651	102.44
308.881	108.44
309.111	80.44
309.341	86.44
309.571	95.44
309.8	87.44
310.03	84.44
310.26	99.44
310.49	104.44
310.72	114.44
310.949	92.44
311.179	89.44
311.409	97.44
311.639	102.44
311.868	103.44
312.098	95.44
312.328	90.44
312.557	89.44
312.787	84.44
313.017	104.44
313.246	96.44
313.476	87.44
313.706	100.44
313.935	93.44
314.165	92.44
314.394	110.44
314.624	108.44
314.853	106.44
315.083	97.44
315.312	94.44
315.542	105.44
315.771	93.44
316.001	91.44
316.23	81.44
316.46	103.44
316.689	91.44
316.919	97.44
317.148	97.44
317.377	93.44
317.607	100.44
317.836	82.44
318.065	87.44
318.295	88.44
318.524	98.44
318.753	87.44
318.983	100.44
319.212	96.44
319.441	102.44
319.67	98.44
319.9	89.44
320.129	97.44
320.358	85.44
320.587	93.44
320.816	90.44
321.046	106.44
321.275	107.44
321.504	98.44
321.733	112.44
321.962	102.44
322.191	105.44
322.42	95.44
322.649	108.44
322.878	115.44
323.108	104.44
323.337	116.44
323.566	137.44
323.795	159.44
324.024	228.44
324.253	416.44
324.482	882.44
324.71	1851.44
324.939	2472.44
325.168	873.44
325.397	255.44
325.626	159.44
325.855	136.44
326.084	138.44
326.313	131.44
326.542	171.44
326.77	242.44
326.999	516.44
327.228	1003.44
327.457	1853.44
327.686	1511.44
327.914	416.44
328.143	196.44
328.372	156.44
328.6	121.44
328.829	113.44
329.058	121.44
329.287	130.44
329.515	126.44
329.744	97.44
329.972	110.44
330.201	109.44
330.43	118.44
330.658	113.44
330.887	137.44
331.115	116.44
331.344	92.44
331.572	107.44
331.801	103.44
332.03	102.44
332.258	96.44
332.486	95.44
332.715	96.44
332.943	98.44
333.172	94.44
333.4	100.44
333.629	115.44
333.857	107.44
334.085	98.44
334.314	95.44
334.542	106.44
334.771	106.44
334.999	108.44
335.227	94.44
335.455	94.44
335.684	97.44
335.912	91.44
336.14	101.44
336.369	97.44
336.597	90.44
336.825	94.44
337.053	83.44
337.281	97.44
337.51	93.44
337.738	104.44
337.966	97.44
338.194	94.44
338.422	91.44
338.65	96.44
338.878	77.44
339.106	87.44
339.334	92.44
339.562	85.44
339.79	92.44
340.018	98.44
340.246	100.44
340.474	111.44
340.702	100.44
340.93	90.44
341.158	87.44
341.386	105.44
341.614	100.44
341.842	77.44
342.07	101.44
342.298	86.44
342.526	87.44
342.754	84.44
342.981	80.44
343.209	80.44
343.437	90.44
343.665	98.44
343.893	107.44
344.12	90.44
344.348	89.44
344.576	100.44
344.804	94.44
345.031	80.44
345.259	93.44
345.487	95.44
345.714	98.44
345.942	87.44
346.17	101.44
346.397	92.44
346.625	82.44
346.853	87.44
347.08	96.44
347.308	93.44
347.535	95.44
347.763	98.44
347.99	95.44
348.218	91.44
348.445	90.44
348.673	98.44
348.9	94.44
349.128	104.44
349.355	97.44
349.583	99.44
349.81	86.44
350.037	94.44
350.265	86.44
350.492	87.44
350.72	99.44
350.947	97.44
351.174	100.44
351.402	112.44
351.629	91.44
351.856	101.44
352.083	99.44
352.311	104.44
352.538	114.44
352.765	95.44
352.992	110.44
353.22	99.44
353.447	103.44
353.674	102.44
353.901	94.44
354.128	102.44
354.355	95.44
354.583	101.44
354.81	97.44
355.037	103.44
355.264	94.44
355.491	82.44
355.718	86.44
355.945	97.44
356.172	103.44
356.399	93.44
356.626	95.44
356.853	109.44
357.08	96.44
357.307	79.44
357.534	95.44
357.761	95.44
357.988	99.44
358.215	95.44
358.441	108.44
358.668	90.44
358.895	93.44
359.122	86.44
359.349	90.44
359.576	94.44
359.802	83.44
360.029	112.44
360.256	107.44
360.483	98.44
360.709	89.44
360.936	82.44
361.163	82.44
361.39	89.44
361.616	87.44
361.843	91.44
362.07	88.44
362.296	99.44
362.523	94.44
362.749	94.44
362.976	96.44
363.203	90.44
363.429	100.44
363.656	91.44
363.882	97.44
364.109	91.44
364.335	94.44
364.562	88.44
364.788	98.44
365.015	96.44
365.241	99.44
365.468	91.44
365.694	100.44
365.92	92.44
366.147	102.44
366.373	94.44
366.599	93.44
366.826	89.44
367.052	92.44
367.278	93.44
367.505	87.44
367.731	99.44
367.957	97.44
368.184	94.44
368.41	87.44
368.636	114.44
368.862	108.44
369.089	102.44
369.315	92.44
369.541	104.44
369.767	92.44
369.993	100.44
370.219	85.44
370.445	99.44
370.672	96.44
370.898	85.44
371.124	77.44
371.35	78.44
371.576	79.44
371.802	98.44
372.028	85.44
372.254	100.44
372.48	80.44
372.706	101.44
372.932	89.44
373.158	88.44
373.384	96.44
373.61	87.44
373.835	108.44
374.061	81.44
374.287	103.44
374.513	99.44
374.739	95.44
374.965	86.44
375.191	79.44
375.416	70.44
375.642	92.44
375.868	94.44
376.094	98.44
376.319	103.44
376.545	85.44
376.771	89.44
376.997	91.44
377.222	95.44
377.448	100.44
377.674	95.44
377.899	91.44
378.125	81.44
378.35	99.44
378.576	91.44
378.802	90.44
379.027	99.44
379.253	98.44
379.478	104.44
379.704	87.44
379.929	100.44
380.155	99.44
380.38	90.44
380.606	96.44
380.831	82.44
381.057	99.44
381.282	86.44
381.507	87.44
381.733	92.44
381.958	93.44
382.184	98.44
382.409	91.44
382.634	101.44
382.86	102.44
383.085	105.44
383.31	102.44
383.535	108.44
383.761	98.44
383.986	100.44
384.211	86.44
384.436	99.44
384.662	118.44
384.887	90.44
385.112	92.44
385.337	91.44
385.562	87.44
385.787	107.44
386.013	117.44
386.238	109.44
386.463	100.44
386.688	108.44
386.913	117.44
387.138	102.44
387.363	97.44
387.588	81.44
387.813	87.44
388.038	94.44
388.263	116.44
388.488	103.44
388.713	102.44
388.938	87.44
389.163	88.44
389.387	111.44
389.612	103.44
389.837	86.44
390.062	83.44
390.287	95.44
390.512	86.44
390.736	82.44
390.961	77.44
391.186	112.44
391.411	99.44
391.636	98.44
391.86	74.44
392.085	98.44
392.31	99.44
392.534	77.44
392.759	94.44
392.984	86.44
393.208	93.44
393.433	86.44
393.658	90.44
393.882	85.44
394.107	79.44
394.331	91.44
394.556	90.44
394.78	75.44
395.005	85.44
395.229	79.44
395.454	94.44
395.678	86.44
395.903	83.44
396.127	87.44
396.352	91.44
396.576	88.44
396.801	81.44
397.025	84.44
397.249	86.44
397.474	80.44
397.698	85.44
397.922	93.44
398.147	81.44
398.371	81.44
398.595	100.44
398.82	89.44
399.044	96.44
399.268	91.44
399.492	88.44
399.717	98.44
399.941	104.44
400.165	91.44
400.389	87.44
400.613	93.44
400.837	84.44
401.062	87.44
401.286	90.44
401.51	87.44
401.734	86.44
401.958	111.44
402.182	122.44
402.406	159.44
402.63	118.44
402.854	86.44
403.078	94.44
403.302	99.44
403.526	95.44
403.75	90.44
403.974	104.44
404.198	69.44
404.422	91.44
404.645	79.44
404.869	93.44
405.093	103.44
405.317	103.44
405.541	93.44
405.765	103.44
405.988	130.44
406.212	180.44
406.436	210.44
406.66	144.44
406.883	104.44
407.107	87.44
407.331	99.44
407.555	113.44
407.778	96.44
408.002	85.44
408.226	87.44
408.449	83.44
408.673	93.44
408.896	89.44
409.12	80.44
409.344	89.44
409.567	86.44
409.791	97.44
410.014	87.44
410.238	78.44
410.461	97.44
410.685	100.44
410.908	95.44
411.132	100.44
411.355	94.44
411.578	95.44
411.802	86.44
412.025	94.44
412.249	95.44
412.472	85.44
412.695	95.44
412.919	87.44
413.142	106.44
413.365	82.44
413.589	91.44
413.812	86.44
414.035	106.44
414.258	88.44
414.482	87.44
414.705	94.44
414.928	91.44
415.151	79.44
415.374	98.44
415.597	93.44
415.821	84.44
416.044	91.44
416.267	92.44
416.49	99.44
416.713	93.44
416.936	88.44
417.159	89.44
417.382	97.44
417.605	87.44
417.828	96.44
418.051	88.44
418.274	82.44
418.497	96.44
418.72	101.44
418.943	106.44
419.166	87.44
419.389	82.44
419.611	103.44
419.834	92.44
420.057	70.44
420.28	86.44
420.503	82.44
420.726	66.44
420.948	92.44
421.171	97.44
421.394	81.44
421.617	87.44
421.839	77.44
422.062	81.44
422.285	96.44
422.507	100.44
422.73	103.44
422.953	92.44
423.175	92.44
423.398	90.44
423.621	93.44
423.843	87.44
424.066	77.44
424.288	100.44
424.511	101.44
424.733	95.44
424.956	110.44
425.178	104.44
425.401	103.44
425.623	106.44
425.846	92.44
426.068	85.44
426.291	95.44
426.513	96.44
426.735	86.44
426.958	92.44
427.18	109.44
427.402	141.44
427.625	160.44
427.847	118.44
428.069	102.44
428.292	93.44
428.514	86.44
428.736	90.44
428.958	83.44
429.181	103.44
429.403	69.44
429.625	82.44
429.847	90.44
430.069	105.44
430.292	87.44
430.514	85.44
430.736	76.44
430.958	85.44
431.18	85.44
431.402	79.44
431.624	67.44
431.846	82.44
432.068	88.44
432.29	79.44
432.512	103.44
432.734	92.44
432.956	82.44
433.178	87.44
433.4	101.44
433.622	106.44
433.844	92.44
434.066	101.44
434.287	90.44
434.509	84.44
434.731	75.44
434.953	79.44
435.175	89.44
435.397	96.44
435.618	86.44
435.84	111.44
436.062	111.44
436.284	120.44
436.505	114.44
436.727	109.44
436.949	86.44
437.17	83.44
437.392	95.44
437.614	105.44
437.835	111.44
438.057	112.44
438.278	100.44
438.5	97.44
438.721	121.44
438.943	116.44
439.165	94.44
439.386	96.44
439.608	79.44
439.829	94.44
440.05	123.44
440.272	157.44
440.493	109.44
440.715	93.44
440.936	94.44
441.158	87.44
441.379	87.44
441.6	89.44
441.822	100.44
442.043	100.44
442.264	101.44
442.486	107.44
442.707	96.44
442.928	90.44
443.149	129.44
443.371	137.44
443.592	102.44
443.813	100.44
444.034	99.44
444.255	81.44
444.476	86.44
444.698	91.44
444.919	90.44
445.14	119.44
445.361	116.44
445.582	104.44
445.803	127.44
446.024	146.44
446.245	143.44
446.466	121.44
446.687	80.44
446.908	89.44
447.129	90.44
447.35	97.44
447.571	90.44
447.792	85.44
448.013	109.44
448.234	108.44
448.455	105.44
448.675	105.44
448.896	117.44
449.117	92.44
449.338	112.44
449.559	143.44
449.779	122.44
450	88.44
450.221	90.44
450.442	76.44
450.662	87.44
450.883	97.44
451.104	104.44
451.324	105.44
451.545	88.44
451.766	93.44
451.986	73.44
452.207	85.44
452.428	98.44
452.648	95.44
452.869	111.44
453.089	122.44
453.31	114.44
453.53	98.44
453.751	101.44
453.971	99.44
454.192	110.44
454.412	93.44
454.633	82.44
454.853	92.44
455.073	90.44
455.294	103.44
455.514	97.44
455.734	82.44
455.955	91.44
456.175	73.44
456.395	90.44
456.616	84.44
456.836	81.44
457.056	77.44
457.276	86.44
457.497	87.44
457.717	85.44
457.937	82.44
458.157	91.44
458.377	91.44
458.598	116.44
458.818	151.44
459.038	173.44
459.258	117.44
459.478	95.44
459.698	92.44
459.918	79.44
460.138	78.44
460.358	86.44
460.578	91.44
460.798	90.44
461.018	85.44
461.238	84.44
461.458	82.44
461.678	96.44
461.898	72.44
462.118	90.44
462.338	89.44
462.558	73.44
462.777	75.44
462.997	84.44
463.217	89.44
463.437	92.44
463.657	91.44
463.876	84.44
464.096	91.44
464.316	105.44
464.536	108.44
464.755	93.44
464.975	95.44
465.195	160.44
465.414	173.44
465.634	100.44
465.854	90.44
466.073	90.44
466.293	90.44
466.512	101.44
466.732	83.44
466.951	81.44
467.171	82.44
467.391	81.44
467.61	107.44
467.829	108.44
468.049	83.44
468.268	72.44
468.488	78.44
468.707	90.44
468.927	92.44
469.146	82.44
469.365	81.44
469.585	85.44
469.804	111.44
470.023	102.44
470.243	96.44
470.462	99.44
470.681	102.44
470.901	81.44
471.12	90.44
471.339	83.44
471.558	99.44
471.777	88.44
471.997	97.44
472.216	99.44
472.435	97.44
472.654	92.44
472.873	93.44
473.092	83.44
473.311	83.44
473.53	86.44
473.749	88.44
473.968	97.44
474.187	92.44
474.406	106.44
474.625	83.44
474.844	93.44
475.063	93.44
475.282	98.44
475.501	77.44
475.72	90.44
475.939	87.44
476.158	99.44
476.377	95.44
476.596	99.44
476.814	84.44
477.033	86.44
477.252	92.44
477.471	90.44
477.69	81.44
477.908	83.44
478.127	86.44
478.346	91.44
478.564	100.44
478.783	93.44
479.002	82.44
479.22	88.44
479.439	97.44
479.658	106.44
479.876	111.44
480.095	68.44
480.313	86.44
480.532	99.44
480.751	105.44
480.969	89.44
481.188	88.44
481.406	88.44
481.624	91.44
481.843	77.44
482.061	85.44
482.28	87.44
482.498	91.44
482.717	84.44
482.935	89.44
483.153	90.44
483.372	73.44
483.59	77.44
483.808	85.44
484.027	89.44
484.245	94.44
484.463	88.44
484.681	82.44
484.9	103.44
485.118	90.44
485.336	93.44
485.554	85.44
485.772	87.44
485.99	95.44
486.209	99.44
486.427	108.44
486.645	99.44
486.863	83.44
487.081	103.44
487.299	86.44
487.517	87.44
487.735	94.44
487.953	100.44
488.171	82.44
488.389	86.44
488.607	92.44
488.825	102.44
489.043	93.44
489.261	107.44
489.479	90.44
489.696	88.44
489.914	86.44
490.132	86.44
490.35	94.44
490.568	95.44
490.786	82.44
491.003	87.44
491.221	85.44
491.439	97.44
491.657	91.44
491.874	87.44
492.092	90.44
492.31	92.44
492.527	95.44
492.745	91.44
492.963	94.44
493.18	85.44
493.398	100.44
493.615	100.44
493.833	86.44
494.05	80.44
494.268	106.44
494.485	104.44
494.703	101.44
494.92	93.44
495.138	81.44
495.355	85.44
495.573	84.44
495.79	95.44
496.008	108.44
496.225	105.44
496.442	93.44
496.66	95.44
496.877	95.44
497.094	92.44
497.312	82.44
497.529	81.44
497.746	84.44
497.963	85.44
498.181	90.44
498.398	102.44
498.615	114.44
498.832	94.44
499.049	95.44
499.267	108.44
499.484	94.44
499.701	88.44
499.918	102.44
500.135	82.44
500.352	102.44
500.569	103.44
500.786	88.44
501.003	82.44
501.22	101.44
501.437	85.44
501.654	93.44
501.871	106.44
502.088	79.44
502.305	93.44
502.522	82.44
502.739	94.44
502.956	79.44
503.172	101.44
503.389	93.44
503.606	103.44
503.823	94.44
504.04	107.44
504.256	95.44
504.473	85.44
504.69	92.44
504.907	93.44
505.123	84.44
505.34	81.44
505.557	91.44
505.773	103.44
505.99	98.44
506.207	107.44
506.423	105.44
506.64	84.44
506.856	88.44
507.073	97.44
507.289	87.44
507.506	90.44
507.722	112.44
507.939	104.44
508.155	103.44
508.372	86.44
508.588	95.44
508.805	97.44
509.021	91.44
509.238	97.44
509.454	94.44
509.67	82.44
509.887	105.44
510.103	133.44
510.319	213.44
510.536	747.44
510.752	2412.44
510.968	676.44
511.184	171.44
511.401	113.44
511.617	104.44
511.833	97.44
512.049	105.44
512.265	88.44
512.481	104.44
512.698	97.44
512.914	106.44
513.13	103.44
513.346	82.44
513.562	100.44
513.778	94.44
513.994	96.44
514.21	103.44
514.426	114.44
514.642	136.44
514.858	120.44
515.074	158.44
515.29	459.44
515.506	1515.44
