Data from Uncirc_2007_H10_HRD10591_00087.txt Node
Date: Wed Jan 03 10:21:00 EST 2024
User: Yrep
Spectrometer: HR+D1059
Trigger mode: 1
Integration Time (sec): 1.000000E-1
Scans to average: 1
Electric dark correction enabled: true
Nonlinearity correction enabled: false
Boxcar width: 0
XAxis mode: Wavelengths
Number of Pixels in Spectrum: 2048
>>>>>Begin Spectral Data<<<<<
223.165	-16.19
223.4	-16.19
223.635	-16.19
223.869	-20.19
224.104	-20.19
224.338	-16.19
224.573	-9.19
224.808	-14.19
225.042	-5.19
225.277	-7.19
225.511	0.81
225.746	-8.19
225.98	18.81
226.215	0.81
226.449	24.81
226.683	36.81
226.918	10.81
227.152	23.81
227.387	41.81
227.621	35.81
227.856	64.81
228.09	52.81
228.324	46.81
228.559	61.81
228.793	62.81
229.027	79.81
229.262	78.81
229.496	84.81
229.73	73.81
229.964	81.81
230.199	88.81
230.433	91.81
230.667	80.81
230.901	82.81
231.136	72.81
231.37	75.81
231.604	87.81
231.838	85.81
232.072	87.81
232.306	82.81
232.541	84.81
232.775	81.81
233.009	81.81
233.243	76.81
233.477	71.81
233.711	94.81
233.945	76.81
234.179	78.81
234.413	82.81
234.647	85.81
234.881	76.81
235.115	89.81
235.349	87.81
235.583	74.81
235.817	68.81
236.051	73.81
236.285	86.81
236.519	83.81
236.753	79.81
236.987	71.81
237.221	87.81
237.455	99.81
237.689	88.81
237.922	71.81
238.156	70.81
238.39	75.81
238.624	76.81
238.858	79.81
239.091	85.81
239.325	73.81
239.559	74.81
239.793	81.81
240.027	75.81
240.26	75.81
240.494	80.81
240.728	86.81
240.961	72.81
241.195	71.81
241.429	73.81
241.662	80.81
241.896	69.81
242.13	80.81
242.363	84.81
242.597	78.81
242.83	74.81
243.064	92.81
243.298	75.81
243.531	84.81
243.765	82.81
243.998	89.81
244.232	75.81
244.465	86.81
244.699	67.81
244.932	87.81
245.166	88.81
245.399	76.81
245.633	84.81
245.866	87.81
246.099	72.81
246.333	71.81
246.566	70.81
246.8	82.81
247.033	79.81
247.266	96.81
247.5	70.81
247.733	90.81
247.966	81.81
248.2	84.81
248.433	95.81
248.666	77.81
248.899	77.81
249.133	78.81
249.366	80.81
249.599	85.81
249.832	75.81
250.066	85.81
250.299	76.81
250.532	85.81
250.765	83.81
250.998	79.81
251.231	85.81
251.465	85.81
251.698	87.81
251.931	79.81
252.164	66.81
252.397	87.81
252.63	85.81
252.863	81.81
253.096	75.81
253.329	79.81
253.562	95.81
253.795	85.81
254.028	77.81
254.261	70.81
254.494	95.81
254.727	101.81
254.96	85.81
255.193	68.81
255.426	94.81
255.659	75.81
255.892	85.81
256.124	77.81
256.357	101.81
256.59	82.81
256.823	88.81
257.056	86.81
257.289	88.81
257.521	73.81
257.754	88.81
257.987	92.81
258.22	95.81
258.452	88.81
258.685	92.81
258.918	96.81
259.151	84.81
259.383	98.81
259.616	86.81
259.849	76.81
260.081	75.81
260.314	88.81
260.547	86.81
260.779	81.81
261.012	79.81
261.244	82.81
261.477	91.81
261.71	89.81
261.942	107.81
262.175	130.81
262.407	96.81
262.64	82.81
262.872	80.81
263.105	91.81
263.337	85.81
263.57	86.81
263.802	95.81
264.035	86.81
264.267	86.81
264.499	72.81
264.732	80.81
264.964	82.81
265.197	77.81
265.429	85.81
265.661	93.81
265.894	79.81
266.126	82.81
266.358	90.81
266.591	93.81
266.823	83.81
267.055	83.81
267.287	76.81
267.52	87.81
267.752	100.81
267.984	85.81
268.216	76.81
268.448	102.81
268.681	86.81
268.913	85.81
269.145	90.81
269.377	88.81
269.609	85.81
269.841	81.81
270.073	79.81
270.306	90.81
270.538	77.81
270.77	88.81
271.002	97.81
271.234	83.81
271.466	87.81
271.698	99.81
271.93	86.81
272.162	86.81
272.394	99.81
272.626	85.81
272.858	78.81
273.09	87.81
273.322	85.81
273.553	87.81
273.785	83.81
274.017	92.81
274.249	84.81
274.481	73.81
274.713	86.81
274.945	91.81
275.176	94.81
275.408	90.81
275.64	92.81
275.872	87.81
276.104	95.81
276.335	88.81
276.567	95.81
276.799	101.81
277.031	100.81
277.262	98.81
277.494	93.81
277.726	91.81
277.957	78.81
278.189	75.81
278.421	77.81
278.652	92.81
278.884	91.81
279.115	76.81
279.347	87.81
279.579	88.81
279.81	80.81
280.042	92.81
280.273	96.81
280.505	93.81
280.736	94.81
280.968	80.81
281.199	83.81
281.431	95.81
281.662	104.81
281.894	83.81
282.125	92.81
282.356	134.81
282.588	113.81
282.819	117.81
283.051	86.81
283.282	92.81
283.513	88.81
283.745	81.81
283.976	75.81
284.207	93.81
284.439	82.81
284.67	91.81
284.901	101.81
285.132	89.81
285.364	77.81
285.595	81.81
285.826	95.81
286.057	94.81
286.288	94.81
286.52	95.81
286.751	98.81
286.982	87.81
287.213	89.81
287.444	81.81
287.675	92.81
287.906	96.81
288.138	99.81
288.369	86.81
288.6	93.81
288.831	79.81
289.062	92.81
289.293	94.81
289.524	90.81
289.755	76.81
289.986	85.81
290.217	101.81
290.448	82.81
290.679	87.81
290.91	86.81
291.141	89.81
291.371	102.81
291.602	102.81
291.833	90.81
292.064	91.81
292.295	93.81
292.526	84.81
292.757	78.81
292.987	93.81
293.218	83.81
293.449	98.81
293.68	103.81
293.91	78.81
294.141	84.81
294.372	86.81
294.603	83.81
294.833	99.81
295.064	113.81
295.295	82.81
295.525	87.81
295.756	96.81
295.987	114.81
296.217	128.81
296.448	127.81
296.679	78.81
296.909	80.81
297.14	91.81
297.37	94.81
297.601	86.81
297.831	95.81
298.062	101.81
298.292	83.81
298.523	108.81
298.753	91.81
298.984	93.81
299.214	91.81
299.445	87.81
299.675	91.81
299.905	103.81
300.136	86.81
300.366	83.81
300.597	89.81
300.827	101.81
301.057	87.81
301.288	86.81
301.518	98.81
301.748	80.81
301.979	106.81
302.209	89.81
302.439	95.81
302.669	93.81
302.9	96.81
303.13	96.81
303.36	86.81
303.59	111.81
303.82	100.81
304.051	75.81
304.281	89.81
304.511	103.81
304.741	114.81
304.971	95.81
305.201	88.81
305.431	98.81
305.661	95.81
305.891	94.81
306.121	98.81
306.352	100.81
306.582	101.81
306.812	104.81
307.042	106.81
307.272	99.81
307.502	88.81
307.731	76.81
307.961	107.81
308.191	96.81
308.421	100.81
308.651	108.81
308.881	100.81
309.111	108.81
309.341	94.81
309.571	100.81
309.8	98.81
310.03	113.81
310.26	97.81
310.49	97.81
310.72	109.81
310.949	110.81
311.179	99.81
311.409	108.81
311.639	106.81
311.868	100.81
312.098	105.81
312.328	97.81
312.557	114.81
312.787	118.81
313.017	106.81
313.246	99.81
313.476	100.81
313.706	96.81
313.935	96.81
314.165	91.81
314.394	100.81
314.624	82.81
314.853	92.81
315.083	91.81
315.312	87.81
315.542	96.81
315.771	93.81
316.001	91.81
316.23	104.81
316.46	83.81
316.689	98.81
316.919	88.81
317.148	93.81
317.377	93.81
317.607	83.81
317.836	89.81
318.065	92.81
318.295	107.81
318.524	89.81
318.753	88.81
318.983	88.81
319.212	91.81
319.441	112.81
319.67	122.81
319.9	94.81
320.129	102.81
320.358	106.81
320.587	101.81
320.816	96.81
321.046	106.81
321.275	115.81
321.504	100.81
321.733	101.81
321.962	100.81
322.191	90.81
322.42	114.81
322.649	111.81
322.878	108.81
323.108	103.81
323.337	129.81
323.566	142.81
323.795	168.81
324.024	219.81
324.253	425.81
324.482	870.81
324.71	1806.81
324.939	2366.81
325.168	875.81
325.397	277.81
325.626	163.81
325.855	132.81
326.084	132.81
326.313	127.81
326.542	155.81
326.77	251.81
326.999	504.81
327.228	1008.81
327.457	1858.81
327.686	1434.81
327.914	382.81
328.143	199.81
328.372	150.81
328.6	138.81
328.829	120.81
329.058	118.81
329.287	128.81
329.515	116.81
329.744	87.81
329.972	103.81
330.201	98.81
330.43	122.81
330.658	121.81
330.887	139.81
331.115	128.81
331.344	101.81
331.572	110.81
331.801	101.81
332.03	99.81
332.258	105.81
332.486	95.81
332.715	96.81
332.943	97.81
333.172	101.81
333.4	103.81
333.629	113.81
333.857	105.81
334.085	105.81
334.314	101.81
334.542	98.81
334.771	110.81
334.999	106.81
335.227	90.81
335.455	89.81
335.684	107.81
335.912	82.81
336.14	89.81
336.369	94.81
336.597	106.81
336.825	104.81
337.053	101.81
337.281	93.81
337.51	108.81
337.738	85.81
337.966	98.81
338.194	98.81
338.422	98.81
338.65	113.81
338.878	103.81
339.106	92.81
339.334	99.81
339.562	82.81
339.79	95.81
340.018	90.81
340.246	88.81
340.474	109.81
340.702	108.81
340.93	98.81
341.158	91.81
341.386	84.81
341.614	84.81
341.842	97.81
342.07	86.81
342.298	82.81
342.526	98.81
342.754	99.81
342.981	98.81
343.209	90.81
343.437	93.81
343.665	87.81
343.893	94.81
344.12	94.81
344.348	86.81
344.576	109.81
344.804	95.81
345.031	92.81
345.259	98.81
345.487	100.81
345.714	85.81
345.942	97.81
346.17	104.81
346.397	96.81
346.625	96.81
346.853	106.81
347.08	75.81
347.308	99.81
347.535	88.81
347.763	101.81
347.99	91.81
348.218	104.81
348.445	112.81
348.673	102.81
348.9	89.81
349.128	100.81
349.355	95.81
349.583	97.81
349.81	88.81
350.037	92.81
350.265	99.81
350.492	101.81
350.72	104.81
350.947	106.81
351.174	106.81
351.402	104.81
351.629	95.81
351.856	109.81
352.083	105.81
352.311	111.81
352.538	95.81
352.765	119.81
352.992	117.81
353.22	110.81
353.447	107.81
353.674	103.81
353.901	106.81
354.128	94.81
354.355	90.81
354.583	103.81
354.81	93.81
355.037	95.81
355.264	95.81
355.491	119.81
355.718	90.81
355.945	101.81
356.172	105.81
356.399	105.81
356.626	115.81
356.853	94.81
357.08	91.81
357.307	98.81
357.534	85.81
357.761	96.81
357.988	98.81
358.215	82.81
358.441	93.81
358.668	96.81
358.895	89.81
359.122	83.81
359.349	104.81
359.576	95.81
359.802	122.81
360.029	103.81
360.256	104.81
360.483	91.81
360.709	99.81
360.936	100.81
361.163	80.81
361.39	96.81
361.616	104.81
361.843	93.81
362.07	117.81
362.296	104.81
362.523	98.81
362.749	95.81
362.976	97.81
363.203	103.81
363.429	88.81
363.656	107.81
363.882	100.81
364.109	92.81
364.335	86.81
364.562	95.81
364.788	100.81
365.015	100.81
365.241	101.81
365.468	98.81
365.694	111.81
365.92	96.81
366.147	103.81
366.373	83.81
366.599	100.81
366.826	75.81
367.052	70.81
367.278	93.81
367.505	92.81
367.731	100.81
367.957	97.81
368.184	92.81
368.41	117.81
368.636	111.81
368.862	105.81
369.089	94.81
369.315	98.81
369.541	98.81
369.767	109.81
369.993	101.81
370.219	86.81
370.445	102.81
370.672	91.81
370.898	76.81
371.124	88.81
371.35	94.81
371.576	91.81
371.802	83.81
372.028	88.81
372.254	82.81
372.48	92.81
372.706	85.81
372.932	86.81
373.158	85.81
373.384	91.81
373.61	94.81
373.835	96.81
374.061	99.81
374.287	97.81
374.513	83.81
374.739	84.81
374.965	96.81
375.191	87.81
375.416	101.81
375.642	88.81
375.868	109.81
376.094	85.81
376.319	88.81
376.545	85.81
376.771	99.81
376.997	86.81
377.222	103.81
377.448	82.81
377.674	87.81
377.899	93.81
378.125	97.81
378.35	81.81
378.576	85.81
378.802	92.81
379.027	88.81
379.253	95.81
379.478	91.81
379.704	102.81
379.929	94.81
380.155	83.81
380.38	90.81
380.606	90.81
380.831	94.81
381.057	97.81
381.282	107.81
381.507	100.81
381.733	95.81
381.958	92.81
382.184	99.81
382.409	95.81
382.634	115.81
382.86	104.81
383.085	101.81
383.31	106.81
383.535	106.81
383.761	99.81
383.986	101.81
384.211	84.81
384.436	98.81
384.662	110.81
384.887	108.81
385.112	102.81
385.337	98.81
385.562	114.81
385.787	109.81
386.013	110.81
386.238	105.81
386.463	104.81
386.688	112.81
386.913	87.81
387.138	114.81
387.363	98.81
387.588	99.81
387.813	96.81
388.038	101.81
388.263	113.81
388.488	112.81
388.713	114.81
388.938	111.81
389.163	104.81
389.387	93.81
389.612	87.81
389.837	77.81
390.062	93.81
390.287	71.81
390.512	82.81
390.736	104.81
390.961	93.81
391.186	102.81
391.411	88.81
391.636	96.81
391.86	96.81
392.085	76.81
392.31	94.81
392.534	83.81
392.759	97.81
392.984	83.81
393.208	93.81
393.433	100.81
393.658	90.81
393.882	80.81
394.107	84.81
394.331	99.81
394.556	90.81
394.78	86.81
395.005	96.81
395.229	91.81
395.454	92.81
395.678	86.81
395.903	91.81
396.127	90.81
396.352	93.81
396.576	96.81
396.801	90.81
397.025	100.81
397.249	98.81
397.474	102.81
397.698	92.81
397.922	108.81
398.147	89.81
398.371	96.81
398.595	82.81
398.82	94.81
399.044	91.81
399.268	93.81
399.492	73.81
399.717	99.81
399.941	92.81
400.165	87.81
400.389	95.81
400.613	81.81
400.837	82.81
401.062	86.81
401.286	98.81
401.51	80.81
401.734	98.81
401.958	95.81
402.182	132.81
402.406	157.81
402.63	123.81
402.854	92.81
403.078	85.81
403.302	99.81
403.526	77.81
403.75	94.81
403.974	86.81
404.198	105.81
404.422	74.81
404.645	97.81
404.869	102.81
405.093	96.81
405.317	92.81
405.541	86.81
405.765	102.81
405.988	110.81
406.212	176.81
406.436	226.81
406.66	140.81
406.883	100.81
407.107	92.81
407.331	92.81
407.555	103.81
407.778	109.81
408.002	91.81
408.226	95.81
408.449	94.81
408.673	98.81
408.896	93.81
409.12	107.81
409.344	94.81
409.567	84.81
409.791	98.81
410.014	98.81
410.238	101.81
410.461	80.81
410.685	82.81
410.908	118.81
411.132	110.81
411.355	94.81
411.578	90.81
411.802	85.81
412.025	88.81
412.249	94.81
412.472	99.81
412.695	102.81
412.919	76.81
413.142	82.81
413.365	95.81
413.589	92.81
413.812	100.81
414.035	87.81
414.258	99.81
414.482	87.81
414.705	89.81
414.928	99.81
415.151	98.81
415.374	100.81
415.597	96.81
415.821	81.81
416.044	77.81
416.267	82.81
416.49	94.81
416.713	96.81
416.936	88.81
417.159	80.81
417.382	98.81
417.605	92.81
417.828	93.81
418.051	102.81
418.274	91.81
418.497	77.81
418.72	96.81
418.943	90.81
419.166	74.81
419.389	93.81
419.611	98.81
419.834	86.81
420.057	103.81
420.28	83.81
420.503	94.81
420.726	90.81
420.948	82.81
421.171	94.81
421.394	97.81
421.617	96.81
421.839	88.81
422.062	96.81
422.285	98.81
422.507	90.81
422.73	97.81
422.953	99.81
423.175	92.81
423.398	83.81
423.621	89.81
423.843	86.81
424.066	90.81
424.288	95.81
424.511	87.81
424.733	84.81
424.956	112.81
425.178	83.81
425.401	99.81
425.623	114.81
425.846	86.81
426.068	88.81
426.291	95.81
426.513	95.81
426.735	88.81
426.958	99.81
427.18	107.81
427.402	123.81
427.625	161.81
427.847	122.81
428.069	100.81
428.292	99.81
428.514	104.81
428.736	77.81
428.958	84.81
429.181	90.81
429.403	84.81
429.625	100.81
429.847	91.81
430.069	103.81
430.292	94.81
430.514	77.81
430.736	79.81
430.958	87.81
431.18	96.81
431.402	93.81
431.624	95.81
431.846	93.81
432.068	86.81
432.29	85.81
432.512	83.81
432.734	79.81
432.956	100.81
433.178	104.81
433.4	101.81
433.622	92.81
433.844	81.81
434.066	83.81
434.287	86.81
434.509	79.81
434.731	82.81
434.953	95.81
435.175	86.81
435.397	84.81
435.618	83.81
435.84	105.81
436.062	140.81
436.284	104.81
436.505	100.81
436.727	105.81
436.949	90.81
437.17	95.81
437.392	106.81
437.614	98.81
437.835	113.81
438.057	125.81
438.278	117.81
438.5	111.81
438.721	119.81
438.943	113.81
439.165	92.81
439.386	95.81
439.608	91.81
439.829	104.81
440.05	139.81
440.272	140.81
440.493	108.81
440.715	96.81
440.936	79.81
441.158	85.81
441.379	88.81
441.6	97.81
441.822	82.81
442.043	91.81
442.264	98.81
442.486	93.81
442.707	99.81
442.928	105.81
443.149	139.81
443.371	110.81
443.592	107.81
443.813	119.81
444.034	99.81
444.255	95.81
444.476	93.81
444.698	101.81
444.919	95.81
445.14	113.81
445.361	129.81
445.582	112.81
445.803	146.81
446.024	151.81
446.245	131.81
446.466	122.81
446.687	84.81
446.908	85.81
447.129	93.81
447.35	89.81
447.571	93.81
447.792	96.81
448.013	97.81
448.234	106.81
448.455	102.81
448.675	124.81
448.896	121.81
449.117	99.81
449.338	101.81
449.559	130.81
449.779	124.81
450	86.81
450.221	99.81
450.442	93.81
450.662	92.81
450.883	107.81
451.104	109.81
451.324	113.81
451.545	85.81
451.766	93.81
451.986	75.81
452.207	73.81
452.428	98.81
452.648	104.81
452.869	110.81
453.089	104.81
453.31	110.81
453.53	99.81
453.751	98.81
453.971	114.81
454.192	108.81
454.412	95.81
454.633	79.81
454.853	93.81
455.073	91.81
455.294	94.81
455.514	112.81
455.734	88.81
455.955	93.81
456.175	94.81
456.395	86.81
456.616	95.81
456.836	95.81
457.056	93.81
457.276	79.81
457.497	78.81
457.717	76.81
457.937	92.81
458.157	98.81
458.377	92.81
458.598	109.81
458.818	154.81
459.038	150.81
459.258	108.81
459.478	82.81
459.698	82.81
459.918	86.81
460.138	91.81
460.358	86.81
460.578	95.81
460.798	85.81
461.018	93.81
461.238	87.81
461.458	90.81
461.678	96.81
461.898	85.81
462.118	94.81
462.338	92.81
462.558	84.81
462.777	84.81
462.997	89.81
463.217	88.81
463.437	85.81
463.657	103.81
463.876	86.81
464.096	106.81
464.316	94.81
464.536	90.81
464.755	106.81
464.975	117.81
465.195	159.81
465.414	169.81
465.634	102.81
465.854	90.81
466.073	88.81
466.293	94.81
466.512	80.81
466.732	97.81
466.951	86.81
467.171	99.81
467.391	83.81
467.61	108.81
467.829	110.81
468.049	89.81
468.268	90.81
468.488	96.81
468.707	78.81
468.927	85.81
469.146	84.81
469.365	83.81
469.585	96.81
469.804	107.81
470.023	93.81
470.243	75.81
470.462	100.81
470.681	94.81
470.901	98.81
471.12	83.81
471.339	86.81
471.558	93.81
471.777	96.81
471.997	88.81
472.216	88.81
472.435	96.81
472.654	83.81
472.873	95.81
473.092	96.81
473.311	86.81
473.53	80.81
473.749	98.81
473.968	104.81
474.187	108.81
474.406	94.81
474.625	92.81
474.844	86.81
475.063	77.81
475.282	100.81
475.501	95.81
475.72	94.81
475.939	87.81
476.158	79.81
476.377	88.81
476.596	96.81
476.814	85.81
477.033	104.81
477.252	98.81
477.471	98.81
477.69	80.81
477.908	92.81
478.127	84.81
478.346	87.81
478.564	86.81
478.783	95.81
479.002	107.81
479.22	96.81
479.439	104.81
479.658	99.81
479.876	98.81
480.095	83.81
480.313	88.81
480.532	96.81
480.751	89.81
480.969	91.81
481.188	100.81
481.406	99.81
481.624	91.81
481.843	86.81
482.061	79.81
482.28	93.81
482.498	93.81
482.717	94.81
482.935	92.81
483.153	75.81
483.372	83.81
483.59	86.81
483.808	98.81
484.027	90.81
484.245	86.81
484.463	109.81
484.681	92.81
484.9	98.81
485.118	91.81
485.336	93.81
485.554	96.81
485.772	92.81
485.99	102.81
486.209	91.81
486.427	90.81
486.645	94.81
486.863	96.81
487.081	103.81
487.299	91.81
487.517	94.81
487.735	98.81
487.953	90.81
488.171	87.81
488.389	108.81
488.607	99.81
488.825	83.81
489.043	84.81
489.261	94.81
489.479	88.81
489.696	85.81
489.914	99.81
490.132	78.81
490.35	95.81
490.568	85.81
490.786	96.81
491.003	97.81
491.221	99.81
491.439	94.81
491.657	91.81
491.874	91.81
492.092	91.81
492.31	89.81
492.527	107.81
492.745	83.81
492.963	93.81
493.18	94.81
493.398	97.81
493.615	96.81
493.833	92.81
494.05	100.81
494.268	81.81
494.485	83.81
494.703	94.81
494.92	97.81
495.138	103.81
495.355	93.81
495.573	82.81
495.79	94.81
496.008	92.81
496.225	95.81
496.442	83.81
496.66	86.81
496.877	92.81
497.094	85.81
497.312	82.81
497.529	100.81
497.746	95.81
497.963	100.81
498.181	85.81
498.398	94.81
498.615	98.81
498.832	87.81
499.049	87.81
499.267	92.81
499.484	94.81
499.701	104.81
499.918	94.81
500.135	91.81
500.352	92.81
500.569	99.81
500.786	92.81
501.003	94.81
501.22	103.81
501.437	88.81
501.654	95.81
501.871	118.81
502.088	85.81
502.305	91.81
502.522	76.81
502.739	97.81
502.956	80.81
503.172	93.81
503.389	103.81
503.606	110.81
503.823	109.81
504.04	90.81
504.256	102.81
504.473	94.81
504.69	84.81
504.907	101.81
505.123	92.81
505.34	92.81
505.557	100.81
505.773	88.81
505.99	94.81
506.207	88.81
506.423	90.81
506.64	85.81
506.856	84.81
507.073	89.81
507.289	87.81
507.506	92.81
507.722	106.81
507.939	97.81
508.155	91.81
508.372	91.81
508.588	85.81
508.805	88.81
509.021	91.81
509.238	106.81
509.454	106.81
509.67	109.81
509.887	107.81
510.103	126.81
510.319	210.81
510.536	775.81
510.752	2531.81
510.968	707.81
511.184	158.81
511.401	117.81
511.617	105.81
511.833	96.81
512.049	90.81
512.265	98.81
512.481	92.81
512.698	90.81
512.914	99.81
513.13	103.81
513.346	100.81
513.562	101.81
513.778	97.81
513.994	88.81
514.21	109.81
514.426	123.81
514.642	141.81
514.858	117.81
515.074	168.81
