Data from Uncirc_2007_H10_HRD10591_00031.txt Node
Date: Wed Jan 03 10:20:48 EST 2024
User: Yrep
Spectrometer: HR+D1059
Trigger mode: 1
Integration Time (sec): 1.000000E-1
Scans to average: 1
Electric dark correction enabled: true
Nonlinearity correction enabled: false
Boxcar width: 0
XAxis mode: Wavelengths
Number of Pixels in Spectrum: 2048
>>>>>Begin Spectral Data<<<<<
223.165	-37.88
223.4	-37.88
223.635	-37.88
223.869	-10.88
224.104	-7.88
224.338	2.12
224.573	-17.88
224.808	-21.88
225.042	-7.88
225.277	0.12
225.511	-6.88
225.746	-6.88
225.98	22.12
226.215	13.12
226.449	8.12
226.683	21.12
226.918	15.12
227.152	36.12
227.387	34.12
227.621	36.12
227.856	35.12
228.09	58.12
228.324	48.12
228.559	58.12
228.793	68.12
229.027	68.12
229.262	67.12
229.496	77.12
229.73	94.12
229.964	84.12
230.199	70.12
230.433	77.12
230.667	69.12
230.901	76.12
231.136	69.12
231.37	72.12
231.604	90.12
231.838	82.12
232.072	68.12
232.306	94.12
232.541	69.12
232.775	87.12
233.009	74.12
233.243	85.12
233.477	88.12
233.711	79.12
233.945	86.12
234.179	74.12
234.413	80.12
234.647	84.12
234.881	58.12
235.115	86.12
235.349	74.12
235.583	80.12
235.817	90.12
236.051	73.12
236.285	81.12
236.519	75.12
236.753	97.12
236.987	64.12
237.221	77.12
237.455	97.12
237.689	71.12
237.922	59.12
238.156	65.12
238.39	65.12
238.624	85.12
238.858	75.12
239.091	70.12
239.325	96.12
239.559	76.12
239.793	76.12
240.027	83.12
240.26	69.12
240.494	93.12
240.728	70.12
240.961	69.12
241.195	81.12
241.429	78.12
241.662	81.12
241.896	71.12
242.13	72.12
242.363	79.12
242.597	60.12
242.83	83.12
243.064	72.12
243.298	73.12
243.531	82.12
243.765	81.12
243.998	84.12
244.232	92.12
244.465	102.12
244.699	74.12
244.932	56.12
245.166	64.12
245.399	72.12
245.633	86.12
245.866	85.12
246.099	74.12
246.333	77.12
246.566	83.12
246.8	74.12
247.033	82.12
247.266	89.12
247.5	78.12
247.733	68.12
247.966	81.12
248.2	86.12
248.433	87.12
248.666	82.12
248.899	92.12
249.133	96.12
249.366	98.12
249.599	102.12
249.832	78.12
250.066	79.12
250.299	78.12
250.532	88.12
250.765	76.12
250.998	84.12
251.231	71.12
251.465	79.12
251.698	85.12
251.931	95.12
252.164	80.12
252.397	99.12
252.63	83.12
252.863	70.12
253.096	70.12
253.329	81.12
253.562	78.12
253.795	77.12
254.028	84.12
254.261	75.12
254.494	77.12
254.727	75.12
254.96	71.12
255.193	85.12
255.426	77.12
255.659	97.12
255.892	66.12
256.124	79.12
256.357	77.12
256.59	79.12
256.823	88.12
257.056	80.12
257.289	76.12
257.521	83.12
257.754	92.12
257.987	85.12
258.22	87.12
258.452	77.12
258.685	75.12
258.918	81.12
259.151	84.12
259.383	77.12
259.616	74.12
259.849	72.12
260.081	79.12
260.314	77.12
260.547	72.12
260.779	94.12
261.012	84.12
261.244	84.12
261.477	91.12
261.71	103.12
261.942	97.12
262.175	107.12
262.407	80.12
262.64	85.12
262.872	90.12
263.105	81.12
263.337	90.12
263.57	72.12
263.802	78.12
264.035	78.12
264.267	94.12
264.499	78.12
264.732	84.12
264.964	75.12
265.197	65.12
265.429	67.12
265.661	83.12
265.894	89.12
266.126	79.12
266.358	81.12
266.591	77.12
266.823	96.12
267.055	82.12
267.287	94.12
267.52	92.12
267.752	85.12
267.984	82.12
268.216	92.12
268.448	92.12
268.681	90.12
268.913	79.12
269.145	83.12
269.377	82.12
269.609	96.12
269.841	77.12
270.073	88.12
270.306	74.12
270.538	82.12
270.77	95.12
271.002	74.12
271.234	94.12
271.466	89.12
271.698	88.12
271.93	94.12
272.162	82.12
272.394	86.12
272.626	94.12
272.858	81.12
273.09	87.12
273.322	82.12
273.553	87.12
273.785	88.12
274.017	91.12
274.249	85.12
274.481	76.12
274.713	86.12
274.945	87.12
275.176	95.12
275.408	92.12
275.64	88.12
275.872	91.12
276.104	87.12
276.335	96.12
276.567	94.12
276.799	103.12
277.031	90.12
277.262	106.12
277.494	85.12
277.726	85.12
277.957	96.12
278.189	96.12
278.421	89.12
278.652	91.12
278.884	76.12
279.115	79.12
279.347	91.12
279.579	90.12
279.81	73.12
280.042	89.12
280.273	82.12
280.505	86.12
280.736	83.12
280.968	84.12
281.199	80.12
281.431	91.12
281.662	88.12
281.894	90.12
282.125	102.12
282.356	120.12
282.588	113.12
282.819	113.12
283.051	84.12
283.282	89.12
283.513	89.12
283.745	90.12
283.976	83.12
284.207	80.12
284.439	75.12
284.67	92.12
284.901	81.12
285.132	85.12
285.364	93.12
285.595	93.12
285.826	81.12
286.057	91.12
286.288	79.12
286.52	98.12
286.751	86.12
286.982	87.12
287.213	83.12
287.444	77.12
287.675	87.12
287.906	88.12
288.138	77.12
288.369	103.12
288.6	85.12
288.831	92.12
289.062	91.12
289.293	79.12
289.524	96.12
289.755	70.12
289.986	84.12
290.217	87.12
290.448	83.12
290.679	77.12
290.91	89.12
291.141	77.12
291.371	71.12
291.602	88.12
291.833	85.12
292.064	81.12
292.295	83.12
292.526	87.12
292.757	83.12
292.987	103.12
293.218	84.12
293.449	91.12
293.68	97.12
293.91	92.12
294.141	89.12
294.372	89.12
294.603	101.12
294.833	88.12
295.064	78.12
295.295	93.12
295.525	84.12
295.756	86.12
295.987	116.12
296.217	128.12
296.448	124.12
296.679	94.12
296.909	94.12
297.14	86.12
297.37	92.12
297.601	82.12
297.831	87.12
298.062	82.12
298.292	96.12
298.523	85.12
298.753	89.12
298.984	85.12
299.214	93.12
299.445	83.12
299.675	100.12
299.905	98.12
300.136	95.12
300.366	78.12
300.597	89.12
300.827	117.12
301.057	103.12
301.288	115.12
301.518	76.12
301.748	94.12
301.979	97.12
302.209	92.12
302.439	77.12
302.669	89.12
302.9	93.12
303.13	91.12
303.36	99.12
303.59	92.12
303.82	102.12
304.051	90.12
304.281	91.12
304.511	84.12
304.741	77.12
304.971	92.12
305.201	96.12
305.431	93.12
305.661	90.12
305.891	94.12
306.121	93.12
306.352	108.12
306.582	99.12
306.812	95.12
307.042	86.12
307.272	82.12
307.502	101.12
307.731	97.12
307.961	93.12
308.191	90.12
308.421	92.12
308.651	97.12
308.881	91.12
309.111	91.12
309.341	86.12
309.571	82.12
309.8	88.12
310.03	93.12
310.26	85.12
310.49	102.12
310.72	102.12
310.949	90.12
311.179	110.12
311.409	96.12
311.639	93.12
311.868	104.12
312.098	99.12
312.328	111.12
312.557	107.12
312.787	105.12
313.017	102.12
313.246	102.12
313.476	90.12
313.706	97.12
313.935	95.12
314.165	107.12
314.394	109.12
314.624	102.12
314.853	88.12
315.083	89.12
315.312	76.12
315.542	92.12
315.771	104.12
316.001	108.12
316.23	92.12
316.46	94.12
316.689	92.12
316.919	86.12
317.148	92.12
317.377	91.12
317.607	100.12
317.836	99.12
318.065	94.12
318.295	92.12
318.524	96.12
318.753	81.12
318.983	86.12
319.212	100.12
319.441	101.12
319.67	100.12
319.9	108.12
320.129	87.12
320.358	89.12
320.587	89.12
320.816	95.12
321.046	92.12
321.275	108.12
321.504	87.12
321.733	107.12
321.962	103.12
322.191	110.12
322.42	92.12
322.649	102.12
322.878	106.12
323.108	111.12
323.337	116.12
323.566	148.12
323.795	160.12
324.024	220.12
324.253	407.12
324.482	874.12
324.71	1800.12
324.939	2370.12
325.168	839.12
325.397	260.12
325.626	151.12
325.855	117.12
326.084	121.12
326.313	130.12
326.542	160.12
326.77	234.12
326.999	482.12
327.228	1003.12
327.457	1824.12
327.686	1451.12
327.914	386.12
328.143	190.12
328.372	150.12
328.6	128.12
328.829	113.12
329.058	125.12
329.287	132.12
329.515	102.12
329.744	113.12
329.972	82.12
330.201	104.12
330.43	102.12
330.658	122.12
330.887	138.12
331.115	122.12
331.344	97.12
331.572	107.12
331.801	99.12
332.03	94.12
332.258	85.12
332.486	96.12
332.715	104.12
332.943	98.12
333.172	96.12
333.4	90.12
333.629	112.12
333.857	120.12
334.085	111.12
334.314	105.12
334.542	100.12
334.771	100.12
334.999	83.12
335.227	98.12
335.455	104.12
335.684	90.12
335.912	111.12
336.14	111.12
336.369	106.12
336.597	96.12
336.825	104.12
337.053	81.12
337.281	92.12
337.51	102.12
337.738	89.12
337.966	88.12
338.194	105.12
338.422	90.12
338.65	86.12
338.878	88.12
339.106	95.12
339.334	92.12
339.562	96.12
339.79	98.12
340.018	93.12
340.246	86.12
340.474	99.12
340.702	99.12
340.93	90.12
341.158	87.12
341.386	91.12
341.614	107.12
341.842	116.12
342.07	101.12
342.298	93.12
342.526	85.12
342.754	86.12
342.981	90.12
343.209	96.12
343.437	94.12
343.665	78.12
343.893	86.12
344.12	104.12
344.348	91.12
344.576	100.12
344.804	75.12
345.031	96.12
345.259	96.12
345.487	102.12
345.714	86.12
345.942	86.12
346.17	98.12
346.397	92.12
346.625	93.12
346.853	110.12
347.08	104.12
347.308	99.12
347.535	105.12
347.763	85.12
347.99	100.12
348.218	100.12
348.445	97.12
348.673	104.12
348.9	96.12
349.128	95.12
349.355	97.12
349.583	101.12
349.81	98.12
350.037	93.12
350.265	99.12
350.492	89.12
350.72	101.12
350.947	95.12
351.174	120.12
351.402	112.12
351.629	104.12
351.856	98.12
352.083	103.12
352.311	110.12
352.538	97.12
352.765	112.12
352.992	104.12
353.22	121.12
353.447	115.12
353.674	109.12
353.901	92.12
354.128	84.12
354.355	86.12
354.583	84.12
354.81	92.12
355.037	94.12
355.264	100.12
355.491	104.12
355.718	85.12
355.945	103.12
356.172	104.12
356.399	82.12
356.626	83.12
356.853	103.12
357.08	100.12
357.307	84.12
357.534	91.12
357.761	99.12
357.988	101.12
358.215	100.12
358.441	95.12
358.668	98.12
358.895	100.12
359.122	84.12
359.349	86.12
359.576	102.12
359.802	106.12
360.029	112.12
360.256	121.12
360.483	104.12
360.709	96.12
360.936	88.12
361.163	85.12
361.39	103.12
361.616	87.12
361.843	99.12
362.07	96.12
362.296	98.12
362.523	93.12
362.749	100.12
362.976	97.12
363.203	82.12
363.429	91.12
363.656	104.12
363.882	92.12
364.109	99.12
364.335	96.12
364.562	87.12
364.788	94.12
365.015	94.12
365.241	98.12
365.468	110.12
365.694	93.12
365.92	89.12
366.147	90.12
366.373	85.12
366.599	89.12
366.826	90.12
367.052	94.12
367.278	97.12
367.505	84.12
367.731	98.12
367.957	97.12
368.184	88.12
368.41	98.12
368.636	122.12
368.862	117.12
369.089	120.12
369.315	96.12
369.541	101.12
369.767	89.12
369.993	96.12
370.219	91.12
370.445	84.12
370.672	88.12
370.898	89.12
371.124	89.12
371.35	84.12
371.576	89.12
371.802	84.12
372.028	82.12
372.254	81.12
372.48	88.12
372.706	86.12
372.932	92.12
373.158	84.12
373.384	93.12
373.61	101.12
373.835	81.12
374.061	81.12
374.287	89.12
374.513	88.12
374.739	85.12
374.965	98.12
375.191	88.12
375.416	84.12
375.642	80.12
375.868	98.12
376.094	95.12
376.319	90.12
376.545	86.12
376.771	93.12
376.997	88.12
377.222	87.12
377.448	79.12
377.674	73.12
377.899	75.12
378.125	94.12
378.35	89.12
378.576	83.12
378.802	89.12
379.027	85.12
379.253	81.12
379.478	84.12
379.704	99.12
379.929	89.12
380.155	84.12
380.38	94.12
380.606	85.12
380.831	94.12
381.057	88.12
381.282	83.12
381.507	90.12
381.733	88.12
381.958	101.12
382.184	95.12
382.409	101.12
382.634	101.12
382.86	82.12
383.085	91.12
383.31	103.12
383.535	108.12
383.761	96.12
383.986	91.12
384.211	101.12
384.436	107.12
384.662	110.12
384.887	98.12
385.112	100.12
385.337	105.12
385.562	81.12
385.787	97.12
386.013	107.12
386.238	125.12
386.463	88.12
386.688	108.12
386.913	108.12
387.138	108.12
387.363	112.12
387.588	86.12
387.813	109.12
388.038	96.12
388.263	112.12
388.488	122.12
388.713	90.12
388.938	93.12
389.163	85.12
389.387	86.12
389.612	86.12
389.837	95.12
390.062	83.12
390.287	94.12
390.512	94.12
390.736	96.12
390.961	80.12
391.186	89.12
391.411	97.12
391.636	101.12
391.86	79.12
392.085	105.12
392.31	77.12
392.534	96.12
392.759	85.12
392.984	102.12
393.208	81.12
393.433	79.12
393.658	79.12
393.882	84.12
394.107	91.12
394.331	105.12
394.556	84.12
394.78	85.12
395.005	86.12
395.229	87.12
395.454	88.12
395.678	82.12
395.903	91.12
396.127	97.12
396.352	84.12
396.576	81.12
396.801	89.12
397.025	89.12
397.249	87.12
397.474	107.12
397.698	86.12
397.922	86.12
398.147	92.12
398.371	69.12
398.595	89.12
398.82	79.12
399.044	79.12
399.268	89.12
399.492	77.12
399.717	98.12
399.941	97.12
400.165	97.12
400.389	93.12
400.613	90.12
400.837	86.12
401.062	90.12
401.286	85.12
401.51	96.12
401.734	80.12
401.958	113.12
402.182	121.12
402.406	174.12
402.63	126.12
402.854	101.12
403.078	86.12
403.302	92.12
403.526	95.12
403.75	73.12
403.974	76.12
404.198	77.12
404.422	98.12
404.645	93.12
404.869	83.12
405.093	92.12
405.317	82.12
405.541	109.12
405.765	100.12
405.988	124.12
406.212	160.12
406.436	245.12
406.66	139.12
406.883	101.12
407.107	91.12
407.331	106.12
407.555	98.12
407.778	86.12
408.002	98.12
408.226	79.12
408.449	81.12
408.673	85.12
408.896	90.12
409.12	92.12
409.344	87.12
409.567	94.12
409.791	96.12
410.014	117.12
410.238	107.12
410.461	91.12
410.685	98.12
410.908	92.12
411.132	92.12
411.355	89.12
411.578	105.12
411.802	77.12
412.025	85.12
412.249	84.12
412.472	71.12
412.695	102.12
412.919	96.12
413.142	89.12
413.365	79.12
413.589	78.12
413.812	101.12
414.035	108.12
414.258	88.12
414.482	93.12
414.705	98.12
414.928	97.12
415.151	89.12
415.374	98.12
415.597	91.12
415.821	98.12
416.044	93.12
416.267	92.12
416.49	89.12
416.713	89.12
416.936	78.12
417.159	86.12
417.382	85.12
417.605	85.12
417.828	99.12
418.051	97.12
418.274	85.12
418.497	88.12
418.72	80.12
418.943	80.12
419.166	90.12
419.389	85.12
419.611	80.12
419.834	82.12
420.057	74.12
420.28	100.12
420.503	94.12
420.726	100.12
420.948	86.12
421.171	102.12
421.394	81.12
421.617	96.12
421.839	77.12
422.062	74.12
422.285	107.12
422.507	117.12
422.73	101.12
422.953	74.12
423.175	83.12
423.398	99.12
423.621	83.12
423.843	92.12
424.066	85.12
424.288	93.12
424.511	85.12
424.733	98.12
424.956	115.12
425.178	109.12
425.401	98.12
425.623	123.12
425.846	99.12
426.068	97.12
426.291	109.12
426.513	92.12
426.735	94.12
426.958	86.12
427.18	120.12
427.402	148.12
427.625	166.12
427.847	142.12
428.069	110.12
428.292	94.12
428.514	100.12
428.736	105.12
428.958	93.12
429.181	83.12
429.403	79.12
429.625	81.12
429.847	94.12
430.069	99.12
430.292	90.12
430.514	92.12
430.736	88.12
430.958	89.12
431.18	80.12
431.402	90.12
431.624	84.12
431.846	86.12
432.068	90.12
432.29	97.12
432.512	85.12
432.734	88.12
432.956	83.12
433.178	98.12
433.4	100.12
433.622	80.12
433.844	93.12
434.066	92.12
434.287	84.12
434.509	87.12
434.731	100.12
434.953	91.12
435.175	81.12
435.397	92.12
435.618	98.12
435.84	109.12
436.062	110.12
436.284	118.12
436.505	98.12
436.727	108.12
436.949	90.12
437.17	105.12
437.392	91.12
437.614	93.12
437.835	106.12
438.057	122.12
438.278	96.12
438.5	120.12
438.721	122.12
438.943	108.12
439.165	90.12
439.386	93.12
439.608	102.12
439.829	98.12
440.05	120.12
440.272	142.12
440.493	100.12
440.715	85.12
440.936	92.12
441.158	83.12
441.379	99.12
441.6	96.12
441.822	98.12
442.043	106.12
442.264	107.12
442.486	108.12
442.707	100.12
442.928	100.12
443.149	125.12
443.371	138.12
443.592	126.12
443.813	114.12
444.034	98.12
444.255	102.12
444.476	89.12
444.698	90.12
444.919	86.12
445.14	125.12
445.361	118.12
445.582	122.12
445.803	158.12
446.024	145.12
446.245	121.12
446.466	121.12
446.687	91.12
446.908	90.12
447.129	81.12
447.35	62.12
447.571	99.12
447.792	106.12
448.013	100.12
448.234	110.12
448.455	100.12
448.675	105.12
448.896	127.12
449.117	93.12
449.338	108.12
449.559	136.12
449.779	123.12
450	98.12
450.221	84.12
450.442	93.12
450.662	88.12
450.883	98.12
451.104	117.12
451.324	93.12
451.545	115.12
451.766	83.12
451.986	91.12
452.207	78.12
452.428	91.12
452.648	86.12
452.869	108.12
453.089	112.12
453.31	125.12
453.53	116.12
453.751	82.12
453.971	110.12
454.192	111.12
454.412	85.12
454.633	101.12
454.853	91.12
455.073	85.12
455.294	96.12
455.514	102.12
455.734	96.12
455.955	91.12
456.175	85.12
456.395	92.12
456.616	85.12
456.836	90.12
457.056	83.12
457.276	95.12
457.497	91.12
457.717	99.12
457.937	76.12
458.157	90.12
458.377	72.12
458.598	92.12
458.818	161.12
459.038	171.12
459.258	129.12
459.478	92.12
459.698	94.12
459.918	99.12
460.138	76.12
460.358	73.12
460.578	84.12
460.798	86.12
461.018	94.12
461.238	93.12
461.458	92.12
461.678	97.12
461.898	89.12
462.118	72.12
462.338	77.12
462.558	82.12
462.777	80.12
462.997	99.12
463.217	91.12
463.437	80.12
463.657	84.12
463.876	83.12
464.096	84.12
464.316	85.12
464.536	89.12
464.755	86.12
464.975	106.12
465.195	163.12
465.414	161.12
465.634	94.12
465.854	81.12
466.073	98.12
466.293	89.12
466.512	95.12
466.732	91.12
466.951	78.12
467.171	86.12
467.391	96.12
467.61	102.12
467.829	85.12
468.049	91.12
468.268	94.12
468.488	89.12
468.707	73.12
468.927	75.12
469.146	82.12
469.365	84.12
469.585	94.12
469.804	97.12
470.023	95.12
470.243	89.12
470.462	97.12
470.681	118.12
470.901	76.12
471.12	82.12
471.339	86.12
471.558	82.12
471.777	81.12
471.997	78.12
472.216	93.12
472.435	94.12
472.654	71.12
472.873	82.12
473.092	94.12
473.311	89.12
473.53	85.12
473.749	81.12
473.968	96.12
474.187	104.12
474.406	92.12
474.625	80.12
474.844	92.12
475.063	100.12
475.282	85.12
475.501	74.12
475.72	79.12
475.939	77.12
476.158	79.12
476.377	85.12
476.596	81.12
476.814	86.12
477.033	92.12
477.252	93.12
477.471	85.12
477.69	85.12
477.908	97.12
478.127	90.12
478.346	82.12
478.564	86.12
478.783	91.12
479.002	96.12
479.22	78.12
479.439	108.12
479.658	93.12
479.876	91.12
480.095	74.12
480.313	98.12
480.532	81.12
480.751	85.12
480.969	73.12
481.188	86.12
481.406	84.12
481.624	88.12
481.843	77.12
482.061	93.12
482.28	75.12
482.498	85.12
482.717	75.12
482.935	95.12
483.153	102.12
483.372	95.12
483.59	75.12
483.808	93.12
484.027	83.12
484.245	102.12
484.463	85.12
484.681	91.12
484.9	87.12
485.118	97.12
485.336	82.12
485.554	83.12
485.772	94.12
485.99	105.12
486.209	113.12
486.427	91.12
486.645	103.12
486.863	103.12
487.081	100.12
487.299	94.12
487.517	84.12
487.735	101.12
487.953	93.12
488.171	102.12
488.389	80.12
488.607	89.12
488.825	78.12
489.043	93.12
489.261	86.12
489.479	108.12
489.696	103.12
489.914	89.12
490.132	89.12
490.35	104.12
490.568	80.12
490.786	90.12
491.003	91.12
491.221	82.12
491.439	90.12
491.657	100.12
491.874	94.12
492.092	86.12
492.31	93.12
492.527	75.12
492.745	95.12
492.963	110.12
493.18	94.12
493.398	91.12
493.615	105.12
493.833	100.12
494.05	85.12
494.268	84.12
494.485	78.12
494.703	86.12
494.92	99.12
495.138	89.12
495.355	88.12
495.573	95.12
495.79	105.12
496.008	86.12
496.225	95.12
496.442	80.12
496.66	96.12
496.877	83.12
497.094	86.12
497.312	105.12
497.529	82.12
497.746	88.12
497.963	103.12
498.181	98.12
498.398	81.12
498.615	107.12
498.832	114.12
499.049	97.12
499.267	104.12
499.484	84.12
499.701	89.12
499.918	74.12
500.135	95.12
500.352	67.12
500.569	80.12
500.786	89.12
501.003	89.12
501.22	93.12
501.437	90.12
501.654	102.12
501.871	114.12
502.088	85.12
502.305	93.12
502.522	94.12
502.739	83.12
502.956	77.12
503.172	101.12
503.389	92.12
503.606	88.12
503.823	98.12
504.04	91.12
504.256	102.12
504.473	80.12
504.69	81.12
504.907	95.12
505.123	86.12
505.34	79.12
505.557	85.12
505.773	76.12
505.99	77.12
506.207	87.12
506.423	89.12
506.64	90.12
506.856	88.12
507.073	87.12
507.289	98.12
507.506	85.12
507.722	116.12
507.939	114.12
508.155	109.12
508.372	97.12
508.588	88.12
508.805	95.12
509.021	105.12
509.238	89.12
509.454	108.12
509.67	106.12
509.887	104.12
510.103	125.12
510.319	218.12
510.536	762.12
510.752	2551.12
510.968	724.12
511.184	168.12
511.401	113.12
511.617	105.12
511.833	86.12
512.049	92.12
512.265	94.12
512.481	93.12
512.698	102.12
512.914	101.12
513.13	92.12
513.346	95.12
513.562	100.12
513.778	89.12
513.994	86.12
514.21	111.12
514.426	111.12
514.642	140.12
514.858	130.12
515.074	170.12
515.29	475.12
515.506	1515.12
