Data from Uncirc_2007_H10_HRD10591_00080.txt Node
Date: Wed Jan 03 10:20:58 EST 2024
User: Yrep
Spectrometer: HR+D1059
Trigger mode: 1
Integration Time (sec): 1.000000E-1
Scans to average: 1
Electric dark correction enabled: true
Nonlinearity correction enabled: false
Boxcar width: 0
XAxis mode: Wavelengths
Number of Pixels in Spectrum: 2048
>>>>>Begin Spectral Data<<<<<
223.165	-22.19
223.4	-22.19
223.635	-22.19
223.869	-25.19
224.104	-21.19
224.338	-14.19
224.573	-20.19
224.808	-10.19
225.042	2.81
225.277	-10.19
225.511	9.81
225.746	4.81
225.98	-0.19
226.215	17.81
226.449	2.81
226.683	16.81
226.918	26.81
227.152	41.81
227.387	22.81
227.621	37.81
227.856	29.81
228.09	48.81
228.324	47.81
228.559	58.81
228.793	64.81
229.027	77.81
229.262	72.81
229.496	69.81
229.73	86.81
229.964	78.81
230.199	70.81
230.433	74.81
230.667	84.81
230.901	65.81
231.136	79.81
231.37	62.81
231.604	85.81
231.838	79.81
232.072	70.81
232.306	82.81
232.541	89.81
232.775	75.81
233.009	76.81
233.243	71.81
233.477	73.81
233.711	76.81
233.945	79.81
234.179	59.81
234.413	88.81
234.647	77.81
234.881	60.81
235.115	81.81
235.349	72.81
235.583	60.81
235.817	71.81
236.051	76.81
236.285	85.81
236.519	76.81
236.753	87.81
236.987	78.81
237.221	80.81
237.455	82.81
237.689	65.81
237.922	74.81
238.156	78.81
238.39	59.81
238.624	67.81
238.858	72.81
239.091	88.81
239.325	75.81
239.559	73.81
239.793	77.81
240.027	75.81
240.26	81.81
240.494	78.81
240.728	70.81
240.961	71.81
241.195	72.81
241.429	77.81
241.662	76.81
241.896	67.81
242.13	77.81
242.363	73.81
242.597	64.81
242.83	78.81
243.064	85.81
243.298	86.81
243.531	73.81
243.765	66.81
243.998	79.81
244.232	85.81
244.465	81.81
244.699	78.81
244.932	87.81
245.166	77.81
245.399	75.81
245.633	77.81
245.866	69.81
246.099	69.81
246.333	85.81
246.566	73.81
246.8	82.81
247.033	73.81
247.266	63.81
247.5	74.81
247.733	70.81
247.966	81.81
248.2	80.81
248.433	71.81
248.666	69.81
248.899	89.81
249.133	77.81
249.366	78.81
249.599	88.81
249.832	95.81
250.066	84.81
250.299	75.81
250.532	70.81
250.765	81.81
250.998	77.81
251.231	82.81
251.465	79.81
251.698	84.81
251.931	93.81
252.164	74.81
252.397	97.81
252.63	70.81
252.863	77.81
253.096	77.81
253.329	76.81
253.562	66.81
253.795	92.81
254.028	73.81
254.261	60.81
254.494	81.81
254.727	84.81
254.96	65.81
255.193	79.81
255.426	92.81
255.659	76.81
255.892	86.81
256.124	78.81
256.357	77.81
256.59	78.81
256.823	80.81
257.056	89.81
257.289	81.81
257.521	65.81
257.754	71.81
257.987	81.81
258.22	83.81
258.452	77.81
258.685	76.81
258.918	89.81
259.151	82.81
259.383	73.81
259.616	86.81
259.849	80.81
260.081	88.81
260.314	63.81
260.547	86.81
260.779	94.81
261.012	74.81
261.244	67.81
261.477	79.81
261.71	90.81
261.942	106.81
262.175	118.81
262.407	80.81
262.64	82.81
262.872	82.81
263.105	75.81
263.337	81.81
263.57	79.81
263.802	85.81
264.035	76.81
264.267	96.81
264.499	80.81
264.732	79.81
264.964	80.81
265.197	101.81
265.429	87.81
265.661	83.81
265.894	86.81
266.126	86.81
266.358	73.81
266.591	79.81
266.823	82.81
267.055	79.81
267.287	83.81
267.52	72.81
267.752	83.81
267.984	73.81
268.216	86.81
268.448	91.81
268.681	84.81
268.913	80.81
269.145	90.81
269.377	72.81
269.609	75.81
269.841	76.81
270.073	77.81
270.306	70.81
270.538	73.81
270.77	79.81
271.002	79.81
271.234	77.81
271.466	74.81
271.698	79.81
271.93	82.81
272.162	80.81
272.394	83.81
272.626	76.81
272.858	87.81
273.09	88.81
273.322	84.81
273.553	90.81
273.785	90.81
274.017	91.81
274.249	76.81
274.481	96.81
274.713	91.81
274.945	86.81
275.176	86.81
275.408	97.81
275.64	81.81
275.872	73.81
276.104	87.81
276.335	65.81
276.567	96.81
276.799	108.81
277.031	94.81
277.262	87.81
277.494	82.81
277.726	71.81
277.957	76.81
278.189	75.81
278.421	82.81
278.652	82.81
278.884	74.81
279.115	82.81
279.347	75.81
279.579	81.81
279.81	78.81
280.042	85.81
280.273	73.81
280.505	77.81
280.736	86.81
280.968	86.81
281.199	94.81
281.431	68.81
281.662	90.81
281.894	90.81
282.125	93.81
282.356	133.81
282.588	136.81
282.819	131.81
283.051	83.81
283.282	80.81
283.513	87.81
283.745	64.81
283.976	74.81
284.207	81.81
284.439	93.81
284.67	89.81
284.901	94.81
285.132	82.81
285.364	73.81
285.595	84.81
285.826	86.81
286.057	81.81
286.288	87.81
286.52	79.81
286.751	90.81
286.982	86.81
287.213	80.81
287.444	88.81
287.675	77.81
287.906	89.81
288.138	92.81
288.369	94.81
288.6	96.81
288.831	96.81
289.062	82.81
289.293	94.81
289.524	89.81
289.755	74.81
289.986	88.81
290.217	81.81
290.448	76.81
290.679	77.81
290.91	76.81
291.141	88.81
291.371	78.81
291.602	93.81
291.833	78.81
292.064	82.81
292.295	89.81
292.526	88.81
292.757	81.81
292.987	76.81
293.218	98.81
293.449	89.81
293.68	88.81
293.91	78.81
294.141	77.81
294.372	86.81
294.603	99.81
294.833	101.81
295.064	82.81
295.295	80.81
295.525	89.81
295.756	98.81
295.987	118.81
296.217	157.81
296.448	143.81
296.679	94.81
296.909	94.81
297.14	76.81
297.37	96.81
297.601	71.81
297.831	77.81
298.062	66.81
298.292	80.81
298.523	84.81
298.753	92.81
298.984	77.81
299.214	83.81
299.445	88.81
299.675	81.81
299.905	86.81
300.136	92.81
300.366	112.81
300.597	90.81
300.827	84.81
301.057	87.81
301.288	86.81
301.518	90.81
301.748	75.81
301.979	77.81
302.209	80.81
302.439	104.81
302.669	81.81
302.9	69.81
303.13	82.81
303.36	82.81
303.59	101.81
303.82	102.81
304.051	87.81
304.281	77.81
304.511	94.81
304.741	86.81
304.971	80.81
305.201	83.81
305.431	85.81
305.661	93.81
305.891	95.81
306.121	112.81
306.352	95.81
306.582	124.81
306.812	90.81
307.042	85.81
307.272	90.81
307.502	88.81
307.731	83.81
307.961	72.81
308.191	84.81
308.421	86.81
308.651	93.81
308.881	92.81
309.111	105.81
309.341	93.81
309.571	98.81
309.8	92.81
310.03	90.81
310.26	101.81
310.49	98.81
310.72	97.81
310.949	103.81
311.179	100.81
311.409	109.81
311.639	105.81
311.868	94.81
312.098	86.81
312.328	88.81
312.557	100.81
312.787	93.81
313.017	95.81
313.246	92.81
313.476	78.81
313.706	88.81
313.935	82.81
314.165	97.81
314.394	112.81
314.624	92.81
314.853	82.81
315.083	81.81
315.312	83.81
315.542	87.81
315.771	83.81
316.001	76.81
316.23	93.81
316.46	89.81
316.689	87.81
316.919	95.81
317.148	86.81
317.377	91.81
317.607	94.81
317.836	77.81
318.065	68.81
318.295	81.81
318.524	88.81
318.753	90.81
318.983	108.81
319.212	96.81
319.441	105.81
319.67	112.81
319.9	88.81
320.129	87.81
320.358	86.81
320.587	94.81
320.816	98.81
321.046	95.81
321.275	89.81
321.504	104.81
321.733	107.81
321.962	94.81
322.191	101.81
322.42	96.81
322.649	102.81
322.878	124.81
323.108	117.81
323.337	129.81
323.566	156.81
323.795	162.81
324.024	237.81
324.253	507.81
324.482	1130.81
324.71	2269.81
324.939	3061.81
325.168	1066.81
325.397	299.81
325.626	166.81
325.855	145.81
326.084	122.81
326.313	164.81
326.542	160.81
326.77	280.81
326.999	562.81
327.228	1221.81
327.457	2250.81
327.686	1803.81
327.914	474.81
328.143	213.81
328.372	164.81
328.6	124.81
328.829	111.81
329.058	144.81
329.287	142.81
329.515	116.81
329.744	100.81
329.972	113.81
330.201	102.81
330.43	90.81
330.658	106.81
330.887	144.81
331.115	133.81
331.344	82.81
331.572	99.81
331.801	103.81
332.03	102.81
332.258	102.81
332.486	92.81
332.715	91.81
332.943	93.81
333.172	96.81
333.4	100.81
333.629	94.81
333.857	107.81
334.085	102.81
334.314	87.81
334.542	104.81
334.771	97.81
334.999	91.81
335.227	96.81
335.455	108.81
335.684	97.81
335.912	86.81
336.14	93.81
336.369	101.81
336.597	97.81
336.825	104.81
337.053	85.81
337.281	82.81
337.51	91.81
337.738	93.81
337.966	99.81
338.194	88.81
338.422	95.81
338.65	109.81
338.878	95.81
339.106	84.81
339.334	80.81
339.562	91.81
339.79	82.81
340.018	86.81
340.246	77.81
340.474	109.81
340.702	85.81
340.93	83.81
341.158	89.81
341.386	97.81
341.614	110.81
341.842	107.81
342.07	85.81
342.298	93.81
342.526	89.81
342.754	94.81
342.981	89.81
343.209	96.81
343.437	103.81
343.665	95.81
343.893	85.81
344.12	85.81
344.348	79.81
344.576	75.81
344.804	93.81
345.031	90.81
345.259	94.81
345.487	90.81
345.714	89.81
345.942	104.81
346.17	90.81
346.397	97.81
346.625	93.81
346.853	78.81
347.08	89.81
347.308	87.81
347.535	110.81
347.763	106.81
347.99	109.81
348.218	106.81
348.445	97.81
348.673	90.81
348.9	106.81
349.128	85.81
349.355	84.81
349.583	77.81
349.81	81.81
350.037	96.81
350.265	93.81
350.492	94.81
350.72	100.81
350.947	93.81
351.174	116.81
351.402	114.81
351.629	89.81
351.856	110.81
352.083	103.81
352.311	105.81
352.538	118.81
352.765	116.81
352.992	111.81
353.22	106.81
353.447	110.81
353.674	91.81
353.901	86.81
354.128	88.81
354.355	84.81
354.583	103.81
354.81	97.81
355.037	87.81
355.264	92.81
355.491	78.81
355.718	81.81
355.945	87.81
356.172	93.81
356.399	81.81
356.626	96.81
356.853	77.81
357.08	77.81
357.307	87.81
357.534	103.81
357.761	90.81
357.988	107.81
358.215	83.81
358.441	86.81
358.668	88.81
358.895	98.81
359.122	97.81
359.349	99.81
359.576	86.81
359.802	102.81
360.029	101.81
360.256	112.81
360.483	92.81
360.709	77.81
360.936	98.81
361.163	102.81
361.39	89.81
361.616	86.81
361.843	88.81
362.07	78.81
362.296	88.81
362.523	105.81
362.749	94.81
362.976	76.81
363.203	97.81
363.429	93.81
363.656	86.81
363.882	75.81
364.109	96.81
364.335	88.81
364.562	89.81
364.788	98.81
365.015	86.81
365.241	103.81
365.468	104.81
365.694	109.81
365.92	86.81
366.147	77.81
366.373	80.81
366.599	83.81
366.826	87.81
367.052	88.81
367.278	93.81
367.505	79.81
367.731	88.81
367.957	100.81
368.184	95.81
368.41	93.81
368.636	93.81
368.862	110.81
369.089	114.81
369.315	97.81
369.541	82.81
369.767	97.81
369.993	81.81
370.219	72.81
370.445	73.81
370.672	74.81
370.898	79.81
371.124	65.81
371.35	92.81
371.576	79.81
371.802	80.81
372.028	77.81
372.254	89.81
372.48	87.81
372.706	82.81
372.932	86.81
373.158	92.81
373.384	101.81
373.61	98.81
373.835	96.81
374.061	64.81
374.287	80.81
374.513	82.81
374.739	79.81
374.965	78.81
375.191	82.81
375.416	93.81
375.642	87.81
375.868	85.81
376.094	93.81
376.319	92.81
376.545	83.81
376.771	80.81
376.997	82.81
377.222	93.81
377.448	84.81
377.674	82.81
377.899	97.81
378.125	90.81
378.35	89.81
378.576	97.81
378.802	76.81
379.027	97.81
379.253	91.81
379.478	95.81
379.704	92.81
379.929	93.81
380.155	99.81
380.38	77.81
380.606	88.81
380.831	94.81
381.057	100.81
381.282	90.81
381.507	89.81
381.733	95.81
381.958	87.81
382.184	90.81
382.409	94.81
382.634	100.81
382.86	95.81
383.085	103.81
383.31	95.81
383.535	98.81
383.761	92.81
383.986	111.81
384.211	84.81
384.436	72.81
384.662	90.81
384.887	92.81
385.112	90.81
385.337	104.81
385.562	97.81
385.787	97.81
386.013	99.81
386.238	108.81
386.463	102.81
386.688	102.81
386.913	107.81
387.138	94.81
387.363	111.81
387.588	96.81
387.813	96.81
388.038	106.81
388.263	108.81
388.488	103.81
388.713	98.81
388.938	86.81
389.163	86.81
389.387	89.81
389.612	86.81
389.837	92.81
390.062	85.81
390.287	86.81
390.512	93.81
390.736	78.81
390.961	90.81
391.186	90.81
391.411	92.81
391.636	93.81
391.86	85.81
392.085	90.81
392.31	82.81
392.534	86.81
392.759	83.81
392.984	75.81
393.208	91.81
393.433	79.81
393.658	80.81
393.882	71.81
394.107	74.81
394.331	73.81
394.556	83.81
394.78	95.81
395.005	94.81
395.229	78.81
395.454	74.81
395.678	67.81
395.903	82.81
396.127	76.81
396.352	86.81
396.576	78.81
396.801	81.81
397.025	82.81
397.249	78.81
397.474	81.81
397.698	86.81
397.922	89.81
398.147	89.81
398.371	83.81
398.595	79.81
398.82	92.81
399.044	75.81
399.268	88.81
399.492	98.81
399.717	90.81
399.941	75.81
400.165	85.81
400.389	90.81
400.613	79.81
400.837	90.81
401.062	94.81
401.286	89.81
401.51	89.81
401.734	79.81
401.958	100.81
402.182	143.81
402.406	177.81
402.63	126.81
402.854	87.81
403.078	95.81
403.302	72.81
403.526	86.81
403.75	94.81
403.974	90.81
404.198	72.81
404.422	82.81
404.645	81.81
404.869	77.81
405.093	91.81
405.317	105.81
405.541	72.81
405.765	86.81
405.988	125.81
406.212	199.81
406.436	268.81
406.66	168.81
406.883	116.81
407.107	89.81
407.331	61.81
407.555	103.81
407.778	98.81
408.002	80.81
408.226	88.81
408.449	93.81
408.673	88.81
408.896	89.81
409.12	95.81
409.344	81.81
409.567	73.81
409.791	78.81
410.014	94.81
410.238	93.81
410.461	81.81
410.685	91.81
410.908	90.81
411.132	93.81
411.355	97.81
411.578	108.81
411.802	88.81
412.025	82.81
412.249	86.81
412.472	91.81
412.695	87.81
412.919	80.81
413.142	81.81
413.365	102.81
413.589	92.81
413.812	94.81
414.035	93.81
414.258	88.81
414.482	85.81
414.705	78.81
414.928	87.81
415.151	87.81
415.374	86.81
415.597	104.81
415.821	90.81
416.044	90.81
416.267	93.81
416.49	85.81
416.713	79.81
416.936	74.81
417.159	88.81
417.382	75.81
417.605	85.81
417.828	86.81
418.051	91.81
418.274	105.81
418.497	88.81
418.72	93.81
418.943	78.81
419.166	76.81
419.389	87.81
419.611	89.81
419.834	91.81
420.057	86.81
420.28	85.81
420.503	89.81
420.726	88.81
420.948	94.81
421.171	96.81
421.394	83.81
421.617	101.81
421.839	94.81
422.062	96.81
422.285	81.81
422.507	88.81
422.73	92.81
422.953	81.81
423.175	87.81
423.398	88.81
423.621	97.81
423.843	89.81
424.066	84.81
424.288	77.81
424.511	105.81
424.733	76.81
424.956	93.81
425.178	103.81
425.401	92.81
425.623	90.81
425.846	88.81
426.068	93.81
426.291	79.81
426.513	93.81
426.735	83.81
426.958	90.81
427.18	95.81
427.402	146.81
427.625	164.81
427.847	120.81
428.069	79.81
428.292	81.81
428.514	73.81
428.736	58.81
428.958	92.81
429.181	93.81
429.403	82.81
429.625	79.81
429.847	96.81
430.069	115.81
430.292	84.81
430.514	77.81
430.736	73.81
430.958	69.81
431.18	82.81
431.402	88.81
431.624	93.81
431.846	87.81
432.068	92.81
432.29	77.81
432.512	81.81
432.734	69.81
432.956	86.81
433.178	108.81
433.4	105.81
433.622	74.81
433.844	98.81
434.066	98.81
434.287	93.81
434.509	96.81
434.731	96.81
434.953	82.81
435.175	82.81
435.397	85.81
435.618	99.81
435.84	88.81
436.062	116.81
436.284	104.81
436.505	98.81
436.727	95.81
436.949	96.81
437.17	89.81
437.392	105.81
437.614	95.81
437.835	133.81
438.057	140.81
438.278	104.81
438.5	96.81
438.721	114.81
438.943	99.81
439.165	84.81
439.386	77.81
439.608	96.81
439.829	88.81
440.05	127.81
440.272	146.81
440.493	87.81
440.715	79.81
440.936	88.81
441.158	108.81
441.379	97.81
441.6	103.81
441.822	86.81
442.043	103.81
442.264	118.81
442.486	105.81
442.707	99.81
442.928	111.81
443.149	130.81
443.371	137.81
443.592	121.81
443.813	122.81
444.034	124.81
444.255	81.81
444.476	81.81
444.698	96.81
444.919	93.81
445.14	136.81
445.361	111.81
445.582	118.81
445.803	129.81
446.024	146.81
446.245	136.81
446.466	122.81
446.687	86.81
446.908	105.81
447.129	71.81
447.35	86.81
447.571	82.81
447.792	101.81
448.013	98.81
448.234	101.81
448.455	98.81
448.675	103.81
448.896	134.81
449.117	97.81
449.338	93.81
449.559	136.81
449.779	143.81
450	108.81
450.221	88.81
450.442	101.81
450.662	93.81
450.883	128.81
451.104	118.81
451.324	97.81
451.545	88.81
451.766	87.81
451.986	87.81
452.207	83.81
452.428	84.81
452.648	85.81
452.869	104.81
453.089	122.81
453.31	117.81
453.53	93.81
453.751	90.81
453.971	102.81
454.192	120.81
454.412	94.81
454.633	92.81
454.853	78.81
455.073	98.81
455.294	80.81
455.514	107.81
455.734	81.81
455.955	80.81
456.175	78.81
456.395	84.81
456.616	79.81
456.836	83.81
457.056	81.81
457.276	76.81
457.497	92.81
457.717	73.81
457.937	60.81
458.157	93.81
458.377	94.81
458.598	112.81
458.818	156.81
459.038	173.81
459.258	117.81
459.478	80.81
459.698	84.81
459.918	87.81
460.138	85.81
460.358	85.81
460.578	88.81
460.798	84.81
461.018	90.81
461.238	92.81
461.458	82.81
461.678	89.81
461.898	83.81
462.118	81.81
462.338	79.81
462.558	74.81
462.777	89.81
462.997	81.81
463.217	77.81
463.437	89.81
463.657	87.81
463.876	99.81
464.096	93.81
464.316	87.81
464.536	93.81
464.755	95.81
464.975	115.81
465.195	177.81
465.414	177.81
465.634	81.81
465.854	82.81
466.073	83.81
466.293	79.81
466.512	84.81
466.732	77.81
466.951	73.81
467.171	83.81
467.391	93.81
467.61	99.81
467.829	93.81
468.049	87.81
468.268	79.81
468.488	86.81
468.707	80.81
468.927	95.81
469.146	74.81
469.365	77.81
469.585	87.81
469.804	95.81
470.023	88.81
470.243	97.81
470.462	102.81
470.681	107.81
470.901	88.81
471.12	91.81
471.339	72.81
471.558	82.81
471.777	95.81
471.997	96.81
472.216	89.81
472.435	76.81
472.654	76.81
472.873	85.81
473.092	79.81
473.311	96.81
473.53	85.81
473.749	77.81
473.968	93.81
474.187	104.81
474.406	101.81
474.625	86.81
474.844	87.81
475.063	90.81
475.282	89.81
475.501	79.81
475.72	89.81
475.939	74.81
476.158	84.81
476.377	81.81
476.596	79.81
476.814	88.81
477.033	99.81
477.252	74.81
477.471	91.81
477.69	68.81
477.908	86.81
478.127	81.81
478.346	90.81
478.564	86.81
478.783	101.81
479.002	85.81
479.22	81.81
479.439	92.81
479.658	105.81
479.876	97.81
480.095	96.81
480.313	82.81
480.532	84.81
480.751	83.81
480.969	91.81
481.188	91.81
481.406	83.81
481.624	90.81
481.843	84.81
482.061	75.81
482.28	85.81
482.498	91.81
482.717	85.81
482.935	90.81
483.153	103.81
483.372	86.81
483.59	79.81
483.808	96.81
484.027	84.81
484.245	94.81
484.463	98.81
484.681	89.81
484.9	95.81
485.118	92.81
485.336	93.81
485.554	99.81
485.772	114.81
485.99	96.81
486.209	104.81
486.427	102.81
486.645	117.81
486.863	91.81
487.081	98.81
487.299	88.81
487.517	74.81
487.735	84.81
487.953	104.81
488.171	81.81
488.389	99.81
488.607	107.81
488.825	94.81
489.043	88.81
489.261	86.81
489.479	73.81
489.696	85.81
489.914	88.81
490.132	90.81
490.35	69.81
490.568	74.81
490.786	80.81
491.003	86.81
491.221	99.81
491.439	86.81
491.657	92.81
491.874	74.81
492.092	81.81
492.31	88.81
492.527	87.81
492.745	93.81
492.963	80.81
493.18	88.81
493.398	95.81
493.615	100.81
493.833	99.81
494.05	85.81
494.268	95.81
494.485	97.81
494.703	99.81
494.92	84.81
495.138	76.81
495.355	74.81
495.573	83.81
495.79	80.81
496.008	91.81
496.225	91.81
496.442	84.81
496.66	82.81
496.877	77.81
497.094	93.81
497.312	92.81
497.529	82.81
497.746	86.81
497.963	109.81
498.181	98.81
498.398	91.81
498.615	120.81
498.832	96.81
499.049	90.81
499.267	78.81
499.484	81.81
499.701	81.81
499.918	90.81
500.135	85.81
500.352	73.81
500.569	86.81
500.786	90.81
501.003	91.81
501.22	85.81
501.437	81.81
501.654	88.81
501.871	111.81
502.088	96.81
502.305	94.81
502.522	86.81
502.739	91.81
502.956	87.81
503.172	99.81
503.389	98.81
503.606	107.81
503.823	79.81
504.04	90.81
504.256	96.81
504.473	93.81
504.69	81.81
504.907	95.81
505.123	81.81
505.34	88.81
505.557	97.81
505.773	72.81
505.99	87.81
506.207	76.81
506.423	91.81
506.64	83.81
506.856	76.81
507.073	84.81
507.289	85.81
507.506	89.81
507.722	111.81
507.939	109.81
508.155	85.81
508.372	86.81
508.588	91.81
508.805	89.81
509.021	102.81
509.238	93.81
509.454	107.81
509.67	114.81
509.887	121.81
510.103	153.81
510.319	249.81
510.536	987.81
510.752	3312.81
510.968	875.81
511.184	173.81
511.401	105.81
511.617	91.81
511.833	94.81
512.049	100.81
512.265	102.81
512.481	91.81
512.698	96.81
512.914	81.81
513.13	94.81
513.346	85.81
513.562	96.81
513.778	84.81
513.994	87.81
514.21	97.81
514.426	140.81
514.642	137.81
514.858	140.81
515.074	198.81
515.29	598.81
515.506	2061.81
515.721	753.81
515.937	183.81
516.153	113.81
516.369	93.81
516.585	85.81
