Data from Uncirc_2007_H10_HRD10591_00096.txt Node
Date: Wed Jan 03 10:21:01 EST 2024
User: Yrep
Spectrometer: HR+D1059
Trigger mode: 1
Integration Time (sec): 1.000000E-1
Scans to average: 1
Electric dark correction enabled: true
Nonlinearity correction enabled: false
Boxcar width: 0
XAxis mode: Wavelengths
Number of Pixels in Spectrum: 2048
>>>>>Begin Spectral Data<<<<<
223.165	-7.94
223.4	-7.94
223.635	-7.94
223.869	-20.94
224.104	-16.94
224.338	-17.94
224.573	-10.94
224.808	-0.94
225.042	-9.94
225.277	-9.94
225.511	-9.94
225.746	-2.94
225.98	10.06
226.215	14.06
226.449	16.06
226.683	18.06
226.918	19.06
227.152	31.06
227.387	40.06
227.621	33.06
227.856	47.06
228.09	45.06
228.324	37.06
228.559	39.06
228.793	50.06
229.027	68.06
229.262	71.06
229.496	65.06
229.73	80.06
229.964	79.06
230.199	75.06
230.433	58.06
230.667	78.06
230.901	59.06
231.136	82.06
231.37	74.06
231.604	66.06
231.838	74.06
232.072	76.06
232.306	64.06
232.541	76.06
232.775	79.06
233.009	76.06
233.243	75.06
233.477	77.06
233.711	84.06
233.945	71.06
234.179	79.06
234.413	82.06
234.647	83.06
234.881	74.06
235.115	77.06
235.349	75.06
235.583	71.06
235.817	76.06
236.051	70.06
236.285	75.06
236.519	71.06
236.753	82.06
236.987	70.06
237.221	74.06
237.455	74.06
237.689	68.06
237.922	81.06
238.156	67.06
238.39	76.06
238.624	69.06
238.858	79.06
239.091	70.06
239.325	66.06
239.559	76.06
239.793	94.06
240.027	78.06
240.26	86.06
240.494	60.06
240.728	83.06
240.961	63.06
241.195	84.06
241.429	74.06
241.662	69.06
241.896	70.06
242.13	83.06
242.363	65.06
242.597	78.06
242.83	73.06
243.064	81.06
243.298	67.06
243.531	59.06
243.765	81.06
243.998	85.06
244.232	85.06
244.465	82.06
244.699	71.06
244.932	73.06
245.166	64.06
245.399	70.06
245.633	70.06
245.866	83.06
246.099	77.06
246.333	64.06
246.566	69.06
246.8	72.06
247.033	89.06
247.266	76.06
247.5	73.06
247.733	80.06
247.966	82.06
248.2	82.06
248.433	73.06
248.666	81.06
248.899	70.06
249.133	89.06
249.366	79.06
249.599	99.06
249.832	76.06
250.066	72.06
250.299	85.06
250.532	81.06
250.765	91.06
250.998	86.06
251.231	74.06
251.465	88.06
251.698	80.06
251.931	83.06
252.164	67.06
252.397	67.06
252.63	62.06
252.863	76.06
253.096	73.06
253.329	67.06
253.562	78.06
253.795	87.06
254.028	81.06
254.261	80.06
254.494	70.06
254.727	98.06
254.96	76.06
255.193	71.06
255.426	73.06
255.659	78.06
255.892	86.06
256.124	78.06
256.357	86.06
256.59	78.06
256.823	78.06
257.056	76.06
257.289	84.06
257.521	81.06
257.754	84.06
257.987	64.06
258.22	94.06
258.452	88.06
258.685	66.06
258.918	83.06
259.151	82.06
259.383	82.06
259.616	75.06
259.849	79.06
260.081	74.06
260.314	83.06
260.547	78.06
260.779	79.06
261.012	80.06
261.244	72.06
261.477	79.06
261.71	91.06
261.942	106.06
262.175	114.06
262.407	92.06
262.64	87.06
262.872	83.06
263.105	82.06
263.337	87.06
263.57	78.06
263.802	81.06
264.035	81.06
264.267	79.06
264.499	75.06
264.732	87.06
264.964	70.06
265.197	69.06
265.429	83.06
265.661	75.06
265.894	82.06
266.126	73.06
266.358	79.06
266.591	70.06
266.823	81.06
267.055	80.06
267.287	71.06
267.52	87.06
267.752	80.06
267.984	80.06
268.216	79.06
268.448	82.06
268.681	80.06
268.913	78.06
269.145	82.06
269.377	77.06
269.609	62.06
269.841	70.06
270.073	74.06
270.306	88.06
270.538	82.06
270.77	85.06
271.002	83.06
271.234	100.06
271.466	85.06
271.698	76.06
271.93	81.06
272.162	75.06
272.394	82.06
272.626	89.06
272.858	81.06
273.09	78.06
273.322	76.06
273.553	69.06
273.785	73.06
274.017	90.06
274.249	73.06
274.481	95.06
274.713	88.06
274.945	96.06
275.176	68.06
275.408	73.06
275.64	70.06
275.872	77.06
276.104	94.06
276.335	87.06
276.567	98.06
276.799	98.06
277.031	96.06
277.262	81.06
277.494	91.06
277.726	93.06
277.957	79.06
278.189	94.06
278.421	74.06
278.652	77.06
278.884	90.06
279.115	87.06
279.347	85.06
279.579	90.06
279.81	76.06
280.042	80.06
280.273	81.06
280.505	89.06
280.736	75.06
280.968	81.06
281.199	89.06
281.431	76.06
281.662	85.06
281.894	93.06
282.125	86.06
282.356	119.06
282.588	130.06
282.819	100.06
283.051	81.06
283.282	93.06
283.513	83.06
283.745	86.06
283.976	82.06
284.207	82.06
284.439	77.06
284.67	82.06
284.901	85.06
285.132	77.06
285.364	78.06
285.595	74.06
285.826	78.06
286.057	95.06
286.288	80.06
286.52	80.06
286.751	80.06
286.982	88.06
287.213	91.06
287.444	94.06
287.675	89.06
287.906	86.06
288.138	77.06
288.369	94.06
288.6	93.06
288.831	92.06
289.062	92.06
289.293	81.06
289.524	67.06
289.755	85.06
289.986	79.06
290.217	101.06
290.448	88.06
290.679	84.06
290.91	80.06
291.141	77.06
291.371	95.06
291.602	92.06
291.833	92.06
292.064	93.06
292.295	74.06
292.526	92.06
292.757	80.06
292.987	71.06
293.218	95.06
293.449	75.06
293.68	83.06
293.91	97.06
294.141	73.06
294.372	95.06
294.603	75.06
294.833	82.06
295.064	98.06
295.295	83.06
295.525	99.06
295.756	97.06
295.987	119.06
296.217	148.06
296.448	106.06
296.679	85.06
296.909	91.06
297.14	89.06
297.37	89.06
297.601	95.06
297.831	74.06
298.062	83.06
298.292	79.06
298.523	82.06
298.753	85.06
298.984	98.06
299.214	67.06
299.445	77.06
299.675	82.06
299.905	96.06
300.136	86.06
300.366	93.06
300.597	87.06
300.827	94.06
301.057	91.06
301.288	86.06
301.518	88.06
301.748	78.06
301.979	90.06
302.209	83.06
302.439	86.06
302.669	81.06
302.9	81.06
303.13	86.06
303.36	94.06
303.59	80.06
303.82	110.06
304.051	106.06
304.281	91.06
304.511	87.06
304.741	70.06
304.971	85.06
305.201	103.06
305.431	74.06
305.661	69.06
305.891	85.06
306.121	89.06
306.352	99.06
306.582	99.06
306.812	81.06
307.042	86.06
307.272	94.06
307.502	101.06
307.731	87.06
307.961	89.06
308.191	100.06
308.421	87.06
308.651	73.06
308.881	85.06
309.111	90.06
309.341	95.06
309.571	93.06
309.8	94.06
310.03	92.06
310.26	86.06
310.49	87.06
310.72	88.06
310.949	88.06
311.179	84.06
311.409	83.06
311.639	98.06
311.868	83.06
312.098	81.06
312.328	99.06
312.557	89.06
312.787	95.06
313.017	105.06
313.246	94.06
313.476	83.06
313.706	93.06
313.935	81.06
314.165	84.06
314.394	98.06
314.624	105.06
314.853	90.06
315.083	102.06
315.312	87.06
315.542	80.06
315.771	95.06
316.001	83.06
316.23	101.06
316.46	89.06
316.689	91.06
316.919	74.06
317.148	91.06
317.377	93.06
317.607	83.06
317.836	82.06
318.065	94.06
318.295	87.06
318.524	85.06
318.753	93.06
318.983	75.06
319.212	91.06
319.441	98.06
319.67	118.06
319.9	97.06
320.129	81.06
320.358	94.06
320.587	91.06
320.816	103.06
321.046	105.06
321.275	101.06
321.504	86.06
321.733	89.06
321.962	93.06
322.191	91.06
322.42	111.06
322.649	101.06
322.878	99.06
323.108	105.06
323.337	133.06
323.566	142.06
323.795	155.06
324.024	206.06
324.253	441.06
324.482	920.06
324.71	1872.06
324.939	2467.06
325.168	885.06
325.397	235.06
325.626	152.06
325.855	141.06
326.084	120.06
326.313	134.06
326.542	153.06
326.77	238.06
326.999	507.06
327.228	1064.06
327.457	1936.06
327.686	1527.06
327.914	408.06
328.143	194.06
328.372	137.06
328.6	119.06
328.829	113.06
329.058	121.06
329.287	112.06
329.515	111.06
329.744	106.06
329.972	90.06
330.201	83.06
330.43	102.06
330.658	122.06
330.887	133.06
331.115	123.06
331.344	103.06
331.572	102.06
331.801	104.06
332.03	99.06
332.258	103.06
332.486	90.06
332.715	102.06
332.943	81.06
333.172	76.06
333.4	81.06
333.629	90.06
333.857	110.06
334.085	111.06
334.314	99.06
334.542	86.06
334.771	98.06
334.999	90.06
335.227	101.06
335.455	87.06
335.684	89.06
335.912	95.06
336.14	103.06
336.369	105.06
336.597	103.06
336.825	89.06
337.053	94.06
337.281	95.06
337.51	85.06
337.738	96.06
337.966	92.06
338.194	100.06
338.422	91.06
338.65	90.06
338.878	80.06
339.106	107.06
339.334	93.06
339.562	97.06
339.79	95.06
340.018	91.06
340.246	98.06
340.474	90.06
340.702	93.06
340.93	74.06
341.158	85.06
341.386	87.06
341.614	102.06
341.842	80.06
342.07	96.06
342.298	104.06
342.526	88.06
342.754	88.06
342.981	86.06
343.209	81.06
343.437	99.06
343.665	101.06
343.893	89.06
344.12	85.06
344.348	87.06
344.576	97.06
344.804	83.06
345.031	90.06
345.259	83.06
345.487	91.06
345.714	91.06
345.942	81.06
346.17	90.06
346.397	91.06
346.625	82.06
346.853	97.06
347.08	94.06
347.308	95.06
347.535	77.06
347.763	85.06
347.99	83.06
348.218	95.06
348.445	109.06
348.673	106.06
348.9	97.06
349.128	99.06
349.355	97.06
349.583	98.06
349.81	88.06
350.037	76.06
350.265	93.06
350.492	90.06
350.72	110.06
350.947	91.06
351.174	117.06
351.402	103.06
351.629	94.06
351.856	106.06
352.083	96.06
352.311	103.06
352.538	101.06
352.765	96.06
352.992	111.06
353.22	130.06
353.447	108.06
353.674	104.06
353.901	96.06
354.128	82.06
354.355	103.06
354.583	105.06
354.81	97.06
355.037	86.06
355.264	99.06
355.491	92.06
355.718	106.06
355.945	82.06
356.172	90.06
356.399	90.06
356.626	91.06
356.853	99.06
357.08	86.06
357.307	94.06
357.534	103.06
357.761	85.06
357.988	90.06
358.215	91.06
358.441	82.06
358.668	91.06
358.895	81.06
359.122	85.06
359.349	89.06
359.576	86.06
359.802	86.06
360.029	101.06
360.256	119.06
360.483	95.06
360.709	101.06
360.936	102.06
361.163	99.06
361.39	112.06
361.616	90.06
361.843	91.06
362.07	100.06
362.296	105.06
362.523	94.06
362.749	85.06
362.976	89.06
363.203	86.06
363.429	93.06
363.656	77.06
363.882	80.06
364.109	84.06
364.335	79.06
364.562	76.06
364.788	89.06
365.015	79.06
365.241	82.06
365.468	103.06
365.694	104.06
365.92	100.06
366.147	89.06
366.373	88.06
366.599	84.06
366.826	82.06
367.052	83.06
367.278	97.06
367.505	89.06
367.731	82.06
367.957	91.06
368.184	101.06
368.41	100.06
368.636	104.06
368.862	105.06
369.089	92.06
369.315	78.06
369.541	92.06
369.767	91.06
369.993	87.06
370.219	83.06
370.445	87.06
370.672	67.06
370.898	85.06
371.124	94.06
371.35	82.06
371.576	87.06
371.802	78.06
372.028	73.06
372.254	74.06
372.48	72.06
372.706	90.06
372.932	90.06
373.158	95.06
373.384	94.06
373.61	77.06
373.835	94.06
374.061	94.06
374.287	94.06
374.513	94.06
374.739	91.06
374.965	85.06
375.191	95.06
375.416	88.06
375.642	71.06
375.868	96.06
376.094	88.06
376.319	89.06
376.545	92.06
376.771	82.06
376.997	95.06
377.222	76.06
377.448	81.06
377.674	89.06
377.899	94.06
378.125	97.06
378.35	88.06
378.576	93.06
378.802	80.06
379.027	90.06
379.253	93.06
379.478	85.06
379.704	94.06
379.929	99.06
380.155	91.06
380.38	94.06
380.606	90.06
380.831	87.06
381.057	99.06
381.282	97.06
381.507	86.06
381.733	70.06
381.958	81.06
382.184	85.06
382.409	95.06
382.634	94.06
382.86	89.06
383.085	99.06
383.31	83.06
383.535	80.06
383.761	101.06
383.986	93.06
384.211	95.06
384.436	92.06
384.662	80.06
384.887	94.06
385.112	93.06
385.337	105.06
385.562	97.06
385.787	92.06
386.013	107.06
386.238	105.06
386.463	98.06
386.688	90.06
386.913	99.06
387.138	88.06
387.363	73.06
387.588	90.06
387.813	102.06
388.038	94.06
388.263	113.06
388.488	95.06
388.713	107.06
388.938	94.06
389.163	86.06
389.387	99.06
389.612	87.06
389.837	91.06
390.062	81.06
390.287	100.06
390.512	99.06
390.736	87.06
390.961	94.06
391.186	97.06
391.411	90.06
391.636	85.06
391.86	83.06
392.085	83.06
392.31	91.06
392.534	73.06
392.759	77.06
392.984	80.06
393.208	91.06
393.433	98.06
393.658	87.06
393.882	89.06
394.107	79.06
394.331	96.06
394.556	90.06
394.78	98.06
395.005	98.06
395.229	82.06
395.454	81.06
395.678	81.06
395.903	93.06
396.127	88.06
396.352	81.06
396.576	83.06
396.801	83.06
397.025	86.06
397.249	87.06
397.474	80.06
397.698	81.06
397.922	88.06
398.147	88.06
398.371	83.06
398.595	81.06
398.82	92.06
399.044	81.06
399.268	88.06
399.492	83.06
399.717	86.06
399.941	104.06
400.165	76.06
400.389	90.06
400.613	80.06
400.837	83.06
401.062	71.06
401.286	78.06
401.51	87.06
401.734	83.06
401.958	94.06
402.182	125.06
402.406	175.06
402.63	111.06
402.854	93.06
403.078	73.06
403.302	82.06
403.526	87.06
403.75	87.06
403.974	73.06
404.198	101.06
404.422	79.06
404.645	78.06
404.869	81.06
405.093	90.06
405.317	91.06
405.541	90.06
405.765	80.06
405.988	125.06
406.212	180.06
406.436	218.06
406.66	140.06
406.883	90.06
407.107	96.06
407.331	87.06
407.555	88.06
407.778	97.06
408.002	95.06
408.226	84.06
408.449	81.06
408.673	75.06
408.896	97.06
409.12	97.06
409.344	95.06
409.567	99.06
409.791	83.06
410.014	102.06
410.238	102.06
410.461	81.06
410.685	76.06
410.908	86.06
411.132	88.06
411.355	92.06
411.578	87.06
411.802	72.06
412.025	83.06
412.249	89.06
412.472	77.06
412.695	82.06
412.919	97.06
413.142	93.06
413.365	82.06
413.589	94.06
413.812	100.06
414.035	91.06
414.258	92.06
414.482	93.06
414.705	79.06
414.928	88.06
415.151	89.06
415.374	94.06
415.597	91.06
415.821	92.06
416.044	86.06
416.267	82.06
416.49	71.06
416.713	82.06
416.936	79.06
417.159	78.06
417.382	96.06
417.605	84.06
417.828	92.06
418.051	85.06
418.274	87.06
418.497	86.06
418.72	79.06
418.943	79.06
419.166	75.06
419.389	92.06
419.611	80.06
419.834	95.06
420.057	83.06
420.28	71.06
420.503	82.06
420.726	87.06
420.948	75.06
421.171	90.06
421.394	87.06
421.617	82.06
421.839	86.06
422.062	90.06
422.285	87.06
422.507	81.06
422.73	98.06
422.953	80.06
423.175	92.06
423.398	105.06
423.621	78.06
423.843	81.06
424.066	95.06
424.288	96.06
424.511	83.06
424.733	77.06
424.956	95.06
425.178	90.06
425.401	99.06
425.623	91.06
425.846	82.06
426.068	87.06
426.291	89.06
426.513	64.06
426.735	85.06
426.958	88.06
427.18	110.06
427.402	127.06
427.625	167.06
427.847	117.06
428.069	80.06
428.292	89.06
428.514	72.06
428.736	80.06
428.958	83.06
429.181	98.06
429.403	93.06
429.625	69.06
429.847	87.06
430.069	98.06
430.292	99.06
430.514	76.06
430.736	85.06
430.958	75.06
431.18	76.06
431.402	85.06
431.624	76.06
431.846	81.06
432.068	85.06
432.29	88.06
432.512	92.06
432.734	85.06
432.956	92.06
433.178	85.06
433.4	101.06
433.622	93.06
433.844	71.06
434.066	94.06
434.287	91.06
434.509	78.06
434.731	95.06
434.953	76.06
435.175	82.06
435.397	103.06
435.618	102.06
435.84	104.06
436.062	114.06
436.284	94.06
436.505	97.06
436.727	98.06
436.949	86.06
437.17	76.06
437.392	74.06
437.614	78.06
437.835	83.06
438.057	109.06
438.278	103.06
438.5	105.06
438.721	102.06
438.943	88.06
439.165	94.06
439.386	78.06
439.608	81.06
439.829	98.06
440.05	112.06
440.272	133.06
440.493	87.06
440.715	73.06
440.936	84.06
441.158	83.06
441.379	91.06
441.6	101.06
441.822	92.06
442.043	88.06
442.264	104.06
442.486	90.06
442.707	93.06
442.928	100.06
443.149	135.06
443.371	127.06
443.592	99.06
443.813	103.06
444.034	108.06
444.255	69.06
444.476	79.06
444.698	85.06
444.919	77.06
445.14	122.06
445.361	108.06
445.582	99.06
445.803	149.06
446.024	122.06
446.245	135.06
446.466	114.06
446.687	77.06
446.908	82.06
447.129	93.06
447.35	81.06
447.571	77.06
447.792	87.06
448.013	82.06
448.234	99.06
448.455	89.06
448.675	107.06
448.896	105.06
449.117	111.06
449.338	96.06
449.559	117.06
449.779	126.06
450	91.06
450.221	92.06
450.442	77.06
450.662	82.06
450.883	102.06
451.104	109.06
451.324	98.06
451.545	81.06
451.766	59.06
451.986	79.06
452.207	84.06
452.428	85.06
452.648	90.06
452.869	100.06
453.089	98.06
453.31	119.06
453.53	97.06
453.751	69.06
453.971	89.06
454.192	110.06
454.412	87.06
454.633	83.06
454.853	73.06
455.073	81.06
455.294	80.06
455.514	80.06
455.734	78.06
455.955	70.06
456.175	87.06
456.395	78.06
456.616	95.06
456.836	91.06
457.056	94.06
457.276	90.06
457.497	80.06
457.717	83.06
457.937	75.06
458.157	84.06
458.377	93.06
458.598	96.06
458.818	134.06
459.038	163.06
459.258	109.06
459.478	79.06
459.698	78.06
459.918	75.06
460.138	80.06
460.358	65.06
460.578	80.06
460.798	85.06
461.018	85.06
461.238	93.06
461.458	87.06
461.678	88.06
461.898	81.06
462.118	81.06
462.338	98.06
462.558	90.06
462.777	88.06
462.997	90.06
463.217	89.06
463.437	74.06
463.657	80.06
463.876	88.06
464.096	88.06
464.316	103.06
464.536	97.06
464.755	93.06
464.975	106.06
465.195	176.06
465.414	156.06
465.634	97.06
465.854	102.06
466.073	94.06
466.293	88.06
466.512	82.06
466.732	84.06
466.951	78.06
467.171	83.06
467.391	91.06
467.61	96.06
467.829	104.06
468.049	79.06
468.268	75.06
468.488	68.06
468.707	77.06
468.927	81.06
469.146	94.06
469.365	76.06
469.585	92.06
469.804	82.06
470.023	88.06
470.243	73.06
470.462	91.06
470.681	106.06
470.901	82.06
471.12	66.06
471.339	85.06
471.558	82.06
471.777	75.06
471.997	85.06
472.216	80.06
472.435	86.06
472.654	72.06
472.873	76.06
473.092	87.06
473.311	95.06
473.53	92.06
473.749	88.06
473.968	83.06
474.187	115.06
474.406	91.06
474.625	98.06
474.844	92.06
475.063	71.06
475.282	82.06
475.501	84.06
475.72	77.06
475.939	70.06
476.158	90.06
476.377	89.06
476.596	98.06
476.814	83.06
477.033	85.06
477.252	74.06
477.471	78.06
477.69	73.06
477.908	88.06
478.127	93.06
478.346	94.06
478.564	84.06
478.783	79.06
479.002	80.06
479.22	79.06
479.439	88.06
479.658	95.06
479.876	92.06
480.095	84.06
480.313	88.06
480.532	88.06
480.751	77.06
480.969	91.06
481.188	89.06
481.406	86.06
481.624	78.06
481.843	83.06
482.061	76.06
482.28	92.06
482.498	83.06
482.717	89.06
482.935	81.06
483.153	86.06
483.372	83.06
483.59	88.06
483.808	79.06
484.027	80.06
484.245	94.06
484.463	103.06
484.681	93.06
484.9	87.06
485.118	69.06
485.336	80.06
485.554	94.06
485.772	99.06
485.99	108.06
486.209	101.06
486.427	96.06
486.645	110.06
486.863	103.06
487.081	101.06
487.299	92.06
487.517	92.06
487.735	83.06
487.953	90.06
488.171	97.06
488.389	87.06
488.607	89.06
488.825	89.06
489.043	88.06
489.261	92.06
489.479	93.06
489.696	101.06
489.914	86.06
490.132	90.06
490.35	92.06
490.568	89.06
490.786	91.06
491.003	91.06
491.221	79.06
491.439	82.06
491.657	95.06
491.874	82.06
492.092	87.06
492.31	83.06
492.527	91.06
492.745	85.06
492.963	90.06
493.18	70.06
493.398	86.06
493.615	94.06
493.833	85.06
494.05	79.06
494.268	68.06
494.485	87.06
494.703	82.06
494.92	80.06
495.138	81.06
495.355	86.06
495.573	83.06
495.79	85.06
496.008	96.06
496.225	97.06
496.442	84.06
496.66	100.06
496.877	89.06
497.094	78.06
497.312	76.06
497.529	81.06
497.746	96.06
497.963	82.06
498.181	90.06
498.398	82.06
498.615	108.06
498.832	100.06
499.049	94.06
499.267	96.06
499.484	73.06
499.701	86.06
499.918	96.06
500.135	94.06
500.352	84.06
500.569	85.06
500.786	81.06
501.003	89.06
501.22	89.06
501.437	73.06
501.654	93.06
501.871	88.06
502.088	81.06
502.305	103.06
502.522	74.06
502.739	98.06
502.956	98.06
503.172	95.06
503.389	85.06
503.606	117.06
503.823	96.06
504.04	83.06
504.256	102.06
504.473	70.06
504.69	90.06
504.907	97.06
505.123	95.06
505.34	93.06
505.557	79.06
505.773	82.06
505.99	88.06
506.207	85.06
506.423	88.06
506.64	94.06
506.856	76.06
507.073	101.06
507.289	79.06
507.506	103.06
507.722	103.06
507.939	105.06
508.155	95.06
508.372	92.06
508.588	89.06
508.805	99.06
509.021	88.06
509.238	90.06
509.454	93.06
509.67	99.06
509.887	119.06
510.103	123.06
510.319	207.06
510.536	794.06
510.752	2530.06
510.968	739.06
511.184	152.06
511.401	113.06
511.617	105.06
511.833	95.06
512.049	83.06
512.265	89.06
512.481	83.06
512.698	94.06
512.914	95.06
513.13	79.06
513.346	89.06
513.562	83.06
513.778	97.06
513.994	112.06
514.21	102.06
514.426	112.06
514.642	140.06
514.858	128.06
515.074	147.06
515.29	484.06
515.506	1551.06
515.721	583.06
515.937	139.06
516.153	114.06
516.369	101.06
516.585	98.06
516.801	95.06
517.016	100.06
