Data from Uncirc_2007_H10_HRD10591_00001.txt Node
Date: Wed Jan 03 10:20:42 EST 2024
User: Yrep
Spectrometer: HR+D1059
Trigger mode: 1
Integration Time (sec): 1.000000E-1
Scans to average: 1
Electric dark correction enabled: true
Nonlinearity correction enabled: false
Boxcar width: 0
XAxis mode: Wavelengths
Number of Pixels in Spectrum: 2048
>>>>>Begin Spectral Data<<<<<
223.165	-4.56
223.4	-4.56
223.635	-4.56
223.869	-17.56
224.104	-14.56
224.338	-37.56
224.573	-17.56
224.808	-23.56
225.042	-13.56
225.277	5.44
225.511	0.44
225.746	6.44
225.98	11.44
226.215	15.44
226.449	14.44
226.683	26.44
226.918	27.44
227.152	21.44
227.387	30.44
227.621	43.44
227.856	48.44
228.09	53.44
228.324	52.44
228.559	47.44
228.793	49.44
229.027	76.44
229.262	43.44
229.496	69.44
229.73	91.44
229.964	79.44
230.199	71.44
230.433	83.44
230.667	83.44
230.901	93.44
231.136	86.44
231.37	71.44
231.604	79.44
231.838	64.44
232.072	88.44
232.306	66.44
232.541	92.44
232.775	96.44
233.009	81.44
233.243	72.44
233.477	76.44
233.711	94.44
233.945	82.44
234.179	87.44
234.413	80.44
234.647	88.44
234.881	87.44
235.115	85.44
235.349	74.44
235.583	57.44
235.817	80.44
236.051	78.44
236.285	97.44
236.519	90.44
236.753	82.44
236.987	85.44
237.221	69.44
237.455	76.44
237.689	75.44
237.922	83.44
238.156	89.44
238.39	84.44
238.624	74.44
238.858	68.44
239.091	75.44
239.325	70.44
239.559	77.44
239.793	69.44
240.027	88.44
240.26	84.44
240.494	89.44
240.728	85.44
240.961	92.44
241.195	85.44
241.429	82.44
241.662	80.44
241.896	72.44
242.13	82.44
242.363	80.44
242.597	72.44
242.83	91.44
243.064	85.44
243.298	73.44
243.531	84.44
243.765	85.44
243.998	83.44
244.232	88.44
244.465	89.44
244.699	84.44
244.932	78.44
245.166	69.44
245.399	81.44
245.633	67.44
245.866	92.44
246.099	72.44
246.333	83.44
246.566	90.44
246.8	91.44
247.033	68.44
247.266	78.44
247.5	79.44
247.733	64.44
247.966	86.44
248.2	92.44
248.433	79.44
248.666	80.44
248.899	90.44
249.133	83.44
249.366	106.44
249.599	106.44
249.832	69.44
250.066	75.44
250.299	91.44
250.532	78.44
250.765	81.44
250.998	85.44
251.231	77.44
251.465	92.44
251.698	78.44
251.931	66.44
252.164	78.44
252.397	73.44
252.63	84.44
252.863	75.44
253.096	79.44
253.329	90.44
253.562	94.44
253.795	76.44
254.028	81.44
254.261	78.44
254.494	74.44
254.727	90.44
254.96	96.44
255.193	85.44
255.426	76.44
255.659	65.44
255.892	81.44
256.124	76.44
256.357	81.44
256.59	86.44
256.823	80.44
257.056	75.44
257.289	78.44
257.521	85.44
257.754	90.44
257.987	82.44
258.22	95.44
258.452	67.44
258.685	90.44
258.918	86.44
259.151	77.44
259.383	83.44
259.616	75.44
259.849	84.44
260.081	94.44
260.314	86.44
260.547	95.44
260.779	81.44
261.012	81.44
261.244	69.44
261.477	87.44
261.71	81.44
261.942	122.44
262.175	113.44
262.407	93.44
262.64	84.44
262.872	89.44
263.105	106.44
263.337	87.44
263.57	84.44
263.802	81.44
264.035	82.44
264.267	70.44
264.499	77.44
264.732	94.44
264.964	93.44
265.197	100.44
265.429	81.44
265.661	63.44
265.894	70.44
266.126	83.44
266.358	88.44
266.591	78.44
266.823	86.44
267.055	81.44
267.287	84.44
267.52	81.44
267.752	82.44
267.984	85.44
268.216	85.44
268.448	78.44
268.681	89.44
268.913	81.44
269.145	84.44
269.377	96.44
269.609	97.44
269.841	90.44
270.073	77.44
270.306	85.44
270.538	92.44
270.77	78.44
271.002	96.44
271.234	84.44
271.466	83.44
271.698	74.44
271.93	88.44
272.162	82.44
272.394	94.44
272.626	94.44
272.858	81.44
273.09	72.44
273.322	90.44
273.553	83.44
273.785	98.44
274.017	85.44
274.249	88.44
274.481	101.44
274.713	89.44
274.945	94.44
275.176	75.44
275.408	85.44
275.64	78.44
275.872	88.44
276.104	80.44
276.335	95.44
276.567	92.44
276.799	117.44
277.031	93.44
277.262	100.44
277.494	81.44
277.726	81.44
277.957	87.44
278.189	94.44
278.421	76.44
278.652	83.44
278.884	90.44
279.115	80.44
279.347	90.44
279.579	94.44
279.81	83.44
280.042	88.44
280.273	97.44
280.505	81.44
280.736	85.44
280.968	79.44
281.199	97.44
281.431	100.44
281.662	95.44
281.894	81.44
282.125	95.44
282.356	118.44
282.588	141.44
282.819	113.44
283.051	87.44
283.282	83.44
283.513	100.44
283.745	91.44
283.976	85.44
284.207	89.44
284.439	76.44
284.67	93.44
284.901	85.44
285.132	87.44
285.364	92.44
285.595	83.44
285.826	102.44
286.057	90.44
286.288	83.44
286.52	77.44
286.751	76.44
286.982	85.44
287.213	102.44
287.444	90.44
287.675	92.44
287.906	88.44
288.138	104.44
288.369	93.44
288.6	86.44
288.831	94.44
289.062	89.44
289.293	82.44
289.524	89.44
289.755	82.44
289.986	100.44
290.217	82.44
290.448	94.44
290.679	94.44
290.91	101.44
291.141	85.44
291.371	96.44
291.602	84.44
291.833	81.44
292.064	89.44
292.295	80.44
292.526	82.44
292.757	89.44
292.987	91.44
293.218	96.44
293.449	107.44
293.68	85.44
293.91	79.44
294.141	81.44
294.372	86.44
294.603	97.44
294.833	89.44
295.064	93.44
295.295	106.44
295.525	83.44
295.756	94.44
295.987	104.44
296.217	154.44
296.448	116.44
296.679	95.44
296.909	97.44
297.14	102.44
297.37	92.44
297.601	84.44
297.831	98.44
298.062	100.44
298.292	84.44
298.523	91.44
298.753	93.44
298.984	90.44
299.214	91.44
299.445	91.44
299.675	71.44
299.905	80.44
300.136	84.44
300.366	78.44
300.597	87.44
300.827	93.44
301.057	94.44
301.288	107.44
301.518	92.44
301.748	78.44
301.979	100.44
302.209	78.44
302.439	80.44
302.669	83.44
302.9	89.44
303.13	87.44
303.36	91.44
303.59	110.44
303.82	94.44
304.051	105.44
304.281	89.44
304.511	90.44
304.741	82.44
304.971	99.44
305.201	94.44
305.431	100.44
305.661	80.44
305.891	92.44
306.121	98.44
306.352	104.44
306.582	101.44
306.812	97.44
307.042	94.44
307.272	95.44
307.502	98.44
307.731	89.44
307.961	95.44
308.191	100.44
308.421	91.44
308.651	93.44
308.881	97.44
309.111	97.44
309.341	100.44
309.571	92.44
309.8	99.44
310.03	97.44
310.26	98.44
310.49	107.44
310.72	99.44
310.949	102.44
311.179	95.44
311.409	93.44
311.639	90.44
311.868	90.44
312.098	98.44
312.328	98.44
312.557	101.44
312.787	89.44
313.017	101.44
313.246	91.44
313.476	95.44
313.706	80.44
313.935	90.44
314.165	84.44
314.394	100.44
314.624	108.44
314.853	100.44
315.083	90.44
315.312	88.44
315.542	104.44
315.771	85.44
316.001	85.44
316.23	95.44
316.46	82.44
316.689	95.44
316.919	100.44
317.148	114.44
317.377	105.44
317.607	92.44
317.836	88.44
318.065	83.44
318.295	100.44
318.524	106.44
318.753	85.44
318.983	83.44
319.212	88.44
319.441	98.44
319.67	108.44
319.9	113.44
320.129	92.44
320.358	102.44
320.587	106.44
320.816	105.44
321.046	102.44
321.275	102.44
321.504	98.44
321.733	97.44
321.962	91.44
322.191	109.44
322.42	104.44
322.649	101.44
322.878	126.44
323.108	123.44
323.337	138.44
323.566	143.44
323.795	169.44
324.024	221.44
324.253	420.44
324.482	898.44
324.71	1916.44
324.939	2466.44
325.168	910.44
325.397	266.44
325.626	156.44
325.855	117.44
326.084	134.44
326.313	130.44
326.542	154.44
326.77	237.44
326.999	488.44
327.228	1037.44
327.457	1906.44
327.686	1493.44
327.914	396.44
328.143	206.44
328.372	150.44
328.6	145.44
328.829	117.44
329.058	150.44
329.287	121.44
329.515	115.44
329.744	104.44
329.972	102.44
330.201	106.44
330.43	104.44
330.658	120.44
330.887	144.44
331.115	128.44
331.344	99.44
331.572	110.44
331.801	100.44
332.03	105.44
332.258	85.44
332.486	94.44
332.715	97.44
332.943	98.44
333.172	99.44
333.4	99.44
333.629	118.44
333.857	120.44
334.085	103.44
334.314	95.44
334.542	112.44
334.771	84.44
334.999	83.44
335.227	84.44
335.455	96.44
335.684	90.44
335.912	110.44
336.14	109.44
336.369	81.44
336.597	94.44
336.825	105.44
337.053	97.44
337.281	100.44
337.51	105.44
337.738	84.44
337.966	109.44
338.194	107.44
338.422	92.44
338.65	99.44
338.878	97.44
339.106	94.44
339.334	101.44
339.562	82.44
339.79	88.44
340.018	89.44
340.246	93.44
340.474	90.44
340.702	93.44
340.93	93.44
341.158	84.44
341.386	87.44
341.614	96.44
341.842	94.44
342.07	85.44
342.298	87.44
342.526	94.44
342.754	78.44
342.981	91.44
343.209	80.44
343.437	109.44
343.665	94.44
343.893	74.44
344.12	94.44
344.348	100.44
344.576	91.44
344.804	92.44
345.031	97.44
345.259	90.44
345.487	86.44
345.714	97.44
345.942	77.44
346.17	82.44
346.397	93.44
346.625	96.44
346.853	89.44
347.08	74.44
347.308	89.44
347.535	101.44
347.763	114.44
347.99	101.44
348.218	110.44
348.445	100.44
348.673	104.44
348.9	106.44
349.128	94.44
349.355	93.44
349.583	90.44
349.81	109.44
350.037	88.44
350.265	91.44
350.492	84.44
350.72	96.44
350.947	115.44
351.174	121.44
351.402	100.44
351.629	113.44
351.856	100.44
352.083	108.44
352.311	104.44
352.538	104.44
352.765	107.44
352.992	108.44
353.22	111.44
353.447	98.44
353.674	97.44
353.901	113.44
354.128	105.44
354.355	112.44
354.583	107.44
354.81	111.44
355.037	82.44
355.264	96.44
355.491	100.44
355.718	97.44
355.945	89.44
356.172	96.44
356.399	99.44
356.626	108.44
356.853	93.44
357.08	94.44
357.307	97.44
357.534	102.44
357.761	101.44
357.988	80.44
358.215	101.44
358.441	90.44
358.668	102.44
358.895	77.44
359.122	86.44
359.349	84.44
359.576	88.44
359.802	106.44
360.029	108.44
360.256	104.44
360.483	99.44
360.709	74.44
360.936	85.44
361.163	90.44
361.39	83.44
361.616	103.44
361.843	87.44
362.07	101.44
362.296	81.44
362.523	101.44
362.749	74.44
362.976	84.44
363.203	89.44
363.429	94.44
363.656	96.44
363.882	93.44
364.109	93.44
364.335	92.44
364.562	92.44
364.788	83.44
365.015	92.44
365.241	86.44
365.468	110.44
365.694	103.44
365.92	82.44
366.147	92.44
366.373	82.44
366.599	90.44
366.826	84.44
367.052	84.44
367.278	88.44
367.505	79.44
367.731	97.44
367.957	93.44
368.184	103.44
368.41	112.44
368.636	107.44
368.862	121.44
369.089	105.44
369.315	97.44
369.541	93.44
369.767	92.44
369.993	84.44
370.219	103.44
370.445	89.44
370.672	84.44
370.898	93.44
371.124	104.44
371.35	85.44
371.576	88.44
371.802	86.44
372.028	90.44
372.254	88.44
372.48	68.44
372.706	81.44
372.932	93.44
373.158	97.44
373.384	89.44
373.61	80.44
373.835	77.44
374.061	93.44
374.287	93.44
374.513	93.44
374.739	96.44
374.965	90.44
375.191	94.44
375.416	91.44
375.642	104.44
375.868	81.44
376.094	95.44
376.319	96.44
376.545	93.44
376.771	86.44
376.997	91.44
377.222	86.44
377.448	89.44
377.674	103.44
377.899	97.44
378.125	85.44
378.35	88.44
378.576	99.44
378.802	89.44
379.027	99.44
379.253	94.44
379.478	84.44
379.704	86.44
379.929	95.44
380.155	86.44
380.38	93.44
380.606	97.44
380.831	78.44
381.057	114.44
381.282	105.44
381.507	100.44
381.733	100.44
381.958	112.44
382.184	108.44
382.409	87.44
382.634	98.44
382.86	110.44
383.085	95.44
383.31	107.44
383.535	110.44
383.761	94.44
383.986	92.44
384.211	93.44
384.436	97.44
384.662	96.44
384.887	99.44
385.112	109.44
385.337	103.44
385.562	123.44
385.787	93.44
386.013	115.44
386.238	109.44
386.463	109.44
386.688	118.44
386.913	103.44
387.138	92.44
387.363	94.44
387.588	103.44
387.813	102.44
388.038	96.44
388.263	102.44
388.488	99.44
388.713	85.44
388.938	86.44
389.163	95.44
389.387	104.44
389.612	97.44
389.837	105.44
390.062	112.44
390.287	101.44
390.512	91.44
390.736	102.44
390.961	92.44
391.186	101.44
391.411	94.44
391.636	105.44
391.86	84.44
392.085	96.44
392.31	93.44
392.534	94.44
392.759	82.44
392.984	89.44
393.208	89.44
393.433	84.44
393.658	89.44
393.882	78.44
394.107	86.44
394.331	100.44
394.556	82.44
394.78	85.44
395.005	95.44
395.229	93.44
395.454	94.44
395.678	83.44
395.903	90.44
396.127	82.44
396.352	77.44
396.576	83.44
396.801	97.44
397.025	79.44
397.249	78.44
397.474	104.44
397.698	81.44
397.922	87.44
398.147	84.44
398.371	93.44
398.595	76.44
398.82	84.44
399.044	96.44
399.268	87.44
399.492	95.44
399.717	104.44
399.941	99.44
400.165	105.44
400.389	87.44
400.613	92.44
400.837	88.44
401.062	80.44
401.286	71.44
401.51	85.44
401.734	93.44
401.958	100.44
402.182	113.44
402.406	156.44
402.63	120.44
402.854	106.44
403.078	91.44
403.302	85.44
403.526	77.44
403.75	97.44
403.974	93.44
404.198	79.44
404.422	90.44
404.645	89.44
404.869	91.44
405.093	81.44
405.317	109.44
405.541	73.44
405.765	89.44
405.988	118.44
406.212	162.44
406.436	239.44
406.66	136.44
406.883	96.44
407.107	100.44
407.331	91.44
407.555	103.44
407.778	86.44
408.002	101.44
408.226	72.44
408.449	75.44
408.673	99.44
408.896	90.44
409.12	105.44
409.344	94.44
409.567	94.44
409.791	79.44
410.014	93.44
410.238	83.44
410.461	77.44
410.685	95.44
410.908	111.44
411.132	91.44
411.355	98.44
411.578	95.44
411.802	93.44
412.025	90.44
412.249	99.44
412.472	89.44
412.695	93.44
412.919	98.44
413.142	85.44
413.365	89.44
413.589	89.44
413.812	95.44
414.035	87.44
414.258	81.44
414.482	95.44
414.705	75.44
414.928	86.44
415.151	93.44
415.374	85.44
415.597	92.44
415.821	88.44
416.044	84.44
416.267	90.44
416.49	105.44
416.713	94.44
416.936	94.44
417.159	93.44
417.382	92.44
417.605	81.44
417.828	94.44
418.051	82.44
418.274	85.44
418.497	80.44
418.72	99.44
418.943	101.44
419.166	89.44
419.389	79.44
419.611	93.44
419.834	90.44
420.057	86.44
420.28	82.44
420.503	81.44
420.726	85.44
420.948	94.44
421.171	90.44
421.394	83.44
421.617	88.44
421.839	89.44
422.062	89.44
422.285	86.44
422.507	97.44
422.73	118.44
422.953	102.44
423.175	93.44
423.398	84.44
423.621	84.44
423.843	84.44
424.066	86.44
424.288	91.44
424.511	79.44
424.733	86.44
424.956	99.44
425.178	107.44
425.401	94.44
425.623	105.44
425.846	82.44
426.068	97.44
426.291	86.44
426.513	84.44
426.735	101.44
426.958	86.44
427.18	109.44
427.402	132.44
427.625	175.44
427.847	132.44
428.069	104.44
428.292	83.44
428.514	102.44
428.736	91.44
428.958	101.44
429.181	89.44
429.403	95.44
429.625	72.44
429.847	96.44
430.069	98.44
430.292	86.44
430.514	102.44
430.736	90.44
430.958	90.44
431.18	95.44
431.402	82.44
431.624	95.44
431.846	88.44
432.068	93.44
432.29	78.44
432.512	82.44
432.734	86.44
432.956	92.44
433.178	96.44
433.4	102.44
433.622	102.44
433.844	81.44
434.066	87.44
434.287	80.44
434.509	85.44
434.731	95.44
434.953	92.44
435.175	83.44
435.397	105.44
435.618	93.44
435.84	109.44
436.062	111.44
436.284	107.44
436.505	83.44
436.727	107.44
436.949	86.44
437.17	79.44
437.392	85.44
437.614	82.44
437.835	101.44
438.057	116.44
438.278	105.44
438.5	105.44
438.721	113.44
438.943	98.44
439.165	89.44
439.386	92.44
439.608	90.44
439.829	91.44
440.05	102.44
440.272	143.44
440.493	104.44
440.715	84.44
440.936	83.44
441.158	85.44
441.379	89.44
441.6	86.44
441.822	107.44
442.043	104.44
442.264	96.44
442.486	103.44
442.707	92.44
442.928	111.44
443.149	133.44
443.371	143.44
443.592	113.44
443.813	121.44
444.034	92.44
444.255	100.44
444.476	89.44
444.698	93.44
444.919	97.44
445.14	129.44
445.361	130.44
445.582	115.44
445.803	140.44
446.024	144.44
446.245	131.44
446.466	120.44
446.687	89.44
446.908	94.44
447.129	76.44
447.35	90.44
447.571	80.44
447.792	113.44
448.013	108.44
448.234	89.44
448.455	97.44
448.675	98.44
448.896	116.44
449.117	105.44
449.338	107.44
449.559	130.44
449.779	124.44
450	93.44
450.221	72.44
450.442	91.44
450.662	102.44
450.883	112.44
451.104	104.44
451.324	99.44
451.545	86.44
451.766	83.44
451.986	101.44
452.207	96.44
452.428	88.44
452.648	81.44
452.869	115.44
453.089	101.44
453.31	124.44
453.53	92.44
453.751	81.44
453.971	113.44
454.192	116.44
454.412	94.44
454.633	89.44
454.853	92.44
455.073	74.44
455.294	77.44
455.514	101.44
455.734	85.44
455.955	84.44
456.175	82.44
456.395	84.44
456.616	81.44
456.836	73.44
457.056	80.44
457.276	85.44
457.497	87.44
457.717	91.44
457.937	75.44
458.157	77.44
458.377	100.44
458.598	117.44
458.818	149.44
459.038	165.44
459.258	109.44
459.478	93.44
459.698	85.44
459.918	83.44
460.138	82.44
460.358	83.44
460.578	86.44
460.798	91.44
461.018	96.44
461.238	82.44
461.458	94.44
461.678	85.44
461.898	92.44
462.118	91.44
462.338	91.44
462.558	84.44
462.777	83.44
462.997	81.44
463.217	76.44
463.437	86.44
463.657	86.44
463.876	92.44
464.096	90.44
464.316	79.44
464.536	94.44
464.755	90.44
464.975	104.44
465.195	165.44
465.414	174.44
465.634	108.44
465.854	96.44
466.073	83.44
466.293	82.44
466.512	82.44
466.732	74.44
466.951	80.44
467.171	86.44
467.391	104.44
467.61	108.44
467.829	85.44
468.049	78.44
468.268	79.44
468.488	93.44
468.707	93.44
468.927	81.44
469.146	80.44
469.365	69.44
469.585	79.44
469.804	107.44
470.023	93.44
470.243	89.44
470.462	101.44
470.681	98.44
470.901	85.44
471.12	90.44
471.339	87.44
471.558	91.44
471.777	80.44
471.997	90.44
472.216	82.44
472.435	90.44
472.654	96.44
472.873	93.44
473.092	84.44
473.311	79.44
473.53	82.44
473.749	98.44
473.968	92.44
474.187	94.44
474.406	90.44
474.625	90.44
474.844	92.44
475.063	80.44
475.282	79.44
475.501	88.44
475.72	78.44
475.939	90.44
476.158	80.44
476.377	92.44
476.596	86.44
476.814	99.44
477.033	89.44
477.252	108.44
477.471	79.44
477.69	86.44
477.908	99.44
478.127	80.44
478.346	92.44
478.564	81.44
478.783	104.44
479.002	100.44
479.22	94.44
479.439	108.44
479.658	106.44
479.876	95.44
480.095	101.44
480.313	87.44
480.532	76.44
480.751	97.44
480.969	82.44
481.188	91.44
481.406	81.44
481.624	95.44
481.843	92.44
482.061	87.44
482.28	103.44
482.498	92.44
482.717	97.44
482.935	92.44
483.153	92.44
483.372	86.44
483.59	94.44
483.808	99.44
484.027	89.44
484.245	84.44
484.463	88.44
484.681	94.44
484.9	88.44
485.118	89.44
485.336	85.44
485.554	85.44
485.772	94.44
485.99	89.44
486.209	102.44
486.427	101.44
486.645	116.44
486.863	108.44
487.081	97.44
487.299	96.44
487.517	108.44
487.735	94.44
487.953	88.44
488.171	91.44
488.389	95.44
488.607	99.44
488.825	90.44
489.043	94.44
489.261	76.44
489.479	79.44
489.696	74.44
489.914	91.44
490.132	90.44
490.35	76.44
490.568	88.44
490.786	93.44
491.003	93.44
491.221	95.44
491.439	99.44
491.657	89.44
491.874	104.44
492.092	101.44
492.31	99.44
492.527	97.44
492.745	93.44
492.963	96.44
493.18	75.44
493.398	80.44
493.615	98.44
493.833	86.44
494.05	96.44
494.268	89.44
494.485	90.44
494.703	91.44
494.92	88.44
495.138	86.44
495.355	86.44
495.573	91.44
495.79	93.44
496.008	94.44
496.225	85.44
496.442	99.44
496.66	89.44
496.877	93.44
497.094	99.44
497.312	108.44
497.529	93.44
497.746	98.44
497.963	98.44
498.181	86.44
498.398	89.44
498.615	105.44
498.832	86.44
499.049	90.44
499.267	80.44
499.484	89.44
499.701	96.44
499.918	92.44
500.135	92.44
500.352	89.44
500.569	93.44
500.786	91.44
501.003	93.44
501.22	92.44
501.437	107.44
501.654	101.44
501.871	111.44
502.088	92.44
502.305	99.44
502.522	100.44
502.739	105.44
502.956	98.44
503.172	98.44
503.389	85.44
503.606	117.44
503.823	100.44
504.04	95.44
504.256	76.44
504.473	85.44
504.69	91.44
504.907	106.44
505.123	101.44
505.34	86.44
505.557	89.44
505.773	100.44
505.99	99.44
506.207	90.44
506.423	86.44
506.64	77.44
506.856	100.44
507.073	92.44
507.289	113.44
507.506	113.44
507.722	107.44
507.939	115.44
508.155	99.44
508.372	104.44
508.588	89.44
508.805	97.44
509.021	104.44
509.238	99.44
509.454	97.44
509.67	91.44
509.887	113.44
510.103	139.44
510.319	229.44
510.536	828.44
510.752	2663.44
510.968	745.44
511.184	176.44
511.401	126.44
511.617	105.44
511.833	99.44
512.049	98.44
512.265	87.44
512.481	113.44
512.698	104.44
512.914	101.44
513.13	101.44
513.346	102.44
513.562	94.44
513.778	81.44
513.994	88.44
514.21	107.44
514.426	128.44
514.642	133.44
514.858	131.44
515.074	180.44
515.29	493.44
