Data from Uncirc_2007_H10_HRD10591_00099.txt Node
Date: Wed Jan 03 10:21:02 EST 2024
User: Yrep
Spectrometer: HR+D1059
Trigger mode: 1
Integration Time (sec): 1.000000E-1
Scans to average: 1
Electric dark correction enabled: true
Nonlinearity correction enabled: false
Boxcar width: 0
XAxis mode: Wavelengths
Number of Pixels in Spectrum: 2048
>>>>>Begin Spectral Data<<<<<
223.165	-22.94
223.4	-22.94
223.635	-22.94
223.869	-17.94
224.104	-13.94
224.338	-19.94
224.573	-12.94
224.808	-13.94
225.042	-13.94
225.277	13.06
225.511	3.06
225.746	9.06
225.98	-0.94
226.215	2.06
226.449	16.06
226.683	24.06
226.918	27.06
227.152	22.06
227.387	38.06
227.621	37.06
227.856	37.06
228.09	49.06
228.324	56.06
228.559	64.06
228.793	60.06
229.027	66.06
229.262	74.06
229.496	74.06
229.73	86.06
229.964	92.06
230.199	73.06
230.433	74.06
230.667	81.06
230.901	75.06
231.136	80.06
231.37	76.06
231.604	86.06
231.838	85.06
232.072	86.06
232.306	76.06
232.541	100.06
232.775	75.06
233.009	76.06
233.243	88.06
233.477	78.06
233.711	83.06
233.945	71.06
234.179	77.06
234.413	71.06
234.647	82.06
234.881	89.06
235.115	99.06
235.349	81.06
235.583	86.06
235.817	87.06
236.051	66.06
236.285	82.06
236.519	88.06
236.753	81.06
236.987	73.06
237.221	92.06
237.455	95.06
237.689	79.06
237.922	81.06
238.156	83.06
238.39	81.06
238.624	80.06
238.858	76.06
239.091	69.06
239.325	81.06
239.559	89.06
239.793	82.06
240.027	77.06
240.26	78.06
240.494	75.06
240.728	77.06
240.961	82.06
241.195	73.06
241.429	82.06
241.662	77.06
241.896	81.06
242.13	74.06
242.363	76.06
242.597	62.06
242.83	99.06
243.064	75.06
243.298	77.06
243.531	75.06
243.765	79.06
243.998	75.06
244.232	91.06
244.465	87.06
244.699	68.06
244.932	73.06
245.166	80.06
245.399	74.06
245.633	86.06
245.866	87.06
246.099	68.06
246.333	88.06
246.566	79.06
246.8	81.06
247.033	85.06
247.266	73.06
247.5	74.06
247.733	86.06
247.966	82.06
248.2	70.06
248.433	76.06
248.666	83.06
248.899	81.06
249.133	84.06
249.366	90.06
249.599	96.06
249.832	65.06
250.066	79.06
250.299	60.06
250.532	75.06
250.765	64.06
250.998	93.06
251.231	66.06
251.465	88.06
251.698	75.06
251.931	78.06
252.164	91.06
252.397	90.06
252.63	83.06
252.863	82.06
253.096	77.06
253.329	79.06
253.562	83.06
253.795	70.06
254.028	81.06
254.261	87.06
254.494	89.06
254.727	85.06
254.96	87.06
255.193	87.06
255.426	80.06
255.659	86.06
255.892	98.06
256.124	88.06
256.357	83.06
256.59	93.06
256.823	84.06
257.056	85.06
257.289	85.06
257.521	66.06
257.754	68.06
257.987	89.06
258.22	87.06
258.452	86.06
258.685	86.06
258.918	83.06
259.151	78.06
259.383	84.06
259.616	79.06
259.849	86.06
260.081	97.06
260.314	67.06
260.547	83.06
260.779	91.06
261.012	93.06
261.244	84.06
261.477	93.06
261.71	95.06
261.942	97.06
262.175	109.06
262.407	87.06
262.64	72.06
262.872	82.06
263.105	86.06
263.337	93.06
263.57	69.06
263.802	80.06
264.035	89.06
264.267	89.06
264.499	87.06
264.732	91.06
264.964	93.06
265.197	87.06
265.429	78.06
265.661	74.06
265.894	79.06
266.126	79.06
266.358	94.06
266.591	80.06
266.823	87.06
267.055	91.06
267.287	89.06
267.52	79.06
267.752	88.06
267.984	79.06
268.216	91.06
268.448	89.06
268.681	85.06
268.913	83.06
269.145	84.06
269.377	96.06
269.609	93.06
269.841	86.06
270.073	82.06
270.306	77.06
270.538	82.06
270.77	70.06
271.002	93.06
271.234	93.06
271.466	80.06
271.698	79.06
271.93	86.06
272.162	87.06
272.394	82.06
272.626	91.06
272.858	85.06
273.09	78.06
273.322	80.06
273.553	95.06
273.785	92.06
274.017	87.06
274.249	86.06
274.481	91.06
274.713	87.06
274.945	99.06
275.176	89.06
275.408	86.06
275.64	87.06
275.872	87.06
276.104	87.06
276.335	71.06
276.567	98.06
276.799	106.06
277.031	104.06
277.262	102.06
277.494	87.06
277.726	104.06
277.957	78.06
278.189	94.06
278.421	88.06
278.652	87.06
278.884	85.06
279.115	84.06
279.347	80.06
279.579	95.06
279.81	93.06
280.042	99.06
280.273	81.06
280.505	75.06
280.736	97.06
280.968	89.06
281.199	99.06
281.431	88.06
281.662	87.06
281.894	106.06
282.125	101.06
282.356	114.06
282.588	148.06
282.819	115.06
283.051	89.06
283.282	93.06
283.513	87.06
283.745	81.06
283.976	90.06
284.207	84.06
284.439	96.06
284.67	98.06
284.901	81.06
285.132	96.06
285.364	78.06
285.595	80.06
285.826	89.06
286.057	84.06
286.288	81.06
286.52	92.06
286.751	83.06
286.982	90.06
287.213	90.06
287.444	94.06
287.675	90.06
287.906	103.06
288.138	79.06
288.369	101.06
288.6	87.06
288.831	79.06
289.062	98.06
289.293	100.06
289.524	80.06
289.755	85.06
289.986	83.06
290.217	72.06
290.448	105.06
290.679	96.06
290.91	97.06
291.141	87.06
291.371	81.06
291.602	87.06
291.833	88.06
292.064	96.06
292.295	93.06
292.526	102.06
292.757	79.06
292.987	85.06
293.218	90.06
293.449	97.06
293.68	87.06
293.91	80.06
294.141	102.06
294.372	79.06
294.603	81.06
294.833	100.06
295.064	76.06
295.295	78.06
295.525	88.06
295.756	102.06
295.987	98.06
296.217	148.06
296.448	130.06
296.679	98.06
296.909	92.06
297.14	84.06
297.37	75.06
297.601	80.06
297.831	83.06
298.062	81.06
298.292	87.06
298.523	90.06
298.753	96.06
298.984	110.06
299.214	87.06
299.445	93.06
299.675	97.06
299.905	103.06
300.136	91.06
300.366	83.06
300.597	82.06
300.827	97.06
301.057	113.06
301.288	98.06
301.518	116.06
301.748	86.06
301.979	101.06
302.209	92.06
302.439	87.06
302.669	88.06
302.9	82.06
303.13	89.06
303.36	93.06
303.59	101.06
303.82	102.06
304.051	102.06
304.281	92.06
304.511	90.06
304.741	78.06
304.971	104.06
305.201	86.06
305.431	82.06
305.661	83.06
305.891	89.06
306.121	99.06
306.352	84.06
306.582	109.06
306.812	96.06
307.042	87.06
307.272	94.06
307.502	91.06
307.731	94.06
307.961	93.06
308.191	87.06
308.421	99.06
308.651	98.06
308.881	99.06
309.111	96.06
309.341	93.06
309.571	101.06
309.8	93.06
310.03	97.06
310.26	104.06
310.49	99.06
310.72	101.06
310.949	110.06
311.179	106.06
311.409	96.06
311.639	101.06
311.868	104.06
312.098	94.06
312.328	99.06
312.557	97.06
312.787	110.06
313.017	105.06
313.246	95.06
313.476	91.06
313.706	92.06
313.935	102.06
314.165	101.06
314.394	101.06
314.624	96.06
314.853	98.06
315.083	95.06
315.312	90.06
315.542	102.06
315.771	100.06
316.001	90.06
316.23	106.06
316.46	99.06
316.689	109.06
316.919	98.06
317.148	94.06
317.377	107.06
317.607	101.06
317.836	95.06
318.065	97.06
318.295	102.06
318.524	110.06
318.753	97.06
318.983	92.06
319.212	100.06
319.441	98.06
319.67	101.06
319.9	90.06
320.129	86.06
320.358	82.06
320.587	109.06
320.816	98.06
321.046	97.06
321.275	89.06
321.504	85.06
321.733	106.06
321.962	96.06
322.191	106.06
322.42	103.06
322.649	121.06
322.878	115.06
323.108	117.06
323.337	127.06
323.566	143.06
323.795	159.06
324.024	213.06
324.253	421.06
324.482	909.06
324.71	1890.06
324.939	2449.06
325.168	877.06
325.397	251.06
325.626	157.06
325.855	145.06
326.084	124.06
326.313	130.06
326.542	163.06
326.77	243.06
326.999	477.06
327.228	1048.06
327.457	1891.06
327.686	1483.06
327.914	396.06
328.143	195.06
328.372	144.06
328.6	134.06
328.829	126.06
329.058	130.06
329.287	127.06
329.515	118.06
329.744	101.06
329.972	105.06
330.201	100.06
330.43	118.06
330.658	125.06
330.887	143.06
331.115	112.06
331.344	98.06
331.572	108.06
331.801	112.06
332.03	86.06
332.258	85.06
332.486	98.06
332.715	93.06
332.943	84.06
333.172	103.06
333.4	96.06
333.629	92.06
333.857	94.06
334.085	93.06
334.314	100.06
334.542	93.06
334.771	108.06
334.999	103.06
335.227	98.06
335.455	102.06
335.684	106.06
335.912	112.06
336.14	90.06
336.369	98.06
336.597	101.06
336.825	108.06
337.053	80.06
337.281	92.06
337.51	87.06
337.738	92.06
337.966	105.06
338.194	105.06
338.422	94.06
338.65	91.06
338.878	92.06
339.106	100.06
339.334	99.06
339.562	94.06
339.79	95.06
340.018	89.06
340.246	89.06
340.474	78.06
340.702	98.06
340.93	85.06
341.158	82.06
341.386	105.06
341.614	99.06
341.842	95.06
342.07	92.06
342.298	105.06
342.526	86.06
342.754	78.06
342.981	92.06
343.209	94.06
343.437	100.06
343.665	75.06
343.893	87.06
344.12	99.06
344.348	93.06
344.576	104.06
344.804	103.06
345.031	101.06
345.259	104.06
345.487	91.06
345.714	106.06
345.942	78.06
346.17	97.06
346.397	86.06
346.625	91.06
346.853	101.06
347.08	98.06
347.308	100.06
347.535	92.06
347.763	100.06
347.99	93.06
348.218	109.06
348.445	98.06
348.673	101.06
348.9	100.06
349.128	102.06
349.355	99.06
349.583	110.06
349.81	95.06
350.037	107.06
350.265	97.06
350.492	79.06
350.72	90.06
350.947	118.06
351.174	112.06
351.402	118.06
351.629	112.06
351.856	102.06
352.083	102.06
352.311	117.06
352.538	125.06
352.765	110.06
352.992	111.06
353.22	104.06
353.447	96.06
353.674	98.06
353.901	99.06
354.128	102.06
354.355	96.06
354.583	98.06
354.81	102.06
355.037	113.06
355.264	106.06
355.491	97.06
355.718	102.06
355.945	101.06
356.172	96.06
356.399	92.06
356.626	95.06
356.853	87.06
357.08	84.06
357.307	102.06
357.534	98.06
357.761	87.06
357.988	90.06
358.215	104.06
358.441	87.06
358.668	108.06
358.895	103.06
359.122	79.06
359.349	90.06
359.576	95.06
359.802	95.06
360.029	135.06
360.256	115.06
360.483	93.06
360.709	102.06
360.936	104.06
361.163	106.06
361.39	90.06
361.616	88.06
361.843	89.06
362.07	107.06
362.296	111.06
362.523	95.06
362.749	97.06
362.976	84.06
363.203	93.06
363.429	96.06
363.656	89.06
363.882	96.06
364.109	87.06
364.335	95.06
364.562	94.06
364.788	77.06
365.015	95.06
365.241	109.06
365.468	107.06
365.694	107.06
365.92	98.06
366.147	103.06
366.373	112.06
366.599	93.06
366.826	89.06
367.052	84.06
367.278	92.06
367.505	98.06
367.731	111.06
367.957	86.06
368.184	102.06
368.41	109.06
368.636	103.06
368.862	112.06
369.089	123.06
369.315	99.06
369.541	100.06
369.767	103.06
369.993	87.06
370.219	86.06
370.445	86.06
370.672	93.06
370.898	82.06
371.124	77.06
371.35	97.06
371.576	97.06
371.802	94.06
372.028	103.06
372.254	109.06
372.48	102.06
372.706	85.06
372.932	88.06
373.158	86.06
373.384	92.06
373.61	85.06
373.835	90.06
374.061	78.06
374.287	85.06
374.513	103.06
374.739	84.06
374.965	91.06
375.191	90.06
375.416	93.06
375.642	88.06
375.868	94.06
376.094	84.06
376.319	85.06
376.545	100.06
376.771	80.06
376.997	94.06
377.222	92.06
377.448	85.06
377.674	85.06
377.899	102.06
378.125	81.06
378.35	91.06
378.576	100.06
378.802	97.06
379.027	87.06
379.253	90.06
379.478	89.06
379.704	84.06
379.929	93.06
380.155	97.06
380.38	107.06
380.606	92.06
380.831	97.06
381.057	100.06
381.282	86.06
381.507	98.06
381.733	105.06
381.958	87.06
382.184	97.06
382.409	107.06
382.634	101.06
382.86	97.06
383.085	92.06
383.31	109.06
383.535	96.06
383.761	104.06
383.986	98.06
384.211	98.06
384.436	107.06
384.662	96.06
384.887	104.06
385.112	102.06
385.337	105.06
385.562	100.06
385.787	112.06
386.013	111.06
386.238	121.06
386.463	110.06
386.688	112.06
386.913	97.06
387.138	109.06
387.363	105.06
387.588	105.06
387.813	113.06
388.038	102.06
388.263	108.06
388.488	101.06
388.713	101.06
388.938	91.06
389.163	105.06
389.387	100.06
389.612	89.06
389.837	106.06
390.062	90.06
390.287	96.06
390.512	103.06
390.736	93.06
390.961	96.06
391.186	82.06
391.411	88.06
391.636	109.06
391.86	95.06
392.085	84.06
392.31	75.06
392.534	90.06
392.759	79.06
392.984	78.06
393.208	77.06
393.433	95.06
393.658	88.06
393.882	98.06
394.107	88.06
394.331	93.06
394.556	103.06
394.78	92.06
395.005	94.06
395.229	85.06
395.454	108.06
395.678	86.06
395.903	80.06
396.127	88.06
396.352	68.06
396.576	98.06
396.801	84.06
397.025	95.06
397.249	93.06
397.474	87.06
397.698	95.06
397.922	94.06
398.147	95.06
398.371	77.06
398.595	91.06
398.82	90.06
399.044	83.06
399.268	84.06
399.492	94.06
399.717	96.06
399.941	87.06
400.165	94.06
400.389	81.06
400.613	84.06
400.837	83.06
401.062	91.06
401.286	98.06
401.51	85.06
401.734	87.06
401.958	108.06
402.182	131.06
402.406	172.06
402.63	112.06
402.854	74.06
403.078	77.06
403.302	72.06
403.526	78.06
403.75	86.06
403.974	105.06
404.198	94.06
404.422	75.06
404.645	74.06
404.869	78.06
405.093	86.06
405.317	107.06
405.541	95.06
405.765	106.06
405.988	110.06
406.212	179.06
406.436	241.06
406.66	141.06
406.883	112.06
407.107	98.06
407.331	109.06
407.555	114.06
407.778	110.06
408.002	87.06
408.226	102.06
408.449	99.06
408.673	89.06
408.896	86.06
409.12	102.06
409.344	89.06
409.567	87.06
409.791	91.06
410.014	109.06
410.238	85.06
410.461	97.06
410.685	100.06
410.908	121.06
411.132	99.06
411.355	102.06
411.578	99.06
411.802	98.06
412.025	101.06
412.249	89.06
412.472	86.06
412.695	91.06
412.919	83.06
413.142	96.06
413.365	94.06
413.589	77.06
413.812	98.06
414.035	99.06
414.258	90.06
414.482	86.06
414.705	94.06
414.928	98.06
415.151	95.06
415.374	89.06
415.597	74.06
415.821	93.06
416.044	81.06
416.267	100.06
416.49	92.06
416.713	82.06
416.936	85.06
417.159	92.06
417.382	91.06
417.605	82.06
417.828	92.06
418.051	98.06
418.274	95.06
418.497	89.06
418.72	92.06
418.943	101.06
419.166	92.06
419.389	94.06
419.611	82.06
419.834	77.06
420.057	106.06
420.28	84.06
420.503	101.06
420.726	87.06
420.948	100.06
421.171	98.06
421.394	91.06
421.617	92.06
421.839	106.06
422.062	104.06
422.285	90.06
422.507	97.06
422.73	107.06
422.953	83.06
423.175	79.06
423.398	103.06
423.621	93.06
423.843	83.06
424.066	95.06
424.288	97.06
424.511	98.06
424.733	81.06
424.956	108.06
425.178	118.06
425.401	109.06
425.623	89.06
425.846	91.06
426.068	100.06
426.291	98.06
426.513	85.06
426.735	91.06
426.958	98.06
427.18	106.06
427.402	132.06
427.625	169.06
427.847	126.06
428.069	97.06
428.292	92.06
428.514	109.06
428.736	96.06
428.958	100.06
429.181	84.06
429.403	93.06
429.625	84.06
429.847	96.06
430.069	91.06
430.292	97.06
430.514	80.06
430.736	94.06
430.958	92.06
431.18	85.06
431.402	83.06
431.624	90.06
431.846	93.06
432.068	85.06
432.29	86.06
432.512	85.06
432.734	98.06
432.956	96.06
433.178	92.06
433.4	102.06
433.622	109.06
433.844	105.06
434.066	89.06
434.287	92.06
434.509	95.06
434.731	87.06
434.953	98.06
435.175	87.06
435.397	90.06
435.618	100.06
435.84	102.06
436.062	132.06
436.284	120.06
436.505	99.06
436.727	112.06
436.949	106.06
437.17	82.06
437.392	100.06
437.614	85.06
437.835	107.06
438.057	127.06
438.278	131.06
438.5	118.06
438.721	123.06
438.943	111.06
439.165	112.06
439.386	96.06
439.608	93.06
439.829	115.06
440.05	128.06
440.272	150.06
440.493	100.06
440.715	105.06
440.936	101.06
441.158	86.06
441.379	98.06
441.6	93.06
441.822	93.06
442.043	86.06
442.264	101.06
442.486	99.06
442.707	90.06
442.928	104.06
443.149	141.06
443.371	139.06
443.592	114.06
443.813	113.06
444.034	108.06
444.255	90.06
444.476	93.06
444.698	81.06
444.919	102.06
445.14	136.06
445.361	119.06
445.582	115.06
445.803	126.06
446.024	143.06
446.245	153.06
446.466	121.06
446.687	93.06
446.908	84.06
447.129	76.06
447.35	93.06
447.571	84.06
447.792	81.06
448.013	105.06
448.234	110.06
448.455	113.06
448.675	111.06
448.896	106.06
449.117	110.06
449.338	103.06
449.559	124.06
449.779	129.06
450	102.06
450.221	74.06
450.442	90.06
450.662	100.06
450.883	95.06
451.104	115.06
451.324	93.06
451.545	86.06
451.766	81.06
451.986	83.06
452.207	78.06
452.428	86.06
452.648	90.06
452.869	121.06
453.089	118.06
453.31	117.06
453.53	87.06
453.751	90.06
453.971	105.06
454.192	97.06
454.412	95.06
454.633	88.06
454.853	94.06
455.073	95.06
455.294	90.06
455.514	91.06
455.734	87.06
455.955	84.06
456.175	83.06
456.395	82.06
456.616	93.06
456.836	78.06
457.056	95.06
457.276	78.06
457.497	89.06
457.717	59.06
457.937	106.06
458.157	93.06
458.377	94.06
458.598	99.06
458.818	158.06
459.038	161.06
459.258	121.06
459.478	93.06
459.698	81.06
459.918	88.06
460.138	74.06
460.358	97.06
460.578	77.06
460.798	91.06
461.018	85.06
461.238	103.06
461.458	81.06
461.678	78.06
461.898	69.06
462.118	87.06
462.338	85.06
462.558	82.06
462.777	94.06
462.997	89.06
463.217	96.06
463.437	80.06
463.657	94.06
463.876	83.06
464.096	91.06
464.316	81.06
464.536	79.06
464.755	85.06
464.975	109.06
465.195	183.06
465.414	165.06
465.634	93.06
465.854	101.06
466.073	86.06
466.293	98.06
466.512	102.06
466.732	95.06
466.951	83.06
467.171	88.06
467.391	87.06
467.61	100.06
467.829	92.06
468.049	106.06
468.268	93.06
468.488	87.06
468.707	93.06
468.927	92.06
469.146	83.06
469.365	99.06
469.585	89.06
469.804	84.06
470.023	99.06
470.243	93.06
470.462	93.06
470.681	112.06
470.901	90.06
471.12	91.06
471.339	89.06
471.558	87.06
471.777	94.06
471.997	87.06
472.216	99.06
472.435	84.06
472.654	91.06
472.873	86.06
473.092	96.06
473.311	86.06
473.53	90.06
473.749	107.06
473.968	94.06
474.187	117.06
474.406	88.06
474.625	92.06
474.844	87.06
475.063	102.06
475.282	75.06
475.501	86.06
475.72	89.06
475.939	85.06
476.158	82.06
476.377	100.06
476.596	83.06
476.814	87.06
477.033	89.06
477.252	77.06
477.471	99.06
477.69	99.06
477.908	92.06
478.127	94.06
478.346	92.06
478.564	84.06
478.783	95.06
479.002	84.06
479.22	96.06
479.439	104.06
479.658	100.06
479.876	84.06
480.095	95.06
480.313	94.06
480.532	92.06
480.751	79.06
480.969	82.06
481.188	90.06
481.406	92.06
481.624	110.06
481.843	91.06
482.061	75.06
482.28	90.06
482.498	82.06
482.717	102.06
482.935	86.06
483.153	92.06
483.372	88.06
483.59	87.06
483.808	93.06
484.027	91.06
484.245	105.06
484.463	95.06
484.681	95.06
484.9	94.06
485.118	97.06
485.336	107.06
485.554	91.06
485.772	89.06
485.99	76.06
486.209	95.06
486.427	83.06
486.645	105.06
486.863	118.06
487.081	98.06
487.299	102.06
487.517	104.06
487.735	73.06
487.953	87.06
488.171	103.06
488.389	92.06
488.607	99.06
488.825	77.06
489.043	90.06
489.261	107.06
489.479	101.06
489.696	92.06
489.914	75.06
490.132	84.06
490.35	94.06
490.568	94.06
490.786	103.06
491.003	83.06
491.221	90.06
491.439	78.06
491.657	86.06
491.874	90.06
492.092	107.06
492.31	97.06
492.527	87.06
492.745	100.06
492.963	92.06
493.18	97.06
493.398	87.06
493.615	95.06
493.833	90.06
494.05	84.06
494.268	101.06
494.485	96.06
494.703	95.06
494.92	93.06
495.138	103.06
495.355	81.06
495.573	86.06
495.79	95.06
496.008	101.06
496.225	94.06
496.442	95.06
496.66	93.06
496.877	98.06
497.094	97.06
497.312	87.06
497.529	73.06
497.746	80.06
497.963	87.06
498.181	92.06
498.398	97.06
498.615	109.06
498.832	107.06
499.049	102.06
499.267	81.06
499.484	85.06
499.701	83.06
499.918	101.06
500.135	93.06
500.352	92.06
500.569	102.06
500.786	76.06
501.003	86.06
501.22	98.06
501.437	90.06
501.654	84.06
501.871	113.06
502.088	81.06
502.305	106.06
502.522	101.06
502.739	96.06
502.956	85.06
503.172	89.06
503.389	98.06
503.606	96.06
503.823	96.06
504.04	87.06
504.256	84.06
504.473	92.06
504.69	89.06
504.907	93.06
505.123	80.06
505.34	84.06
505.557	92.06
505.773	91.06
505.99	78.06
506.207	86.06
506.423	90.06
506.64	89.06
506.856	102.06
507.073	91.06
507.289	85.06
507.506	104.06
507.722	112.06
507.939	117.06
508.155	93.06
508.372	77.06
508.588	87.06
508.805	97.06
509.021	94.06
509.238	91.06
509.454	101.06
509.67	105.06
509.887	106.06
510.103	135.06
510.319	217.06
510.536	804.06
510.752	2669.06
510.968	757.06
511.184	154.06
511.401	127.06
511.617	92.06
511.833	107.06
512.049	103.06
512.265	91.06
512.481	89.06
512.698	91.06
512.914	96.06
513.13	80.06
513.346	89.06
513.562	85.06
513.778	91.06
513.994	99.06
514.21	103.06
514.426	107.06
514.642	139.06
514.858	131.06
