Data from Uncirc_2007_H10_HRD10591_00068.txt Node
Date: Wed Jan 03 10:20:56 EST 2024
User: Yrep
Spectrometer: HR+D1059
Trigger mode: 1
Integration Time (sec): 1.000000E-1
Scans to average: 1
Electric dark correction enabled: true
Nonlinearity correction enabled: false
Boxcar width: 0
XAxis mode: Wavelengths
Number of Pixels in Spectrum: 2048
>>>>>Begin Spectral Data<<<<<
223.165	-17.44
223.4	-17.44
223.635	-17.44
223.869	-10.44
224.104	-19.44
224.338	-9.44
224.573	-27.44
224.808	-9.44
225.042	-5.44
225.277	3.56
225.511	-5.44
225.746	-9.44
225.98	5.56
226.215	17.56
226.449	18.56
226.683	10.56
226.918	21.56
227.152	36.56
227.387	47.56
227.621	38.56
227.856	37.56
228.09	44.56
228.324	62.56
228.559	61.56
228.793	60.56
229.027	75.56
229.262	72.56
229.496	79.56
229.73	96.56
229.964	105.56
230.199	82.56
230.433	87.56
230.667	104.56
230.901	84.56
231.136	78.56
231.37	86.56
231.604	84.56
231.838	101.56
232.072	95.56
232.306	89.56
232.541	82.56
232.775	86.56
233.009	90.56
233.243	85.56
233.477	70.56
233.711	80.56
233.945	71.56
234.179	81.56
234.413	76.56
234.647	72.56
234.881	74.56
235.115	74.56
235.349	79.56
235.583	76.56
235.817	70.56
236.051	86.56
236.285	86.56
236.519	76.56
236.753	79.56
236.987	72.56
237.221	78.56
237.455	75.56
237.689	74.56
237.922	83.56
238.156	74.56
238.39	77.56
238.624	78.56
238.858	87.56
239.091	77.56
239.325	71.56
239.559	73.56
239.793	73.56
240.027	87.56
240.26	71.56
240.494	85.56
240.728	83.56
240.961	79.56
241.195	82.56
241.429	80.56
241.662	75.56
241.896	62.56
242.13	72.56
242.363	70.56
242.597	84.56
242.83	80.56
243.064	88.56
243.298	82.56
243.531	79.56
243.765	76.56
243.998	78.56
244.232	84.56
244.465	86.56
244.699	92.56
244.932	79.56
245.166	59.56
245.399	78.56
245.633	93.56
245.866	76.56
246.099	93.56
246.333	93.56
246.566	72.56
246.8	89.56
247.033	75.56
247.266	67.56
247.5	92.56
247.733	91.56
247.966	86.56
248.2	89.56
248.433	89.56
248.666	77.56
248.899	75.56
249.133	92.56
249.366	103.56
249.599	96.56
249.832	85.56
250.066	87.56
250.299	88.56
250.532	94.56
250.765	75.56
250.998	79.56
251.231	89.56
251.465	87.56
251.698	91.56
251.931	74.56
252.164	87.56
252.397	75.56
252.63	72.56
252.863	74.56
253.096	78.56
253.329	81.56
253.562	76.56
253.795	74.56
254.028	90.56
254.261	76.56
254.494	90.56
254.727	90.56
254.96	84.56
255.193	91.56
255.426	77.56
255.659	82.56
255.892	84.56
256.124	80.56
256.357	92.56
256.59	91.56
256.823	94.56
257.056	92.56
257.289	78.56
257.521	83.56
257.754	73.56
257.987	82.56
258.22	91.56
258.452	77.56
258.685	81.56
258.918	76.56
259.151	85.56
259.383	79.56
259.616	77.56
259.849	83.56
260.081	89.56
260.314	75.56
260.547	85.56
260.779	87.56
261.012	71.56
261.244	85.56
261.477	90.56
261.71	95.56
261.942	118.56
262.175	116.56
262.407	87.56
262.64	84.56
262.872	62.56
263.105	89.56
263.337	81.56
263.57	94.56
263.802	73.56
264.035	79.56
264.267	82.56
264.499	94.56
264.732	86.56
264.964	79.56
265.197	79.56
265.429	90.56
265.661	90.56
265.894	77.56
266.126	91.56
266.358	91.56
266.591	91.56
266.823	85.56
267.055	82.56
267.287	84.56
267.52	86.56
267.752	84.56
267.984	77.56
268.216	83.56
268.448	89.56
268.681	94.56
268.913	84.56
269.145	82.56
269.377	86.56
269.609	78.56
269.841	85.56
270.073	83.56
270.306	83.56
270.538	80.56
270.77	81.56
271.002	90.56
271.234	100.56
271.466	91.56
271.698	81.56
271.93	96.56
272.162	102.56
272.394	81.56
272.626	91.56
272.858	75.56
273.09	87.56
273.322	85.56
273.553	86.56
273.785	89.56
274.017	71.56
274.249	96.56
274.481	80.56
274.713	96.56
274.945	88.56
275.176	91.56
275.408	99.56
275.64	80.56
275.872	87.56
276.104	89.56
276.335	92.56
276.567	103.56
276.799	98.56
277.031	92.56
277.262	86.56
277.494	99.56
277.726	85.56
277.957	97.56
278.189	87.56
278.421	90.56
278.652	101.56
278.884	87.56
279.115	89.56
279.347	91.56
279.579	100.56
279.81	97.56
280.042	96.56
280.273	89.56
280.505	96.56
280.736	90.56
280.968	83.56
281.199	95.56
281.431	85.56
281.662	81.56
281.894	95.56
282.125	115.56
282.356	121.56
282.588	151.56
282.819	121.56
283.051	107.56
283.282	92.56
283.513	78.56
283.745	92.56
283.976	91.56
284.207	81.56
284.439	93.56
284.67	94.56
284.901	89.56
285.132	82.56
285.364	96.56
285.595	97.56
285.826	96.56
286.057	75.56
286.288	92.56
286.52	97.56
286.751	96.56
286.982	107.56
287.213	96.56
287.444	93.56
287.675	97.56
287.906	102.56
288.138	92.56
288.369	85.56
288.6	84.56
288.831	89.56
289.062	101.56
289.293	100.56
289.524	86.56
289.755	86.56
289.986	77.56
290.217	90.56
290.448	96.56
290.679	92.56
290.91	79.56
291.141	90.56
291.371	75.56
291.602	89.56
291.833	87.56
292.064	91.56
292.295	94.56
292.526	98.56
292.757	94.56
292.987	83.56
293.218	83.56
293.449	84.56
293.68	73.56
293.91	99.56
294.141	98.56
294.372	92.56
294.603	75.56
294.833	77.56
295.064	69.56
295.295	86.56
295.525	77.56
295.756	94.56
295.987	113.56
296.217	147.56
296.448	133.56
296.679	95.56
296.909	79.56
297.14	85.56
297.37	94.56
297.601	95.56
297.831	93.56
298.062	94.56
298.292	86.56
298.523	105.56
298.753	92.56
298.984	83.56
299.214	81.56
299.445	88.56
299.675	97.56
299.905	100.56
300.136	95.56
300.366	94.56
300.597	95.56
300.827	94.56
301.057	115.56
301.288	111.56
301.518	101.56
301.748	88.56
301.979	107.56
302.209	71.56
302.439	91.56
302.669	93.56
302.9	92.56
303.13	93.56
303.36	101.56
303.59	105.56
303.82	114.56
304.051	98.56
304.281	94.56
304.511	106.56
304.741	87.56
304.971	82.56
305.201	95.56
305.431	78.56
305.661	79.56
305.891	94.56
306.121	101.56
306.352	114.56
306.582	102.56
306.812	83.56
307.042	98.56
307.272	97.56
307.502	104.56
307.731	110.56
307.961	93.56
308.191	100.56
308.421	93.56
308.651	87.56
308.881	89.56
309.111	99.56
309.341	113.56
309.571	97.56
309.8	102.56
310.03	106.56
310.26	101.56
310.49	102.56
310.72	101.56
310.949	99.56
311.179	105.56
311.409	86.56
311.639	100.56
311.868	100.56
312.098	91.56
312.328	110.56
312.557	108.56
312.787	103.56
313.017	103.56
313.246	93.56
313.476	82.56
313.706	103.56
313.935	102.56
314.165	106.56
314.394	111.56
314.624	84.56
314.853	85.56
315.083	82.56
315.312	90.56
315.542	95.56
315.771	104.56
316.001	98.56
316.23	81.56
316.46	97.56
316.689	83.56
316.919	90.56
317.148	98.56
317.377	108.56
317.607	119.56
317.836	98.56
318.065	88.56
318.295	78.56
318.524	85.56
318.753	98.56
318.983	91.56
319.212	99.56
319.441	105.56
319.67	117.56
319.9	89.56
320.129	94.56
320.358	87.56
320.587	92.56
320.816	97.56
321.046	97.56
321.275	109.56
321.504	106.56
321.733	99.56
321.962	101.56
322.191	103.56
322.42	95.56
322.649	107.56
322.878	110.56
323.108	124.56
323.337	144.56
323.566	137.56
323.795	172.56
324.024	233.56
324.253	481.56
324.482	1040.56
324.71	2171.56
324.939	2928.56
325.168	1049.56
325.397	306.56
325.626	170.56
325.855	142.56
326.084	131.56
326.313	142.56
326.542	167.56
326.77	258.56
326.999	563.56
327.228	1190.56
327.457	2200.56
327.686	1739.56
327.914	450.56
328.143	202.56
328.372	161.56
328.6	139.56
328.829	134.56
329.058	139.56
329.287	137.56
329.515	108.56
329.744	104.56
329.972	94.56
330.201	106.56
330.43	136.56
330.658	139.56
330.887	155.56
331.115	147.56
331.344	106.56
331.572	91.56
331.801	97.56
332.03	118.56
332.258	98.56
332.486	92.56
332.715	84.56
332.943	96.56
333.172	110.56
333.4	100.56
333.629	103.56
333.857	96.56
334.085	100.56
334.314	111.56
334.542	97.56
334.771	102.56
334.999	98.56
335.227	99.56
335.455	110.56
335.684	101.56
335.912	86.56
336.14	97.56
336.369	102.56
336.597	98.56
336.825	103.56
337.053	104.56
337.281	88.56
337.51	94.56
337.738	98.56
337.966	93.56
338.194	92.56
338.422	105.56
338.65	96.56
338.878	75.56
339.106	77.56
339.334	102.56
339.562	95.56
339.79	94.56
340.018	95.56
340.246	99.56
340.474	88.56
340.702	98.56
340.93	96.56
341.158	106.56
341.386	105.56
341.614	108.56
341.842	93.56
342.07	100.56
342.298	87.56
342.526	92.56
342.754	94.56
342.981	94.56
343.209	99.56
343.437	106.56
343.665	97.56
343.893	98.56
344.12	94.56
344.348	94.56
344.576	94.56
344.804	86.56
345.031	98.56
345.259	101.56
345.487	101.56
345.714	96.56
345.942	92.56
346.17	92.56
346.397	93.56
346.625	108.56
346.853	106.56
347.08	87.56
347.308	99.56
347.535	94.56
347.763	108.56
347.99	104.56
348.218	110.56
348.445	99.56
348.673	106.56
348.9	103.56
349.128	90.56
349.355	99.56
349.583	101.56
349.81	91.56
350.037	100.56
350.265	102.56
350.492	104.56
350.72	86.56
350.947	102.56
351.174	132.56
351.402	116.56
351.629	102.56
351.856	90.56
352.083	113.56
352.311	101.56
352.538	112.56
352.765	102.56
352.992	109.56
353.22	116.56
353.447	100.56
353.674	112.56
353.901	96.56
354.128	80.56
354.355	96.56
354.583	102.56
354.81	91.56
355.037	109.56
355.264	108.56
355.491	106.56
355.718	104.56
355.945	92.56
356.172	92.56
356.399	97.56
356.626	100.56
356.853	84.56
357.08	85.56
357.307	108.56
357.534	107.56
357.761	97.56
357.988	86.56
358.215	92.56
358.441	93.56
358.668	93.56
358.895	100.56
359.122	93.56
359.349	94.56
359.576	93.56
359.802	107.56
360.029	122.56
360.256	124.56
360.483	92.56
360.709	104.56
360.936	98.56
361.163	82.56
361.39	85.56
361.616	97.56
361.843	98.56
362.07	110.56
362.296	96.56
362.523	94.56
362.749	98.56
362.976	99.56
363.203	101.56
363.429	102.56
363.656	94.56
363.882	83.56
364.109	94.56
364.335	90.56
364.562	96.56
364.788	100.56
365.015	82.56
365.241	113.56
365.468	126.56
365.694	117.56
365.92	106.56
366.147	102.56
366.373	88.56
366.599	99.56
366.826	100.56
367.052	97.56
367.278	89.56
367.505	82.56
367.731	94.56
367.957	78.56
368.184	101.56
368.41	96.56
368.636	125.56
368.862	121.56
369.089	109.56
369.315	78.56
369.541	91.56
369.767	93.56
369.993	99.56
370.219	87.56
370.445	89.56
370.672	99.56
370.898	82.56
371.124	97.56
371.35	87.56
371.576	87.56
371.802	104.56
372.028	85.56
372.254	75.56
372.48	84.56
372.706	77.56
372.932	99.56
373.158	83.56
373.384	90.56
373.61	83.56
373.835	87.56
374.061	89.56
374.287	98.56
374.513	90.56
374.739	91.56
374.965	93.56
375.191	90.56
375.416	99.56
375.642	97.56
375.868	109.56
376.094	101.56
376.319	102.56
376.545	91.56
376.771	98.56
376.997	95.56
377.222	98.56
377.448	97.56
377.674	86.56
377.899	88.56
378.125	98.56
378.35	84.56
378.576	93.56
378.802	111.56
379.027	94.56
379.253	102.56
379.478	105.56
379.704	105.56
379.929	95.56
380.155	85.56
380.38	95.56
380.606	102.56
380.831	103.56
381.057	82.56
381.282	94.56
381.507	90.56
381.733	91.56
381.958	98.56
382.184	106.56
382.409	104.56
382.634	99.56
382.86	108.56
383.085	101.56
383.31	105.56
383.535	105.56
383.761	105.56
383.986	105.56
384.211	101.56
384.436	100.56
384.662	82.56
384.887	103.56
385.112	118.56
385.337	93.56
385.562	97.56
385.787	109.56
386.013	111.56
386.238	112.56
386.463	94.56
386.688	100.56
386.913	102.56
387.138	112.56
387.363	103.56
387.588	99.56
387.813	96.56
388.038	96.56
388.263	104.56
388.488	86.56
388.713	85.56
388.938	92.56
389.163	87.56
389.387	98.56
389.612	102.56
389.837	105.56
390.062	99.56
390.287	95.56
390.512	92.56
390.736	80.56
390.961	106.56
391.186	88.56
391.411	86.56
391.636	86.56
391.86	70.56
392.085	91.56
392.31	87.56
392.534	97.56
392.759	105.56
392.984	73.56
393.208	95.56
393.433	100.56
393.658	92.56
393.882	75.56
394.107	88.56
394.331	82.56
394.556	95.56
394.78	106.56
395.005	87.56
395.229	99.56
395.454	89.56
395.678	71.56
395.903	77.56
396.127	101.56
396.352	83.56
396.576	69.56
396.801	96.56
397.025	90.56
397.249	87.56
397.474	102.56
397.698	82.56
397.922	92.56
398.147	77.56
398.371	86.56
398.595	101.56
398.82	92.56
399.044	83.56
399.268	87.56
399.492	84.56
399.717	81.56
399.941	89.56
400.165	88.56
400.389	86.56
400.613	87.56
400.837	87.56
401.062	78.56
401.286	90.56
401.51	109.56
401.734	88.56
401.958	115.56
402.182	137.56
402.406	181.56
402.63	139.56
402.854	87.56
403.078	90.56
403.302	88.56
403.526	92.56
403.75	101.56
403.974	80.56
404.198	80.56
404.422	74.56
404.645	87.56
404.869	90.56
405.093	91.56
405.317	108.56
405.541	98.56
405.765	100.56
405.988	118.56
406.212	185.56
406.436	272.56
406.66	165.56
406.883	121.56
407.107	89.56
407.331	103.56
407.555	101.56
407.778	117.56
408.002	92.56
408.226	90.56
408.449	96.56
408.673	83.56
408.896	91.56
409.12	98.56
409.344	108.56
409.567	85.56
409.791	82.56
410.014	94.56
410.238	90.56
410.461	87.56
410.685	98.56
410.908	102.56
411.132	105.56
411.355	103.56
411.578	91.56
411.802	89.56
412.025	95.56
412.249	79.56
412.472	77.56
412.695	83.56
412.919	83.56
413.142	81.56
413.365	91.56
413.589	95.56
413.812	96.56
414.035	79.56
414.258	85.56
414.482	95.56
414.705	84.56
414.928	91.56
415.151	94.56
415.374	96.56
415.597	96.56
415.821	91.56
416.044	84.56
416.267	94.56
416.49	96.56
416.713	90.56
416.936	93.56
417.159	93.56
417.382	84.56
417.605	82.56
417.828	96.56
418.051	95.56
418.274	85.56
418.497	82.56
418.72	87.56
418.943	87.56
419.166	90.56
419.389	79.56
419.611	86.56
419.834	90.56
420.057	95.56
420.28	83.56
420.503	85.56
420.726	106.56
420.948	89.56
421.171	102.56
421.394	94.56
421.617	109.56
421.839	94.56
422.062	96.56
422.285	85.56
422.507	84.56
422.73	110.56
422.953	85.56
423.175	94.56
423.398	99.56
423.621	105.56
423.843	77.56
424.066	87.56
424.288	84.56
424.511	83.56
424.733	95.56
424.956	117.56
425.178	110.56
425.401	99.56
425.623	101.56
425.846	94.56
426.068	87.56
426.291	89.56
426.513	88.56
426.735	97.56
426.958	111.56
427.18	110.56
427.402	139.56
427.625	175.56
427.847	139.56
428.069	106.56
428.292	89.56
428.514	75.56
428.736	80.56
428.958	88.56
429.181	94.56
429.403	70.56
429.625	86.56
429.847	88.56
430.069	92.56
430.292	98.56
430.514	90.56
430.736	74.56
430.958	81.56
431.18	64.56
431.402	79.56
431.624	79.56
431.846	81.56
432.068	90.56
432.29	90.56
432.512	91.56
432.734	78.56
432.956	102.56
433.178	93.56
433.4	113.56
433.622	92.56
433.844	97.56
434.066	107.56
434.287	87.56
434.509	90.56
434.731	101.56
434.953	82.56
435.175	103.56
435.397	93.56
435.618	102.56
435.84	109.56
436.062	127.56
436.284	121.56
436.505	110.56
436.727	89.56
436.949	86.56
437.17	99.56
437.392	85.56
437.614	85.56
437.835	109.56
438.057	127.56
438.278	120.56
438.5	129.56
438.721	123.56
438.943	106.56
439.165	101.56
439.386	83.56
439.608	87.56
439.829	94.56
440.05	116.56
440.272	166.56
440.493	102.56
440.715	93.56
440.936	84.56
441.158	91.56
441.379	86.56
441.6	92.56
441.822	109.56
442.043	98.56
442.264	92.56
442.486	111.56
442.707	93.56
442.928	114.56
443.149	157.56
443.371	153.56
443.592	129.56
443.813	121.56
444.034	104.56
444.255	96.56
444.476	87.56
444.698	107.56
444.919	92.56
445.14	133.56
445.361	132.56
445.582	131.56
445.803	159.56
446.024	140.56
446.245	136.56
446.466	118.56
446.687	87.56
446.908	81.56
447.129	81.56
447.35	92.56
447.571	89.56
447.792	86.56
448.013	86.56
448.234	115.56
448.455	109.56
448.675	105.56
448.896	125.56
449.117	95.56
449.338	106.56
449.559	127.56
449.779	140.56
450	94.56
450.221	89.56
450.442	88.56
450.662	101.56
450.883	113.56
451.104	124.56
451.324	100.56
451.545	95.56
451.766	95.56
451.986	80.56
452.207	97.56
452.428	84.56
452.648	95.56
452.869	102.56
453.089	107.56
453.31	113.56
453.53	97.56
453.751	108.56
453.971	105.56
454.192	109.56
454.412	91.56
454.633	79.56
454.853	92.56
455.073	82.56
455.294	100.56
455.514	105.56
455.734	93.56
455.955	94.56
456.175	86.56
456.395	89.56
456.616	91.56
456.836	88.56
457.056	78.56
457.276	98.56
457.497	88.56
457.717	99.56
457.937	73.56
458.157	89.56
458.377	81.56
458.598	124.56
458.818	165.56
459.038	187.56
459.258	128.56
459.478	104.56
459.698	74.56
459.918	84.56
460.138	86.56
460.358	75.56
460.578	78.56
460.798	97.56
461.018	108.56
461.238	86.56
461.458	81.56
461.678	85.56
461.898	77.56
462.118	91.56
462.338	80.56
462.558	73.56
462.777	70.56
462.997	86.56
463.217	85.56
463.437	91.56
463.657	88.56
463.876	103.56
464.096	88.56
464.316	77.56
464.536	99.56
464.755	92.56
464.975	114.56
465.195	163.56
465.414	174.56
465.634	107.56
465.854	83.56
466.073	84.56
466.293	96.56
466.512	86.56
466.732	94.56
466.951	90.56
467.171	97.56
467.391	101.56
467.61	114.56
467.829	102.56
468.049	86.56
468.268	92.56
468.488	89.56
468.707	99.56
468.927	90.56
469.146	83.56
469.365	90.56
469.585	97.56
469.804	95.56
470.023	96.56
470.243	82.56
470.462	107.56
470.681	104.56
470.901	102.56
471.12	82.56
471.339	79.56
471.558	86.56
471.777	84.56
471.997	84.56
472.216	109.56
472.435	93.56
472.654	89.56
472.873	91.56
473.092	115.56
473.311	77.56
473.53	99.56
473.749	93.56
473.968	102.56
474.187	102.56
474.406	96.56
474.625	91.56
474.844	89.56
475.063	87.56
475.282	88.56
475.501	91.56
475.72	80.56
475.939	85.56
476.158	81.56
476.377	89.56
476.596	91.56
476.814	105.56
477.033	91.56
477.252	81.56
477.471	90.56
477.69	94.56
477.908	78.56
478.127	85.56
478.346	102.56
478.564	86.56
478.783	101.56
479.002	100.56
479.22	100.56
479.439	104.56
479.658	100.56
479.876	99.56
480.095	83.56
480.313	86.56
480.532	102.56
480.751	91.56
480.969	87.56
481.188	92.56
481.406	84.56
481.624	93.56
481.843	88.56
482.061	87.56
482.28	91.56
482.498	102.56
482.717	94.56
482.935	85.56
483.153	89.56
483.372	98.56
483.59	80.56
483.808	76.56
484.027	93.56
484.245	100.56
484.463	94.56
484.681	99.56
484.9	89.56
485.118	90.56
485.336	100.56
485.554	108.56
485.772	101.56
485.99	112.56
486.209	100.56
486.427	96.56
486.645	99.56
486.863	118.56
487.081	92.56
487.299	102.56
487.517	99.56
487.735	89.56
487.953	90.56
488.171	85.56
488.389	81.56
488.607	103.56
488.825	96.56
489.043	89.56
489.261	86.56
489.479	88.56
489.696	100.56
489.914	93.56
490.132	93.56
490.35	86.56
490.568	77.56
490.786	101.56
491.003	91.56
491.221	88.56
491.439	89.56
491.657	104.56
491.874	84.56
492.092	85.56
492.31	99.56
492.527	78.56
492.745	91.56
492.963	96.56
493.18	85.56
493.398	88.56
493.615	95.56
493.833	109.56
494.05	86.56
494.268	102.56
494.485	104.56
494.703	94.56
494.92	98.56
495.138	90.56
495.355	94.56
495.573	95.56
495.79	94.56
496.008	91.56
496.225	94.56
496.442	88.56
496.66	96.56
496.877	99.56
497.094	86.56
497.312	84.56
497.529	99.56
497.746	91.56
497.963	89.56
498.181	96.56
498.398	103.56
498.615	108.56
498.832	109.56
499.049	99.56
499.267	90.56
499.484	95.56
499.701	93.56
499.918	90.56
500.135	93.56
500.352	100.56
500.569	83.56
500.786	95.56
501.003	81.56
501.22	97.56
501.437	90.56
501.654	99.56
501.871	110.56
502.088	98.56
502.305	90.56
502.522	89.56
502.739	90.56
502.956	98.56
503.172	74.56
503.389	96.56
503.606	99.56
503.823	96.56
504.04	97.56
504.256	102.56
504.473	94.56
504.69	101.56
504.907	96.56
505.123	100.56
505.34	88.56
505.557	83.56
505.773	85.56
505.99	93.56
506.207	94.56
506.423	93.56
506.64	93.56
506.856	95.56
507.073	90.56
507.289	77.56
507.506	96.56
507.722	102.56
507.939	106.56
508.155	99.56
508.372	101.56
508.588	110.56
508.805	101.56
509.021	110.56
509.238	92.56
509.454	109.56
509.67	104.56
509.887	118.56
510.103	135.56
510.319	265.56
510.536	932.56
510.752	3169.56
510.968	868.56
511.184	173.56
511.401	124.56
511.617	110.56
511.833	94.56
512.049	95.56
512.265	105.56
512.481	101.56
512.698	91.56
512.914	102.56
513.13	91.56
513.346	86.56
513.562	94.56
513.778	113.56
513.994	107.56
514.21	110.56
514.426	127.56
514.642	147.56
