Data from Uncirc_2007_H10_HRD10591_00035.txt Node
Date: Wed Jan 03 10:20:49 EST 2024
User: Yrep
Spectrometer: HR+D1059
Trigger mode: 1
Integration Time (sec): 1.000000E-1
Scans to average: 1
Electric dark correction enabled: true
Nonlinearity correction enabled: false
Boxcar width: 0
XAxis mode: Wavelengths
Number of Pixels in Spectrum: 2048
>>>>>Begin Spectral Data<<<<<
223.165	-13.31
223.4	-13.31
223.635	-13.31
223.869	-4.31
224.104	-10.31
224.338	-8.31
224.573	-32.31
224.808	-6.31
225.042	-8.31
225.277	-8.31
225.511	-2.31
225.746	0.69
225.98	7.69
226.215	14.69
226.449	18.69
226.683	6.69
226.918	18.69
227.152	26.69
227.387	37.69
227.621	40.69
227.856	45.69
228.09	38.69
228.324	36.69
228.559	59.69
228.793	45.69
229.027	55.69
229.262	71.69
229.496	82.69
229.73	86.69
229.964	88.69
230.199	72.69
230.433	66.69
230.667	68.69
230.901	79.69
231.136	91.69
231.37	81.69
231.604	76.69
231.838	82.69
232.072	83.69
232.306	78.69
232.541	81.69
232.775	78.69
233.009	81.69
233.243	84.69
233.477	88.69
233.711	90.69
233.945	66.69
234.179	88.69
234.413	80.69
234.647	66.69
234.881	76.69
235.115	77.69
235.349	78.69
235.583	71.69
235.817	90.69
236.051	77.69
236.285	75.69
236.519	67.69
236.753	71.69
236.987	82.69
237.221	66.69
237.455	95.69
237.689	75.69
237.922	76.69
238.156	72.69
238.39	63.69
238.624	71.69
238.858	77.69
239.091	81.69
239.325	80.69
239.559	75.69
239.793	74.69
240.027	77.69
240.26	94.69
240.494	77.69
240.728	68.69
240.961	72.69
241.195	69.69
241.429	72.69
241.662	69.69
241.896	80.69
242.13	79.69
242.363	66.69
242.597	59.69
242.83	70.69
243.064	68.69
243.298	79.69
243.531	63.69
243.765	78.69
243.998	75.69
244.232	80.69
244.465	71.69
244.699	86.69
244.932	81.69
245.166	81.69
245.399	71.69
245.633	76.69
245.866	81.69
246.099	75.69
246.333	74.69
246.566	73.69
246.8	75.69
247.033	80.69
247.266	72.69
247.5	77.69
247.733	80.69
247.966	72.69
248.2	72.69
248.433	81.69
248.666	77.69
248.899	81.69
249.133	68.69
249.366	101.69
249.599	95.69
249.832	76.69
250.066	80.69
250.299	80.69
250.532	74.69
250.765	74.69
250.998	90.69
251.231	83.69
251.465	73.69
251.698	85.69
251.931	86.69
252.164	83.69
252.397	87.69
252.63	76.69
252.863	77.69
253.096	89.69
253.329	77.69
253.562	90.69
253.795	85.69
254.028	72.69
254.261	69.69
254.494	62.69
254.727	79.69
254.96	85.69
255.193	89.69
255.426	61.69
255.659	72.69
255.892	71.69
256.124	77.69
256.357	72.69
256.59	80.69
256.823	80.69
257.056	90.69
257.289	80.69
257.521	78.69
257.754	82.69
257.987	82.69
258.22	96.69
258.452	70.69
258.685	86.69
258.918	81.69
259.151	79.69
259.383	80.69
259.616	69.69
259.849	78.69
260.081	81.69
260.314	75.69
260.547	72.69
260.779	82.69
261.012	86.69
261.244	68.69
261.477	80.69
261.71	104.69
261.942	114.69
262.175	117.69
262.407	73.69
262.64	79.69
262.872	77.69
263.105	82.69
263.337	91.69
263.57	85.69
263.802	88.69
264.035	74.69
264.267	86.69
264.499	78.69
264.732	82.69
264.964	96.69
265.197	90.69
265.429	70.69
265.661	77.69
265.894	94.69
266.126	69.69
266.358	73.69
266.591	83.69
266.823	64.69
267.055	83.69
267.287	73.69
267.52	88.69
267.752	91.69
267.984	82.69
268.216	77.69
268.448	80.69
268.681	74.69
268.913	84.69
269.145	70.69
269.377	97.69
269.609	73.69
269.841	77.69
270.073	97.69
270.306	90.69
270.538	91.69
270.77	78.69
271.002	73.69
271.234	73.69
271.466	106.69
271.698	84.69
271.93	85.69
272.162	79.69
272.394	95.69
272.626	93.69
272.858	72.69
273.09	82.69
273.322	72.69
273.553	85.69
273.785	87.69
274.017	86.69
274.249	90.69
274.481	82.69
274.713	86.69
274.945	85.69
275.176	76.69
275.408	87.69
275.64	82.69
275.872	90.69
276.104	81.69
276.335	75.69
276.567	87.69
276.799	98.69
277.031	77.69
277.262	78.69
277.494	76.69
277.726	81.69
277.957	92.69
278.189	92.69
278.421	80.69
278.652	97.69
278.884	86.69
279.115	72.69
279.347	97.69
279.579	84.69
279.81	89.69
280.042	76.69
280.273	84.69
280.505	72.69
280.736	75.69
280.968	78.69
281.199	76.69
281.431	87.69
281.662	93.69
281.894	89.69
282.125	98.69
282.356	116.69
282.588	131.69
282.819	108.69
283.051	94.69
283.282	83.69
283.513	91.69
283.745	89.69
283.976	70.69
284.207	81.69
284.439	97.69
284.67	83.69
284.901	89.69
285.132	76.69
285.364	75.69
285.595	91.69
285.826	93.69
286.057	94.69
286.288	86.69
286.52	100.69
286.751	71.69
286.982	83.69
287.213	89.69
287.444	88.69
287.675	96.69
287.906	85.69
288.138	100.69
288.369	83.69
288.6	100.69
288.831	110.69
289.062	99.69
289.293	81.69
289.524	98.69
289.755	81.69
289.986	101.69
290.217	86.69
290.448	88.69
290.679	83.69
290.91	90.69
291.141	73.69
291.371	88.69
291.602	94.69
291.833	80.69
292.064	81.69
292.295	88.69
292.526	77.69
292.757	83.69
292.987	88.69
293.218	78.69
293.449	89.69
293.68	94.69
293.91	79.69
294.141	105.69
294.372	78.69
294.603	94.69
294.833	89.69
295.064	101.69
295.295	75.69
295.525	98.69
295.756	97.69
295.987	124.69
296.217	131.69
296.448	112.69
296.679	102.69
296.909	87.69
297.14	89.69
297.37	87.69
297.601	91.69
297.831	89.69
298.062	91.69
298.292	90.69
298.523	79.69
298.753	76.69
298.984	84.69
299.214	101.69
299.445	92.69
299.675	87.69
299.905	107.69
300.136	97.69
300.366	85.69
300.597	102.69
300.827	84.69
301.057	95.69
301.288	87.69
301.518	114.69
301.748	88.69
301.979	102.69
302.209	80.69
302.439	98.69
302.669	83.69
302.9	71.69
303.13	98.69
303.36	91.69
303.59	84.69
303.82	101.69
304.051	112.69
304.281	90.69
304.511	79.69
304.741	81.69
304.971	98.69
305.201	81.69
305.431	92.69
305.661	83.69
305.891	91.69
306.121	92.69
306.352	114.69
306.582	111.69
306.812	79.69
307.042	97.69
307.272	92.69
307.502	97.69
307.731	96.69
307.961	84.69
308.191	93.69
308.421	88.69
308.651	94.69
308.881	91.69
309.111	92.69
309.341	96.69
309.571	92.69
309.8	95.69
310.03	98.69
310.26	89.69
310.49	98.69
310.72	96.69
310.949	105.69
311.179	90.69
311.409	90.69
311.639	102.69
311.868	88.69
312.098	91.69
312.328	94.69
312.557	97.69
312.787	95.69
313.017	89.69
313.246	92.69
313.476	90.69
313.706	103.69
313.935	97.69
314.165	96.69
314.394	92.69
314.624	105.69
314.853	93.69
315.083	81.69
315.312	83.69
315.542	90.69
315.771	98.69
316.001	87.69
316.23	76.69
316.46	79.69
316.689	82.69
316.919	105.69
317.148	93.69
317.377	100.69
317.607	91.69
317.836	85.69
318.065	80.69
318.295	87.69
318.524	81.69
318.753	96.69
318.983	98.69
319.212	98.69
319.441	114.69
319.67	101.69
319.9	102.69
320.129	92.69
320.358	99.69
320.587	99.69
320.816	90.69
321.046	85.69
321.275	102.69
321.504	83.69
321.733	91.69
321.962	84.69
322.191	104.69
322.42	98.69
322.649	122.69
322.878	129.69
323.108	112.69
323.337	120.69
323.566	111.69
323.795	162.69
324.024	209.69
324.253	433.69
324.482	907.69
324.71	1819.69
324.939	2467.69
325.168	887.69
325.397	265.69
325.626	170.69
325.855	129.69
326.084	127.69
326.313	125.69
326.542	160.69
326.77	245.69
326.999	489.69
327.228	1029.69
327.457	1880.69
327.686	1497.69
327.914	383.69
328.143	188.69
328.372	133.69
328.6	114.69
328.829	108.69
329.058	137.69
329.287	133.69
329.515	103.69
329.744	91.69
329.972	95.69
330.201	96.69
330.43	102.69
330.658	121.69
330.887	125.69
331.115	117.69
331.344	97.69
331.572	102.69
331.801	100.69
332.03	109.69
332.258	95.69
332.486	81.69
332.715	96.69
332.943	95.69
333.172	95.69
333.4	86.69
333.629	89.69
333.857	109.69
334.085	105.69
334.314	93.69
334.542	85.69
334.771	87.69
334.999	99.69
335.227	99.69
335.455	89.69
335.684	90.69
335.912	80.69
336.14	92.69
336.369	75.69
336.597	85.69
336.825	100.69
337.053	99.69
337.281	94.69
337.51	95.69
337.738	92.69
337.966	92.69
338.194	93.69
338.422	96.69
338.65	90.69
338.878	74.69
339.106	87.69
339.334	92.69
339.562	91.69
339.79	105.69
340.018	89.69
340.246	81.69
340.474	88.69
340.702	90.69
340.93	86.69
341.158	85.69
341.386	90.69
341.614	76.69
341.842	89.69
342.07	89.69
342.298	76.69
342.526	76.69
342.754	83.69
342.981	77.69
343.209	94.69
343.437	101.69
343.665	93.69
343.893	83.69
344.12	87.69
344.348	85.69
344.576	83.69
344.804	91.69
345.031	97.69
345.259	108.69
345.487	99.69
345.714	82.69
345.942	84.69
346.17	93.69
346.397	82.69
346.625	78.69
346.853	85.69
347.08	89.69
347.308	94.69
347.535	99.69
347.763	96.69
347.99	100.69
348.218	96.69
348.445	96.69
348.673	102.69
348.9	95.69
349.128	86.69
349.355	89.69
349.583	94.69
349.81	103.69
350.037	101.69
350.265	83.69
350.492	87.69
350.72	83.69
350.947	97.69
351.174	91.69
351.402	87.69
351.629	87.69
351.856	118.69
352.083	94.69
352.311	90.69
352.538	96.69
352.765	91.69
352.992	114.69
353.22	97.69
353.447	108.69
353.674	89.69
353.901	95.69
354.128	95.69
354.355	98.69
354.583	88.69
354.81	96.69
355.037	90.69
355.264	81.69
355.491	83.69
355.718	75.69
355.945	91.69
356.172	102.69
356.399	85.69
356.626	89.69
356.853	92.69
357.08	85.69
357.307	90.69
357.534	90.69
357.761	98.69
357.988	85.69
358.215	79.69
358.441	81.69
358.668	97.69
358.895	76.69
359.122	96.69
359.349	81.69
359.576	91.69
359.802	94.69
360.029	99.69
360.256	93.69
360.483	102.69
360.709	73.69
360.936	86.69
361.163	81.69
361.39	92.69
361.616	99.69
361.843	83.69
362.07	97.69
362.296	95.69
362.523	80.69
362.749	104.69
362.976	88.69
363.203	102.69
363.429	83.69
363.656	81.69
363.882	73.69
364.109	78.69
364.335	81.69
364.562	89.69
364.788	80.69
365.015	90.69
365.241	107.69
365.468	103.69
365.694	94.69
365.92	84.69
366.147	82.69
366.373	93.69
366.599	83.69
366.826	81.69
367.052	96.69
367.278	89.69
367.505	89.69
367.731	98.69
367.957	94.69
368.184	100.69
368.41	117.69
368.636	111.69
368.862	103.69
369.089	117.69
369.315	114.69
369.541	77.69
369.767	83.69
369.993	73.69
370.219	76.69
370.445	83.69
370.672	92.69
370.898	105.69
371.124	90.69
371.35	102.69
371.576	72.69
371.802	83.69
372.028	90.69
372.254	92.69
372.48	92.69
372.706	87.69
372.932	88.69
373.158	87.69
373.384	96.69
373.61	85.69
373.835	84.69
374.061	81.69
374.287	83.69
374.513	93.69
374.739	89.69
374.965	88.69
375.191	82.69
375.416	83.69
375.642	84.69
375.868	107.69
376.094	92.69
376.319	90.69
376.545	74.69
376.771	87.69
376.997	84.69
377.222	91.69
377.448	88.69
377.674	82.69
377.899	94.69
378.125	103.69
378.35	94.69
378.576	94.69
378.802	80.69
379.027	92.69
379.253	83.69
379.478	97.69
379.704	78.69
379.929	91.69
380.155	99.69
380.38	106.69
380.606	93.69
380.831	98.69
381.057	96.69
381.282	90.69
381.507	88.69
381.733	83.69
381.958	89.69
382.184	96.69
382.409	99.69
382.634	118.69
382.86	90.69
383.085	81.69
383.31	101.69
383.535	88.69
383.761	102.69
383.986	95.69
384.211	108.69
384.436	103.69
384.662	86.69
384.887	94.69
385.112	110.69
385.337	105.69
385.562	99.69
385.787	108.69
386.013	97.69
386.238	100.69
386.463	106.69
386.688	92.69
386.913	95.69
387.138	87.69
387.363	96.69
387.588	104.69
387.813	93.69
388.038	96.69
388.263	105.69
388.488	98.69
388.713	85.69
388.938	88.69
389.163	87.69
389.387	100.69
389.612	81.69
389.837	83.69
390.062	83.69
390.287	90.69
390.512	80.69
390.736	74.69
390.961	87.69
391.186	103.69
391.411	97.69
391.636	84.69
391.86	94.69
392.085	93.69
392.31	77.69
392.534	90.69
392.759	86.69
392.984	89.69
393.208	82.69
393.433	91.69
393.658	86.69
393.882	94.69
394.107	90.69
394.331	82.69
394.556	92.69
394.78	89.69
395.005	93.69
395.229	88.69
395.454	98.69
395.678	87.69
395.903	82.69
396.127	79.69
396.352	85.69
396.576	86.69
396.801	75.69
397.025	76.69
397.249	95.69
397.474	102.69
397.698	90.69
397.922	77.69
398.147	78.69
398.371	87.69
398.595	85.69
398.82	78.69
399.044	83.69
399.268	82.69
399.492	89.69
399.717	101.69
399.941	80.69
400.165	105.69
400.389	96.69
400.613	82.69
400.837	88.69
401.062	86.69
401.286	77.69
401.51	70.69
401.734	108.69
401.958	105.69
402.182	109.69
402.406	147.69
402.63	108.69
402.854	94.69
403.078	91.69
403.302	83.69
403.526	98.69
403.75	79.69
403.974	77.69
404.198	84.69
404.422	84.69
404.645	74.69
404.869	90.69
405.093	80.69
405.317	94.69
405.541	91.69
405.765	80.69
405.988	112.69
406.212	179.69
406.436	219.69
406.66	137.69
406.883	87.69
407.107	78.69
407.331	94.69
407.555	86.69
407.778	97.69
408.002	82.69
408.226	81.69
408.449	80.69
408.673	88.69
408.896	100.69
409.12	87.69
409.344	90.69
409.567	95.69
409.791	81.69
410.014	88.69
410.238	99.69
410.461	91.69
410.685	84.69
410.908	97.69
411.132	93.69
411.355	93.69
411.578	101.69
411.802	88.69
412.025	80.69
412.249	82.69
412.472	76.69
412.695	77.69
412.919	98.69
413.142	96.69
413.365	102.69
413.589	84.69
413.812	84.69
414.035	99.69
414.258	80.69
414.482	93.69
414.705	90.69
414.928	84.69
415.151	85.69
415.374	83.69
415.597	86.69
415.821	72.69
416.044	85.69
416.267	93.69
416.49	97.69
416.713	86.69
416.936	86.69
417.159	78.69
417.382	102.69
417.605	76.69
417.828	88.69
418.051	97.69
418.274	76.69
418.497	79.69
418.72	87.69
418.943	89.69
419.166	93.69
419.389	86.69
419.611	89.69
419.834	97.69
420.057	82.69
420.28	93.69
420.503	88.69
420.726	91.69
420.948	86.69
421.171	96.69
421.394	80.69
421.617	94.69
421.839	73.69
422.062	81.69
422.285	95.69
422.507	83.69
422.73	105.69
422.953	102.69
423.175	75.69
423.398	74.69
423.621	82.69
423.843	85.69
424.066	91.69
424.288	79.69
424.511	88.69
424.733	88.69
424.956	98.69
425.178	95.69
425.401	95.69
425.623	92.69
425.846	86.69
426.068	91.69
426.291	75.69
426.513	73.69
426.735	75.69
426.958	86.69
427.18	101.69
427.402	117.69
427.625	154.69
427.847	130.69
428.069	108.69
428.292	99.69
428.514	84.69
428.736	93.69
428.958	80.69
429.181	80.69
429.403	80.69
429.625	82.69
429.847	83.69
430.069	91.69
430.292	91.69
430.514	90.69
430.736	83.69
430.958	98.69
431.18	71.69
431.402	101.69
431.624	75.69
431.846	95.69
432.068	74.69
432.29	84.69
432.512	96.69
432.734	78.69
432.956	87.69
433.178	98.69
433.4	102.69
433.622	90.69
433.844	80.69
434.066	76.69
434.287	90.69
434.509	76.69
434.731	81.69
434.953	92.69
435.175	87.69
435.397	80.69
435.618	91.69
435.84	99.69
436.062	118.69
436.284	102.69
436.505	109.69
436.727	109.69
436.949	77.69
437.17	92.69
437.392	93.69
437.614	84.69
437.835	110.69
438.057	125.69
438.278	119.69
438.5	106.69
438.721	118.69
438.943	90.69
439.165	89.69
439.386	72.69
439.608	93.69
439.829	108.69
440.05	129.69
440.272	125.69
440.493	92.69
440.715	93.69
440.936	66.69
441.158	94.69
441.379	96.69
441.6	89.69
441.822	94.69
442.043	83.69
442.264	98.69
442.486	109.69
442.707	102.69
442.928	110.69
443.149	121.69
443.371	135.69
443.592	112.69
443.813	104.69
444.034	108.69
444.255	99.69
444.476	77.69
444.698	78.69
444.919	77.69
445.14	112.69
445.361	116.69
445.582	104.69
445.803	133.69
446.024	134.69
446.245	128.69
446.466	98.69
446.687	70.69
446.908	94.69
447.129	76.69
447.35	84.69
447.571	89.69
447.792	89.69
448.013	96.69
448.234	104.69
448.455	107.69
448.675	111.69
448.896	135.69
449.117	98.69
449.338	103.69
449.559	117.69
449.779	146.69
450	108.69
450.221	80.69
450.442	83.69
450.662	78.69
450.883	90.69
451.104	96.69
451.324	95.69
451.545	79.69
451.766	81.69
451.986	83.69
452.207	88.69
452.428	76.69
452.648	105.69
452.869	104.69
453.089	97.69
453.31	141.69
453.53	96.69
453.751	87.69
453.971	99.69
454.192	113.69
454.412	86.69
454.633	91.69
454.853	85.69
455.073	86.69
455.294	85.69
455.514	97.69
455.734	86.69
455.955	92.69
456.175	89.69
456.395	95.69
456.616	88.69
456.836	104.69
457.056	89.69
457.276	85.69
457.497	80.69
457.717	81.69
457.937	83.69
458.157	84.69
458.377	77.69
458.598	115.69
458.818	152.69
459.038	157.69
459.258	115.69
459.478	85.69
459.698	83.69
459.918	84.69
460.138	75.69
460.358	94.69
460.578	99.69
460.798	92.69
461.018	87.69
461.238	71.69
461.458	90.69
461.678	89.69
461.898	86.69
462.118	80.69
462.338	81.69
462.558	74.69
462.777	79.69
462.997	77.69
463.217	79.69
463.437	85.69
463.657	90.69
463.876	97.69
464.096	88.69
464.316	97.69
464.536	82.69
464.755	91.69
464.975	110.69
465.195	153.69
465.414	169.69
465.634	94.69
465.854	87.69
466.073	83.69
466.293	87.69
466.512	81.69
466.732	81.69
466.951	97.69
467.171	93.69
467.391	88.69
467.61	95.69
467.829	85.69
468.049	83.69
468.268	79.69
468.488	78.69
468.707	90.69
468.927	93.69
469.146	62.69
469.365	77.69
469.585	90.69
469.804	90.69
470.023	92.69
470.243	86.69
470.462	101.69
470.681	103.69
470.901	92.69
471.12	98.69
471.339	94.69
471.558	90.69
471.777	72.69
471.997	63.69
472.216	76.69
472.435	89.69
472.654	90.69
472.873	88.69
473.092	86.69
473.311	82.69
473.53	75.69
473.749	77.69
473.968	94.69
474.187	101.69
474.406	99.69
474.625	68.69
474.844	88.69
475.063	94.69
475.282	96.69
475.501	83.69
475.72	89.69
475.939	78.69
476.158	80.69
476.377	84.69
476.596	85.69
476.814	96.69
477.033	97.69
477.252	80.69
477.471	87.69
477.69	83.69
477.908	87.69
478.127	75.69
478.346	89.69
478.564	90.69
478.783	100.69
479.002	83.69
479.22	88.69
479.439	82.69
479.658	100.69
479.876	83.69
480.095	82.69
480.313	88.69
480.532	79.69
480.751	81.69
480.969	88.69
481.188	93.69
481.406	85.69
481.624	90.69
481.843	79.69
482.061	77.69
482.28	98.69
482.498	73.69
482.717	71.69
482.935	78.69
483.153	91.69
483.372	93.69
483.59	95.69
483.808	82.69
484.027	86.69
484.245	89.69
484.463	75.69
484.681	102.69
484.9	89.69
485.118	73.69
485.336	86.69
485.554	98.69
485.772	98.69
485.99	112.69
486.209	94.69
486.427	102.69
486.645	96.69
486.863	96.69
487.081	100.69
487.299	81.69
487.517	89.69
487.735	94.69
487.953	92.69
488.171	81.69
488.389	97.69
488.607	93.69
488.825	91.69
489.043	92.69
489.261	82.69
489.479	96.69
489.696	102.69
489.914	101.69
490.132	85.69
490.35	84.69
490.568	79.69
490.786	72.69
491.003	99.69
491.221	79.69
491.439	86.69
491.657	93.69
491.874	85.69
492.092	81.69
492.31	89.69
492.527	92.69
492.745	90.69
492.963	90.69
493.18	79.69
493.398	72.69
493.615	88.69
493.833	97.69
494.05	88.69
494.268	86.69
494.485	91.69
494.703	75.69
494.92	95.69
495.138	91.69
495.355	101.69
495.573	80.69
495.79	85.69
496.008	89.69
496.225	75.69
496.442	80.69
496.66	92.69
496.877	84.69
497.094	87.69
497.312	90.69
497.529	74.69
497.746	71.69
497.963	85.69
498.181	83.69
498.398	87.69
498.615	105.69
498.832	107.69
499.049	86.69
499.267	82.69
499.484	87.69
499.701	86.69
499.918	92.69
500.135	89.69
500.352	94.69
500.569	93.69
500.786	94.69
501.003	81.69
501.22	78.69
501.437	89.69
501.654	106.69
501.871	95.69
502.088	90.69
502.305	94.69
502.522	93.69
502.739	82.69
502.956	90.69
503.172	91.69
503.389	93.69
503.606	101.69
503.823	83.69
504.04	93.69
504.256	88.69
504.473	101.69
504.69	81.69
504.907	98.69
505.123	89.69
505.34	96.69
505.557	104.69
505.773	100.69
505.99	92.69
506.207	97.69
506.423	102.69
506.64	82.69
506.856	76.69
507.073	82.69
507.289	75.69
507.506	96.69
507.722	102.69
507.939	102.69
508.155	96.69
508.372	109.69
508.588	86.69
508.805	83.69
509.021	104.69
509.238	93.69
509.454	98.69
509.67	125.69
509.887	99.69
510.103	130.69
510.319	242.69
510.536	808.69
510.752	2510.69
510.968	711.69
511.184	157.69
511.401	89.69
511.617	88.69
511.833	89.69
512.049	93.69
512.265	94.69
512.481	92.69
512.698	91.69
512.914	97.69
513.13	104.69
513.346	93.69
513.562	90.69
513.778	100.69
513.994	105.69
514.21	104.69
514.426	116.69
514.642	112.69
514.858	114.69
515.074	167.69
515.29	473.69
515.506	1550.69
515.721	560.69
515.937	144.69
516.153	108.69
516.369	111.69
516.585	80.69
516.801	85.69
