Data from Uncirc_2007_H10_HRD10591_00010.txt Node
Date: Wed Jan 03 10:20:44 EST 2024
User: Yrep
Spectrometer: HR+D1059
Trigger mode: 1
Integration Time (sec): 1.000000E-1
Scans to average: 1
Electric dark correction enabled: true
Nonlinearity correction enabled: false
Boxcar width: 0
XAxis mode: Wavelengths
Number of Pixels in Spectrum: 2048
>>>>>Begin Spectral Data<<<<<
223.165	-20
223.4	-20
223.635	-20
223.869	-18
224.104	-14
224.338	-2
224.573	-18
224.808	-8
225.042	-15
225.277	-5
225.511	-4
225.746	9
225.98	4
226.215	10
226.449	12
226.683	16
226.918	25
227.152	28
227.387	25
227.621	31
227.856	38
228.09	49
228.324	48
228.559	66
228.793	47
229.027	62
229.262	73
229.496	75
229.73	79
229.964	84
230.199	77
230.433	81
230.667	71
230.901	76
231.136	79
231.37	90
231.604	94
231.838	79
232.072	78
232.306	74
232.541	78
232.775	82
233.009	72
233.243	72
233.477	92
233.711	63
233.945	84
234.179	71
234.413	70
234.647	76
234.881	75
235.115	77
235.349	79
235.583	76
235.817	83
236.051	75
236.285	90
236.519	78
236.753	80
236.987	72
237.221	80
237.455	99
237.689	77
237.922	60
238.156	86
238.39	77
238.624	81
238.858	65
239.091	72
239.325	72
239.559	82
239.793	83
240.027	80
240.26	77
240.494	75
240.728	78
240.961	71
241.195	68
241.429	70
241.662	75
241.896	84
242.13	80
242.363	74
242.597	76
242.83	84
243.064	67
243.298	82
243.531	74
243.765	74
243.998	78
244.232	80
244.465	69
244.699	81
244.932	77
245.166	74
245.399	70
245.633	90
245.866	83
246.099	76
246.333	84
246.566	79
246.8	79
247.033	77
247.266	80
247.5	72
247.733	68
247.966	86
248.2	84
248.433	76
248.666	74
248.899	78
249.133	92
249.366	86
249.599	88
249.832	79
250.066	84
250.299	74
250.532	75
250.765	84
250.998	65
251.231	79
251.465	78
251.698	65
251.931	87
252.164	71
252.397	77
252.63	76
252.863	86
253.096	80
253.329	80
253.562	84
253.795	71
254.028	79
254.261	91
254.494	83
254.727	69
254.96	69
255.193	75
255.426	72
255.659	74
255.892	85
256.124	73
256.357	72
256.59	104
256.823	77
257.056	84
257.289	93
257.521	75
257.754	74
257.987	64
258.22	75
258.452	84
258.685	94
258.918	75
259.151	86
259.383	74
259.616	72
259.849	82
260.081	82
260.314	75
260.547	82
260.779	75
261.012	88
261.244	80
261.477	88
261.71	89
261.942	105
262.175	115
262.407	79
262.64	79
262.872	74
263.105	82
263.337	95
263.57	91
263.802	94
264.035	86
264.267	67
264.499	94
264.732	88
264.964	78
265.197	66
265.429	83
265.661	90
265.894	84
266.126	86
266.358	90
266.591	72
266.823	80
267.055	84
267.287	88
267.52	82
267.752	87
267.984	89
268.216	88
268.448	89
268.681	88
268.913	56
269.145	82
269.377	90
269.609	90
269.841	82
270.073	90
270.306	83
270.538	75
270.77	91
271.002	85
271.234	95
271.466	87
271.698	77
271.93	74
272.162	79
272.394	84
272.626	82
272.858	87
273.09	83
273.322	89
273.553	84
273.785	83
274.017	84
274.249	91
274.481	90
274.713	70
274.945	83
275.176	78
275.408	74
275.64	70
275.872	82
276.104	79
276.335	97
276.567	97
276.799	99
277.031	89
277.262	81
277.494	93
277.726	90
277.957	85
278.189	78
278.421	101
278.652	65
278.884	68
279.115	89
279.347	92
279.579	91
279.81	89
280.042	90
280.273	82
280.505	85
280.736	81
280.968	94
281.199	83
281.431	81
281.662	92
281.894	97
282.125	104
282.356	127
282.588	127
282.819	105
283.051	90
283.282	72
283.513	76
283.745	86
283.976	79
284.207	85
284.439	72
284.67	90
284.901	91
285.132	79
285.364	88
285.595	94
285.826	83
286.057	78
286.288	78
286.52	91
286.751	86
286.982	83
287.213	89
287.444	78
287.675	78
287.906	80
288.138	85
288.369	78
288.6	80
288.831	77
289.062	74
289.293	95
289.524	78
289.755	84
289.986	76
290.217	91
290.448	87
290.679	80
290.91	96
291.141	92
291.371	95
291.602	78
291.833	78
292.064	94
292.295	78
292.526	75
292.757	88
292.987	74
293.218	91
293.449	91
293.68	80
293.91	79
294.141	87
294.372	87
294.603	90
294.833	74
295.064	80
295.295	87
295.525	94
295.756	100
295.987	112
296.217	138
296.448	114
296.679	88
296.909	89
297.14	93
297.37	82
297.601	95
297.831	82
298.062	87
298.292	91
298.523	81
298.753	84
298.984	83
299.214	85
299.445	91
299.675	77
299.905	89
300.136	94
300.366	82
300.597	86
300.827	93
301.057	91
301.288	103
301.518	82
301.748	79
301.979	76
302.209	80
302.439	83
302.669	77
302.9	71
303.13	95
303.36	81
303.59	93
303.82	112
304.051	81
304.281	78
304.511	87
304.741	79
304.971	89
305.201	86
305.431	91
305.661	82
305.891	81
306.121	81
306.352	93
306.582	79
306.812	83
307.042	80
307.272	109
307.502	86
307.731	78
307.961	94
308.191	80
308.421	84
308.651	103
308.881	92
309.111	92
309.341	94
309.571	94
309.8	90
310.03	88
310.26	88
310.49	88
310.72	80
310.949	97
311.179	118
311.409	74
311.639	78
311.868	80
312.098	97
312.328	84
312.557	88
312.787	102
313.017	91
313.246	87
313.476	78
313.706	94
313.935	109
314.165	84
314.394	93
314.624	94
314.853	93
315.083	94
315.312	97
315.542	81
315.771	90
316.001	96
316.23	88
316.46	75
316.689	91
316.919	89
317.148	81
317.377	94
317.607	98
317.836	97
318.065	91
318.295	68
318.524	88
318.753	93
318.983	93
319.212	87
319.441	106
319.67	108
319.9	94
320.129	100
320.358	110
320.587	98
320.816	103
321.046	85
321.275	106
321.504	89
321.733	95
321.962	106
322.191	99
322.42	92
322.649	96
322.878	101
323.108	110
323.337	114
323.566	134
323.795	158
324.024	211
324.253	385
324.482	874
324.71	1784
324.939	2374
325.168	861
325.397	245
325.626	143
325.855	114
326.084	125
326.313	132
326.542	155
326.77	232
326.999	467
327.228	982
327.457	1834
327.686	1471
327.914	392
328.143	171
328.372	155
328.6	126
328.829	131
329.058	133
329.287	113
329.515	100
329.744	102
329.972	108
330.201	95
330.43	97
330.658	120
330.887	135
331.115	133
331.344	110
331.572	89
331.801	91
332.03	98
332.258	90
332.486	74
332.715	95
332.943	84
333.172	97
333.4	102
333.629	103
333.857	103
334.085	106
334.314	92
334.542	87
334.771	90
334.999	93
335.227	80
335.455	86
335.684	99
335.912	79
336.14	91
336.369	107
336.597	97
336.825	97
337.053	103
337.281	102
337.51	94
337.738	91
337.966	80
338.194	99
338.422	84
338.65	92
338.878	84
339.106	96
339.334	87
339.562	75
339.79	92
340.018	88
340.246	79
340.474	93
340.702	96
340.93	70
341.158	107
341.386	88
341.614	97
341.842	88
342.07	86
342.298	85
342.526	88
342.754	88
342.981	83
343.209	78
343.437	99
343.665	89
343.893	88
344.12	90
344.348	86
344.576	82
344.804	99
345.031	96
345.259	86
345.487	94
345.714	84
345.942	78
346.17	84
346.397	96
346.625	86
346.853	95
347.08	89
347.308	90
347.535	93
347.763	99
347.99	84
348.218	87
348.445	98
348.673	92
348.9	102
349.128	92
349.355	82
349.583	88
349.81	106
350.037	85
350.265	86
350.492	91
350.72	81
350.947	97
351.174	103
351.402	106
351.629	91
351.856	88
352.083	101
352.311	106
352.538	106
352.765	95
352.992	102
353.22	90
353.447	93
353.674	108
353.901	100
354.128	90
354.355	110
354.583	98
354.81	98
355.037	97
355.264	97
355.491	101
355.718	88
355.945	81
356.172	97
356.399	82
356.626	104
356.853	90
357.08	92
357.307	84
357.534	81
357.761	76
357.988	83
358.215	89
358.441	88
358.668	85
358.895	93
359.122	89
359.349	89
359.576	81
359.802	102
360.029	105
360.256	99
360.483	73
360.709	81
360.936	94
361.163	90
361.39	80
361.616	96
361.843	78
362.07	95
362.296	90
362.523	97
362.749	79
362.976	89
363.203	78
363.429	105
363.656	98
363.882	84
364.109	92
364.335	104
364.562	91
364.788	93
365.015	103
365.241	120
365.468	111
365.694	89
365.92	74
366.147	89
366.373	73
366.599	82
366.826	77
367.052	68
367.278	84
367.505	92
367.731	87
367.957	81
368.184	87
368.41	92
368.636	105
368.862	111
369.089	111
369.315	108
369.541	98
369.767	87
369.993	81
370.219	99
370.445	84
370.672	87
370.898	79
371.124	89
371.35	84
371.576	98
371.802	96
372.028	82
372.254	95
372.48	81
372.706	75
372.932	81
373.158	90
373.384	89
373.61	89
373.835	83
374.061	88
374.287	74
374.513	85
374.739	90
374.965	75
375.191	79
375.416	84
375.642	78
375.868	99
376.094	86
376.319	85
376.545	85
376.771	93
376.997	75
377.222	84
377.448	88
377.674	86
377.899	88
378.125	100
378.35	81
378.576	79
378.802	82
379.027	86
379.253	97
379.478	91
379.704	82
379.929	99
380.155	91
380.38	105
380.606	84
380.831	71
381.057	95
381.282	97
381.507	99
381.733	84
381.958	106
382.184	95
382.409	98
382.634	96
382.86	97
383.085	103
383.31	112
383.535	105
383.761	91
383.986	76
384.211	98
384.436	90
384.662	106
384.887	98
385.112	96
385.337	76
385.562	84
385.787	94
386.013	82
386.238	116
386.463	104
386.688	93
386.913	106
387.138	104
387.363	103
387.588	89
387.813	107
388.038	111
388.263	107
388.488	112
388.713	108
388.938	91
389.163	99
389.387	105
389.612	97
389.837	72
390.062	100
390.287	93
390.512	94
390.736	86
390.961	87
391.186	99
391.411	91
391.636	84
391.86	92
392.085	84
392.31	65
392.534	82
392.759	83
392.984	83
393.208	83
393.433	81
393.658	90
393.882	88
394.107	94
394.331	80
394.556	78
394.78	91
395.005	81
395.229	73
395.454	92
395.678	82
395.903	90
396.127	78
396.352	78
396.576	81
396.801	80
397.025	83
397.249	70
397.474	87
397.698	87
397.922	71
398.147	89
398.371	80
398.595	89
398.82	77
399.044	80
399.268	83
399.492	76
399.717	106
399.941	95
400.165	94
400.389	67
400.613	90
400.837	82
401.062	98
401.286	87
401.51	82
401.734	84
401.958	110
402.182	135
402.406	162
402.63	119
402.854	90
403.078	99
403.302	92
403.526	97
403.75	88
403.974	78
404.198	84
404.422	75
404.645	88
404.869	71
405.093	94
405.317	86
405.541	80
405.765	108
405.988	110
406.212	164
406.436	218
406.66	144
406.883	105
407.107	103
407.331	92
407.555	96
407.778	100
408.002	92
408.226	84
408.449	89
408.673	95
408.896	91
409.12	99
409.344	94
409.567	80
409.791	87
410.014	89
410.238	106
410.461	86
410.685	93
410.908	104
411.132	110
411.355	87
411.578	84
411.802	90
412.025	84
412.249	82
412.472	95
412.695	76
412.919	82
413.142	87
413.365	88
413.589	83
413.812	92
414.035	77
414.258	84
414.482	92
414.705	86
414.928	97
415.151	99
415.374	102
415.597	90
415.821	80
416.044	80
416.267	83
416.49	72
416.713	85
416.936	76
417.159	76
417.382	82
417.605	83
417.828	86
418.051	101
418.274	79
418.497	77
418.72	81
418.943	79
419.166	90
419.389	90
419.611	67
419.834	90
420.057	102
420.28	80
420.503	82
420.726	84
420.948	83
421.171	88
421.394	91
421.617	87
421.839	99
422.062	93
422.285	84
422.507	99
422.73	94
422.953	81
423.175	82
423.398	83
423.621	99
423.843	90
424.066	89
424.288	87
424.511	91
424.733	103
424.956	103
425.178	108
425.401	97
425.623	115
425.846	79
426.068	91
426.291	83
426.513	87
426.735	90
426.958	85
427.18	94
427.402	129
427.625	157
427.847	107
428.069	91
428.292	73
428.514	71
428.736	89
428.958	82
429.181	80
429.403	82
429.625	91
429.847	89
430.069	92
430.292	88
430.514	78
430.736	88
430.958	83
431.18	92
431.402	104
431.624	86
431.846	86
432.068	83
432.29	92
432.512	86
432.734	87
432.956	90
433.178	86
433.4	87
433.622	86
433.844	79
434.066	92
434.287	80
434.509	90
434.731	82
434.953	87
435.175	88
435.397	83
435.618	104
435.84	105
436.062	113
436.284	136
436.505	98
436.727	109
436.949	101
437.17	102
437.392	83
437.614	96
437.835	100
438.057	115
438.278	105
438.5	113
438.721	126
438.943	99
439.165	93
439.386	82
439.608	91
439.829	93
440.05	122
440.272	138
440.493	101
440.715	82
440.936	87
441.158	65
441.379	81
441.6	98
441.822	81
442.043	84
442.264	107
442.486	106
442.707	103
442.928	90
443.149	124
443.371	118
443.592	124
443.813	114
444.034	115
444.255	89
444.476	86
444.698	91
444.919	93
445.14	119
445.361	124
445.582	103
445.803	128
446.024	122
446.245	136
446.466	104
446.687	92
446.908	79
447.129	94
447.35	101
447.571	94
447.792	97
448.013	100
448.234	98
448.455	94
448.675	120
448.896	131
449.117	100
449.338	100
449.559	127
449.779	118
450	108
450.221	76
450.442	78
450.662	91
450.883	89
451.104	103
451.324	98
451.545	98
451.766	81
451.986	76
452.207	92
452.428	89
452.648	94
452.869	113
453.089	111
453.31	113
453.53	89
453.751	100
453.971	103
454.192	100
454.412	98
454.633	96
454.853	88
455.073	84
455.294	84
455.514	104
455.734	74
455.955	85
456.175	96
456.395	88
456.616	89
456.836	84
457.056	93
457.276	80
457.497	94
457.717	75
457.937	84
458.157	79
458.377	93
458.598	121
458.818	140
459.038	124
459.258	107
459.478	83
459.698	89
459.918	106
460.138	81
460.358	84
460.578	81
460.798	80
461.018	70
461.238	88
461.458	83
461.678	95
461.898	88
462.118	90
462.338	82
462.558	78
462.777	93
462.997	88
463.217	86
463.437	88
463.657	87
463.876	95
464.096	93
464.316	85
464.536	88
464.755	98
464.975	100
465.195	161
465.414	152
465.634	91
465.854	97
466.073	84
466.293	96
466.512	90
466.732	94
466.951	83
467.171	92
467.391	90
467.61	96
467.829	89
468.049	76
468.268	93
468.488	86
468.707	80
468.927	86
469.146	79
469.365	82
469.585	97
469.804	109
470.023	88
470.243	96
470.462	90
470.681	110
470.901	83
471.12	87
471.339	83
471.558	108
471.777	91
471.997	84
472.216	83
472.435	91
472.654	74
472.873	76
473.092	80
473.311	98
473.53	90
473.749	91
473.968	89
474.187	106
474.406	106
474.625	95
474.844	95
475.063	91
475.282	81
475.501	82
475.72	83
475.939	96
476.158	94
476.377	83
476.596	76
476.814	91
477.033	86
477.252	78
477.471	87
477.69	94
477.908	88
478.127	84
478.346	96
478.564	102
478.783	86
479.002	82
479.22	77
479.439	99
479.658	90
479.876	94
480.095	76
480.313	92
480.532	88
480.751	102
480.969	90
481.188	84
481.406	97
481.624	110
481.843	80
482.061	90
482.28	83
482.498	87
482.717	101
482.935	83
483.153	87
483.372	85
483.59	93
483.808	80
484.027	85
484.245	109
484.463	88
484.681	90
484.9	92
485.118	94
485.336	90
485.554	92
485.772	115
485.99	95
486.209	91
486.427	99
486.645	103
486.863	97
487.081	108
487.299	102
487.517	92
487.735	88
487.953	81
488.171	90
488.389	85
488.607	83
488.825	100
489.043	85
489.261	80
489.479	78
489.696	74
489.914	92
490.132	94
490.35	93
490.568	79
490.786	96
491.003	87
491.221	106
491.439	101
491.657	99
491.874	107
492.092	90
492.31	95
492.527	84
492.745	87
492.963	84
493.18	94
493.398	107
493.615	84
493.833	86
494.05	97
494.268	90
494.485	90
494.703	94
494.92	83
495.138	104
495.355	81
495.573	97
495.79	82
496.008	87
496.225	88
496.442	81
496.66	75
496.877	80
497.094	88
497.312	69
497.529	88
497.746	81
497.963	68
498.181	83
498.398	85
498.615	108
498.832	107
499.049	91
499.267	89
499.484	86
499.701	99
499.918	82
500.135	94
500.352	93
500.569	87
500.786	69
501.003	99
501.22	99
501.437	79
501.654	120
501.871	104
502.088	81
502.305	85
502.522	100
502.739	94
502.956	98
503.172	89
503.389	91
503.606	96
503.823	100
504.04	98
504.256	91
504.473	86
504.69	89
504.907	89
505.123	90
505.34	85
505.557	91
505.773	87
505.99	82
506.207	97
506.423	88
506.64	90
506.856	94
507.073	82
507.289	83
507.506	91
507.722	98
507.939	114
508.155	100
508.372	87
508.588	95
508.805	85
509.021	103
509.238	90
509.454	101
509.67	94
509.887	102
510.103	138
510.319	220
510.536	766
510.752	2374
510.968	663
511.184	157
511.401	124
511.617	84
511.833	96
512.049	100
512.265	96
512.481	87
512.698	91
512.914	91
513.13	101
513.346	85
513.562	102
513.778	94
513.994	93
514.21	91
514.426	113
514.642	120
514.858	132
515.074	161
515.29	455
515.506	1436
515.721	537
515.937	161
516.153	111
516.369	105
516.585	95
516.801	93
517.016	97
517.232	96
517.448	94
517.664	88
517.879	87
518.095	79
518.311	87
518.527	83
518.742	100
518.958	102
519.173	88
519.389	105
519.605	120
519.82	100
520.036	104
520.251	129
520.467	120
520.682	107
520.898	97
521.113	124
521.329	138
521.544	202
521.76	535
521.975	2375
522.19	1458
522.406	301
522.621	134
522.836	96
523.052	98
523.267	87
523.482	86
523.698	86
523.913	119
524.128	82
524.343	74
524.559	89
524.774	98
524.989	105
525.204	105
525.419	99
525.634	89
525.849	82
526.064	106
526.28	70
526.495	88
526.71	81
526.925	96
527.14	81
527.355	101
527.57	90
527.785	94
527.999	94
528.214	105
528.429	93
528.644	99
528.859	83
529.074	92
529.289	113
529.503	185
529.718	95
529.933	87
530.148	92
530.363	106
530.577	94
530.792	100
531.007	86
531.221	99
531.436	87
531.651	91
531.865	82
532.08	97
532.295	93
532.509	79
532.724	92
532.938	85
533.153	90
533.367	105
533.582	84
533.796	90
534.011	101
534.225	102
534.44	86
534.654	95
534.868	83
535.083	74
535.297	81
535.511	109
535.726	104
535.94	100
536.154	105
536.369	99
536.583	75
536.797	92
537.011	92
537.225	106
537.44	90
537.654	81
537.868	88
538.082	94
538.296	84
538.51	97
538.724	78
538.938	85
539.153	87
539.367	91
539.581	106
539.795	95
540.009	74
540.222	88
540.436	102
540.65	91
540.864	90
541.078	85
541.292	70
541.506	77
541.72	106
541.934	94
542.147	86
542.361	91
542.575	82
542.789	76
543.002	89
543.216	93
543.43	91
543.644	95
543.857	100
544.071	105
544.285	87
544.498	95
544.712	100
544.925	78
545.139	86
545.352	95
545.566	92
545.779	99
545.993	93
546.206	87
546.42	77
546.633	83
546.847	90
547.06	98
547.274	89
547.487	86
547.7	89
547.914	99
548.127	79
548.34	93
548.554	76
548.767	89
548.98	90
549.193	86
549.407	79
549.62	87
549.833	100
550.046	99
550.259	90
550.473	81
550.686	98
550.899	83
551.112	100
551.325	86
551.538	77
551.751	86
551.964	82
552.177	96
552.39	87
552.603	81
552.816	78
553.029	94
553.242	94
553.455	109
553.667	94
553.88	93
554.093	94
554.306	95
554.519	94
554.732	81
554.944	91
555.157	82
555.37	87
555.583	108
555.795	89
556.008	91
556.221	83
556.433	85
556.646	88
556.859	93
557.071	99
557.284	91
557.496	83
557.709	85
557.921	79
558.134	79
558.346	83
558.559	88
558.771	87
558.984	75
559.196	98
559.409	77
559.621	85
559.833	69
560.046	88
560.258	81
560.47	87
560.683	92
560.895	94
561.107	83
561.32	95
561.532	90
561.744	94
561.956	97
562.168	90
562.381	90
562.593	74
562.805	93
563.017	98
563.229	90
563.441	103
563.653	92
563.865	79
564.077	86
564.289	81
564.501	75
564.713	92
564.925	95
565.137	87
565.349	103
565.561	84
565.773	84
565.985	71
566.197	96
566.408	69
566.62	89
566.832	79
567.044	100
567.255	86
567.467	82
567.679	82
567.891	80
568.102	81
568.314	87
568.526	96
568.737	107
568.949	84
569.161	96
569.372	90
569.584	78
569.795	98
570.007	121
570.218	234
570.43	148
570.641	99
570.853	87
571.064	88
571.276	82
571.487	66
571.698	98
571.91	78
572.121	87
572.333	72
572.544	76
572.755	84
572.966	93
573.178	80
573.389	84
573.6	85
573.811	90
574.023	82
574.234	85
574.445	87
574.656	92
574.867	83
575.078	84
575.289	71
575.501	84
575.712	90
575.923	92
576.134	86
576.345	94
576.556	89
576.767	87
576.978	92
577.188	102
577.399	85
577.61	94
577.821	91
578.032	109
578.243	254
578.454	764
578.665	206
578.875	89
579.086	98
579.297	79
579.508	100
579.718	87
579.929	71
580.14	81
580.35	76
580.561	81
580.772	74
580.982	76
581.193	82
581.403	88
581.614	73
581.825	76
582.035	83
582.246	87
582.456	74
582.667	82
582.877	85
583.087	96
583.298	94
583.508	82
583.719	77
583.929	93
584.139	82
584.35	71
584.56	74
584.77	72
584.981	85
585.191	89
585.401	92
