Data from Uncirc_2007_H10_HRD10591_00027.txt Node
Date: Wed Jan 03 10:20:48 EST 2024
User: Yrep
Spectrometer: HR+D1059
Trigger mode: 1
Integration Time (sec): 1.000000E-1
Scans to average: 1
Electric dark correction enabled: true
Nonlinearity correction enabled: false
Boxcar width: 0
XAxis mode: Wavelengths
Number of Pixels in Spectrum: 2048
>>>>>Begin Spectral Data<<<<<
223.165	-3.56
223.4	-3.56
223.635	-3.56
223.869	-23.56
224.104	-9.56
224.338	-9.56
224.573	-21.56
224.808	-3.56
225.042	-12.56
225.277	-15.56
225.511	-7.56
225.746	10.44
225.98	13.44
226.215	6.44
226.449	19.44
226.683	11.44
226.918	19.44
227.152	26.44
227.387	27.44
227.621	38.44
227.856	31.44
228.09	37.44
228.324	47.44
228.559	56.44
228.793	54.44
229.027	74.44
229.262	63.44
229.496	74.44
229.73	75.44
229.964	68.44
230.199	69.44
230.433	64.44
230.667	81.44
230.901	76.44
231.136	72.44
231.37	80.44
231.604	64.44
231.838	66.44
232.072	79.44
232.306	92.44
232.541	74.44
232.775	78.44
233.009	75.44
233.243	88.44
233.477	86.44
233.711	70.44
233.945	75.44
234.179	67.44
234.413	70.44
234.647	81.44
234.881	50.44
235.115	69.44
235.349	74.44
235.583	70.44
235.817	61.44
236.051	69.44
236.285	51.44
236.519	79.44
236.753	75.44
236.987	75.44
237.221	73.44
237.455	75.44
237.689	81.44
237.922	79.44
238.156	79.44
238.39	61.44
238.624	48.44
238.858	74.44
239.091	62.44
239.325	69.44
239.559	87.44
239.793	68.44
240.027	84.44
240.26	79.44
240.494	63.44
240.728	73.44
240.961	73.44
241.195	65.44
241.429	74.44
241.662	46.44
241.896	60.44
242.13	76.44
242.363	65.44
242.597	83.44
242.83	70.44
243.064	68.44
243.298	79.44
243.531	85.44
243.765	71.44
243.998	61.44
244.232	73.44
244.465	83.44
244.699	71.44
244.932	66.44
245.166	75.44
245.399	72.44
245.633	69.44
245.866	83.44
246.099	82.44
246.333	69.44
246.566	58.44
246.8	68.44
247.033	75.44
247.266	71.44
247.5	75.44
247.733	72.44
247.966	75.44
248.2	77.44
248.433	72.44
248.666	65.44
248.899	75.44
249.133	82.44
249.366	74.44
249.599	87.44
249.832	77.44
250.066	73.44
250.299	68.44
250.532	68.44
250.765	67.44
250.998	86.44
251.231	87.44
251.465	74.44
251.698	73.44
251.931	67.44
252.164	74.44
252.397	77.44
252.63	80.44
252.863	72.44
253.096	65.44
253.329	78.44
253.562	83.44
253.795	67.44
254.028	69.44
254.261	83.44
254.494	82.44
254.727	69.44
254.96	63.44
255.193	71.44
255.426	66.44
255.659	90.44
255.892	79.44
256.124	93.44
256.357	77.44
256.59	77.44
256.823	80.44
257.056	71.44
257.289	70.44
257.521	73.44
257.754	75.44
257.987	72.44
258.22	75.44
258.452	81.44
258.685	74.44
258.918	75.44
259.151	68.44
259.383	87.44
259.616	79.44
259.849	75.44
260.081	70.44
260.314	70.44
260.547	74.44
260.779	78.44
261.012	75.44
261.244	83.44
261.477	78.44
261.71	91.44
261.942	103.44
262.175	92.44
262.407	76.44
262.64	76.44
262.872	57.44
263.105	69.44
263.337	78.44
263.57	81.44
263.802	85.44
264.035	83.44
264.267	62.44
264.499	77.44
264.732	83.44
264.964	76.44
265.197	74.44
265.429	77.44
265.661	75.44
265.894	80.44
266.126	86.44
266.358	88.44
266.591	69.44
266.823	73.44
267.055	66.44
267.287	70.44
267.52	84.44
267.752	66.44
267.984	73.44
268.216	78.44
268.448	87.44
268.681	77.44
268.913	80.44
269.145	85.44
269.377	69.44
269.609	93.44
269.841	89.44
270.073	77.44
270.306	74.44
270.538	68.44
270.77	73.44
271.002	72.44
271.234	78.44
271.466	77.44
271.698	74.44
271.93	79.44
272.162	64.44
272.394	80.44
272.626	77.44
272.858	83.44
273.09	77.44
273.322	76.44
273.553	90.44
273.785	77.44
274.017	85.44
274.249	77.44
274.481	79.44
274.713	74.44
274.945	70.44
275.176	79.44
275.408	80.44
275.64	69.44
275.872	67.44
276.104	80.44
276.335	78.44
276.567	84.44
276.799	102.44
277.031	79.44
277.262	80.44
277.494	93.44
277.726	66.44
277.957	69.44
278.189	75.44
278.421	80.44
278.652	82.44
278.884	78.44
279.115	75.44
279.347	86.44
279.579	84.44
279.81	76.44
280.042	74.44
280.273	83.44
280.505	79.44
280.736	69.44
280.968	86.44
281.199	87.44
281.431	71.44
281.662	79.44
281.894	84.44
282.125	88.44
282.356	130.44
282.588	134.44
282.819	96.44
283.051	82.44
283.282	69.44
283.513	84.44
283.745	89.44
283.976	84.44
284.207	86.44
284.439	82.44
284.67	82.44
284.901	74.44
285.132	74.44
285.364	72.44
285.595	85.44
285.826	78.44
286.057	101.44
286.288	87.44
286.52	83.44
286.751	79.44
286.982	83.44
287.213	80.44
287.444	85.44
287.675	80.44
287.906	82.44
288.138	78.44
288.369	87.44
288.6	82.44
288.831	86.44
289.062	86.44
289.293	77.44
289.524	76.44
289.755	76.44
289.986	77.44
290.217	87.44
290.448	77.44
290.679	82.44
290.91	79.44
291.141	70.44
291.371	82.44
291.602	82.44
291.833	94.44
292.064	83.44
292.295	78.44
292.526	75.44
292.757	68.44
292.987	83.44
293.218	76.44
293.449	78.44
293.68	83.44
293.91	81.44
294.141	78.44
294.372	85.44
294.603	87.44
294.833	74.44
295.064	84.44
295.295	75.44
295.525	79.44
295.756	75.44
295.987	101.44
296.217	134.44
296.448	101.44
296.679	87.44
296.909	96.44
297.14	82.44
297.37	73.44
297.601	84.44
297.831	85.44
298.062	88.44
298.292	89.44
298.523	79.44
298.753	83.44
298.984	84.44
299.214	81.44
299.445	83.44
299.675	88.44
299.905	86.44
300.136	70.44
300.366	75.44
300.597	73.44
300.827	82.44
301.057	78.44
301.288	100.44
301.518	88.44
301.748	85.44
301.979	97.44
302.209	86.44
302.439	87.44
302.669	91.44
302.9	78.44
303.13	92.44
303.36	87.44
303.59	91.44
303.82	96.44
304.051	68.44
304.281	93.44
304.511	88.44
304.741	88.44
304.971	70.44
305.201	79.44
305.431	74.44
305.661	96.44
305.891	93.44
306.121	98.44
306.352	97.44
306.582	107.44
306.812	87.44
307.042	86.44
307.272	86.44
307.502	79.44
307.731	80.44
307.961	93.44
308.191	80.44
308.421	79.44
308.651	80.44
308.881	84.44
309.111	88.44
309.341	94.44
309.571	107.44
309.8	90.44
310.03	92.44
310.26	89.44
310.49	91.44
310.72	93.44
310.949	79.44
311.179	85.44
311.409	85.44
311.639	94.44
311.868	105.44
312.098	99.44
312.328	79.44
312.557	86.44
312.787	103.44
313.017	94.44
313.246	79.44
313.476	98.44
313.706	93.44
313.935	78.44
314.165	83.44
314.394	88.44
314.624	74.44
314.853	84.44
315.083	84.44
315.312	79.44
315.542	93.44
315.771	82.44
316.001	96.44
316.23	65.44
316.46	85.44
316.689	92.44
316.919	88.44
317.148	84.44
317.377	94.44
317.607	92.44
317.836	88.44
318.065	83.44
318.295	92.44
318.524	83.44
318.753	93.44
318.983	85.44
319.212	100.44
319.441	112.44
319.67	96.44
319.9	93.44
320.129	81.44
320.358	92.44
320.587	91.44
320.816	86.44
321.046	103.44
321.275	100.44
321.504	88.44
321.733	87.44
321.962	86.44
322.191	94.44
322.42	84.44
322.649	93.44
322.878	91.44
323.108	106.44
323.337	107.44
323.566	114.44
323.795	141.44
324.024	186.44
324.253	340.44
324.482	716.44
324.71	1483.44
324.939	1902.44
325.168	704.44
325.397	221.44
325.626	132.44
325.855	116.44
326.084	124.44
326.313	121.44
326.542	131.44
326.77	191.44
326.999	389.44
327.228	798.44
327.457	1471.44
327.686	1196.44
327.914	331.44
328.143	165.44
328.372	124.44
328.6	116.44
328.829	107.44
329.058	114.44
329.287	114.44
329.515	88.44
329.744	98.44
329.972	90.44
330.201	91.44
330.43	88.44
330.658	110.44
330.887	134.44
331.115	109.44
331.344	83.44
331.572	90.44
331.801	92.44
332.03	109.44
332.258	85.44
332.486	87.44
332.715	88.44
332.943	77.44
333.172	76.44
333.4	86.44
333.629	103.44
333.857	99.44
334.085	101.44
334.314	92.44
334.542	92.44
334.771	84.44
334.999	86.44
335.227	84.44
335.455	87.44
335.684	88.44
335.912	78.44
336.14	93.44
336.369	85.44
336.597	92.44
336.825	76.44
337.053	84.44
337.281	86.44
337.51	86.44
337.738	80.44
337.966	83.44
338.194	85.44
338.422	88.44
338.65	91.44
338.878	83.44
339.106	81.44
339.334	77.44
339.562	93.44
339.79	66.44
340.018	90.44
340.246	82.44
340.474	95.44
340.702	86.44
340.93	79.44
341.158	80.44
341.386	85.44
341.614	85.44
341.842	98.44
342.07	83.44
342.298	78.44
342.526	80.44
342.754	89.44
342.981	70.44
343.209	81.44
343.437	86.44
343.665	82.44
343.893	98.44
344.12	82.44
344.348	74.44
344.576	87.44
344.804	79.44
345.031	82.44
345.259	87.44
345.487	93.44
345.714	86.44
345.942	92.44
346.17	75.44
346.397	83.44
346.625	81.44
346.853	83.44
347.08	89.44
347.308	83.44
347.535	86.44
347.763	92.44
347.99	91.44
348.218	95.44
348.445	86.44
348.673	89.44
348.9	94.44
349.128	70.44
349.355	86.44
349.583	85.44
349.81	84.44
350.037	85.44
350.265	77.44
350.492	87.44
350.72	89.44
350.947	76.44
351.174	74.44
351.402	102.44
351.629	79.44
351.856	89.44
352.083	94.44
352.311	103.44
352.538	97.44
352.765	110.44
352.992	107.44
353.22	90.44
353.447	90.44
353.674	88.44
353.901	91.44
354.128	70.44
354.355	87.44
354.583	84.44
354.81	101.44
355.037	96.44
355.264	90.44
355.491	79.44
355.718	75.44
355.945	85.44
356.172	82.44
356.399	96.44
356.626	91.44
356.853	83.44
357.08	76.44
357.307	81.44
357.534	86.44
357.761	75.44
357.988	98.44
358.215	86.44
358.441	85.44
358.668	80.44
358.895	81.44
359.122	74.44
359.349	67.44
359.576	86.44
359.802	88.44
360.029	97.44
360.256	90.44
360.483	94.44
360.709	86.44
360.936	95.44
361.163	97.44
361.39	87.44
361.616	70.44
361.843	79.44
362.07	89.44
362.296	85.44
362.523	91.44
362.749	69.44
362.976	89.44
363.203	81.44
363.429	80.44
363.656	78.44
363.882	84.44
364.109	78.44
364.335	76.44
364.562	95.44
364.788	87.44
365.015	84.44
365.241	103.44
365.468	105.44
365.694	99.44
365.92	76.44
366.147	68.44
366.373	77.44
366.599	84.44
366.826	75.44
367.052	84.44
367.278	93.44
367.505	79.44
367.731	80.44
367.957	85.44
368.184	84.44
368.41	93.44
368.636	102.44
368.862	100.44
369.089	89.44
369.315	88.44
369.541	78.44
369.767	62.44
369.993	76.44
370.219	65.44
370.445	93.44
370.672	71.44
370.898	65.44
371.124	86.44
371.35	83.44
371.576	76.44
371.802	96.44
372.028	76.44
372.254	67.44
372.48	61.44
372.706	86.44
372.932	80.44
373.158	83.44
373.384	93.44
373.61	64.44
373.835	91.44
374.061	88.44
374.287	82.44
374.513	70.44
374.739	81.44
374.965	78.44
375.191	71.44
375.416	66.44
375.642	75.44
375.868	80.44
376.094	92.44
376.319	68.44
376.545	85.44
376.771	80.44
376.997	80.44
377.222	89.44
377.448	87.44
377.674	87.44
377.899	92.44
378.125	93.44
378.35	88.44
378.576	81.44
378.802	83.44
379.027	89.44
379.253	90.44
379.478	93.44
379.704	92.44
379.929	86.44
380.155	83.44
380.38	88.44
380.606	86.44
380.831	77.44
381.057	98.44
381.282	88.44
381.507	83.44
381.733	78.44
381.958	98.44
382.184	96.44
382.409	87.44
382.634	99.44
382.86	98.44
383.085	84.44
383.31	84.44
383.535	80.44
383.761	75.44
383.986	90.44
384.211	82.44
384.436	88.44
384.662	79.44
384.887	78.44
385.112	80.44
385.337	91.44
385.562	85.44
385.787	92.44
386.013	108.44
386.238	94.44
386.463	93.44
386.688	89.44
386.913	88.44
387.138	105.44
387.363	88.44
387.588	85.44
387.813	81.44
388.038	105.44
388.263	106.44
388.488	86.44
388.713	79.44
388.938	90.44
389.163	83.44
389.387	84.44
389.612	72.44
389.837	96.44
390.062	88.44
390.287	90.44
390.512	85.44
390.736	84.44
390.961	74.44
391.186	79.44
391.411	91.44
391.636	73.44
391.86	72.44
392.085	95.44
392.31	83.44
392.534	81.44
392.759	84.44
392.984	89.44
393.208	80.44
393.433	74.44
393.658	88.44
393.882	93.44
394.107	70.44
394.331	77.44
394.556	78.44
394.78	78.44
395.005	84.44
395.229	74.44
395.454	87.44
395.678	88.44
395.903	68.44
396.127	82.44
396.352	91.44
396.576	67.44
396.801	76.44
397.025	78.44
397.249	76.44
397.474	90.44
397.698	68.44
397.922	86.44
398.147	86.44
398.371	90.44
398.595	90.44
398.82	87.44
399.044	65.44
399.268	73.44
399.492	86.44
399.717	85.44
399.941	89.44
400.165	78.44
400.389	99.44
400.613	79.44
400.837	68.44
401.062	93.44
401.286	90.44
401.51	82.44
401.734	76.44
401.958	94.44
402.182	122.44
402.406	134.44
402.63	103.44
402.854	84.44
403.078	79.44
403.302	69.44
403.526	77.44
403.75	81.44
403.974	66.44
404.198	80.44
404.422	92.44
404.645	81.44
404.869	86.44
405.093	85.44
405.317	87.44
405.541	96.44
405.765	88.44
405.988	105.44
406.212	163.44
406.436	195.44
406.66	127.44
406.883	102.44
407.107	84.44
407.331	93.44
407.555	96.44
407.778	102.44
408.002	80.44
408.226	91.44
408.449	77.44
408.673	81.44
408.896	85.44
409.12	90.44
409.344	95.44
409.567	73.44
409.791	78.44
410.014	75.44
410.238	80.44
410.461	75.44
410.685	78.44
410.908	102.44
411.132	80.44
411.355	74.44
411.578	90.44
411.802	74.44
412.025	83.44
412.249	77.44
412.472	75.44
412.695	77.44
412.919	91.44
413.142	77.44
413.365	82.44
413.589	94.44
413.812	69.44
414.035	78.44
414.258	86.44
414.482	81.44
414.705	72.44
414.928	84.44
415.151	88.44
415.374	85.44
415.597	79.44
415.821	81.44
416.044	78.44
416.267	82.44
416.49	89.44
416.713	78.44
416.936	88.44
417.159	78.44
417.382	82.44
417.605	76.44
417.828	76.44
418.051	79.44
418.274	96.44
418.497	91.44
418.72	76.44
418.943	85.44
419.166	74.44
419.389	66.44
419.611	76.44
419.834	84.44
420.057	90.44
420.28	79.44
420.503	71.44
420.726	78.44
420.948	83.44
421.171	87.44
421.394	83.44
421.617	77.44
421.839	72.44
422.062	88.44
422.285	86.44
422.507	79.44
422.73	94.44
422.953	91.44
423.175	78.44
423.398	74.44
423.621	72.44
423.843	72.44
424.066	72.44
424.288	84.44
424.511	83.44
424.733	91.44
424.956	93.44
425.178	97.44
425.401	93.44
425.623	101.44
425.846	82.44
426.068	94.44
426.291	93.44
426.513	72.44
426.735	79.44
426.958	96.44
427.18	84.44
427.402	116.44
427.625	120.44
427.847	103.44
428.069	84.44
428.292	87.44
428.514	70.44
428.736	71.44
428.958	88.44
429.181	96.44
429.403	69.44
429.625	65.44
429.847	82.44
430.069	79.44
430.292	75.44
430.514	85.44
430.736	95.44
430.958	69.44
431.18	86.44
431.402	83.44
431.624	67.44
431.846	63.44
432.068	78.44
432.29	72.44
432.512	85.44
432.734	69.44
432.956	83.44
433.178	85.44
433.4	87.44
433.622	81.44
433.844	91.44
434.066	71.44
434.287	76.44
434.509	75.44
434.731	84.44
434.953	84.44
435.175	77.44
435.397	92.44
435.618	70.44
435.84	82.44
436.062	106.44
436.284	104.44
436.505	84.44
436.727	88.44
436.949	84.44
437.17	80.44
437.392	82.44
437.614	84.44
437.835	90.44
438.057	109.44
438.278	90.44
438.5	97.44
438.721	107.44
438.943	80.44
439.165	79.44
439.386	82.44
439.608	82.44
439.829	90.44
440.05	116.44
440.272	119.44
440.493	97.44
440.715	85.44
440.936	89.44
441.158	76.44
441.379	83.44
441.6	88.44
441.822	93.44
442.043	82.44
442.264	91.44
442.486	90.44
442.707	87.44
442.928	102.44
443.149	98.44
443.371	108.44
443.592	93.44
443.813	89.44
444.034	90.44
444.255	84.44
444.476	93.44
444.698	87.44
444.919	82.44
445.14	115.44
445.361	96.44
445.582	103.44
445.803	114.44
446.024	127.44
446.245	103.44
446.466	94.44
446.687	85.44
446.908	80.44
447.129	89.44
447.35	70.44
447.571	72.44
447.792	83.44
448.013	102.44
448.234	100.44
448.455	93.44
448.675	86.44
448.896	118.44
449.117	105.44
449.338	80.44
449.559	112.44
449.779	98.44
450	89.44
450.221	99.44
450.442	86.44
450.662	80.44
450.883	80.44
451.104	93.44
451.324	76.44
451.545	74.44
451.766	90.44
451.986	74.44
452.207	78.44
452.428	94.44
452.648	83.44
452.869	102.44
453.089	106.44
453.31	94.44
453.53	86.44
453.751	82.44
453.971	89.44
454.192	92.44
454.412	82.44
454.633	79.44
454.853	77.44
455.073	90.44
455.294	82.44
455.514	93.44
455.734	79.44
455.955	77.44
456.175	86.44
456.395	72.44
456.616	74.44
456.836	79.44
457.056	69.44
457.276	76.44
457.497	61.44
457.717	79.44
457.937	77.44
458.157	68.44
458.377	85.44
458.598	88.44
458.818	133.44
459.038	142.44
459.258	114.44
459.478	86.44
459.698	80.44
459.918	80.44
460.138	78.44
460.358	72.44
460.578	80.44
460.798	79.44
461.018	77.44
461.238	80.44
461.458	79.44
461.678	82.44
461.898	77.44
462.118	80.44
462.338	83.44
462.558	64.44
462.777	88.44
462.997	87.44
463.217	81.44
463.437	85.44
463.657	81.44
463.876	85.44
464.096	76.44
464.316	80.44
464.536	86.44
464.755	80.44
464.975	80.44
465.195	137.44
465.414	148.44
465.634	87.44
465.854	86.44
466.073	86.44
466.293	68.44
466.512	70.44
466.732	95.44
466.951	80.44
467.171	71.44
467.391	80.44
467.61	96.44
467.829	90.44
468.049	72.44
468.268	79.44
468.488	68.44
468.707	72.44
468.927	64.44
469.146	70.44
469.365	81.44
469.585	77.44
469.804	86.44
470.023	89.44
470.243	81.44
470.462	86.44
470.681	95.44
470.901	79.44
471.12	72.44
471.339	84.44
471.558	84.44
471.777	64.44
471.997	84.44
472.216	74.44
472.435	70.44
472.654	79.44
472.873	75.44
473.092	74.44
473.311	79.44
473.53	65.44
473.749	74.44
473.968	76.44
474.187	92.44
474.406	89.44
474.625	92.44
474.844	91.44
475.063	74.44
475.282	68.44
475.501	89.44
475.72	72.44
475.939	70.44
476.158	83.44
476.377	66.44
476.596	79.44
476.814	94.44
477.033	75.44
477.252	93.44
477.471	83.44
477.69	83.44
477.908	80.44
478.127	91.44
478.346	71.44
478.564	86.44
478.783	80.44
479.002	85.44
479.22	90.44
479.439	82.44
479.658	91.44
479.876	94.44
480.095	71.44
480.313	84.44
480.532	74.44
480.751	81.44
480.969	67.44
481.188	83.44
481.406	87.44
481.624	80.44
481.843	74.44
482.061	79.44
482.28	80.44
482.498	80.44
482.717	81.44
482.935	68.44
483.153	84.44
483.372	76.44
483.59	85.44
483.808	86.44
484.027	68.44
484.245	71.44
484.463	82.44
484.681	86.44
484.9	77.44
485.118	68.44
485.336	80.44
485.554	73.44
485.772	77.44
485.99	91.44
486.209	74.44
486.427	84.44
486.645	82.44
486.863	91.44
487.081	88.44
487.299	88.44
487.517	82.44
487.735	77.44
487.953	84.44
488.171	77.44
488.389	84.44
488.607	88.44
488.825	75.44
489.043	74.44
489.261	81.44
489.479	59.44
489.696	74.44
489.914	93.44
490.132	66.44
490.35	79.44
490.568	86.44
490.786	79.44
491.003	85.44
491.221	92.44
491.439	81.44
491.657	95.44
491.874	78.44
492.092	95.44
492.31	74.44
492.527	89.44
492.745	86.44
492.963	85.44
493.18	71.44
493.398	93.44
493.615	92.44
493.833	97.44
494.05	87.44
494.268	79.44
494.485	86.44
494.703	91.44
494.92	90.44
495.138	85.44
495.355	75.44
495.573	84.44
495.79	61.44
496.008	80.44
496.225	80.44
496.442	79.44
496.66	74.44
496.877	74.44
497.094	83.44
497.312	84.44
497.529	76.44
497.746	85.44
497.963	79.44
498.181	71.44
498.398	93.44
498.615	110.44
498.832	96.44
499.049	86.44
499.267	97.44
499.484	95.44
499.701	87.44
499.918	79.44
500.135	79.44
500.352	70.44
500.569	84.44
500.786	85.44
501.003	84.44
501.22	87.44
501.437	81.44
501.654	89.44
501.871	89.44
502.088	82.44
502.305	81.44
502.522	78.44
502.739	78.44
502.956	72.44
503.172	85.44
503.389	90.44
503.606	94.44
503.823	81.44
504.04	84.44
504.256	75.44
504.473	81.44
504.69	84.44
504.907	93.44
505.123	82.44
505.34	76.44
505.557	90.44
505.773	70.44
505.99	77.44
506.207	80.44
506.423	88.44
506.64	75.44
506.856	87.44
507.073	76.44
507.289	71.44
507.506	79.44
507.722	87.44
507.939	107.44
508.155	90.44
508.372	81.44
508.588	101.44
508.805	82.44
509.021	83.44
509.238	92.44
509.454	83.44
509.67	103.44
509.887	108.44
510.103	107.44
510.319	203.44
510.536	742.44
510.752	2355.44
510.968	648.44
511.184	140.44
511.401	102.44
511.617	80.44
511.833	94.44
512.049	95.44
512.265	69.44
512.481	76.44
512.698	91.44
512.914	86.44
513.13	99.44
513.346	79.44
513.562	77.44
513.778	85.44
513.994	87.44
514.21	92.44
514.426	110.44
514.642	128.44
514.858	107.44
515.074	136.44
515.29	427.44
515.506	1442.44
515.721	514.44
515.937	142.44
516.153	98.44
516.369	82.44
516.585	77.44
516.801	86.44
517.016	79.44
517.232	89.44
517.448	83.44
517.664	81.44
517.879	83.44
518.095	91.44
518.311	67.44
