Data from Uncirc_2007_H10_HRD10591_00028.txt Node
Date: Wed Jan 03 10:20:48 EST 2024
User: Yrep
Spectrometer: HR+D1059
Trigger mode: 1
Integration Time (sec): 1.000000E-1
Scans to average: 1
Electric dark correction enabled: true
Nonlinearity correction enabled: false
Boxcar width: 0
XAxis mode: Wavelengths
Number of Pixels in Spectrum: 2048
>>>>>Begin Spectral Data<<<<<
223.165	-23.56
223.4	-23.56
223.635	-23.56
223.869	-19.56
224.104	-17.56
224.338	-19.56
224.573	-11.56
224.808	3.44
225.042	-9.56
225.277	-11.56
225.511	-0.56
225.746	4.44
225.98	12.44
226.215	14.44
226.449	12.44
226.683	37.44
226.918	10.44
227.152	18.44
227.387	41.44
227.621	46.44
227.856	57.44
228.09	39.44
228.324	69.44
228.559	58.44
228.793	51.44
229.027	53.44
229.262	60.44
229.496	71.44
229.73	75.44
229.964	82.44
230.199	78.44
230.433	82.44
230.667	67.44
230.901	84.44
231.136	92.44
231.37	68.44
231.604	83.44
231.838	85.44
232.072	82.44
232.306	106.44
232.541	82.44
232.775	83.44
233.009	83.44
233.243	81.44
233.477	86.44
233.711	81.44
233.945	84.44
234.179	87.44
234.413	88.44
234.647	78.44
234.881	86.44
235.115	91.44
235.349	76.44
235.583	76.44
235.817	93.44
236.051	75.44
236.285	82.44
236.519	79.44
236.753	90.44
236.987	76.44
237.221	86.44
237.455	77.44
237.689	86.44
237.922	95.44
238.156	72.44
238.39	86.44
238.624	72.44
238.858	80.44
239.091	74.44
239.325	68.44
239.559	75.44
239.793	80.44
240.027	61.44
240.26	80.44
240.494	73.44
240.728	72.44
240.961	68.44
241.195	77.44
241.429	77.44
241.662	77.44
241.896	69.44
242.13	76.44
242.363	77.44
242.597	76.44
242.83	79.44
243.064	78.44
243.298	77.44
243.531	74.44
243.765	65.44
243.998	68.44
244.232	91.44
244.465	85.44
244.699	85.44
244.932	99.44
245.166	70.44
245.399	79.44
245.633	75.44
245.866	69.44
246.099	69.44
246.333	75.44
246.566	77.44
246.8	68.44
247.033	81.44
247.266	77.44
247.5	77.44
247.733	80.44
247.966	88.44
248.2	74.44
248.433	92.44
248.666	68.44
248.899	90.44
249.133	72.44
249.366	72.44
249.599	86.44
249.832	84.44
250.066	90.44
250.299	78.44
250.532	78.44
250.765	74.44
250.998	77.44
251.231	80.44
251.465	74.44
251.698	71.44
251.931	70.44
252.164	62.44
252.397	74.44
252.63	88.44
252.863	80.44
253.096	77.44
253.329	85.44
253.562	82.44
253.795	72.44
254.028	86.44
254.261	75.44
254.494	89.44
254.727	78.44
254.96	92.44
255.193	87.44
255.426	75.44
255.659	78.44
255.892	77.44
256.124	79.44
256.357	90.44
256.59	76.44
256.823	74.44
257.056	76.44
257.289	72.44
257.521	80.44
257.754	77.44
257.987	78.44
258.22	79.44
258.452	90.44
258.685	81.44
258.918	82.44
259.151	75.44
259.383	83.44
259.616	69.44
259.849	85.44
260.081	82.44
260.314	72.44
260.547	84.44
260.779	69.44
261.012	78.44
261.244	78.44
261.477	85.44
261.71	79.44
261.942	92.44
262.175	98.44
262.407	86.44
262.64	92.44
262.872	78.44
263.105	75.44
263.337	86.44
263.57	77.44
263.802	84.44
264.035	86.44
264.267	88.44
264.499	87.44
264.732	85.44
264.964	89.44
265.197	83.44
265.429	77.44
265.661	75.44
265.894	92.44
266.126	84.44
266.358	92.44
266.591	82.44
266.823	93.44
267.055	89.44
267.287	76.44
267.52	85.44
267.752	89.44
267.984	91.44
268.216	87.44
268.448	76.44
268.681	83.44
268.913	83.44
269.145	80.44
269.377	85.44
269.609	79.44
269.841	79.44
270.073	79.44
270.306	84.44
270.538	86.44
270.77	84.44
271.002	85.44
271.234	82.44
271.466	88.44
271.698	100.44
271.93	69.44
272.162	81.44
272.394	80.44
272.626	66.44
272.858	84.44
273.09	74.44
273.322	81.44
273.553	68.44
273.785	73.44
274.017	85.44
274.249	83.44
274.481	103.44
274.713	83.44
274.945	78.44
275.176	83.44
275.408	93.44
275.64	91.44
275.872	73.44
276.104	92.44
276.335	87.44
276.567	101.44
276.799	101.44
277.031	96.44
277.262	85.44
277.494	93.44
277.726	88.44
277.957	88.44
278.189	104.44
278.421	84.44
278.652	85.44
278.884	80.44
279.115	80.44
279.347	80.44
279.579	91.44
279.81	85.44
280.042	86.44
280.273	75.44
280.505	83.44
280.736	97.44
280.968	84.44
281.199	79.44
281.431	85.44
281.662	93.44
281.894	91.44
282.125	94.44
282.356	101.44
282.588	139.44
282.819	120.44
283.051	92.44
283.282	83.44
283.513	90.44
283.745	97.44
283.976	92.44
284.207	76.44
284.439	85.44
284.67	95.44
284.901	92.44
285.132	98.44
285.364	88.44
285.595	85.44
285.826	81.44
286.057	86.44
286.288	71.44
286.52	89.44
286.751	93.44
286.982	95.44
287.213	75.44
287.444	76.44
287.675	76.44
287.906	99.44
288.138	86.44
288.369	90.44
288.6	96.44
288.831	97.44
289.062	93.44
289.293	80.44
289.524	83.44
289.755	92.44
289.986	83.44
290.217	79.44
290.448	76.44
290.679	91.44
290.91	94.44
291.141	90.44
291.371	96.44
291.602	88.44
291.833	77.44
292.064	93.44
292.295	95.44
292.526	92.44
292.757	96.44
292.987	86.44
293.218	87.44
293.449	70.44
293.68	93.44
293.91	77.44
294.141	86.44
294.372	85.44
294.603	100.44
294.833	91.44
295.064	96.44
295.295	94.44
295.525	86.44
295.756	108.44
295.987	104.44
296.217	134.44
296.448	128.44
296.679	106.44
296.909	93.44
297.14	90.44
297.37	80.44
297.601	82.44
297.831	82.44
298.062	87.44
298.292	94.44
298.523	85.44
298.753	79.44
298.984	75.44
299.214	92.44
299.445	82.44
299.675	102.44
299.905	90.44
300.136	94.44
300.366	85.44
300.597	88.44
300.827	103.44
301.057	98.44
301.288	110.44
301.518	89.44
301.748	98.44
301.979	109.44
302.209	101.44
302.439	93.44
302.669	95.44
302.9	93.44
303.13	86.44
303.36	101.44
303.59	85.44
303.82	101.44
304.051	89.44
304.281	85.44
304.511	75.44
304.741	93.44
304.971	96.44
305.201	97.44
305.431	101.44
305.661	98.44
305.891	95.44
306.121	102.44
306.352	86.44
306.582	92.44
306.812	94.44
307.042	100.44
307.272	98.44
307.502	92.44
307.731	91.44
307.961	103.44
308.191	81.44
308.421	87.44
308.651	102.44
308.881	86.44
309.111	89.44
309.341	93.44
309.571	99.44
309.8	101.44
310.03	86.44
310.26	90.44
310.49	99.44
310.72	103.44
310.949	87.44
311.179	95.44
311.409	88.44
311.639	93.44
311.868	105.44
312.098	96.44
312.328	105.44
312.557	96.44
312.787	99.44
313.017	113.44
313.246	110.44
313.476	89.44
313.706	89.44
313.935	95.44
314.165	97.44
314.394	94.44
314.624	85.44
314.853	95.44
315.083	86.44
315.312	91.44
315.542	107.44
315.771	99.44
316.001	93.44
316.23	88.44
316.46	93.44
316.689	99.44
316.919	83.44
317.148	99.44
317.377	88.44
317.607	93.44
317.836	88.44
318.065	93.44
318.295	85.44
318.524	93.44
318.753	90.44
318.983	107.44
319.212	116.44
319.441	92.44
319.67	107.44
319.9	91.44
320.129	94.44
320.358	92.44
320.587	94.44
320.816	95.44
321.046	102.44
321.275	103.44
321.504	94.44
321.733	98.44
321.962	90.44
322.191	107.44
322.42	114.44
322.649	114.44
322.878	102.44
323.108	109.44
323.337	122.44
323.566	127.44
323.795	172.44
324.024	237.44
324.253	420.44
324.482	947.44
324.71	1945.44
324.939	2641.44
325.168	922.44
325.397	269.44
325.626	156.44
325.855	144.44
326.084	131.44
326.313	140.44
326.542	164.44
326.77	275.44
326.999	538.44
327.228	1084.44
327.457	1998.44
327.686	1567.44
327.914	407.44
328.143	200.44
328.372	168.44
328.6	130.44
328.829	124.44
329.058	113.44
329.287	132.44
329.515	100.44
329.744	106.44
329.972	96.44
330.201	98.44
330.43	111.44
330.658	140.44
330.887	151.44
331.115	139.44
331.344	108.44
331.572	93.44
331.801	113.44
332.03	95.44
332.258	104.44
332.486	92.44
332.715	89.44
332.943	90.44
333.172	95.44
333.4	94.44
333.629	92.44
333.857	115.44
334.085	93.44
334.314	94.44
334.542	94.44
334.771	82.44
334.999	102.44
335.227	98.44
335.455	96.44
335.684	97.44
335.912	97.44
336.14	100.44
336.369	102.44
336.597	112.44
336.825	99.44
337.053	77.44
337.281	90.44
337.51	95.44
337.738	105.44
337.966	100.44
338.194	100.44
338.422	110.44
338.65	95.44
338.878	98.44
339.106	83.44
339.334	93.44
339.562	104.44
339.79	94.44
340.018	85.44
340.246	95.44
340.474	101.44
340.702	84.44
340.93	105.44
341.158	82.44
341.386	101.44
341.614	105.44
341.842	93.44
342.07	93.44
342.298	95.44
342.526	83.44
342.754	73.44
342.981	86.44
343.209	96.44
343.437	95.44
343.665	95.44
343.893	91.44
344.12	84.44
344.348	85.44
344.576	107.44
344.804	101.44
345.031	98.44
345.259	100.44
345.487	96.44
345.714	102.44
345.942	101.44
346.17	97.44
346.397	95.44
346.625	87.44
346.853	99.44
347.08	85.44
347.308	94.44
347.535	89.44
347.763	88.44
347.99	91.44
348.218	91.44
348.445	105.44
348.673	94.44
348.9	100.44
349.128	96.44
349.355	76.44
349.583	101.44
349.81	114.44
350.037	95.44
350.265	97.44
350.492	88.44
350.72	92.44
350.947	105.44
351.174	115.44
351.402	127.44
351.629	109.44
351.856	95.44
352.083	101.44
352.311	108.44
352.538	106.44
352.765	122.44
352.992	112.44
353.22	102.44
353.447	117.44
353.674	88.44
353.901	102.44
354.128	96.44
354.355	96.44
354.583	111.44
354.81	103.44
355.037	91.44
355.264	99.44
355.491	95.44
355.718	102.44
355.945	97.44
356.172	105.44
356.399	80.44
356.626	103.44
356.853	98.44
357.08	84.44
357.307	90.44
357.534	84.44
357.761	105.44
357.988	99.44
358.215	99.44
358.441	103.44
358.668	94.44
358.895	94.44
359.122	78.44
359.349	81.44
359.576	94.44
359.802	108.44
360.029	94.44
360.256	106.44
360.483	110.44
360.709	85.44
360.936	90.44
361.163	90.44
361.39	93.44
361.616	84.44
361.843	102.44
362.07	86.44
362.296	100.44
362.523	100.44
362.749	90.44
362.976	83.44
363.203	80.44
363.429	68.44
363.656	101.44
363.882	88.44
364.109	86.44
364.335	85.44
364.562	86.44
364.788	81.44
365.015	90.44
365.241	86.44
365.468	110.44
365.694	96.44
365.92	109.44
366.147	110.44
366.373	105.44
366.599	92.44
366.826	89.44
367.052	93.44
367.278	98.44
367.505	93.44
367.731	104.44
367.957	112.44
368.184	89.44
368.41	96.44
368.636	123.44
368.862	113.44
369.089	101.44
369.315	95.44
369.541	101.44
369.767	77.44
369.993	98.44
370.219	83.44
370.445	89.44
370.672	87.44
370.898	98.44
371.124	84.44
371.35	78.44
371.576	89.44
371.802	74.44
372.028	90.44
372.254	91.44
372.48	100.44
372.706	83.44
372.932	98.44
373.158	92.44
373.384	87.44
373.61	97.44
373.835	84.44
374.061	94.44
374.287	95.44
374.513	87.44
374.739	103.44
374.965	78.44
375.191	99.44
375.416	81.44
375.642	95.44
375.868	83.44
376.094	86.44
376.319	77.44
376.545	92.44
376.771	80.44
376.997	90.44
377.222	91.44
377.448	97.44
377.674	99.44
377.899	100.44
378.125	74.44
378.35	100.44
378.576	97.44
378.802	86.44
379.027	91.44
379.253	90.44
379.478	74.44
379.704	92.44
379.929	97.44
380.155	92.44
380.38	94.44
380.606	106.44
380.831	89.44
381.057	88.44
381.282	97.44
381.507	89.44
381.733	103.44
381.958	97.44
382.184	106.44
382.409	91.44
382.634	95.44
382.86	98.44
383.085	99.44
383.31	102.44
383.535	112.44
383.761	110.44
383.986	98.44
384.211	99.44
384.436	94.44
384.662	102.44
384.887	110.44
385.112	99.44
385.337	102.44
385.562	109.44
385.787	109.44
386.013	109.44
386.238	106.44
386.463	113.44
386.688	116.44
386.913	91.44
387.138	103.44
387.363	113.44
387.588	113.44
387.813	94.44
388.038	108.44
388.263	111.44
388.488	93.44
388.713	106.44
388.938	99.44
389.163	98.44
389.387	113.44
389.612	99.44
389.837	85.44
390.062	98.44
390.287	94.44
390.512	90.44
390.736	89.44
390.961	96.44
391.186	80.44
391.411	80.44
391.636	102.44
391.86	92.44
392.085	80.44
392.31	80.44
392.534	85.44
392.759	89.44
392.984	81.44
393.208	91.44
393.433	101.44
393.658	82.44
393.882	96.44
394.107	86.44
394.331	90.44
394.556	78.44
394.78	85.44
395.005	101.44
395.229	77.44
395.454	85.44
395.678	91.44
395.903	72.44
396.127	94.44
396.352	78.44
396.576	84.44
396.801	98.44
397.025	88.44
397.249	81.44
397.474	81.44
397.698	93.44
397.922	94.44
398.147	85.44
398.371	86.44
398.595	94.44
398.82	90.44
399.044	95.44
399.268	93.44
399.492	76.44
399.717	94.44
399.941	85.44
400.165	90.44
400.389	106.44
400.613	94.44
400.837	86.44
401.062	97.44
401.286	84.44
401.51	90.44
401.734	90.44
401.958	113.44
402.182	128.44
402.406	156.44
402.63	101.44
402.854	90.44
403.078	95.44
403.302	92.44
403.526	78.44
403.75	93.44
403.974	99.44
404.198	89.44
404.422	87.44
404.645	86.44
404.869	93.44
405.093	104.44
405.317	88.44
405.541	101.44
405.765	100.44
405.988	118.44
406.212	191.44
406.436	233.44
406.66	138.44
406.883	96.44
407.107	101.44
407.331	111.44
407.555	108.44
407.778	89.44
408.002	99.44
408.226	89.44
408.449	85.44
408.673	75.44
408.896	83.44
409.12	98.44
409.344	79.44
409.567	90.44
409.791	92.44
410.014	101.44
410.238	96.44
410.461	84.44
410.685	90.44
410.908	100.44
411.132	98.44
411.355	98.44
411.578	86.44
411.802	91.44
412.025	93.44
412.249	105.44
412.472	82.44
412.695	85.44
412.919	78.44
413.142	86.44
413.365	92.44
413.589	105.44
413.812	96.44
414.035	100.44
414.258	104.44
414.482	78.44
414.705	94.44
414.928	89.44
415.151	92.44
415.374	97.44
415.597	101.44
415.821	96.44
416.044	80.44
416.267	99.44
416.49	78.44
416.713	93.44
416.936	93.44
417.159	96.44
417.382	80.44
417.605	101.44
417.828	100.44
418.051	106.44
418.274	87.44
418.497	90.44
418.72	82.44
418.943	88.44
419.166	88.44
419.389	110.44
419.611	96.44
419.834	85.44
420.057	92.44
420.28	88.44
420.503	86.44
420.726	89.44
420.948	90.44
421.171	97.44
421.394	98.44
421.617	103.44
421.839	85.44
422.062	91.44
422.285	98.44
422.507	106.44
422.73	86.44
422.953	105.44
423.175	83.44
423.398	84.44
423.621	100.44
423.843	94.44
424.066	96.44
424.288	86.44
424.511	98.44
424.733	106.44
424.956	110.44
425.178	97.44
425.401	86.44
425.623	96.44
425.846	92.44
426.068	107.44
426.291	101.44
426.513	95.44
426.735	98.44
426.958	99.44
427.18	113.44
427.402	130.44
427.625	181.44
427.847	126.44
428.069	105.44
428.292	64.44
428.514	101.44
428.736	88.44
428.958	81.44
429.181	86.44
429.403	99.44
429.625	86.44
429.847	79.44
430.069	82.44
430.292	89.44
430.514	88.44
430.736	101.44
430.958	74.44
431.18	89.44
431.402	97.44
431.624	90.44
431.846	96.44
432.068	76.44
432.29	53.44
432.512	108.44
432.734	96.44
432.956	95.44
433.178	90.44
433.4	114.44
433.622	90.44
433.844	93.44
434.066	96.44
434.287	102.44
434.509	92.44
434.731	99.44
434.953	90.44
435.175	85.44
435.397	80.44
435.618	100.44
435.84	101.44
436.062	124.44
436.284	125.44
436.505	110.44
436.727	103.44
436.949	100.44
437.17	97.44
437.392	84.44
437.614	92.44
437.835	104.44
438.057	113.44
438.278	118.44
438.5	100.44
438.721	124.44
438.943	104.44
439.165	87.44
439.386	93.44
439.608	96.44
439.829	110.44
440.05	126.44
440.272	146.44
440.493	96.44
440.715	72.44
440.936	89.44
441.158	77.44
441.379	102.44
441.6	92.44
441.822	88.44
442.043	106.44
442.264	108.44
442.486	117.44
442.707	101.44
442.928	113.44
443.149	125.44
443.371	115.44
443.592	120.44
443.813	122.44
444.034	111.44
444.255	96.44
444.476	78.44
444.698	100.44
444.919	104.44
445.14	137.44
445.361	129.44
445.582	114.44
445.803	132.44
446.024	124.44
446.245	148.44
446.466	121.44
446.687	95.44
446.908	97.44
447.129	89.44
447.35	72.44
447.571	100.44
447.792	87.44
448.013	105.44
448.234	103.44
448.455	104.44
448.675	118.44
448.896	122.44
449.117	102.44
449.338	106.44
449.559	129.44
449.779	132.44
450	91.44
450.221	93.44
450.442	87.44
450.662	96.44
450.883	105.44
451.104	96.44
451.324	86.44
451.545	74.44
451.766	82.44
451.986	91.44
452.207	85.44
452.428	88.44
452.648	97.44
452.869	113.44
453.089	110.44
453.31	117.44
453.53	96.44
453.751	95.44
453.971	109.44
454.192	122.44
454.412	92.44
454.633	96.44
454.853	97.44
455.073	81.44
455.294	109.44
455.514	99.44
455.734	83.44
455.955	92.44
456.175	92.44
456.395	82.44
456.616	92.44
456.836	77.44
457.056	89.44
457.276	85.44
457.497	88.44
457.717	96.44
457.937	89.44
458.157	78.44
458.377	85.44
458.598	106.44
458.818	154.44
459.038	167.44
459.258	104.44
459.478	89.44
459.698	89.44
459.918	76.44
460.138	92.44
460.358	68.44
460.578	83.44
460.798	92.44
461.018	82.44
461.238	95.44
461.458	79.44
461.678	95.44
461.898	92.44
462.118	67.44
462.338	93.44
462.558	92.44
462.777	82.44
462.997	94.44
463.217	89.44
463.437	79.44
463.657	81.44
463.876	91.44
464.096	86.44
464.316	95.44
464.536	98.44
464.755	100.44
464.975	109.44
465.195	170.44
465.414	171.44
465.634	105.44
465.854	95.44
466.073	96.44
466.293	91.44
466.512	77.44
466.732	78.44
466.951	92.44
467.171	86.44
467.391	95.44
467.61	101.44
467.829	96.44
468.049	96.44
468.268	82.44
468.488	93.44
468.707	97.44
468.927	84.44
469.146	84.44
469.365	85.44
469.585	88.44
469.804	95.44
470.023	101.44
470.243	94.44
470.462	106.44
470.681	98.44
470.901	93.44
471.12	102.44
471.339	86.44
471.558	86.44
471.777	95.44
471.997	87.44
472.216	89.44
472.435	104.44
472.654	86.44
472.873	88.44
473.092	88.44
473.311	89.44
473.53	83.44
473.749	69.44
473.968	81.44
474.187	92.44
474.406	89.44
474.625	80.44
474.844	73.44
475.063	88.44
475.282	94.44
475.501	78.44
475.72	90.44
475.939	83.44
476.158	81.44
476.377	87.44
476.596	94.44
476.814	104.44
477.033	99.44
477.252	100.44
477.471	88.44
477.69	93.44
477.908	84.44
478.127	95.44
478.346	96.44
478.564	98.44
478.783	100.44
479.002	101.44
479.22	99.44
479.439	91.44
479.658	98.44
479.876	99.44
480.095	92.44
480.313	90.44
480.532	94.44
480.751	85.44
480.969	99.44
481.188	90.44
481.406	104.44
481.624	92.44
481.843	82.44
482.061	81.44
482.28	90.44
482.498	90.44
482.717	108.44
482.935	102.44
483.153	97.44
483.372	92.44
483.59	79.44
483.808	86.44
484.027	90.44
484.245	82.44
484.463	96.44
484.681	99.44
484.9	84.44
485.118	101.44
485.336	105.44
485.554	101.44
485.772	99.44
485.99	106.44
486.209	102.44
486.427	108.44
486.645	106.44
486.863	94.44
487.081	102.44
487.299	85.44
487.517	89.44
487.735	85.44
487.953	83.44
488.171	77.44
488.389	101.44
488.607	108.44
488.825	84.44
489.043	88.44
489.261	94.44
489.479	78.44
489.696	94.44
489.914	94.44
490.132	80.44
490.35	86.44
490.568	90.44
490.786	92.44
491.003	94.44
491.221	88.44
491.439	108.44
491.657	94.44
491.874	95.44
492.092	93.44
492.31	95.44
492.527	95.44
492.745	81.44
492.963	85.44
493.18	82.44
493.398	96.44
493.615	93.44
493.833	96.44
494.05	94.44
494.268	92.44
494.485	77.44
494.703	84.44
494.92	75.44
495.138	90.44
495.355	101.44
495.573	94.44
495.79	92.44
496.008	97.44
496.225	100.44
496.442	106.44
496.66	108.44
496.877	87.44
497.094	92.44
497.312	93.44
497.529	91.44
497.746	86.44
497.963	93.44
498.181	84.44
498.398	96.44
498.615	108.44
498.832	120.44
499.049	84.44
499.267	96.44
499.484	87.44
499.701	89.44
499.918	96.44
500.135	90.44
500.352	92.44
500.569	99.44
500.786	97.44
501.003	89.44
501.22	96.44
501.437	97.44
501.654	109.44
501.871	97.44
502.088	76.44
502.305	89.44
502.522	96.44
502.739	94.44
502.956	82.44
503.172	106.44
503.389	90.44
503.606	104.44
503.823	109.44
504.04	102.44
504.256	88.44
504.473	77.44
504.69	77.44
504.907	89.44
505.123	96.44
505.34	89.44
505.557	97.44
505.773	86.44
505.99	96.44
506.207	84.44
506.423	105.44
506.64	90.44
506.856	96.44
507.073	89.44
507.289	84.44
507.506	92.44
507.722	109.44
507.939	117.44
508.155	108.44
508.372	97.44
508.588	89.44
508.805	86.44
509.021	103.44
509.238	89.44
509.454	98.44
509.67	106.44
509.887	98.44
510.103	148.44
510.319	224.44
510.536	811.44
510.752	2611.44
510.968	733.44
511.184	161.44
511.401	118.44
511.617	95.44
511.833	93.44
512.049	86.44
512.265	86.44
512.481	97.44
512.698	82.44
512.914	84.44
513.13	85.44
513.346	86.44
513.562	89.44
513.778	101.44
513.994	111.44
514.21	113.44
514.426	112.44
514.642	132.44
514.858	143.44
515.074	176.44
515.29	476.44
