Data from Uncirc_2007_H10_HRD10591_00021.txt Node
Date: Wed Jan 03 10:20:46 EST 2024
User: Yrep
Spectrometer: HR+D1059
Trigger mode: 1
Integration Time (sec): 1.000000E-1
Scans to average: 1
Electric dark correction enabled: true
Nonlinearity correction enabled: false
Boxcar width: 0
XAxis mode: Wavelengths
Number of Pixels in Spectrum: 2048
>>>>>Begin Spectral Data<<<<<
223.165	-29.62
223.4	-29.62
223.635	-29.62
223.869	-25.62
224.104	-20.62
224.338	-20.62
224.573	-9.62
224.808	-23.62
225.042	4.38
225.277	-10.62
225.511	4.38
225.746	7.38
225.98	11.38
226.215	-4.62
226.449	13.38
226.683	30.38
226.918	41.38
227.152	32.38
227.387	38.38
227.621	35.38
227.856	45.38
228.09	51.38
228.324	52.38
228.559	57.38
228.793	57.38
229.027	62.38
229.262	63.38
229.496	80.38
229.73	85.38
229.964	84.38
230.199	83.38
230.433	86.38
230.667	84.38
230.901	85.38
231.136	79.38
231.37	87.38
231.604	80.38
231.838	78.38
232.072	72.38
232.306	86.38
232.541	84.38
232.775	90.38
233.009	89.38
233.243	78.38
233.477	82.38
233.711	78.38
233.945	79.38
234.179	60.38
234.413	84.38
234.647	92.38
234.881	94.38
235.115	70.38
235.349	96.38
235.583	81.38
235.817	85.38
236.051	87.38
236.285	70.38
236.519	72.38
236.753	78.38
236.987	81.38
237.221	96.38
237.455	92.38
237.689	87.38
237.922	78.38
238.156	83.38
238.39	89.38
238.624	79.38
238.858	86.38
239.091	70.38
239.325	89.38
239.559	85.38
239.793	76.38
240.027	84.38
240.26	82.38
240.494	65.38
240.728	76.38
240.961	89.38
241.195	79.38
241.429	88.38
241.662	84.38
241.896	75.38
242.13	78.38
242.363	69.38
242.597	85.38
242.83	89.38
243.064	68.38
243.298	84.38
243.531	82.38
243.765	77.38
243.998	97.38
244.232	94.38
244.465	83.38
244.699	87.38
244.932	64.38
245.166	66.38
245.399	73.38
245.633	80.38
245.866	85.38
246.099	84.38
246.333	86.38
246.566	83.38
246.8	75.38
247.033	87.38
247.266	89.38
247.5	77.38
247.733	75.38
247.966	89.38
248.2	63.38
248.433	84.38
248.666	87.38
248.899	90.38
249.133	95.38
249.366	100.38
249.599	99.38
249.832	92.38
250.066	79.38
250.299	72.38
250.532	76.38
250.765	85.38
250.998	81.38
251.231	75.38
251.465	77.38
251.698	92.38
251.931	89.38
252.164	83.38
252.397	73.38
252.63	84.38
252.863	85.38
253.096	94.38
253.329	87.38
253.562	86.38
253.795	84.38
254.028	96.38
254.261	80.38
254.494	84.38
254.727	89.38
254.96	76.38
255.193	87.38
255.426	75.38
255.659	89.38
255.892	87.38
256.124	78.38
256.357	84.38
256.59	100.38
256.823	78.38
257.056	95.38
257.289	86.38
257.521	86.38
257.754	80.38
257.987	84.38
258.22	95.38
258.452	81.38
258.685	77.38
258.918	80.38
259.151	81.38
259.383	80.38
259.616	86.38
259.849	99.38
260.081	85.38
260.314	88.38
260.547	75.38
260.779	85.38
261.012	79.38
261.244	94.38
261.477	91.38
261.71	98.38
261.942	106.38
262.175	118.38
262.407	94.38
262.64	77.38
262.872	94.38
263.105	85.38
263.337	79.38
263.57	78.38
263.802	80.38
264.035	101.38
264.267	84.38
264.499	93.38
264.732	94.38
264.964	95.38
265.197	81.38
265.429	84.38
265.661	91.38
265.894	91.38
266.126	92.38
266.358	74.38
266.591	96.38
266.823	81.38
267.055	91.38
267.287	84.38
267.52	93.38
267.752	72.38
267.984	86.38
268.216	94.38
268.448	91.38
268.681	79.38
268.913	90.38
269.145	94.38
269.377	91.38
269.609	84.38
269.841	92.38
270.073	110.38
270.306	72.38
270.538	79.38
270.77	69.38
271.002	92.38
271.234	88.38
271.466	80.38
271.698	97.38
271.93	93.38
272.162	91.38
272.394	77.38
272.626	85.38
272.858	98.38
273.09	82.38
273.322	92.38
273.553	88.38
273.785	89.38
274.017	83.38
274.249	83.38
274.481	82.38
274.713	78.38
274.945	93.38
275.176	91.38
275.408	101.38
275.64	100.38
275.872	86.38
276.104	90.38
276.335	84.38
276.567	116.38
276.799	94.38
277.031	108.38
277.262	75.38
277.494	87.38
277.726	78.38
277.957	87.38
278.189	74.38
278.421	91.38
278.652	99.38
278.884	87.38
279.115	82.38
279.347	89.38
279.579	87.38
279.81	95.38
280.042	95.38
280.273	98.38
280.505	88.38
280.736	97.38
280.968	82.38
281.199	79.38
281.431	79.38
281.662	96.38
281.894	94.38
282.125	106.38
282.356	111.38
282.588	131.38
282.819	113.38
283.051	71.38
283.282	93.38
283.513	79.38
283.745	91.38
283.976	83.38
284.207	100.38
284.439	102.38
284.67	84.38
284.901	85.38
285.132	92.38
285.364	100.38
285.595	93.38
285.826	93.38
286.057	98.38
286.288	77.38
286.52	100.38
286.751	93.38
286.982	87.38
287.213	99.38
287.444	84.38
287.675	97.38
287.906	82.38
288.138	81.38
288.369	103.38
288.6	97.38
288.831	102.38
289.062	90.38
289.293	113.38
289.524	105.38
289.755	109.38
289.986	99.38
290.217	89.38
290.448	65.38
290.679	94.38
290.91	90.38
291.141	91.38
291.371	86.38
291.602	92.38
291.833	97.38
292.064	80.38
292.295	92.38
292.526	100.38
292.757	113.38
292.987	92.38
293.218	93.38
293.449	92.38
293.68	100.38
293.91	85.38
294.141	91.38
294.372	108.38
294.603	94.38
294.833	98.38
295.064	82.38
295.295	93.38
295.525	99.38
295.756	109.38
295.987	117.38
296.217	140.38
296.448	121.38
296.679	94.38
296.909	103.38
297.14	93.38
297.37	99.38
297.601	85.38
297.831	88.38
298.062	104.38
298.292	92.38
298.523	82.38
298.753	88.38
298.984	90.38
299.214	94.38
299.445	83.38
299.675	93.38
299.905	91.38
300.136	96.38
300.366	64.38
300.597	92.38
300.827	84.38
301.057	108.38
301.288	96.38
301.518	102.38
301.748	106.38
301.979	100.38
302.209	76.38
302.439	90.38
302.669	92.38
302.9	100.38
303.13	84.38
303.36	95.38
303.59	96.38
303.82	109.38
304.051	93.38
304.281	84.38
304.511	81.38
304.741	98.38
304.971	97.38
305.201	97.38
305.431	87.38
305.661	83.38
305.891	108.38
306.121	97.38
306.352	97.38
306.582	107.38
306.812	104.38
307.042	95.38
307.272	99.38
307.502	87.38
307.731	96.38
307.961	92.38
308.191	96.38
308.421	96.38
308.651	86.38
308.881	81.38
309.111	106.38
309.341	107.38
309.571	107.38
309.8	103.38
310.03	107.38
310.26	91.38
310.49	83.38
310.72	95.38
310.949	110.38
311.179	97.38
311.409	97.38
311.639	88.38
311.868	84.38
312.098	102.38
312.328	89.38
312.557	97.38
312.787	93.38
313.017	96.38
313.246	88.38
313.476	85.38
313.706	106.38
313.935	97.38
314.165	99.38
314.394	120.38
314.624	110.38
314.853	96.38
315.083	102.38
315.312	91.38
315.542	87.38
315.771	88.38
316.001	104.38
316.23	80.38
316.46	89.38
316.689	76.38
316.919	94.38
317.148	91.38
317.377	91.38
317.607	103.38
317.836	93.38
318.065	106.38
318.295	94.38
318.524	84.38
318.753	97.38
318.983	89.38
319.212	98.38
319.441	113.38
319.67	108.38
319.9	99.38
320.129	90.38
320.358	98.38
320.587	102.38
320.816	107.38
321.046	104.38
321.275	105.38
321.504	92.38
321.733	83.38
321.962	103.38
322.191	99.38
322.42	110.38
322.649	111.38
322.878	103.38
323.108	118.38
323.337	125.38
323.566	143.38
323.795	161.38
324.024	235.38
324.253	434.38
324.482	945.38
324.71	1949.38
324.939	2539.38
325.168	933.38
325.397	269.38
325.626	161.38
325.855	145.38
326.084	136.38
326.313	125.38
326.542	147.38
326.77	242.38
326.999	502.38
327.228	1071.38
327.457	1968.38
327.686	1529.38
327.914	427.38
328.143	202.38
328.372	136.38
328.6	124.38
328.829	139.38
329.058	129.38
329.287	135.38
329.515	115.38
329.744	77.38
329.972	108.38
330.201	101.38
330.43	112.38
330.658	122.38
330.887	136.38
331.115	117.38
331.344	93.38
331.572	101.38
331.801	97.38
332.03	97.38
332.258	115.38
332.486	101.38
332.715	97.38
332.943	100.38
333.172	91.38
333.4	96.38
333.629	99.38
333.857	112.38
334.085	102.38
334.314	98.38
334.542	90.38
334.771	105.38
334.999	108.38
335.227	82.38
335.455	106.38
335.684	102.38
335.912	104.38
336.14	101.38
336.369	111.38
336.597	104.38
336.825	105.38
337.053	93.38
337.281	86.38
337.51	93.38
337.738	79.38
337.966	97.38
338.194	117.38
338.422	96.38
338.65	101.38
338.878	98.38
339.106	86.38
339.334	100.38
339.562	97.38
339.79	86.38
340.018	83.38
340.246	93.38
340.474	86.38
340.702	95.38
340.93	91.38
341.158	79.38
341.386	100.38
341.614	90.38
341.842	109.38
342.07	99.38
342.298	92.38
342.526	98.38
342.754	111.38
342.981	84.38
343.209	89.38
343.437	103.38
343.665	84.38
343.893	70.38
344.12	102.38
344.348	93.38
344.576	101.38
344.804	102.38
345.031	110.38
345.259	103.38
345.487	81.38
345.714	107.38
345.942	82.38
346.17	79.38
346.397	94.38
346.625	89.38
346.853	95.38
347.08	109.38
347.308	108.38
347.535	98.38
347.763	97.38
347.99	111.38
348.218	115.38
348.445	95.38
348.673	106.38
348.9	104.38
349.128	95.38
349.355	84.38
349.583	90.38
349.81	98.38
350.037	102.38
350.265	125.38
350.492	88.38
350.72	105.38
350.947	113.38
351.174	109.38
351.402	109.38
351.629	112.38
351.856	118.38
352.083	98.38
352.311	105.38
352.538	122.38
352.765	97.38
352.992	118.38
353.22	111.38
353.447	118.38
353.674	76.38
353.901	109.38
354.128	116.38
354.355	81.38
354.583	104.38
354.81	99.38
355.037	105.38
355.264	101.38
355.491	100.38
355.718	92.38
355.945	105.38
356.172	105.38
356.399	102.38
356.626	96.38
356.853	101.38
357.08	95.38
357.307	76.38
357.534	94.38
357.761	92.38
357.988	100.38
358.215	100.38
358.441	87.38
358.668	102.38
358.895	100.38
359.122	87.38
359.349	81.38
359.576	99.38
359.802	97.38
360.029	105.38
360.256	104.38
360.483	99.38
360.709	83.38
360.936	85.38
361.163	95.38
361.39	93.38
361.616	98.38
361.843	90.38
362.07	112.38
362.296	101.38
362.523	101.38
362.749	79.38
362.976	101.38
363.203	92.38
363.429	89.38
363.656	89.38
363.882	80.38
364.109	79.38
364.335	97.38
364.562	92.38
364.788	78.38
365.015	100.38
365.241	100.38
365.468	110.38
365.694	108.38
365.92	111.38
366.147	88.38
366.373	88.38
366.599	100.38
366.826	81.38
367.052	96.38
367.278	92.38
367.505	88.38
367.731	96.38
367.957	106.38
368.184	91.38
368.41	98.38
368.636	112.38
368.862	121.38
369.089	114.38
369.315	98.38
369.541	90.38
369.767	91.38
369.993	92.38
370.219	99.38
370.445	101.38
370.672	96.38
370.898	103.38
371.124	72.38
371.35	86.38
371.576	106.38
371.802	83.38
372.028	95.38
372.254	87.38
372.48	87.38
372.706	75.38
372.932	88.38
373.158	89.38
373.384	89.38
373.61	90.38
373.835	80.38
374.061	101.38
374.287	95.38
374.513	97.38
374.739	99.38
374.965	87.38
375.191	107.38
375.416	93.38
375.642	89.38
375.868	99.38
376.094	111.38
376.319	76.38
376.545	96.38
376.771	107.38
376.997	102.38
377.222	75.38
377.448	91.38
377.674	89.38
377.899	92.38
378.125	99.38
378.35	117.38
378.576	88.38
378.802	96.38
379.027	93.38
379.253	92.38
379.478	85.38
379.704	105.38
379.929	101.38
380.155	91.38
380.38	87.38
380.606	93.38
380.831	109.38
381.057	101.38
381.282	88.38
381.507	100.38
381.733	98.38
381.958	100.38
382.184	103.38
382.409	98.38
382.634	116.38
382.86	94.38
383.085	99.38
383.31	106.38
383.535	88.38
383.761	97.38
383.986	106.38
384.211	107.38
384.436	108.38
384.662	99.38
384.887	102.38
385.112	107.38
385.337	107.38
385.562	98.38
385.787	101.38
386.013	113.38
386.238	128.38
386.463	103.38
386.688	117.38
386.913	81.38
387.138	107.38
387.363	97.38
387.588	94.38
387.813	106.38
388.038	121.38
388.263	115.38
388.488	112.38
388.713	82.38
388.938	92.38
389.163	105.38
389.387	101.38
389.612	91.38
389.837	93.38
390.062	91.38
390.287	102.38
390.512	84.38
390.736	95.38
390.961	100.38
391.186	97.38
391.411	103.38
391.636	92.38
391.86	94.38
392.085	87.38
392.31	89.38
392.534	95.38
392.759	99.38
392.984	82.38
393.208	95.38
393.433	82.38
393.658	79.38
393.882	80.38
394.107	92.38
394.331	71.38
394.556	93.38
394.78	96.38
395.005	89.38
395.229	74.38
395.454	86.38
395.678	89.38
395.903	81.38
396.127	90.38
396.352	86.38
396.576	70.38
396.801	89.38
397.025	89.38
397.249	91.38
397.474	84.38
397.698	84.38
397.922	87.38
398.147	91.38
398.371	93.38
398.595	78.38
398.82	98.38
399.044	88.38
399.268	77.38
399.492	97.38
399.717	100.38
399.941	92.38
400.165	96.38
400.389	92.38
400.613	81.38
400.837	82.38
401.062	84.38
401.286	96.38
401.51	96.38
401.734	103.38
401.958	100.38
402.182	132.38
402.406	180.38
402.63	119.38
402.854	95.38
403.078	102.38
403.302	89.38
403.526	92.38
403.75	80.38
403.974	95.38
404.198	94.38
404.422	107.38
404.645	96.38
404.869	87.38
405.093	115.38
405.317	104.38
405.541	111.38
405.765	92.38
405.988	118.38
406.212	162.38
406.436	244.38
406.66	138.38
406.883	101.38
407.107	98.38
407.331	102.38
407.555	111.38
407.778	111.38
408.002	98.38
408.226	89.38
408.449	99.38
408.673	93.38
408.896	96.38
409.12	92.38
409.344	88.38
409.567	100.38
409.791	92.38
410.014	105.38
410.238	96.38
410.461	100.38
410.685	91.38
410.908	112.38
411.132	108.38
411.355	103.38
411.578	99.38
411.802	99.38
412.025	72.38
412.249	84.38
412.472	92.38
412.695	89.38
412.919	77.38
413.142	80.38
413.365	85.38
413.589	95.38
413.812	89.38
414.035	92.38
414.258	87.38
414.482	91.38
414.705	97.38
414.928	112.38
415.151	98.38
415.374	99.38
415.597	89.38
415.821	88.38
416.044	99.38
416.267	98.38
416.49	94.38
416.713	98.38
416.936	88.38
417.159	100.38
417.382	85.38
417.605	78.38
417.828	87.38
418.051	96.38
418.274	96.38
418.497	108.38
418.72	92.38
418.943	93.38
419.166	95.38
419.389	90.38
419.611	90.38
419.834	93.38
420.057	96.38
420.28	95.38
420.503	80.38
420.726	87.38
420.948	91.38
421.171	103.38
421.394	111.38
421.617	94.38
421.839	93.38
422.062	100.38
422.285	99.38
422.507	98.38
422.73	93.38
422.953	104.38
423.175	90.38
423.398	112.38
423.621	78.38
423.843	94.38
424.066	77.38
424.288	87.38
424.511	109.38
424.733	93.38
424.956	119.38
425.178	94.38
425.401	97.38
425.623	100.38
425.846	85.38
426.068	105.38
426.291	115.38
426.513	90.38
426.735	88.38
426.958	107.38
427.18	115.38
427.402	149.38
427.625	184.38
427.847	137.38
428.069	87.38
428.292	98.38
428.514	100.38
428.736	98.38
428.958	89.38
429.181	90.38
429.403	89.38
429.625	93.38
429.847	102.38
430.069	107.38
430.292	101.38
430.514	89.38
430.736	83.38
430.958	92.38
431.18	107.38
431.402	91.38
431.624	87.38
431.846	82.38
432.068	86.38
432.29	99.38
432.512	92.38
432.734	96.38
432.956	94.38
433.178	106.38
433.4	113.38
433.622	98.38
433.844	89.38
434.066	112.38
434.287	92.38
434.509	99.38
434.731	95.38
434.953	92.38
435.175	89.38
435.397	100.38
435.618	83.38
435.84	110.38
436.062	137.38
436.284	123.38
436.505	97.38
436.727	107.38
436.949	88.38
437.17	91.38
437.392	87.38
437.614	91.38
437.835	98.38
438.057	138.38
438.278	126.38
438.5	104.38
438.721	125.38
438.943	108.38
439.165	81.38
439.386	92.38
439.608	93.38
439.829	96.38
440.05	133.38
440.272	150.38
440.493	101.38
440.715	93.38
440.936	88.38
441.158	80.38
441.379	97.38
441.6	84.38
441.822	93.38
442.043	93.38
442.264	104.38
442.486	100.38
442.707	101.38
442.928	96.38
443.149	130.38
443.371	131.38
443.592	105.38
443.813	116.38
444.034	129.38
444.255	98.38
444.476	92.38
444.698	96.38
444.919	92.38
445.14	140.38
445.361	130.38
445.582	133.38
445.803	128.38
446.024	158.38
446.245	145.38
446.466	114.38
446.687	91.38
446.908	93.38
447.129	81.38
447.35	89.38
447.571	97.38
447.792	100.38
448.013	100.38
448.234	108.38
448.455	111.38
448.675	111.38
448.896	123.38
449.117	102.38
449.338	111.38
449.559	129.38
449.779	123.38
450	102.38
450.221	98.38
450.442	93.38
450.662	100.38
450.883	107.38
451.104	101.38
451.324	84.38
451.545	90.38
451.766	93.38
451.986	93.38
452.207	88.38
452.428	83.38
452.648	93.38
452.869	103.38
453.089	113.38
453.31	109.38
453.53	96.38
453.751	86.38
453.971	107.38
454.192	112.38
454.412	91.38
454.633	83.38
454.853	86.38
455.073	94.38
455.294	99.38
455.514	108.38
455.734	103.38
455.955	98.38
456.175	83.38
456.395	81.38
456.616	92.38
456.836	93.38
457.056	78.38
457.276	79.38
457.497	89.38
457.717	88.38
457.937	76.38
458.157	92.38
458.377	91.38
458.598	119.38
458.818	163.38
459.038	161.38
459.258	120.38
459.478	93.38
459.698	108.38
459.918	87.38
460.138	84.38
460.358	100.38
460.578	95.38
460.798	88.38
461.018	103.38
461.238	101.38
461.458	100.38
461.678	83.38
461.898	87.38
462.118	87.38
462.338	84.38
462.558	87.38
462.777	88.38
462.997	88.38
463.217	82.38
463.437	81.38
463.657	89.38
463.876	95.38
464.096	88.38
464.316	95.38
464.536	86.38
464.755	102.38
464.975	108.38
465.195	165.38
465.414	146.38
465.634	114.38
465.854	89.38
466.073	87.38
466.293	72.38
466.512	95.38
466.732	97.38
466.951	83.38
467.171	93.38
467.391	88.38
467.61	121.38
467.829	86.38
468.049	86.38
468.268	104.38
468.488	83.38
468.707	95.38
468.927	87.38
469.146	93.38
469.365	94.38
469.585	96.38
469.804	95.38
470.023	88.38
470.243	102.38
470.462	117.38
470.681	126.38
470.901	95.38
471.12	95.38
471.339	88.38
471.558	92.38
471.777	83.38
471.997	85.38
472.216	101.38
472.435	97.38
472.654	89.38
472.873	84.38
473.092	98.38
473.311	86.38
473.53	95.38
473.749	97.38
473.968	85.38
474.187	88.38
474.406	95.38
474.625	101.38
474.844	88.38
475.063	101.38
475.282	92.38
475.501	86.38
475.72	109.38
475.939	81.38
476.158	93.38
476.377	86.38
476.596	91.38
476.814	93.38
477.033	97.38
477.252	85.38
477.471	97.38
477.69	85.38
477.908	95.38
478.127	100.38
478.346	90.38
478.564	89.38
478.783	107.38
479.002	102.38
479.22	99.38
479.439	100.38
479.658	111.38
479.876	112.38
480.095	103.38
480.313	91.38
480.532	97.38
480.751	88.38
480.969	80.38
481.188	88.38
481.406	87.38
481.624	85.38
481.843	93.38
482.061	91.38
482.28	85.38
482.498	98.38
482.717	81.38
482.935	89.38
483.153	96.38
483.372	83.38
483.59	100.38
483.808	81.38
484.027	85.38
484.245	87.38
484.463	91.38
484.681	89.38
484.9	89.38
485.118	94.38
485.336	103.38
485.554	100.38
485.772	102.38
485.99	113.38
486.209	92.38
486.427	101.38
486.645	112.38
486.863	111.38
487.081	100.38
487.299	95.38
487.517	96.38
487.735	94.38
487.953	92.38
488.171	98.38
488.389	102.38
488.607	99.38
488.825	100.38
489.043	89.38
489.261	92.38
489.479	89.38
489.696	88.38
489.914	89.38
490.132	83.38
490.35	88.38
490.568	81.38
490.786	82.38
491.003	99.38
491.221	86.38
491.439	85.38
491.657	93.38
491.874	79.38
492.092	80.38
492.31	93.38
492.527	92.38
492.745	79.38
492.963	88.38
493.18	104.38
493.398	100.38
493.615	102.38
493.833	107.38
494.05	99.38
494.268	88.38
494.485	88.38
494.703	104.38
494.92	105.38
495.138	108.38
495.355	92.38
495.573	98.38
495.79	86.38
496.008	93.38
496.225	96.38
496.442	83.38
496.66	84.38
496.877	93.38
497.094	85.38
497.312	86.38
497.529	89.38
497.746	101.38
497.963	89.38
498.181	97.38
498.398	104.38
498.615	119.38
498.832	118.38
499.049	95.38
499.267	94.38
499.484	91.38
499.701	89.38
499.918	84.38
500.135	90.38
500.352	103.38
500.569	92.38
500.786	104.38
501.003	90.38
501.22	104.38
501.437	96.38
501.654	105.38
501.871	115.38
502.088	93.38
502.305	91.38
502.522	88.38
502.739	106.38
502.956	95.38
503.172	97.38
503.389	93.38
503.606	110.38
503.823	100.38
504.04	109.38
504.256	88.38
504.473	96.38
504.69	88.38
504.907	104.38
505.123	90.38
505.34	100.38
505.557	103.38
505.773	100.38
505.99	92.38
506.207	96.38
506.423	95.38
506.64	85.38
506.856	84.38
507.073	86.38
507.289	92.38
507.506	96.38
507.722	119.38
507.939	124.38
508.155	100.38
508.372	99.38
508.588	104.38
508.805	74.38
509.021	93.38
509.238	108.38
509.454	99.38
509.67	110.38
509.887	118.38
510.103	138.38
510.319	234.38
510.536	794.38
510.752	2565.38
510.968	702.38
511.184	169.38
511.401	99.38
511.617	92.38
511.833	85.38
512.049	107.38
512.265	88.38
512.481	117.38
512.698	89.38
512.914	83.38
513.13	109.38
513.346	75.38
513.562	99.38
513.778	102.38
513.994	104.38
514.21	107.38
