Data from Uncirc_2007_H10_HRD10591_00015.txt Node
Date: Wed Jan 03 10:20:45 EST 2024
User: Yrep
Spectrometer: HR+D1059
Trigger mode: 1
Integration Time (sec): 1.000000E-1
Scans to average: 1
Electric dark correction enabled: true
Nonlinearity correction enabled: false
Boxcar width: 0
XAxis mode: Wavelengths
Number of Pixels in Spectrum: 2048
>>>>>Begin Spectral Data<<<<<
223.165	-25.12
223.4	-25.12
223.635	-25.12
223.869	-19.12
224.104	-24.12
224.338	-7.12
224.573	-5.12
224.808	-8.12
225.042	-7.12
225.277	-3.12
225.511	16.88
225.746	8.88
225.98	6.88
226.215	6.88
226.449	4.88
226.683	7.88
226.918	20.88
227.152	25.88
227.387	22.88
227.621	39.88
227.856	36.88
228.09	46.88
228.324	43.88
228.559	51.88
228.793	59.88
229.027	75.88
229.262	63.88
229.496	75.88
229.73	71.88
229.964	67.88
230.199	70.88
230.433	71.88
230.667	63.88
230.901	84.88
231.136	76.88
231.37	71.88
231.604	58.88
231.838	76.88
232.072	81.88
232.306	78.88
232.541	77.88
232.775	74.88
233.009	80.88
233.243	79.88
233.477	72.88
233.711	78.88
233.945	62.88
234.179	80.88
234.413	65.88
234.647	73.88
234.881	67.88
235.115	80.88
235.349	80.88
235.583	72.88
235.817	76.88
236.051	69.88
236.285	76.88
236.519	63.88
236.753	70.88
236.987	84.88
237.221	89.88
237.455	76.88
237.689	94.88
237.922	73.88
238.156	83.88
238.39	75.88
238.624	70.88
238.858	80.88
239.091	80.88
239.325	72.88
239.559	70.88
239.793	74.88
240.027	70.88
240.26	64.88
240.494	70.88
240.728	74.88
240.961	73.88
241.195	69.88
241.429	71.88
241.662	80.88
241.896	73.88
242.13	68.88
242.363	70.88
242.597	73.88
242.83	64.88
243.064	83.88
243.298	57.88
243.531	80.88
243.765	57.88
243.998	70.88
244.232	70.88
244.465	75.88
244.699	71.88
244.932	74.88
245.166	79.88
245.399	67.88
245.633	88.88
245.866	84.88
246.099	74.88
246.333	72.88
246.566	73.88
246.8	71.88
247.033	82.88
247.266	57.88
247.5	79.88
247.733	63.88
247.966	81.88
248.2	69.88
248.433	71.88
248.666	75.88
248.899	79.88
249.133	80.88
249.366	89.88
249.599	69.88
249.832	74.88
250.066	74.88
250.299	70.88
250.532	76.88
250.765	76.88
250.998	73.88
251.231	67.88
251.465	73.88
251.698	88.88
251.931	80.88
252.164	77.88
252.397	86.88
252.63	76.88
252.863	75.88
253.096	70.88
253.329	85.88
253.562	75.88
253.795	68.88
254.028	68.88
254.261	74.88
254.494	76.88
254.727	56.88
254.96	95.88
255.193	81.88
255.426	76.88
255.659	71.88
255.892	78.88
256.124	76.88
256.357	73.88
256.59	81.88
256.823	63.88
257.056	70.88
257.289	62.88
257.521	72.88
257.754	57.88
257.987	77.88
258.22	73.88
258.452	79.88
258.685	73.88
258.918	68.88
259.151	94.88
259.383	85.88
259.616	74.88
259.849	73.88
260.081	76.88
260.314	73.88
260.547	78.88
260.779	91.88
261.012	88.88
261.244	90.88
261.477	85.88
261.71	90.88
261.942	100.88
262.175	116.88
262.407	93.88
262.64	67.88
262.872	80.88
263.105	84.88
263.337	74.88
263.57	85.88
263.802	99.88
264.035	63.88
264.267	75.88
264.499	79.88
264.732	74.88
264.964	68.88
265.197	81.88
265.429	76.88
265.661	66.88
265.894	76.88
266.126	90.88
266.358	69.88
266.591	77.88
266.823	85.88
267.055	79.88
267.287	91.88
267.52	95.88
267.752	83.88
267.984	80.88
268.216	72.88
268.448	71.88
268.681	84.88
268.913	93.88
269.145	88.88
269.377	83.88
269.609	83.88
269.841	85.88
270.073	78.88
270.306	72.88
270.538	68.88
270.77	76.88
271.002	78.88
271.234	70.88
271.466	80.88
271.698	85.88
271.93	86.88
272.162	86.88
272.394	73.88
272.626	85.88
272.858	81.88
273.09	88.88
273.322	84.88
273.553	90.88
273.785	72.88
274.017	74.88
274.249	71.88
274.481	90.88
274.713	80.88
274.945	90.88
275.176	79.88
275.408	73.88
275.64	86.88
275.872	76.88
276.104	84.88
276.335	87.88
276.567	103.88
276.799	98.88
277.031	104.88
277.262	91.88
277.494	103.88
277.726	89.88
277.957	85.88
278.189	86.88
278.421	86.88
278.652	81.88
278.884	85.88
279.115	88.88
279.347	69.88
279.579	85.88
279.81	71.88
280.042	87.88
280.273	83.88
280.505	77.88
280.736	85.88
280.968	70.88
281.199	70.88
281.431	88.88
281.662	84.88
281.894	88.88
282.125	90.88
282.356	113.88
282.588	112.88
282.819	98.88
283.051	80.88
283.282	83.88
283.513	80.88
283.745	79.88
283.976	81.88
284.207	89.88
284.439	71.88
284.67	75.88
284.901	72.88
285.132	88.88
285.364	86.88
285.595	88.88
285.826	90.88
286.057	85.88
286.288	78.88
286.52	85.88
286.751	81.88
286.982	75.88
287.213	79.88
287.444	92.88
287.675	88.88
287.906	93.88
288.138	80.88
288.369	80.88
288.6	98.88
288.831	83.88
289.062	93.88
289.293	94.88
289.524	87.88
289.755	82.88
289.986	81.88
290.217	72.88
290.448	81.88
290.679	82.88
290.91	87.88
291.141	84.88
291.371	85.88
291.602	85.88
291.833	75.88
292.064	69.88
292.295	93.88
292.526	88.88
292.757	88.88
292.987	82.88
293.218	86.88
293.449	96.88
293.68	82.88
293.91	93.88
294.141	87.88
294.372	84.88
294.603	84.88
294.833	81.88
295.064	84.88
295.295	85.88
295.525	107.88
295.756	87.88
295.987	111.88
296.217	134.88
296.448	108.88
296.679	95.88
296.909	94.88
297.14	79.88
297.37	88.88
297.601	74.88
297.831	89.88
298.062	78.88
298.292	77.88
298.523	82.88
298.753	93.88
298.984	83.88
299.214	97.88
299.445	88.88
299.675	91.88
299.905	89.88
300.136	83.88
300.366	89.88
300.597	93.88
300.827	85.88
301.057	91.88
301.288	116.88
301.518	95.88
301.748	91.88
301.979	98.88
302.209	90.88
302.439	91.88
302.669	92.88
302.9	99.88
303.13	96.88
303.36	98.88
303.59	102.88
303.82	86.88
304.051	77.88
304.281	87.88
304.511	86.88
304.741	89.88
304.971	92.88
305.201	89.88
305.431	105.88
305.661	102.88
305.891	85.88
306.121	96.88
306.352	105.88
306.582	98.88
306.812	96.88
307.042	85.88
307.272	87.88
307.502	96.88
307.731	75.88
307.961	65.88
308.191	74.88
308.421	96.88
308.651	83.88
308.881	79.88
309.111	90.88
309.341	87.88
309.571	95.88
309.8	100.88
310.03	87.88
310.26	83.88
310.49	95.88
310.72	97.88
310.949	97.88
311.179	107.88
311.409	87.88
311.639	98.88
311.868	92.88
312.098	83.88
312.328	101.88
312.557	84.88
312.787	95.88
313.017	99.88
313.246	88.88
313.476	77.88
313.706	80.88
313.935	104.88
314.165	89.88
314.394	93.88
314.624	97.88
314.853	98.88
315.083	76.88
315.312	85.88
315.542	85.88
315.771	89.88
316.001	87.88
316.23	91.88
316.46	75.88
316.689	100.88
316.919	80.88
317.148	94.88
317.377	104.88
317.607	101.88
317.836	98.88
318.065	77.88
318.295	83.88
318.524	89.88
318.753	87.88
318.983	100.88
319.212	92.88
319.441	101.88
319.67	112.88
319.9	101.88
320.129	88.88
320.358	88.88
320.587	79.88
320.816	83.88
321.046	93.88
321.275	91.88
321.504	84.88
321.733	91.88
321.962	94.88
322.191	90.88
322.42	90.88
322.649	109.88
322.878	107.88
323.108	116.88
323.337	122.88
323.566	117.88
323.795	140.88
324.024	212.88
324.253	393.88
324.482	842.88
324.71	1773.88
324.939	2281.88
325.168	844.88
325.397	233.88
325.626	146.88
325.855	130.88
326.084	131.88
326.313	142.88
326.542	155.88
326.77	248.88
326.999	463.88
327.228	959.88
327.457	1789.88
327.686	1407.88
327.914	363.88
328.143	188.88
328.372	144.88
328.6	113.88
328.829	111.88
329.058	104.88
329.287	125.88
329.515	99.88
329.744	98.88
329.972	95.88
330.201	93.88
330.43	109.88
330.658	119.88
330.887	135.88
331.115	115.88
331.344	91.88
331.572	89.88
331.801	96.88
332.03	95.88
332.258	86.88
332.486	90.88
332.715	85.88
332.943	87.88
333.172	91.88
333.4	102.88
333.629	96.88
333.857	106.88
334.085	90.88
334.314	97.88
334.542	94.88
334.771	103.88
334.999	106.88
335.227	97.88
335.455	87.88
335.684	104.88
335.912	86.88
336.14	107.88
336.369	96.88
336.597	88.88
336.825	95.88
337.053	93.88
337.281	82.88
337.51	91.88
337.738	96.88
337.966	89.88
338.194	76.88
338.422	91.88
338.65	87.88
338.878	88.88
339.106	96.88
339.334	89.88
339.562	76.88
339.79	87.88
340.018	87.88
340.246	82.88
340.474	89.88
340.702	80.88
340.93	77.88
341.158	86.88
341.386	104.88
341.614	85.88
341.842	82.88
342.07	81.88
342.298	75.88
342.526	91.88
342.754	82.88
342.981	83.88
343.209	95.88
343.437	95.88
343.665	91.88
343.893	86.88
344.12	91.88
344.348	83.88
344.576	80.88
344.804	89.88
345.031	103.88
345.259	84.88
345.487	99.88
345.714	87.88
345.942	91.88
346.17	88.88
346.397	103.88
346.625	95.88
346.853	100.88
347.08	79.88
347.308	84.88
347.535	85.88
347.763	94.88
347.99	102.88
348.218	93.88
348.445	96.88
348.673	85.88
348.9	107.88
349.128	80.88
349.355	84.88
349.583	81.88
349.81	84.88
350.037	100.88
350.265	100.88
350.492	81.88
350.72	91.88
350.947	94.88
351.174	93.88
351.402	82.88
351.629	110.88
351.856	105.88
352.083	97.88
352.311	107.88
352.538	108.88
352.765	104.88
352.992	117.88
353.22	97.88
353.447	98.88
353.674	101.88
353.901	104.88
354.128	86.88
354.355	91.88
354.583	89.88
354.81	94.88
355.037	93.88
355.264	81.88
355.491	82.88
355.718	93.88
355.945	95.88
356.172	104.88
356.399	100.88
356.626	78.88
356.853	84.88
357.08	89.88
357.307	87.88
357.534	84.88
357.761	87.88
357.988	83.88
358.215	107.88
358.441	81.88
358.668	77.88
358.895	94.88
359.122	86.88
359.349	98.88
359.576	76.88
359.802	92.88
360.029	116.88
360.256	110.88
360.483	103.88
360.709	93.88
360.936	93.88
361.163	71.88
361.39	88.88
361.616	87.88
361.843	88.88
362.07	92.88
362.296	79.88
362.523	77.88
362.749	79.88
362.976	79.88
363.203	106.88
363.429	94.88
363.656	88.88
363.882	81.88
364.109	85.88
364.335	102.88
364.562	91.88
364.788	85.88
365.015	110.88
365.241	70.88
365.468	89.88
365.694	102.88
365.92	91.88
366.147	94.88
366.373	90.88
366.599	80.88
366.826	85.88
367.052	84.88
367.278	84.88
367.505	77.88
367.731	81.88
367.957	91.88
368.184	91.88
368.41	97.88
368.636	108.88
368.862	115.88
369.089	107.88
369.315	93.88
369.541	99.88
369.767	85.88
369.993	85.88
370.219	96.88
370.445	87.88
370.672	74.88
370.898	81.88
371.124	76.88
371.35	84.88
371.576	99.88
371.802	80.88
372.028	93.88
372.254	80.88
372.48	79.88
372.706	77.88
372.932	91.88
373.158	88.88
373.384	73.88
373.61	91.88
373.835	81.88
374.061	104.88
374.287	97.88
374.513	94.88
374.739	84.88
374.965	80.88
375.191	86.88
375.416	71.88
375.642	83.88
375.868	78.88
376.094	96.88
376.319	91.88
376.545	81.88
376.771	96.88
376.997	91.88
377.222	67.88
377.448	85.88
377.674	91.88
377.899	104.88
378.125	79.88
378.35	91.88
378.576	77.88
378.802	90.88
379.027	94.88
379.253	80.88
379.478	84.88
379.704	87.88
379.929	87.88
380.155	93.88
380.38	91.88
380.606	97.88
380.831	109.88
381.057	89.88
381.282	88.88
381.507	98.88
381.733	88.88
381.958	85.88
382.184	98.88
382.409	87.88
382.634	91.88
382.86	93.88
383.085	94.88
383.31	105.88
383.535	95.88
383.761	96.88
383.986	95.88
384.211	85.88
384.436	83.88
384.662	83.88
384.887	93.88
385.112	103.88
385.337	99.88
385.562	96.88
385.787	106.88
386.013	108.88
386.238	92.88
386.463	107.88
386.688	101.88
386.913	80.88
387.138	93.88
387.363	101.88
387.588	87.88
387.813	89.88
388.038	106.88
388.263	100.88
388.488	107.88
388.713	92.88
388.938	96.88
389.163	86.88
389.387	94.88
389.612	94.88
389.837	87.88
390.062	86.88
390.287	87.88
390.512	79.88
390.736	84.88
390.961	79.88
391.186	93.88
391.411	88.88
391.636	86.88
391.86	70.88
392.085	75.88
392.31	86.88
392.534	84.88
392.759	68.88
392.984	79.88
393.208	91.88
393.433	79.88
393.658	97.88
393.882	79.88
394.107	87.88
394.331	68.88
394.556	72.88
394.78	79.88
395.005	79.88
395.229	83.88
395.454	81.88
395.678	71.88
395.903	85.88
396.127	91.88
396.352	80.88
396.576	76.88
396.801	78.88
397.025	77.88
397.249	99.88
397.474	80.88
397.698	78.88
397.922	75.88
398.147	85.88
398.371	85.88
398.595	92.88
398.82	79.88
399.044	85.88
399.268	73.88
399.492	80.88
399.717	98.88
399.941	61.88
400.165	81.88
400.389	78.88
400.613	83.88
400.837	77.88
401.062	88.88
401.286	94.88
401.51	103.88
401.734	96.88
401.958	97.88
402.182	121.88
402.406	150.88
402.63	119.88
402.854	103.88
403.078	89.88
403.302	89.88
403.526	89.88
403.75	87.88
403.974	76.88
404.198	93.88
404.422	95.88
404.645	88.88
404.869	100.88
405.093	83.88
405.317	81.88
405.541	100.88
405.765	95.88
405.988	114.88
406.212	168.88
406.436	216.88
406.66	116.88
406.883	100.88
407.107	92.88
407.331	99.88
407.555	91.88
407.778	80.88
408.002	80.88
408.226	88.88
408.449	91.88
408.673	81.88
408.896	87.88
409.12	98.88
409.344	69.88
409.567	81.88
409.791	101.88
410.014	91.88
410.238	97.88
410.461	81.88
410.685	92.88
410.908	90.88
411.132	104.88
411.355	102.88
411.578	87.88
411.802	84.88
412.025	77.88
412.249	97.88
412.472	90.88
412.695	72.88
412.919	88.88
413.142	65.88
413.365	75.88
413.589	80.88
413.812	76.88
414.035	96.88
414.258	67.88
414.482	93.88
414.705	95.88
414.928	89.88
415.151	79.88
415.374	79.88
415.597	81.88
415.821	79.88
416.044	88.88
416.267	93.88
416.49	77.88
416.713	72.88
416.936	93.88
417.159	73.88
417.382	77.88
417.605	85.88
417.828	76.88
418.051	92.88
418.274	79.88
418.497	86.88
418.72	86.88
418.943	78.88
419.166	75.88
419.389	92.88
419.611	78.88
419.834	91.88
420.057	86.88
420.28	71.88
420.503	83.88
420.726	80.88
420.948	86.88
421.171	88.88
421.394	95.88
421.617	87.88
421.839	75.88
422.062	90.88
422.285	101.88
422.507	107.88
422.73	96.88
422.953	87.88
423.175	74.88
423.398	92.88
423.621	76.88
423.843	76.88
424.066	79.88
424.288	80.88
424.511	91.88
424.733	100.88
424.956	100.88
425.178	86.88
425.401	82.88
425.623	91.88
425.846	75.88
426.068	101.88
426.291	76.88
426.513	83.88
426.735	80.88
426.958	82.88
427.18	92.88
427.402	133.88
427.625	149.88
427.847	125.88
428.069	84.88
428.292	83.88
428.514	77.88
428.736	88.88
428.958	89.88
429.181	78.88
429.403	99.88
429.625	93.88
429.847	87.88
430.069	93.88
430.292	99.88
430.514	80.88
430.736	83.88
430.958	87.88
431.18	79.88
431.402	89.88
431.624	67.88
431.846	80.88
432.068	85.88
432.29	82.88
432.512	90.88
432.734	71.88
432.956	93.88
433.178	91.88
433.4	92.88
433.622	81.88
433.844	80.88
434.066	73.88
434.287	101.88
434.509	68.88
434.731	78.88
434.953	83.88
435.175	87.88
435.397	104.88
435.618	81.88
435.84	100.88
436.062	125.88
436.284	113.88
436.505	92.88
436.727	86.88
436.949	78.88
437.17	86.88
437.392	89.88
437.614	84.88
437.835	100.88
438.057	106.88
438.278	95.88
438.5	92.88
438.721	110.88
438.943	107.88
439.165	92.88
439.386	83.88
439.608	92.88
439.829	85.88
440.05	110.88
440.272	128.88
440.493	91.88
440.715	81.88
440.936	75.88
441.158	96.88
441.379	77.88
441.6	78.88
441.822	70.88
442.043	112.88
442.264	96.88
442.486	98.88
442.707	81.88
442.928	95.88
443.149	133.88
443.371	104.88
443.592	111.88
443.813	95.88
444.034	96.88
444.255	86.88
444.476	89.88
444.698	74.88
444.919	89.88
445.14	135.88
445.361	118.88
445.582	106.88
445.803	127.88
446.024	115.88
446.245	119.88
446.466	107.88
446.687	101.88
446.908	98.88
447.129	84.88
447.35	82.88
447.571	84.88
447.792	77.88
448.013	83.88
448.234	102.88
448.455	106.88
448.675	109.88
448.896	113.88
449.117	94.88
449.338	101.88
449.559	131.88
449.779	133.88
450	86.88
450.221	65.88
450.442	96.88
450.662	100.88
450.883	93.88
451.104	99.88
451.324	97.88
451.545	101.88
451.766	74.88
451.986	76.88
452.207	80.88
452.428	84.88
452.648	80.88
452.869	103.88
453.089	91.88
453.31	112.88
453.53	81.88
453.751	88.88
453.971	76.88
454.192	99.88
454.412	87.88
454.633	88.88
454.853	85.88
455.073	68.88
455.294	84.88
455.514	91.88
455.734	71.88
455.955	80.88
456.175	72.88
456.395	84.88
456.616	82.88
456.836	71.88
457.056	106.88
457.276	83.88
457.497	82.88
457.717	78.88
457.937	92.88
458.157	81.88
458.377	82.88
458.598	94.88
458.818	138.88
459.038	151.88
459.258	101.88
459.478	71.88
459.698	80.88
459.918	77.88
460.138	69.88
460.358	78.88
460.578	65.88
460.798	72.88
461.018	76.88
461.238	66.88
461.458	66.88
461.678	70.88
461.898	82.88
462.118	76.88
462.338	76.88
462.558	76.88
462.777	76.88
462.997	77.88
463.217	91.88
463.437	86.88
463.657	80.88
463.876	75.88
464.096	87.88
464.316	76.88
464.536	72.88
464.755	90.88
464.975	101.88
465.195	145.88
465.414	157.88
465.634	93.88
465.854	90.88
466.073	96.88
466.293	80.88
466.512	73.88
466.732	86.88
466.951	88.88
467.171	73.88
467.391	78.88
467.61	97.88
467.829	90.88
468.049	98.88
468.268	89.88
468.488	84.88
468.707	79.88
468.927	68.88
469.146	79.88
469.365	81.88
469.585	80.88
469.804	94.88
470.023	87.88
470.243	80.88
470.462	75.88
470.681	89.88
470.901	85.88
471.12	80.88
471.339	75.88
471.558	81.88
471.777	82.88
471.997	65.88
472.216	85.88
472.435	92.88
472.654	72.88
472.873	89.88
473.092	76.88
473.311	77.88
473.53	80.88
473.749	77.88
473.968	95.88
474.187	105.88
474.406	96.88
474.625	92.88
474.844	99.88
475.063	67.88
475.282	86.88
475.501	82.88
475.72	84.88
475.939	93.88
476.158	77.88
476.377	69.88
476.596	93.88
476.814	81.88
477.033	107.88
477.252	91.88
477.471	72.88
477.69	82.88
477.908	76.88
478.127	79.88
478.346	94.88
478.564	84.88
478.783	82.88
479.002	89.88
479.22	88.88
479.439	96.88
479.658	97.88
479.876	97.88
480.095	91.88
480.313	79.88
480.532	71.88
480.751	66.88
480.969	74.88
481.188	79.88
481.406	83.88
481.624	84.88
481.843	87.88
482.061	89.88
482.28	82.88
482.498	77.88
482.717	75.88
482.935	93.88
483.153	75.88
483.372	102.88
483.59	88.88
483.808	67.88
484.027	84.88
484.245	81.88
484.463	101.88
484.681	90.88
484.9	81.88
485.118	85.88
485.336	87.88
485.554	105.88
485.772	86.88
485.99	101.88
486.209	101.88
486.427	98.88
486.645	93.88
486.863	106.88
487.081	90.88
487.299	93.88
487.517	80.88
487.735	87.88
487.953	84.88
488.171	88.88
488.389	73.88
488.607	98.88
488.825	86.88
489.043	84.88
489.261	85.88
489.479	91.88
489.696	94.88
489.914	95.88
490.132	86.88
490.35	88.88
490.568	79.88
490.786	94.88
491.003	89.88
491.221	96.88
491.439	103.88
491.657	102.88
491.874	95.88
492.092	71.88
492.31	81.88
492.527	94.88
492.745	81.88
492.963	87.88
493.18	93.88
493.398	78.88
493.615	95.88
493.833	99.88
494.05	100.88
494.268	75.88
494.485	81.88
494.703	81.88
494.92	89.88
495.138	84.88
495.355	89.88
495.573	94.88
495.79	93.88
496.008	85.88
496.225	101.88
496.442	87.88
496.66	85.88
496.877	80.88
497.094	69.88
497.312	73.88
497.529	87.88
497.746	97.88
497.963	79.88
498.181	72.88
498.398	105.88
498.615	96.88
498.832	104.88
499.049	94.88
499.267	87.88
499.484	95.88
499.701	87.88
499.918	86.88
500.135	70.88
500.352	85.88
500.569	72.88
500.786	80.88
501.003	88.88
501.22	87.88
501.437	78.88
501.654	89.88
501.871	110.88
502.088	84.88
502.305	77.88
502.522	80.88
502.739	97.88
502.956	88.88
503.172	72.88
503.389	85.88
503.606	98.88
503.823	100.88
504.04	102.88
504.256	82.88
504.473	96.88
504.69	78.88
504.907	104.88
505.123	87.88
505.34	80.88
505.557	106.88
505.773	90.88
505.99	85.88
506.207	89.88
506.423	88.88
506.64	84.88
506.856	79.88
507.073	81.88
507.289	91.88
507.506	85.88
507.722	103.88
507.939	92.88
508.155	95.88
508.372	78.88
508.588	87.88
508.805	82.88
509.021	94.88
509.238	100.88
509.454	84.88
509.67	113.88
509.887	106.88
510.103	107.88
510.319	210.88
510.536	771.88
510.752	2453.88
510.968	706.88
511.184	163.88
511.401	100.88
511.617	95.88
511.833	95.88
512.049	88.88
512.265	92.88
512.481	87.88
512.698	71.88
512.914	85.88
513.13	84.88
513.346	92.88
513.562	88.88
513.778	91.88
513.994	94.88
514.21	93.88
514.426	120.88
514.642	123.88
514.858	122.88
515.074	170.88
515.29	435.88
515.506	1443.88
515.721	537.88
515.937	141.88
516.153	100.88
516.369	97.88
516.585	83.88
516.801	87.88
517.016	101.88
