Data from Uncirc_2007_H10_HRD10591_00041.txt Node
Date: Wed Jan 03 10:20:50 EST 2024
User: Yrep
Spectrometer: HR+D1059
Trigger mode: 1
Integration Time (sec): 1.000000E-1
Scans to average: 1
Electric dark correction enabled: true
Nonlinearity correction enabled: false
Boxcar width: 0
XAxis mode: Wavelengths
Number of Pixels in Spectrum: 2048
>>>>>Begin Spectral Data<<<<<
223.165	-33.19
223.4	-33.19
223.635	-33.19
223.869	-9.19
224.104	-9.19
224.338	-24.19
224.573	-14.19
224.808	-15.19
225.042	-11.19
225.277	-11.19
225.511	-2.19
225.746	-2.19
225.98	1.81
226.215	-6.19
226.449	32.81
226.683	28.81
226.918	37.81
227.152	36.81
227.387	36.81
227.621	39.81
227.856	36.81
228.09	46.81
228.324	60.81
228.559	56.81
228.793	38.81
229.027	61.81
229.262	66.81
229.496	77.81
229.73	86.81
229.964	85.81
230.199	76.81
230.433	56.81
230.667	78.81
230.901	83.81
231.136	79.81
231.37	87.81
231.604	74.81
231.838	77.81
232.072	73.81
232.306	72.81
232.541	85.81
232.775	94.81
233.009	93.81
233.243	87.81
233.477	81.81
233.711	95.81
233.945	87.81
234.179	89.81
234.413	85.81
234.647	87.81
234.881	83.81
235.115	74.81
235.349	77.81
235.583	86.81
235.817	75.81
236.051	78.81
236.285	79.81
236.519	80.81
236.753	80.81
236.987	86.81
237.221	83.81
237.455	88.81
237.689	81.81
237.922	81.81
238.156	75.81
238.39	78.81
238.624	74.81
238.858	74.81
239.091	90.81
239.325	88.81
239.559	85.81
239.793	96.81
240.027	70.81
240.26	80.81
240.494	74.81
240.728	80.81
240.961	78.81
241.195	67.81
241.429	77.81
241.662	87.81
241.896	77.81
242.13	99.81
242.363	76.81
242.597	84.81
242.83	94.81
243.064	73.81
243.298	82.81
243.531	76.81
243.765	85.81
243.998	84.81
244.232	83.81
244.465	97.81
244.699	86.81
244.932	89.81
245.166	81.81
245.399	75.81
245.633	94.81
245.866	76.81
246.099	67.81
246.333	85.81
246.566	86.81
246.8	85.81
247.033	77.81
247.266	65.81
247.5	73.81
247.733	85.81
247.966	89.81
248.2	91.81
248.433	76.81
248.666	79.81
248.899	85.81
249.133	86.81
249.366	81.81
249.599	107.81
249.832	72.81
250.066	79.81
250.299	81.81
250.532	97.81
250.765	85.81
250.998	78.81
251.231	79.81
251.465	86.81
251.698	92.81
251.931	85.81
252.164	70.81
252.397	85.81
252.63	89.81
252.863	64.81
253.096	76.81
253.329	90.81
253.562	98.81
253.795	76.81
254.028	84.81
254.261	88.81
254.494	90.81
254.727	81.81
254.96	78.81
255.193	84.81
255.426	86.81
255.659	86.81
255.892	89.81
256.124	76.81
256.357	93.81
256.59	92.81
256.823	69.81
257.056	79.81
257.289	83.81
257.521	93.81
257.754	73.81
257.987	89.81
258.22	77.81
258.452	77.81
258.685	98.81
258.918	81.81
259.151	83.81
259.383	85.81
259.616	85.81
259.849	83.81
260.081	77.81
260.314	80.81
260.547	88.81
260.779	77.81
261.012	90.81
261.244	82.81
261.477	89.81
261.71	92.81
261.942	109.81
262.175	114.81
262.407	101.81
262.64	85.81
262.872	86.81
263.105	73.81
263.337	82.81
263.57	82.81
263.802	78.81
264.035	83.81
264.267	87.81
264.499	86.81
264.732	87.81
264.964	89.81
265.197	80.81
265.429	92.81
265.661	83.81
265.894	94.81
266.126	86.81
266.358	93.81
266.591	80.81
266.823	87.81
267.055	90.81
267.287	77.81
267.52	80.81
267.752	84.81
267.984	84.81
268.216	84.81
268.448	83.81
268.681	93.81
268.913	78.81
269.145	93.81
269.377	95.81
269.609	69.81
269.841	96.81
270.073	90.81
270.306	99.81
270.538	78.81
270.77	93.81
271.002	76.81
271.234	82.81
271.466	86.81
271.698	85.81
271.93	81.81
272.162	85.81
272.394	87.81
272.626	89.81
272.858	87.81
273.09	100.81
273.322	81.81
273.553	86.81
273.785	88.81
274.017	70.81
274.249	82.81
274.481	96.81
274.713	76.81
274.945	90.81
275.176	73.81
275.408	90.81
275.64	76.81
275.872	82.81
276.104	78.81
276.335	93.81
276.567	82.81
276.799	76.81
277.031	105.81
277.262	121.81
277.494	88.81
277.726	89.81
277.957	86.81
278.189	80.81
278.421	81.81
278.652	84.81
278.884	83.81
279.115	90.81
279.347	89.81
279.579	84.81
279.81	84.81
280.042	89.81
280.273	74.81
280.505	94.81
280.736	90.81
280.968	101.81
281.199	83.81
281.431	79.81
281.662	85.81
281.894	81.81
282.125	90.81
282.356	118.81
282.588	147.81
282.819	126.81
283.051	95.81
283.282	86.81
283.513	101.81
283.745	91.81
283.976	91.81
284.207	89.81
284.439	91.81
284.67	78.81
284.901	80.81
285.132	90.81
285.364	84.81
285.595	90.81
285.826	87.81
286.057	68.81
286.288	79.81
286.52	88.81
286.751	78.81
286.982	102.81
287.213	98.81
287.444	91.81
287.675	88.81
287.906	100.81
288.138	97.81
288.369	116.81
288.6	105.81
288.831	88.81
289.062	94.81
289.293	92.81
289.524	82.81
289.755	85.81
289.986	82.81
290.217	86.81
290.448	82.81
290.679	93.81
290.91	90.81
291.141	95.81
291.371	95.81
291.602	92.81
291.833	86.81
292.064	83.81
292.295	83.81
292.526	79.81
292.757	84.81
292.987	86.81
293.218	83.81
293.449	83.81
293.68	97.81
293.91	85.81
294.141	72.81
294.372	71.81
294.603	74.81
294.833	80.81
295.064	82.81
295.295	86.81
295.525	79.81
295.756	104.81
295.987	113.81
296.217	135.81
296.448	113.81
296.679	90.81
296.909	81.81
297.14	79.81
297.37	77.81
297.601	79.81
297.831	110.81
298.062	89.81
298.292	89.81
298.523	86.81
298.753	88.81
298.984	80.81
299.214	82.81
299.445	94.81
299.675	93.81
299.905	97.81
300.136	89.81
300.366	82.81
300.597	98.81
300.827	94.81
301.057	94.81
301.288	108.81
301.518	92.81
301.748	95.81
301.979	105.81
302.209	102.81
302.439	91.81
302.669	96.81
302.9	92.81
303.13	86.81
303.36	97.81
303.59	101.81
303.82	104.81
304.051	96.81
304.281	91.81
304.511	91.81
304.741	76.81
304.971	72.81
305.201	80.81
305.431	105.81
305.661	83.81
305.891	86.81
306.121	101.81
306.352	100.81
306.582	99.81
306.812	83.81
307.042	87.81
307.272	101.81
307.502	92.81
307.731	88.81
307.961	83.81
308.191	86.81
308.421	94.81
308.651	100.81
308.881	101.81
309.111	96.81
309.341	100.81
309.571	82.81
309.8	100.81
310.03	90.81
310.26	91.81
310.49	99.81
310.72	100.81
310.949	97.81
311.179	113.81
311.409	97.81
311.639	96.81
311.868	91.81
312.098	98.81
312.328	100.81
312.557	96.81
312.787	105.81
313.017	98.81
313.246	102.81
313.476	106.81
313.706	109.81
313.935	97.81
314.165	91.81
314.394	111.81
314.624	95.81
314.853	94.81
315.083	100.81
315.312	83.81
315.542	92.81
315.771	97.81
316.001	86.81
316.23	83.81
316.46	94.81
316.689	96.81
316.919	99.81
317.148	94.81
317.377	93.81
317.607	104.81
317.836	94.81
318.065	81.81
318.295	86.81
318.524	85.81
318.753	91.81
318.983	96.81
319.212	94.81
319.441	95.81
319.67	123.81
319.9	99.81
320.129	96.81
320.358	95.81
320.587	88.81
320.816	96.81
321.046	98.81
321.275	100.81
321.504	85.81
321.733	97.81
321.962	118.81
322.191	81.81
322.42	105.81
322.649	113.81
322.878	120.81
323.108	126.81
323.337	132.81
323.566	139.81
323.795	160.81
324.024	222.81
324.253	432.81
324.482	959.81
324.71	1968.81
324.939	2652.81
325.168	961.81
325.397	274.81
325.626	177.81
325.855	137.81
326.084	133.81
326.313	141.81
326.542	175.81
326.77	259.81
326.999	512.81
327.228	1081.81
327.457	1959.81
327.686	1588.81
327.914	423.81
328.143	214.81
328.372	145.81
328.6	124.81
328.829	116.81
329.058	137.81
329.287	130.81
329.515	116.81
329.744	107.81
329.972	101.81
330.201	106.81
330.43	114.81
330.658	120.81
330.887	148.81
331.115	124.81
331.344	104.81
331.572	108.81
331.801	101.81
332.03	107.81
332.258	97.81
332.486	85.81
332.715	85.81
332.943	99.81
333.172	90.81
333.4	109.81
333.629	129.81
333.857	113.81
334.085	121.81
334.314	102.81
334.542	94.81
334.771	93.81
334.999	99.81
335.227	112.81
335.455	96.81
335.684	105.81
335.912	90.81
336.14	90.81
336.369	109.81
336.597	94.81
336.825	94.81
337.053	99.81
337.281	101.81
337.51	80.81
337.738	96.81
337.966	93.81
338.194	101.81
338.422	96.81
338.65	108.81
338.878	100.81
339.106	101.81
339.334	93.81
339.562	88.81
339.79	86.81
340.018	75.81
340.246	83.81
340.474	91.81
340.702	95.81
340.93	97.81
341.158	81.81
341.386	97.81
341.614	101.81
341.842	83.81
342.07	93.81
342.298	91.81
342.526	89.81
342.754	86.81
342.981	88.81
343.209	106.81
343.437	116.81
343.665	81.81
343.893	84.81
344.12	83.81
344.348	103.81
344.576	89.81
344.804	99.81
345.031	98.81
345.259	100.81
345.487	101.81
345.714	94.81
345.942	93.81
346.17	78.81
346.397	90.81
346.625	92.81
346.853	102.81
347.08	98.81
347.308	106.81
347.535	106.81
347.763	86.81
347.99	98.81
348.218	97.81
348.445	104.81
348.673	82.81
348.9	98.81
349.128	98.81
349.355	98.81
349.583	99.81
349.81	101.81
350.037	98.81
350.265	83.81
350.492	89.81
350.72	100.81
350.947	101.81
351.174	110.81
351.402	115.81
351.629	111.81
351.856	108.81
352.083	96.81
352.311	105.81
352.538	116.81
352.765	116.81
352.992	114.81
353.22	115.81
353.447	112.81
353.674	105.81
353.901	102.81
354.128	105.81
354.355	97.81
354.583	113.81
354.81	108.81
355.037	88.81
355.264	79.81
355.491	98.81
355.718	94.81
355.945	105.81
356.172	97.81
356.399	106.81
356.626	102.81
356.853	100.81
357.08	87.81
357.307	93.81
357.534	98.81
357.761	80.81
357.988	91.81
358.215	100.81
358.441	93.81
358.668	106.81
358.895	81.81
359.122	80.81
359.349	77.81
359.576	91.81
359.802	93.81
360.029	105.81
360.256	115.81
360.483	103.81
360.709	100.81
360.936	88.81
361.163	110.81
361.39	92.81
361.616	111.81
361.843	86.81
362.07	107.81
362.296	102.81
362.523	93.81
362.749	101.81
362.976	100.81
363.203	102.81
363.429	86.81
363.656	82.81
363.882	81.81
364.109	92.81
364.335	89.81
364.562	100.81
364.788	77.81
365.015	94.81
365.241	103.81
365.468	105.81
365.694	96.81
365.92	91.81
366.147	85.81
366.373	99.81
366.599	104.81
366.826	89.81
367.052	91.81
367.278	102.81
367.505	97.81
367.731	92.81
367.957	92.81
368.184	99.81
368.41	103.81
368.636	120.81
368.862	127.81
369.089	101.81
369.315	87.81
369.541	85.81
369.767	78.81
369.993	85.81
370.219	72.81
370.445	84.81
370.672	89.81
370.898	85.81
371.124	83.81
371.35	81.81
371.576	93.81
371.802	78.81
372.028	86.81
372.254	89.81
372.48	87.81
372.706	74.81
372.932	83.81
373.158	95.81
373.384	89.81
373.61	86.81
373.835	91.81
374.061	92.81
374.287	84.81
374.513	80.81
374.739	91.81
374.965	82.81
375.191	79.81
375.416	81.81
375.642	102.81
375.868	101.81
376.094	107.81
376.319	92.81
376.545	89.81
376.771	101.81
376.997	100.81
377.222	78.81
377.448	80.81
377.674	95.81
377.899	84.81
378.125	96.81
378.35	80.81
378.576	95.81
378.802	105.81
379.027	83.81
379.253	103.81
379.478	86.81
379.704	97.81
379.929	93.81
380.155	107.81
380.38	95.81
380.606	104.81
380.831	104.81
381.057	101.81
381.282	106.81
381.507	98.81
381.733	94.81
381.958	91.81
382.184	96.81
382.409	96.81
382.634	109.81
382.86	100.81
383.085	88.81
383.31	101.81
383.535	110.81
383.761	103.81
383.986	91.81
384.211	85.81
384.436	100.81
384.662	107.81
384.887	97.81
385.112	113.81
385.337	108.81
385.562	100.81
385.787	104.81
386.013	97.81
386.238	116.81
386.463	99.81
386.688	101.81
386.913	97.81
387.138	96.81
387.363	94.81
387.588	100.81
387.813	97.81
388.038	77.81
388.263	104.81
388.488	104.81
388.713	107.81
388.938	104.81
389.163	114.81
389.387	110.81
389.612	96.81
389.837	95.81
390.062	81.81
390.287	98.81
390.512	87.81
390.736	80.81
390.961	89.81
391.186	80.81
391.411	88.81
391.636	85.81
391.86	86.81
392.085	97.81
392.31	93.81
392.534	79.81
392.759	85.81
392.984	93.81
393.208	102.81
393.433	93.81
393.658	87.81
393.882	86.81
394.107	90.81
394.331	72.81
394.556	80.81
394.78	81.81
395.005	91.81
395.229	80.81
395.454	88.81
395.678	93.81
395.903	92.81
396.127	94.81
396.352	74.81
396.576	94.81
396.801	77.81
397.025	96.81
397.249	86.81
397.474	88.81
397.698	96.81
397.922	84.81
398.147	83.81
398.371	82.81
398.595	90.81
398.82	78.81
399.044	89.81
399.268	80.81
399.492	80.81
399.717	77.81
399.941	93.81
400.165	108.81
400.389	80.81
400.613	83.81
400.837	101.81
401.062	99.81
401.286	83.81
401.51	105.81
401.734	106.81
401.958	80.81
402.182	142.81
402.406	160.81
402.63	104.81
402.854	98.81
403.078	78.81
403.302	84.81
403.526	87.81
403.75	84.81
403.974	101.81
404.198	89.81
404.422	96.81
404.645	75.81
404.869	83.81
405.093	89.81
405.317	97.81
405.541	102.81
405.765	93.81
405.988	116.81
406.212	182.81
406.436	235.81
406.66	148.81
406.883	117.81
407.107	89.81
407.331	109.81
407.555	90.81
407.778	101.81
408.002	83.81
408.226	112.81
408.449	85.81
408.673	83.81
408.896	81.81
409.12	109.81
409.344	106.81
409.567	82.81
409.791	88.81
410.014	96.81
410.238	86.81
410.461	93.81
410.685	93.81
410.908	93.81
411.132	105.81
411.355	97.81
411.578	94.81
411.802	103.81
412.025	99.81
412.249	83.81
412.472	85.81
412.695	80.81
412.919	82.81
413.142	90.81
413.365	92.81
413.589	85.81
413.812	86.81
414.035	75.81
414.258	81.81
414.482	96.81
414.705	100.81
414.928	106.81
415.151	85.81
415.374	84.81
415.597	102.81
415.821	90.81
416.044	89.81
416.267	91.81
416.49	103.81
416.713	81.81
416.936	75.81
417.159	72.81
417.382	77.81
417.605	78.81
417.828	81.81
418.051	96.81
418.274	96.81
418.497	86.81
418.72	94.81
418.943	91.81
419.166	75.81
419.389	83.81
419.611	92.81
419.834	74.81
420.057	83.81
420.28	87.81
420.503	86.81
420.726	90.81
420.948	103.81
421.171	92.81
421.394	99.81
421.617	105.81
421.839	98.81
422.062	93.81
422.285	101.81
422.507	93.81
422.73	95.81
422.953	99.81
423.175	101.81
423.398	78.81
423.621	102.81
423.843	82.81
424.066	86.81
424.288	89.81
424.511	100.81
424.733	98.81
424.956	104.81
425.178	108.81
425.401	90.81
425.623	90.81
425.846	101.81
426.068	89.81
426.291	81.81
426.513	86.81
426.735	93.81
426.958	90.81
427.18	112.81
427.402	124.81
427.625	165.81
427.847	137.81
428.069	101.81
428.292	89.81
428.514	89.81
428.736	90.81
428.958	90.81
429.181	85.81
429.403	105.81
429.625	88.81
429.847	84.81
430.069	99.81
430.292	118.81
430.514	89.81
430.736	88.81
430.958	95.81
431.18	77.81
431.402	97.81
431.624	96.81
431.846	89.81
432.068	88.81
432.29	87.81
432.512	102.81
432.734	83.81
432.956	82.81
433.178	109.81
433.4	95.81
433.622	84.81
433.844	84.81
434.066	81.81
434.287	89.81
434.509	82.81
434.731	86.81
434.953	80.81
435.175	86.81
435.397	82.81
435.618	93.81
435.84	106.81
436.062	121.81
436.284	118.81
436.505	115.81
436.727	99.81
436.949	90.81
437.17	97.81
437.392	97.81
437.614	90.81
437.835	108.81
438.057	123.81
438.278	119.81
438.5	105.81
438.721	104.81
438.943	96.81
439.165	102.81
439.386	74.81
439.608	93.81
439.829	93.81
440.05	118.81
440.272	162.81
440.493	100.81
440.715	79.81
440.936	90.81
441.158	92.81
441.379	85.81
441.6	92.81
441.822	104.81
442.043	108.81
442.264	98.81
442.486	96.81
442.707	94.81
442.928	92.81
443.149	108.81
443.371	137.81
443.592	124.81
443.813	122.81
444.034	125.81
444.255	109.81
444.476	81.81
444.698	91.81
444.919	78.81
445.14	130.81
445.361	120.81
445.582	109.81
445.803	136.81
446.024	140.81
446.245	159.81
446.466	108.81
446.687	104.81
446.908	91.81
447.129	87.81
447.35	96.81
447.571	85.81
447.792	83.81
448.013	94.81
448.234	116.81
448.455	112.81
448.675	95.81
448.896	131.81
449.117	117.81
449.338	108.81
449.559	117.81
449.779	126.81
450	96.81
450.221	98.81
450.442	85.81
450.662	95.81
450.883	104.81
451.104	108.81
451.324	108.81
451.545	89.81
451.766	88.81
451.986	95.81
452.207	92.81
452.428	84.81
452.648	93.81
452.869	96.81
453.089	124.81
453.31	122.81
453.53	101.81
453.751	90.81
453.971	86.81
454.192	112.81
454.412	72.81
454.633	88.81
454.853	91.81
455.073	90.81
455.294	103.81
455.514	101.81
455.734	96.81
455.955	92.81
456.175	87.81
456.395	76.81
456.616	76.81
456.836	85.81
457.056	88.81
457.276	80.81
457.497	71.81
457.717	94.81
457.937	90.81
458.157	90.81
458.377	89.81
458.598	108.81
458.818	153.81
459.038	163.81
459.258	109.81
459.478	97.81
459.698	82.81
459.918	93.81
460.138	97.81
460.358	81.81
460.578	85.81
460.798	86.81
461.018	88.81
461.238	92.81
461.458	100.81
461.678	100.81
461.898	74.81
462.118	98.81
462.338	78.81
462.558	88.81
462.777	89.81
462.997	78.81
463.217	88.81
463.437	84.81
463.657	82.81
463.876	88.81
464.096	74.81
464.316	102.81
464.536	81.81
464.755	93.81
464.975	103.81
465.195	160.81
465.414	161.81
465.634	95.81
465.854	86.81
466.073	97.81
466.293	97.81
466.512	86.81
466.732	102.81
466.951	89.81
467.171	91.81
467.391	99.81
467.61	108.81
467.829	88.81
468.049	95.81
468.268	84.81
468.488	90.81
468.707	86.81
468.927	76.81
469.146	86.81
469.365	95.81
469.585	98.81
469.804	104.81
470.023	102.81
470.243	105.81
470.462	94.81
470.681	97.81
470.901	82.81
471.12	78.81
471.339	90.81
471.558	83.81
471.777	90.81
471.997	101.81
472.216	96.81
472.435	104.81
472.654	100.81
472.873	78.81
473.092	105.81
473.311	80.81
473.53	90.81
473.749	99.81
473.968	96.81
474.187	89.81
474.406	111.81
474.625	86.81
474.844	99.81
475.063	98.81
475.282	88.81
475.501	84.81
475.72	78.81
475.939	97.81
476.158	88.81
476.377	82.81
476.596	100.81
476.814	95.81
477.033	95.81
477.252	94.81
477.471	86.81
477.69	94.81
477.908	86.81
478.127	80.81
478.346	105.81
478.564	96.81
478.783	87.81
479.002	99.81
479.22	66.81
479.439	111.81
479.658	101.81
479.876	103.81
480.095	100.81
480.313	87.81
480.532	93.81
480.751	82.81
480.969	90.81
481.188	103.81
481.406	99.81
481.624	93.81
481.843	97.81
482.061	86.81
482.28	93.81
482.498	98.81
482.717	81.81
482.935	90.81
483.153	99.81
483.372	90.81
483.59	83.81
483.808	90.81
484.027	105.81
484.245	105.81
484.463	88.81
484.681	83.81
484.9	104.81
485.118	98.81
485.336	101.81
485.554	101.81
485.772	97.81
485.99	85.81
486.209	107.81
486.427	105.81
486.645	98.81
486.863	108.81
487.081	115.81
487.299	87.81
487.517	85.81
487.735	100.81
487.953	99.81
488.171	84.81
488.389	84.81
488.607	108.81
488.825	90.81
489.043	91.81
489.261	80.81
489.479	91.81
489.696	85.81
489.914	85.81
490.132	95.81
490.35	91.81
490.568	90.81
490.786	88.81
491.003	109.81
491.221	78.81
491.439	83.81
491.657	95.81
491.874	100.81
492.092	105.81
492.31	98.81
492.527	100.81
492.745	102.81
492.963	93.81
493.18	105.81
493.398	101.81
493.615	101.81
493.833	104.81
494.05	82.81
494.268	81.81
494.485	92.81
494.703	90.81
494.92	81.81
495.138	91.81
495.355	98.81
495.573	87.81
495.79	90.81
496.008	102.81
496.225	102.81
496.442	105.81
496.66	89.81
496.877	98.81
497.094	89.81
497.312	107.81
497.529	99.81
497.746	91.81
497.963	97.81
498.181	100.81
498.398	100.81
498.615	104.81
498.832	92.81
499.049	84.81
499.267	92.81
499.484	78.81
499.701	93.81
499.918	94.81
500.135	79.81
500.352	90.81
500.569	101.81
500.786	89.81
501.003	85.81
501.22	106.81
501.437	88.81
501.654	89.81
501.871	102.81
502.088	86.81
502.305	89.81
502.522	89.81
502.739	104.81
502.956	94.81
503.172	98.81
503.389	82.81
503.606	109.81
503.823	101.81
504.04	100.81
504.256	85.81
504.473	96.81
504.69	91.81
504.907	101.81
505.123	96.81
505.34	89.81
505.557	88.81
505.773	93.81
505.99	92.81
506.207	87.81
506.423	90.81
506.64	96.81
506.856	98.81
507.073	89.81
507.289	105.81
507.506	101.81
507.722	103.81
507.939	118.81
508.155	91.81
508.372	102.81
508.588	100.81
508.805	106.81
509.021	94.81
509.238	86.81
509.454	97.81
509.67	88.81
509.887	117.81
510.103	142.81
510.319	216.81
510.536	842.81
510.752	2690.81
510.968	726.81
511.184	174.81
511.401	112.81
511.617	96.81
511.833	83.81
512.049	94.81
512.265	97.81
512.481	91.81
512.698	90.81
512.914	89.81
513.13	80.81
513.346	92.81
513.562	104.81
513.778	97.81
513.994	116.81
514.21	94.81
514.426	137.81
514.642	149.81
514.858	127.81
