Data from Uncirc_2007_H10_HRD10591_00069.txt Node
Date: Wed Jan 03 10:20:56 EST 2024
User: Yrep
Spectrometer: HR+D1059
Trigger mode: 1
Integration Time (sec): 1.000000E-1
Scans to average: 1
Electric dark correction enabled: true
Nonlinearity correction enabled: false
Boxcar width: 0
XAxis mode: Wavelengths
Number of Pixels in Spectrum: 2048
>>>>>Begin Spectral Data<<<<<
223.165	-26.88
223.4	-26.88
223.635	-26.88
223.869	-14.88
224.104	-15.88
224.338	-13.88
224.573	-21.88
224.808	-12.88
225.042	-3.88
225.277	-4.88
225.511	-3.88
225.746	-3.88
225.98	6.12
226.215	5.12
226.449	30.12
226.683	20.12
226.918	30.12
227.152	31.12
227.387	36.12
227.621	51.12
227.856	34.12
228.09	56.12
228.324	47.12
228.559	72.12
228.793	50.12
229.027	68.12
229.262	68.12
229.496	76.12
229.73	91.12
229.964	77.12
230.199	69.12
230.433	67.12
230.667	89.12
230.901	86.12
231.136	75.12
231.37	90.12
231.604	91.12
231.838	87.12
232.072	91.12
232.306	84.12
232.541	99.12
232.775	86.12
233.009	98.12
233.243	77.12
233.477	92.12
233.711	69.12
233.945	77.12
234.179	74.12
234.413	82.12
234.647	81.12
234.881	73.12
235.115	96.12
235.349	96.12
235.583	87.12
235.817	66.12
236.051	66.12
236.285	84.12
236.519	77.12
236.753	77.12
236.987	82.12
237.221	82.12
237.455	89.12
237.689	71.12
237.922	68.12
238.156	68.12
238.39	57.12
238.624	81.12
238.858	80.12
239.091	85.12
239.325	89.12
239.559	78.12
239.793	79.12
240.027	81.12
240.26	90.12
240.494	65.12
240.728	79.12
240.961	64.12
241.195	84.12
241.429	79.12
241.662	56.12
241.896	72.12
242.13	71.12
242.363	61.12
242.597	73.12
242.83	57.12
243.064	72.12
243.298	92.12
243.531	94.12
243.765	80.12
243.998	77.12
244.232	90.12
244.465	77.12
244.699	88.12
244.932	85.12
245.166	72.12
245.399	103.12
245.633	80.12
245.866	53.12
246.099	75.12
246.333	69.12
246.566	77.12
246.8	80.12
247.033	87.12
247.266	75.12
247.5	70.12
247.733	80.12
247.966	80.12
248.2	81.12
248.433	72.12
248.666	72.12
248.899	69.12
249.133	92.12
249.366	99.12
249.599	102.12
249.832	80.12
250.066	94.12
250.299	75.12
250.532	92.12
250.765	93.12
250.998	77.12
251.231	82.12
251.465	70.12
251.698	75.12
251.931	74.12
252.164	86.12
252.397	77.12
252.63	97.12
252.863	80.12
253.096	77.12
253.329	85.12
253.562	81.12
253.795	83.12
254.028	81.12
254.261	73.12
254.494	73.12
254.727	76.12
254.96	79.12
255.193	76.12
255.426	84.12
255.659	73.12
255.892	68.12
256.124	86.12
256.357	82.12
256.59	90.12
256.823	77.12
257.056	75.12
257.289	96.12
257.521	74.12
257.754	84.12
257.987	76.12
258.22	93.12
258.452	82.12
258.685	89.12
258.918	74.12
259.151	75.12
259.383	80.12
259.616	76.12
259.849	92.12
260.081	76.12
260.314	85.12
260.547	77.12
260.779	80.12
261.012	86.12
261.244	86.12
261.477	85.12
261.71	97.12
261.942	99.12
262.175	106.12
262.407	99.12
262.64	91.12
262.872	80.12
263.105	77.12
263.337	90.12
263.57	87.12
263.802	103.12
264.035	84.12
264.267	79.12
264.499	67.12
264.732	75.12
264.964	85.12
265.197	95.12
265.429	84.12
265.661	82.12
265.894	72.12
266.126	88.12
266.358	85.12
266.591	80.12
266.823	86.12
267.055	82.12
267.287	85.12
267.52	95.12
267.752	95.12
267.984	77.12
268.216	90.12
268.448	84.12
268.681	75.12
268.913	86.12
269.145	89.12
269.377	90.12
269.609	76.12
269.841	92.12
270.073	78.12
270.306	98.12
270.538	72.12
270.77	73.12
271.002	81.12
271.234	87.12
271.466	80.12
271.698	86.12
271.93	88.12
272.162	81.12
272.394	83.12
272.626	86.12
272.858	76.12
273.09	85.12
273.322	94.12
273.553	82.12
273.785	77.12
274.017	76.12
274.249	81.12
274.481	77.12
274.713	87.12
274.945	82.12
275.176	92.12
275.408	88.12
275.64	85.12
275.872	76.12
276.104	88.12
276.335	82.12
276.567	90.12
276.799	109.12
277.031	101.12
277.262	84.12
277.494	86.12
277.726	88.12
277.957	76.12
278.189	97.12
278.421	91.12
278.652	85.12
278.884	95.12
279.115	100.12
279.347	100.12
279.579	84.12
279.81	82.12
280.042	90.12
280.273	86.12
280.505	104.12
280.736	87.12
280.968	94.12
281.199	83.12
281.431	67.12
281.662	78.12
281.894	84.12
282.125	100.12
282.356	132.12
282.588	138.12
282.819	107.12
283.051	102.12
283.282	94.12
283.513	90.12
283.745	89.12
283.976	75.12
284.207	104.12
284.439	97.12
284.67	92.12
284.901	101.12
285.132	90.12
285.364	100.12
285.595	84.12
285.826	76.12
286.057	89.12
286.288	83.12
286.52	94.12
286.751	86.12
286.982	105.12
287.213	95.12
287.444	84.12
287.675	84.12
287.906	80.12
288.138	97.12
288.369	95.12
288.6	90.12
288.831	93.12
289.062	79.12
289.293	86.12
289.524	94.12
289.755	80.12
289.986	65.12
290.217	79.12
290.448	86.12
290.679	67.12
290.91	78.12
291.141	77.12
291.371	90.12
291.602	85.12
291.833	70.12
292.064	98.12
292.295	78.12
292.526	90.12
292.757	68.12
292.987	84.12
293.218	102.12
293.449	85.12
293.68	87.12
293.91	73.12
294.141	82.12
294.372	83.12
294.603	80.12
294.833	93.12
295.064	91.12
295.295	76.12
295.525	91.12
295.756	95.12
295.987	126.12
296.217	139.12
296.448	120.12
296.679	90.12
296.909	90.12
297.14	78.12
297.37	96.12
297.601	84.12
297.831	95.12
298.062	93.12
298.292	85.12
298.523	76.12
298.753	72.12
298.984	85.12
299.214	91.12
299.445	98.12
299.675	81.12
299.905	89.12
300.136	84.12
300.366	85.12
300.597	93.12
300.827	95.12
301.057	102.12
301.288	95.12
301.518	100.12
301.748	83.12
301.979	95.12
302.209	83.12
302.439	88.12
302.669	99.12
302.9	81.12
303.13	100.12
303.36	97.12
303.59	100.12
303.82	100.12
304.051	98.12
304.281	89.12
304.511	106.12
304.741	98.12
304.971	100.12
305.201	90.12
305.431	91.12
305.661	86.12
305.891	97.12
306.121	76.12
306.352	92.12
306.582	106.12
306.812	95.12
307.042	88.12
307.272	90.12
307.502	96.12
307.731	96.12
307.961	97.12
308.191	99.12
308.421	75.12
308.651	96.12
308.881	99.12
309.111	96.12
309.341	98.12
309.571	98.12
309.8	88.12
310.03	83.12
310.26	95.12
310.49	98.12
310.72	104.12
310.949	100.12
311.179	103.12
311.409	96.12
311.639	94.12
311.868	97.12
312.098	85.12
312.328	104.12
312.557	90.12
312.787	107.12
313.017	96.12
313.246	101.12
313.476	87.12
313.706	96.12
313.935	84.12
314.165	86.12
314.394	108.12
314.624	105.12
314.853	85.12
315.083	92.12
315.312	111.12
315.542	102.12
315.771	87.12
316.001	78.12
316.23	84.12
316.46	84.12
316.689	93.12
316.919	85.12
317.148	97.12
317.377	91.12
317.607	80.12
317.836	75.12
318.065	100.12
318.295	86.12
318.524	88.12
318.753	85.12
318.983	97.12
319.212	93.12
319.441	96.12
319.67	94.12
319.9	89.12
320.129	98.12
320.358	94.12
320.587	108.12
320.816	88.12
321.046	93.12
321.275	100.12
321.504	78.12
321.733	90.12
321.962	104.12
322.191	99.12
322.42	101.12
322.649	104.12
322.878	121.12
323.108	124.12
323.337	128.12
323.566	125.12
323.795	159.12
324.024	205.12
324.253	432.12
324.482	851.12
324.71	1809.12
324.939	2418.12
325.168	858.12
325.397	253.12
325.626	142.12
325.855	130.12
326.084	109.12
326.313	138.12
326.542	166.12
326.77	243.12
326.999	475.12
327.228	1027.12
327.457	1870.12
327.686	1474.12
327.914	389.12
328.143	184.12
328.372	160.12
328.6	120.12
328.829	128.12
329.058	122.12
329.287	121.12
329.515	122.12
329.744	112.12
329.972	94.12
330.201	93.12
330.43	83.12
330.658	100.12
330.887	131.12
331.115	126.12
331.344	115.12
331.572	88.12
331.801	100.12
332.03	102.12
332.258	112.12
332.486	82.12
332.715	85.12
332.943	96.12
333.172	92.12
333.4	103.12
333.629	104.12
333.857	104.12
334.085	110.12
334.314	91.12
334.542	76.12
334.771	103.12
334.999	99.12
335.227	106.12
335.455	101.12
335.684	83.12
335.912	86.12
336.14	104.12
336.369	97.12
336.597	90.12
336.825	94.12
337.053	97.12
337.281	90.12
337.51	97.12
337.738	93.12
337.966	88.12
338.194	100.12
338.422	106.12
338.65	107.12
338.878	102.12
339.106	95.12
339.334	85.12
339.562	85.12
339.79	90.12
340.018	97.12
340.246	91.12
340.474	101.12
340.702	100.12
340.93	97.12
341.158	99.12
341.386	92.12
341.614	89.12
341.842	76.12
342.07	80.12
342.298	97.12
342.526	90.12
342.754	86.12
342.981	82.12
343.209	95.12
343.437	91.12
343.665	85.12
343.893	92.12
344.12	72.12
344.348	86.12
344.576	95.12
344.804	90.12
345.031	82.12
345.259	89.12
345.487	100.12
345.714	89.12
345.942	89.12
346.17	88.12
346.397	103.12
346.625	90.12
346.853	90.12
347.08	87.12
347.308	94.12
347.535	88.12
347.763	82.12
347.99	96.12
348.218	99.12
348.445	97.12
348.673	110.12
348.9	100.12
349.128	94.12
349.355	88.12
349.583	104.12
349.81	100.12
350.037	90.12
350.265	87.12
350.492	95.12
350.72	108.12
350.947	108.12
351.174	110.12
351.402	117.12
351.629	115.12
351.856	95.12
352.083	100.12
352.311	111.12
352.538	114.12
352.765	111.12
352.992	116.12
353.22	113.12
353.447	102.12
353.674	100.12
353.901	109.12
354.128	98.12
354.355	101.12
354.583	95.12
354.81	96.12
355.037	106.12
355.264	99.12
355.491	90.12
355.718	96.12
355.945	91.12
356.172	96.12
356.399	106.12
356.626	99.12
356.853	94.12
357.08	97.12
357.307	99.12
357.534	96.12
357.761	92.12
357.988	77.12
358.215	92.12
358.441	100.12
358.668	91.12
358.895	79.12
359.122	78.12
359.349	97.12
359.576	97.12
359.802	109.12
360.029	115.12
360.256	97.12
360.483	101.12
360.709	97.12
360.936	104.12
361.163	85.12
361.39	101.12
361.616	87.12
361.843	86.12
362.07	86.12
362.296	97.12
362.523	93.12
362.749	92.12
362.976	82.12
363.203	92.12
363.429	77.12
363.656	82.12
363.882	97.12
364.109	99.12
364.335	111.12
364.562	97.12
364.788	87.12
365.015	91.12
365.241	106.12
365.468	99.12
365.694	112.12
365.92	86.12
366.147	81.12
366.373	93.12
366.599	90.12
366.826	93.12
367.052	84.12
367.278	78.12
367.505	98.12
367.731	90.12
367.957	84.12
368.184	96.12
368.41	116.12
368.636	101.12
368.862	113.12
369.089	95.12
369.315	85.12
369.541	86.12
369.767	92.12
369.993	95.12
370.219	89.12
370.445	101.12
370.672	81.12
370.898	96.12
371.124	81.12
371.35	88.12
371.576	86.12
371.802	93.12
372.028	90.12
372.254	85.12
372.48	87.12
372.706	76.12
372.932	87.12
373.158	93.12
373.384	83.12
373.61	92.12
373.835	106.12
374.061	90.12
374.287	86.12
374.513	97.12
374.739	92.12
374.965	96.12
375.191	108.12
375.416	86.12
375.642	96.12
375.868	91.12
376.094	99.12
376.319	94.12
376.545	78.12
376.771	99.12
376.997	97.12
377.222	88.12
377.448	82.12
377.674	67.12
377.899	88.12
378.125	88.12
378.35	96.12
378.576	85.12
378.802	82.12
379.027	86.12
379.253	86.12
379.478	83.12
379.704	91.12
379.929	69.12
380.155	89.12
380.38	102.12
380.606	92.12
380.831	94.12
381.057	96.12
381.282	90.12
381.507	100.12
381.733	111.12
381.958	107.12
382.184	106.12
382.409	100.12
382.634	99.12
382.86	116.12
383.085	89.12
383.31	93.12
383.535	99.12
383.761	86.12
383.986	80.12
384.211	90.12
384.436	84.12
384.662	87.12
384.887	107.12
385.112	112.12
385.337	105.12
385.562	108.12
385.787	104.12
386.013	116.12
386.238	115.12
386.463	121.12
386.688	114.12
386.913	106.12
387.138	111.12
387.363	98.12
387.588	90.12
387.813	97.12
388.038	105.12
388.263	101.12
388.488	89.12
388.713	86.12
388.938	85.12
389.163	85.12
389.387	84.12
389.612	90.12
389.837	90.12
390.062	97.12
390.287	77.12
390.512	91.12
390.736	104.12
390.961	101.12
391.186	82.12
391.411	92.12
391.636	85.12
391.86	85.12
392.085	85.12
392.31	81.12
392.534	64.12
392.759	90.12
392.984	90.12
393.208	90.12
393.433	89.12
393.658	85.12
393.882	84.12
394.107	96.12
394.331	81.12
394.556	87.12
394.78	77.12
395.005	85.12
395.229	95.12
395.454	99.12
395.678	73.12
395.903	100.12
396.127	93.12
396.352	74.12
396.576	94.12
396.801	90.12
397.025	97.12
397.249	90.12
397.474	89.12
397.698	85.12
397.922	95.12
398.147	83.12
398.371	87.12
398.595	88.12
398.82	88.12
399.044	93.12
399.268	95.12
399.492	94.12
399.717	97.12
399.941	88.12
400.165	93.12
400.389	78.12
400.613	82.12
400.837	95.12
401.062	102.12
401.286	96.12
401.51	98.12
401.734	84.12
401.958	92.12
402.182	122.12
402.406	161.12
402.63	120.12
402.854	104.12
403.078	84.12
403.302	100.12
403.526	82.12
403.75	95.12
403.974	99.12
404.198	78.12
404.422	96.12
404.645	94.12
404.869	83.12
405.093	83.12
405.317	94.12
405.541	104.12
405.765	84.12
405.988	108.12
406.212	165.12
406.436	202.12
406.66	140.12
406.883	98.12
407.107	106.12
407.331	95.12
407.555	100.12
407.778	101.12
408.002	87.12
408.226	83.12
408.449	81.12
408.673	84.12
408.896	94.12
409.12	90.12
409.344	94.12
409.567	91.12
409.791	98.12
410.014	102.12
410.238	100.12
410.461	105.12
410.685	87.12
410.908	91.12
411.132	100.12
411.355	96.12
411.578	88.12
411.802	91.12
412.025	89.12
412.249	85.12
412.472	89.12
412.695	78.12
412.919	83.12
413.142	82.12
413.365	100.12
413.589	93.12
413.812	90.12
414.035	89.12
414.258	81.12
414.482	85.12
414.705	96.12
414.928	110.12
415.151	101.12
415.374	106.12
415.597	83.12
415.821	78.12
416.044	74.12
416.267	89.12
416.49	75.12
416.713	94.12
416.936	86.12
417.159	80.12
417.382	99.12
417.605	99.12
417.828	102.12
418.051	94.12
418.274	77.12
418.497	90.12
418.72	91.12
418.943	84.12
419.166	83.12
419.389	91.12
419.611	94.12
419.834	101.12
420.057	83.12
420.28	86.12
420.503	84.12
420.726	80.12
420.948	76.12
421.171	92.12
421.394	89.12
421.617	77.12
421.839	91.12
422.062	96.12
422.285	84.12
422.507	89.12
422.73	102.12
422.953	88.12
423.175	82.12
423.398	101.12
423.621	99.12
423.843	79.12
424.066	100.12
424.288	99.12
424.511	87.12
424.733	101.12
424.956	91.12
425.178	88.12
425.401	98.12
425.623	90.12
425.846	86.12
426.068	99.12
426.291	85.12
426.513	77.12
426.735	75.12
426.958	84.12
427.18	102.12
427.402	134.12
427.625	160.12
427.847	117.12
428.069	89.12
428.292	85.12
428.514	100.12
428.736	82.12
428.958	96.12
429.181	89.12
429.403	109.12
429.625	91.12
429.847	106.12
430.069	91.12
430.292	88.12
430.514	89.12
430.736	99.12
430.958	87.12
431.18	91.12
431.402	94.12
431.624	86.12
431.846	78.12
432.068	93.12
432.29	87.12
432.512	80.12
432.734	76.12
432.956	82.12
433.178	100.12
433.4	112.12
433.622	93.12
433.844	83.12
434.066	76.12
434.287	91.12
434.509	83.12
434.731	78.12
434.953	92.12
435.175	90.12
435.397	90.12
435.618	101.12
435.84	98.12
436.062	123.12
436.284	131.12
436.505	99.12
436.727	105.12
436.949	86.12
437.17	97.12
437.392	80.12
437.614	95.12
437.835	103.12
438.057	114.12
438.278	104.12
438.5	109.12
438.721	120.12
438.943	98.12
439.165	89.12
439.386	92.12
439.608	73.12
439.829	95.12
440.05	121.12
440.272	141.12
440.493	96.12
440.715	98.12
440.936	105.12
441.158	90.12
441.379	92.12
441.6	92.12
441.822	103.12
442.043	93.12
442.264	96.12
442.486	103.12
442.707	94.12
442.928	113.12
443.149	138.12
443.371	137.12
443.592	126.12
443.813	102.12
444.034	112.12
444.255	88.12
444.476	83.12
444.698	91.12
444.919	83.12
445.14	149.12
445.361	117.12
445.582	119.12
445.803	134.12
446.024	140.12
446.245	145.12
446.466	113.12
446.687	99.12
446.908	84.12
447.129	84.12
447.35	92.12
447.571	84.12
447.792	99.12
448.013	97.12
448.234	93.12
448.455	93.12
448.675	116.12
448.896	127.12
449.117	101.12
449.338	115.12
449.559	109.12
449.779	135.12
450	98.12
450.221	75.12
450.442	85.12
450.662	103.12
450.883	99.12
451.104	115.12
451.324	103.12
451.545	80.12
451.766	78.12
451.986	90.12
452.207	85.12
452.428	94.12
452.648	97.12
452.869	100.12
453.089	107.12
453.31	131.12
453.53	77.12
453.751	100.12
453.971	99.12
454.192	121.12
454.412	90.12
454.633	76.12
454.853	74.12
455.073	82.12
455.294	80.12
455.514	92.12
455.734	86.12
455.955	80.12
456.175	91.12
456.395	75.12
456.616	85.12
456.836	77.12
457.056	89.12
457.276	83.12
457.497	92.12
457.717	89.12
457.937	73.12
458.157	77.12
458.377	73.12
458.598	96.12
458.818	149.12
459.038	164.12
459.258	96.12
459.478	75.12
459.698	90.12
459.918	78.12
460.138	83.12
460.358	85.12
460.578	97.12
460.798	88.12
461.018	82.12
461.238	92.12
461.458	90.12
461.678	89.12
461.898	96.12
462.118	82.12
462.338	84.12
462.558	84.12
462.777	80.12
462.997	81.12
463.217	79.12
463.437	84.12
463.657	79.12
463.876	81.12
464.096	90.12
464.316	101.12
464.536	97.12
464.755	90.12
464.975	104.12
465.195	145.12
465.414	150.12
465.634	106.12
465.854	84.12
466.073	100.12
466.293	83.12
466.512	84.12
466.732	96.12
466.951	74.12
467.171	92.12
467.391	91.12
467.61	84.12
467.829	99.12
468.049	89.12
468.268	93.12
468.488	85.12
468.707	83.12
468.927	80.12
469.146	85.12
469.365	95.12
469.585	95.12
469.804	96.12
470.023	108.12
470.243	82.12
470.462	115.12
470.681	99.12
470.901	82.12
471.12	81.12
471.339	83.12
471.558	82.12
471.777	84.12
471.997	101.12
472.216	90.12
472.435	89.12
472.654	90.12
472.873	106.12
473.092	88.12
473.311	85.12
473.53	101.12
473.749	72.12
473.968	86.12
474.187	98.12
474.406	96.12
474.625	88.12
474.844	91.12
475.063	90.12
475.282	84.12
475.501	83.12
475.72	93.12
475.939	81.12
476.158	95.12
476.377	74.12
476.596	86.12
476.814	108.12
477.033	89.12
477.252	81.12
477.471	92.12
477.69	96.12
477.908	91.12
478.127	87.12
478.346	82.12
478.564	93.12
478.783	106.12
479.002	87.12
479.22	86.12
479.439	106.12
479.658	114.12
479.876	86.12
480.095	91.12
480.313	81.12
480.532	95.12
480.751	91.12
480.969	97.12
481.188	109.12
481.406	87.12
481.624	95.12
481.843	89.12
482.061	86.12
482.28	90.12
482.498	90.12
482.717	77.12
482.935	76.12
483.153	78.12
483.372	91.12
483.59	95.12
483.808	93.12
484.027	101.12
484.245	109.12
484.463	87.12
484.681	99.12
484.9	86.12
485.118	109.12
485.336	100.12
485.554	91.12
485.772	79.12
485.99	99.12
486.209	102.12
486.427	108.12
486.645	109.12
486.863	110.12
487.081	99.12
487.299	87.12
487.517	106.12
487.735	86.12
487.953	100.12
488.171	80.12
488.389	94.12
488.607	97.12
488.825	98.12
489.043	76.12
489.261	96.12
489.479	94.12
489.696	75.12
489.914	81.12
490.132	87.12
490.35	94.12
490.568	84.12
490.786	90.12
491.003	82.12
491.221	85.12
491.439	83.12
491.657	97.12
491.874	95.12
492.092	79.12
492.31	85.12
492.527	93.12
492.745	89.12
492.963	90.12
493.18	94.12
493.398	102.12
493.615	93.12
493.833	101.12
494.05	97.12
494.268	98.12
494.485	89.12
494.703	90.12
494.92	103.12
495.138	83.12
495.355	85.12
495.573	90.12
495.79	73.12
496.008	102.12
496.225	97.12
496.442	93.12
496.66	91.12
496.877	92.12
497.094	101.12
497.312	96.12
497.529	79.12
497.746	91.12
497.963	91.12
498.181	94.12
498.398	97.12
498.615	110.12
498.832	99.12
499.049	84.12
499.267	86.12
499.484	91.12
499.701	78.12
499.918	97.12
500.135	95.12
500.352	84.12
500.569	98.12
500.786	99.12
501.003	69.12
501.22	80.12
501.437	104.12
501.654	107.12
501.871	92.12
502.088	99.12
502.305	74.12
502.522	89.12
502.739	90.12
502.956	92.12
503.172	91.12
503.389	103.12
503.606	101.12
503.823	100.12
504.04	93.12
504.256	80.12
504.473	79.12
504.69	104.12
504.907	89.12
505.123	95.12
505.34	100.12
505.557	99.12
505.773	78.12
505.99	94.12
506.207	82.12
506.423	97.12
506.64	76.12
506.856	98.12
507.073	92.12
507.289	89.12
507.506	104.12
507.722	124.12
507.939	110.12
508.155	88.12
508.372	88.12
508.588	90.12
508.805	101.12
509.021	93.12
509.238	100.12
509.454	101.12
509.67	94.12
509.887	96.12
510.103	113.12
510.319	199.12
510.536	737.12
510.752	2368.12
510.968	691.12
511.184	150.12
511.401	116.12
511.617	102.12
511.833	99.12
512.049	92.12
512.265	89.12
512.481	88.12
512.698	85.12
512.914	90.12
513.13	86.12
513.346	90.12
513.562	84.12
513.778	86.12
513.994	98.12
514.21	94.12
514.426	111.12
514.642	120.12
514.858	136.12
515.074	163.12
515.29	432.12
515.506	1450.12
515.721	535.12
