Data from Uncirc_2007_H10_HRD10591_00086.txt Node
Date: Wed Jan 03 10:20:59 EST 2024
User: Yrep
Spectrometer: HR+D1059
Trigger mode: 1
Integration Time (sec): 1.000000E-1
Scans to average: 1
Electric dark correction enabled: true
Nonlinearity correction enabled: false
Boxcar width: 0
XAxis mode: Wavelengths
Number of Pixels in Spectrum: 2048
>>>>>Begin Spectral Data<<<<<
223.165	-10.94
223.4	-10.94
223.635	-10.94
223.869	-16.94
224.104	-30.94
224.338	-17.94
224.573	-17.94
224.808	-15.94
225.042	-0.94
225.277	-5.94
225.511	7.06
225.746	-3.94
225.98	6.06
226.215	6.06
226.449	14.06
226.683	12.06
226.918	22.06
227.152	54.06
227.387	29.06
227.621	49.06
227.856	45.06
228.09	60.06
228.324	36.06
228.559	63.06
228.793	52.06
229.027	61.06
229.262	63.06
229.496	87.06
229.73	74.06
229.964	90.06
230.199	74.06
230.433	77.06
230.667	66.06
230.901	84.06
231.136	74.06
231.37	78.06
231.604	94.06
231.838	87.06
232.072	88.06
232.306	90.06
232.541	94.06
232.775	83.06
233.009	97.06
233.243	78.06
233.477	72.06
233.711	92.06
233.945	99.06
234.179	85.06
234.413	88.06
234.647	74.06
234.881	70.06
235.115	74.06
235.349	76.06
235.583	91.06
235.817	86.06
236.051	78.06
236.285	78.06
236.519	82.06
236.753	68.06
236.987	85.06
237.221	89.06
237.455	98.06
237.689	90.06
237.922	75.06
238.156	88.06
238.39	70.06
238.624	68.06
238.858	66.06
239.091	83.06
239.325	78.06
239.559	87.06
239.793	82.06
240.027	78.06
240.26	74.06
240.494	69.06
240.728	81.06
240.961	71.06
241.195	83.06
241.429	77.06
241.662	86.06
241.896	92.06
242.13	84.06
242.363	78.06
242.597	87.06
242.83	77.06
243.064	72.06
243.298	58.06
243.531	77.06
243.765	87.06
243.998	76.06
244.232	86.06
244.465	80.06
244.699	94.06
244.932	84.06
245.166	81.06
245.399	86.06
245.633	86.06
245.866	81.06
246.099	99.06
246.333	79.06
246.566	85.06
246.8	89.06
247.033	96.06
247.266	84.06
247.5	82.06
247.733	71.06
247.966	87.06
248.2	88.06
248.433	97.06
248.666	86.06
248.899	80.06
249.133	86.06
249.366	94.06
249.599	94.06
249.832	92.06
250.066	83.06
250.299	80.06
250.532	82.06
250.765	73.06
250.998	85.06
251.231	75.06
251.465	71.06
251.698	69.06
251.931	98.06
252.164	91.06
252.397	88.06
252.63	86.06
252.863	88.06
253.096	88.06
253.329	78.06
253.562	83.06
253.795	83.06
254.028	88.06
254.261	82.06
254.494	84.06
254.727	91.06
254.96	86.06
255.193	81.06
255.426	83.06
255.659	88.06
255.892	83.06
256.124	85.06
256.357	86.06
256.59	74.06
256.823	77.06
257.056	93.06
257.289	94.06
257.521	74.06
257.754	82.06
257.987	81.06
258.22	96.06
258.452	82.06
258.685	69.06
258.918	74.06
259.151	94.06
259.383	79.06
259.616	83.06
259.849	72.06
260.081	92.06
260.314	88.06
260.547	82.06
260.779	89.06
261.012	88.06
261.244	93.06
261.477	86.06
261.71	86.06
261.942	126.06
262.175	118.06
262.407	100.06
262.64	86.06
262.872	81.06
263.105	73.06
263.337	90.06
263.57	87.06
263.802	73.06
264.035	82.06
264.267	92.06
264.499	95.06
264.732	98.06
264.964	84.06
265.197	105.06
265.429	87.06
265.661	80.06
265.894	81.06
266.126	82.06
266.358	75.06
266.591	98.06
266.823	96.06
267.055	82.06
267.287	79.06
267.52	82.06
267.752	81.06
267.984	83.06
268.216	89.06
268.448	77.06
268.681	79.06
268.913	83.06
269.145	80.06
269.377	88.06
269.609	91.06
269.841	68.06
270.073	92.06
270.306	90.06
270.538	83.06
270.77	89.06
271.002	99.06
271.234	87.06
271.466	76.06
271.698	85.06
271.93	90.06
272.162	88.06
272.394	93.06
272.626	86.06
272.858	87.06
273.09	80.06
273.322	85.06
273.553	82.06
273.785	83.06
274.017	86.06
274.249	108.06
274.481	88.06
274.713	94.06
274.945	84.06
275.176	82.06
275.408	90.06
275.64	81.06
275.872	91.06
276.104	90.06
276.335	103.06
276.567	106.06
276.799	103.06
277.031	98.06
277.262	81.06
277.494	96.06
277.726	93.06
277.957	94.06
278.189	87.06
278.421	99.06
278.652	92.06
278.884	99.06
279.115	98.06
279.347	94.06
279.579	96.06
279.81	87.06
280.042	85.06
280.273	84.06
280.505	92.06
280.736	95.06
280.968	92.06
281.199	87.06
281.431	87.06
281.662	80.06
281.894	100.06
282.125	96.06
282.356	113.06
282.588	140.06
282.819	115.06
283.051	95.06
283.282	84.06
283.513	83.06
283.745	100.06
283.976	95.06
284.207	84.06
284.439	87.06
284.67	86.06
284.901	93.06
285.132	94.06
285.364	80.06
285.595	106.06
285.826	100.06
286.057	89.06
286.288	87.06
286.52	98.06
286.751	78.06
286.982	79.06
287.213	85.06
287.444	82.06
287.675	89.06
287.906	87.06
288.138	88.06
288.369	93.06
288.6	95.06
288.831	80.06
289.062	81.06
289.293	92.06
289.524	82.06
289.755	92.06
289.986	95.06
290.217	94.06
290.448	102.06
290.679	89.06
290.91	97.06
291.141	85.06
291.371	88.06
291.602	86.06
291.833	90.06
292.064	92.06
292.295	86.06
292.526	97.06
292.757	98.06
292.987	88.06
293.218	110.06
293.449	90.06
293.68	92.06
293.91	100.06
294.141	94.06
294.372	91.06
294.603	97.06
294.833	99.06
295.064	92.06
295.295	94.06
295.525	92.06
295.756	110.06
295.987	113.06
296.217	147.06
296.448	135.06
296.679	88.06
296.909	92.06
297.14	107.06
297.37	88.06
297.601	99.06
297.831	95.06
298.062	89.06
298.292	104.06
298.523	95.06
298.753	80.06
298.984	87.06
299.214	95.06
299.445	98.06
299.675	102.06
299.905	98.06
300.136	84.06
300.366	99.06
300.597	88.06
300.827	94.06
301.057	102.06
301.288	107.06
301.518	96.06
301.748	101.06
301.979	106.06
302.209	100.06
302.439	91.06
302.669	99.06
302.9	92.06
303.13	93.06
303.36	85.06
303.59	109.06
303.82	108.06
304.051	106.06
304.281	93.06
304.511	100.06
304.741	84.06
304.971	96.06
305.201	78.06
305.431	86.06
305.661	101.06
305.891	94.06
306.121	103.06
306.352	113.06
306.582	103.06
306.812	98.06
307.042	96.06
307.272	106.06
307.502	86.06
307.731	97.06
307.961	95.06
308.191	99.06
308.421	80.06
308.651	97.06
308.881	98.06
309.111	97.06
309.341	92.06
309.571	105.06
309.8	106.06
310.03	86.06
310.26	103.06
310.49	98.06
310.72	108.06
310.949	96.06
311.179	106.06
311.409	105.06
311.639	112.06
311.868	112.06
312.098	111.06
312.328	92.06
312.557	100.06
312.787	116.06
313.017	106.06
313.246	109.06
313.476	98.06
313.706	86.06
313.935	104.06
314.165	101.06
314.394	117.06
314.624	94.06
314.853	101.06
315.083	99.06
315.312	91.06
315.542	100.06
315.771	103.06
316.001	88.06
316.23	99.06
316.46	82.06
316.689	92.06
316.919	81.06
317.148	93.06
317.377	102.06
317.607	101.06
317.836	82.06
318.065	94.06
318.295	88.06
318.524	85.06
318.753	91.06
318.983	98.06
319.212	97.06
319.441	114.06
319.67	109.06
319.9	83.06
320.129	84.06
320.358	107.06
320.587	102.06
320.816	120.06
321.046	99.06
321.275	96.06
321.504	95.06
321.733	103.06
321.962	99.06
322.191	111.06
322.42	109.06
322.649	111.06
322.878	109.06
323.108	105.06
323.337	141.06
323.566	149.06
323.795	156.06
324.024	239.06
324.253	443.06
324.482	964.06
324.71	2005.06
324.939	2604.06
325.168	975.06
325.397	264.06
325.626	160.06
325.855	144.06
326.084	126.06
326.313	147.06
326.542	174.06
326.77	231.06
326.999	538.06
327.228	1111.06
327.457	2046.06
327.686	1634.06
327.914	409.06
328.143	188.06
328.372	166.06
328.6	124.06
328.829	115.06
329.058	150.06
329.287	143.06
329.515	117.06
329.744	102.06
329.972	102.06
330.201	92.06
330.43	135.06
330.658	135.06
330.887	149.06
331.115	125.06
331.344	103.06
331.572	108.06
331.801	97.06
332.03	118.06
332.258	108.06
332.486	81.06
332.715	106.06
332.943	98.06
333.172	95.06
333.4	97.06
333.629	110.06
333.857	104.06
334.085	106.06
334.314	110.06
334.542	94.06
334.771	96.06
334.999	105.06
335.227	114.06
335.455	109.06
335.684	99.06
335.912	97.06
336.14	103.06
336.369	103.06
336.597	103.06
336.825	90.06
337.053	96.06
337.281	92.06
337.51	85.06
337.738	94.06
337.966	95.06
338.194	110.06
338.422	100.06
338.65	103.06
338.878	99.06
339.106	105.06
339.334	88.06
339.562	106.06
339.79	95.06
340.018	88.06
340.246	92.06
340.474	103.06
340.702	92.06
340.93	107.06
341.158	89.06
341.386	97.06
341.614	117.06
341.842	91.06
342.07	98.06
342.298	96.06
342.526	99.06
342.754	77.06
342.981	93.06
343.209	86.06
343.437	101.06
343.665	85.06
343.893	89.06
344.12	102.06
344.348	86.06
344.576	96.06
344.804	98.06
345.031	98.06
345.259	108.06
345.487	101.06
345.714	85.06
345.942	105.06
346.17	107.06
346.397	88.06
346.625	98.06
346.853	90.06
347.08	81.06
347.308	93.06
347.535	116.06
347.763	99.06
347.99	94.06
348.218	105.06
348.445	117.06
348.673	112.06
348.9	97.06
349.128	100.06
349.355	96.06
349.583	92.06
349.81	93.06
350.037	102.06
350.265	90.06
350.492	102.06
350.72	93.06
350.947	119.06
351.174	103.06
351.402	105.06
351.629	109.06
351.856	101.06
352.083	119.06
352.311	96.06
352.538	104.06
352.765	116.06
352.992	141.06
353.22	121.06
353.447	110.06
353.674	109.06
353.901	109.06
354.128	104.06
354.355	99.06
354.583	95.06
354.81	103.06
355.037	100.06
355.264	87.06
355.491	95.06
355.718	97.06
355.945	83.06
356.172	88.06
356.399	102.06
356.626	92.06
356.853	95.06
357.08	99.06
357.307	98.06
357.534	84.06
357.761	103.06
357.988	111.06
358.215	87.06
358.441	90.06
358.668	93.06
358.895	99.06
359.122	98.06
359.349	94.06
359.576	103.06
359.802	99.06
360.029	123.06
360.256	99.06
360.483	99.06
360.709	99.06
360.936	103.06
361.163	98.06
361.39	117.06
361.616	100.06
361.843	108.06
362.07	107.06
362.296	85.06
362.523	97.06
362.749	91.06
362.976	88.06
363.203	101.06
363.429	91.06
363.656	82.06
363.882	90.06
364.109	94.06
364.335	86.06
364.562	94.06
364.788	114.06
365.015	94.06
365.241	85.06
365.468	113.06
365.694	122.06
365.92	104.06
366.147	85.06
366.373	104.06
366.599	104.06
366.826	103.06
367.052	106.06
367.278	87.06
367.505	98.06
367.731	88.06
367.957	82.06
368.184	85.06
368.41	105.06
368.636	120.06
368.862	120.06
369.089	106.06
369.315	100.06
369.541	94.06
369.767	104.06
369.993	92.06
370.219	106.06
370.445	76.06
370.672	100.06
370.898	90.06
371.124	83.06
371.35	84.06
371.576	84.06
371.802	92.06
372.028	88.06
372.254	84.06
372.48	87.06
372.706	106.06
372.932	90.06
373.158	96.06
373.384	98.06
373.61	100.06
373.835	85.06
374.061	83.06
374.287	96.06
374.513	87.06
374.739	96.06
374.965	103.06
375.191	83.06
375.416	80.06
375.642	75.06
375.868	96.06
376.094	84.06
376.319	102.06
376.545	99.06
376.771	78.06
376.997	85.06
377.222	102.06
377.448	92.06
377.674	98.06
377.899	98.06
378.125	83.06
378.35	100.06
378.576	92.06
378.802	106.06
379.027	99.06
379.253	104.06
379.478	106.06
379.704	87.06
379.929	89.06
380.155	98.06
380.38	105.06
380.606	105.06
380.831	110.06
381.057	103.06
381.282	107.06
381.507	103.06
381.733	90.06
381.958	106.06
382.184	102.06
382.409	106.06
382.634	92.06
382.86	97.06
383.085	107.06
383.31	107.06
383.535	88.06
383.761	103.06
383.986	105.06
384.211	111.06
384.436	102.06
384.662	100.06
384.887	105.06
385.112	89.06
385.337	94.06
385.562	113.06
385.787	99.06
386.013	111.06
386.238	115.06
386.463	122.06
386.688	98.06
386.913	117.06
387.138	100.06
387.363	97.06
387.588	98.06
387.813	106.06
388.038	90.06
388.263	115.06
388.488	106.06
388.713	101.06
388.938	107.06
389.163	94.06
389.387	103.06
389.612	97.06
389.837	97.06
390.062	108.06
390.287	83.06
390.512	96.06
390.736	100.06
390.961	78.06
391.186	102.06
391.411	99.06
391.636	95.06
391.86	88.06
392.085	93.06
392.31	82.06
392.534	88.06
392.759	98.06
392.984	88.06
393.208	94.06
393.433	100.06
393.658	87.06
393.882	83.06
394.107	83.06
394.331	95.06
394.556	86.06
394.78	84.06
395.005	84.06
395.229	96.06
395.454	84.06
395.678	84.06
395.903	95.06
396.127	94.06
396.352	83.06
396.576	77.06
396.801	88.06
397.025	78.06
397.249	88.06
397.474	97.06
397.698	85.06
397.922	88.06
398.147	82.06
398.371	99.06
398.595	96.06
398.82	90.06
399.044	82.06
399.268	82.06
399.492	98.06
399.717	96.06
399.941	84.06
400.165	78.06
400.389	90.06
400.613	86.06
400.837	92.06
401.062	92.06
401.286	97.06
401.51	79.06
401.734	94.06
401.958	97.06
402.182	134.06
402.406	172.06
402.63	107.06
402.854	98.06
403.078	93.06
403.302	101.06
403.526	80.06
403.75	91.06
403.974	92.06
404.198	114.06
404.422	98.06
404.645	83.06
404.869	79.06
405.093	91.06
405.317	102.06
405.541	101.06
405.765	95.06
405.988	119.06
406.212	182.06
406.436	240.06
406.66	163.06
406.883	100.06
407.107	94.06
407.331	103.06
407.555	119.06
407.778	103.06
408.002	95.06
408.226	86.06
408.449	88.06
408.673	81.06
408.896	90.06
409.12	95.06
409.344	90.06
409.567	90.06
409.791	107.06
410.014	96.06
410.238	101.06
410.461	82.06
410.685	97.06
410.908	91.06
411.132	110.06
411.355	98.06
411.578	88.06
411.802	68.06
412.025	96.06
412.249	100.06
412.472	93.06
412.695	91.06
412.919	98.06
413.142	80.06
413.365	92.06
413.589	106.06
413.812	97.06
414.035	106.06
414.258	109.06
414.482	93.06
414.705	92.06
414.928	100.06
415.151	91.06
415.374	86.06
415.597	89.06
415.821	86.06
416.044	86.06
416.267	99.06
416.49	90.06
416.713	87.06
416.936	95.06
417.159	102.06
417.382	90.06
417.605	94.06
417.828	99.06
418.051	85.06
418.274	71.06
418.497	86.06
418.72	88.06
418.943	83.06
419.166	82.06
419.389	94.06
419.611	85.06
419.834	76.06
420.057	104.06
420.28	77.06
420.503	98.06
420.726	76.06
420.948	93.06
421.171	96.06
421.394	78.06
421.617	99.06
421.839	83.06
422.062	103.06
422.285	108.06
422.507	96.06
422.73	116.06
422.953	91.06
423.175	97.06
423.398	88.06
423.621	84.06
423.843	83.06
424.066	112.06
424.288	91.06
424.511	84.06
424.733	94.06
424.956	112.06
425.178	114.06
425.401	113.06
425.623	111.06
425.846	100.06
426.068	102.06
426.291	91.06
426.513	92.06
426.735	80.06
426.958	93.06
427.18	116.06
427.402	138.06
427.625	192.06
427.847	131.06
428.069	115.06
428.292	90.06
428.514	84.06
428.736	102.06
428.958	90.06
429.181	92.06
429.403	89.06
429.625	87.06
429.847	99.06
430.069	111.06
430.292	96.06
430.514	86.06
430.736	86.06
430.958	95.06
431.18	87.06
431.402	86.06
431.624	91.06
431.846	85.06
432.068	95.06
432.29	99.06
432.512	92.06
432.734	92.06
432.956	101.06
433.178	107.06
433.4	97.06
433.622	83.06
433.844	99.06
434.066	116.06
434.287	89.06
434.509	91.06
434.731	95.06
434.953	83.06
435.175	85.06
435.397	85.06
435.618	95.06
435.84	91.06
436.062	126.06
436.284	112.06
436.505	100.06
436.727	112.06
436.949	96.06
437.17	87.06
437.392	88.06
437.614	101.06
437.835	109.06
438.057	141.06
438.278	116.06
438.5	112.06
438.721	127.06
438.943	109.06
439.165	91.06
439.386	95.06
439.608	84.06
439.829	100.06
440.05	111.06
440.272	145.06
440.493	101.06
440.715	91.06
440.936	81.06
441.158	91.06
441.379	88.06
441.6	95.06
441.822	100.06
442.043	102.06
442.264	100.06
442.486	115.06
442.707	95.06
442.928	113.06
443.149	151.06
443.371	122.06
443.592	106.06
443.813	100.06
444.034	107.06
444.255	91.06
444.476	81.06
444.698	84.06
444.919	94.06
445.14	136.06
445.361	129.06
445.582	127.06
445.803	153.06
446.024	140.06
446.245	156.06
446.466	136.06
446.687	88.06
446.908	86.06
447.129	87.06
447.35	93.06
447.571	91.06
447.792	103.06
448.013	103.06
448.234	111.06
448.455	106.06
448.675	134.06
448.896	123.06
449.117	104.06
449.338	112.06
449.559	147.06
449.779	141.06
450	109.06
450.221	87.06
450.442	92.06
450.662	105.06
450.883	100.06
451.104	115.06
451.324	87.06
451.545	80.06
451.766	96.06
451.986	74.06
452.207	102.06
452.428	84.06
452.648	88.06
452.869	102.06
453.089	116.06
453.31	141.06
453.53	104.06
453.751	83.06
453.971	124.06
454.192	111.06
454.412	94.06
454.633	83.06
454.853	93.06
455.073	90.06
455.294	99.06
455.514	103.06
455.734	94.06
455.955	101.06
456.175	82.06
456.395	91.06
456.616	81.06
456.836	74.06
457.056	68.06
457.276	82.06
457.497	87.06
457.717	81.06
457.937	90.06
458.157	92.06
458.377	86.06
458.598	120.06
458.818	155.06
459.038	169.06
459.258	131.06
459.478	89.06
459.698	86.06
459.918	94.06
460.138	103.06
460.358	79.06
460.578	75.06
460.798	95.06
461.018	100.06
461.238	79.06
461.458	98.06
461.678	84.06
461.898	99.06
462.118	83.06
462.338	78.06
462.558	99.06
462.777	90.06
462.997	86.06
463.217	86.06
463.437	80.06
463.657	92.06
463.876	78.06
464.096	87.06
464.316	89.06
464.536	91.06
464.755	95.06
464.975	103.06
465.195	157.06
465.414	185.06
465.634	87.06
465.854	86.06
466.073	84.06
466.293	94.06
466.512	91.06
466.732	101.06
466.951	83.06
467.171	98.06
467.391	107.06
467.61	110.06
467.829	102.06
468.049	84.06
468.268	96.06
468.488	81.06
468.707	76.06
468.927	90.06
469.146	85.06
469.365	86.06
469.585	87.06
469.804	103.06
470.023	88.06
470.243	107.06
470.462	94.06
470.681	108.06
470.901	92.06
471.12	80.06
471.339	86.06
471.558	83.06
471.777	80.06
471.997	100.06
472.216	94.06
472.435	78.06
472.654	95.06
472.873	76.06
473.092	97.06
473.311	83.06
473.53	93.06
473.749	86.06
473.968	94.06
474.187	110.06
474.406	101.06
474.625	100.06
474.844	92.06
475.063	96.06
475.282	88.06
475.501	84.06
475.72	89.06
475.939	95.06
476.158	91.06
476.377	95.06
476.596	94.06
476.814	94.06
477.033	88.06
477.252	83.06
477.471	83.06
477.69	94.06
477.908	87.06
478.127	94.06
478.346	79.06
478.564	93.06
478.783	83.06
479.002	99.06
479.22	97.06
479.439	113.06
479.658	104.06
479.876	94.06
480.095	100.06
480.313	94.06
480.532	90.06
480.751	87.06
480.969	90.06
481.188	100.06
481.406	80.06
481.624	83.06
481.843	89.06
482.061	93.06
482.28	100.06
482.498	92.06
482.717	88.06
482.935	77.06
483.153	106.06
483.372	91.06
483.59	93.06
483.808	91.06
484.027	97.06
484.245	89.06
484.463	90.06
484.681	104.06
484.9	110.06
485.118	100.06
485.336	89.06
485.554	83.06
485.772	92.06
485.99	90.06
486.209	101.06
486.427	102.06
486.645	109.06
486.863	119.06
487.081	112.06
487.299	100.06
487.517	104.06
487.735	89.06
487.953	98.06
488.171	98.06
488.389	95.06
488.607	93.06
488.825	88.06
489.043	88.06
489.261	106.06
489.479	104.06
489.696	87.06
489.914	92.06
490.132	88.06
490.35	81.06
490.568	82.06
490.786	101.06
491.003	82.06
491.221	93.06
491.439	85.06
491.657	88.06
491.874	101.06
492.092	111.06
492.31	93.06
492.527	75.06
492.745	87.06
492.963	96.06
493.18	104.06
493.398	99.06
493.615	106.06
493.833	101.06
494.05	87.06
494.268	101.06
494.485	89.06
494.703	110.06
494.92	97.06
495.138	93.06
495.355	89.06
495.573	93.06
495.79	87.06
496.008	85.06
496.225	93.06
496.442	90.06
496.66	87.06
496.877	80.06
497.094	91.06
497.312	89.06
497.529	99.06
497.746	92.06
497.963	103.06
498.181	100.06
498.398	101.06
498.615	109.06
498.832	112.06
499.049	90.06
499.267	91.06
499.484	90.06
499.701	90.06
499.918	104.06
500.135	85.06
500.352	101.06
500.569	87.06
500.786	94.06
501.003	100.06
501.22	93.06
501.437	106.06
501.654	107.06
501.871	101.06
502.088	85.06
502.305	91.06
502.522	100.06
502.739	105.06
502.956	96.06
503.172	96.06
503.389	74.06
503.606	110.06
503.823	99.06
504.04	94.06
504.256	91.06
504.473	76.06
504.69	88.06
504.907	85.06
505.123	87.06
505.34	103.06
505.557	99.06
505.773	92.06
505.99	94.06
506.207	83.06
506.423	107.06
506.64	94.06
506.856	95.06
507.073	111.06
507.289	115.06
507.506	108.06
507.722	113.06
507.939	127.06
508.155	105.06
508.372	113.06
508.588	95.06
508.805	96.06
509.021	92.06
509.238	105.06
509.454	89.06
509.67	106.06
509.887	107.06
510.103	153.06
510.319	247.06
510.536	846.06
510.752	2665.06
510.968	719.06
511.184	152.06
511.401	123.06
511.617	123.06
511.833	101.06
512.049	86.06
512.265	99.06
512.481	92.06
512.698	106.06
512.914	92.06
513.13	96.06
513.346	88.06
513.562	94.06
513.778	114.06
513.994	109.06
514.21	102.06
