Data from Uncirc_2007_H10_HRD10591_00065.txt Node
Date: Wed Jan 03 10:20:55 EST 2024
User: Yrep
Spectrometer: HR+D1059
Trigger mode: 1
Integration Time (sec): 1.000000E-1
Scans to average: 1
Electric dark correction enabled: true
Nonlinearity correction enabled: false
Boxcar width: 0
XAxis mode: Wavelengths
Number of Pixels in Spectrum: 2048
>>>>>Begin Spectral Data<<<<<
223.165	-15.88
223.4	-15.88
223.635	-15.88
223.869	-9.88
224.104	-25.88
224.338	-22.88
224.573	-2.88
224.808	-14.88
225.042	-24.88
225.277	-4.88
225.511	10.12
225.746	21.12
225.98	2.12
226.215	4.12
226.449	16.12
226.683	19.12
226.918	19.12
227.152	30.12
227.387	28.12
227.621	35.12
227.856	38.12
228.09	60.12
228.324	47.12
228.559	48.12
228.793	66.12
229.027	49.12
229.262	65.12
229.496	68.12
229.73	83.12
229.964	100.12
230.199	70.12
230.433	78.12
230.667	82.12
230.901	80.12
231.136	67.12
231.37	76.12
231.604	70.12
231.838	85.12
232.072	91.12
232.306	73.12
232.541	71.12
232.775	66.12
233.009	87.12
233.243	83.12
233.477	82.12
233.711	82.12
233.945	72.12
234.179	84.12
234.413	86.12
234.647	82.12
234.881	82.12
235.115	73.12
235.349	63.12
235.583	79.12
235.817	86.12
236.051	79.12
236.285	78.12
236.519	82.12
236.753	96.12
236.987	80.12
237.221	84.12
237.455	83.12
237.689	93.12
237.922	82.12
238.156	73.12
238.39	75.12
238.624	72.12
238.858	65.12
239.091	78.12
239.325	75.12
239.559	87.12
239.793	68.12
240.027	79.12
240.26	75.12
240.494	73.12
240.728	74.12
240.961	69.12
241.195	76.12
241.429	76.12
241.662	69.12
241.896	82.12
242.13	81.12
242.363	80.12
242.597	71.12
242.83	84.12
243.064	76.12
243.298	72.12
243.531	71.12
243.765	84.12
243.998	79.12
244.232	76.12
244.465	84.12
244.699	78.12
244.932	74.12
245.166	80.12
245.399	79.12
245.633	64.12
245.866	71.12
246.099	93.12
246.333	88.12
246.566	73.12
246.8	83.12
247.033	79.12
247.266	92.12
247.5	93.12
247.733	95.12
247.966	76.12
248.2	73.12
248.433	80.12
248.666	84.12
248.899	78.12
249.133	84.12
249.366	82.12
249.599	89.12
249.832	83.12
250.066	94.12
250.299	83.12
250.532	74.12
250.765	83.12
250.998	80.12
251.231	71.12
251.465	84.12
251.698	87.12
251.931	85.12
252.164	69.12
252.397	70.12
252.63	72.12
252.863	68.12
253.096	73.12
253.329	72.12
253.562	84.12
253.795	78.12
254.028	75.12
254.261	70.12
254.494	79.12
254.727	68.12
254.96	81.12
255.193	84.12
255.426	82.12
255.659	73.12
255.892	74.12
256.124	77.12
256.357	86.12
256.59	92.12
256.823	91.12
257.056	94.12
257.289	82.12
257.521	86.12
257.754	86.12
257.987	88.12
258.22	77.12
258.452	71.12
258.685	73.12
258.918	77.12
259.151	83.12
259.383	80.12
259.616	80.12
259.849	69.12
260.081	87.12
260.314	83.12
260.547	78.12
260.779	74.12
261.012	81.12
261.244	80.12
261.477	94.12
261.71	95.12
261.942	117.12
262.175	107.12
262.407	81.12
262.64	85.12
262.872	72.12
263.105	81.12
263.337	83.12
263.57	93.12
263.802	81.12
264.035	80.12
264.267	84.12
264.499	81.12
264.732	76.12
264.964	75.12
265.197	70.12
265.429	85.12
265.661	74.12
265.894	86.12
266.126	88.12
266.358	81.12
266.591	82.12
266.823	82.12
267.055	75.12
267.287	79.12
267.52	91.12
267.752	81.12
267.984	89.12
268.216	97.12
268.448	75.12
268.681	88.12
268.913	84.12
269.145	73.12
269.377	88.12
269.609	89.12
269.841	83.12
270.073	84.12
270.306	72.12
270.538	84.12
270.77	88.12
271.002	75.12
271.234	76.12
271.466	82.12
271.698	88.12
271.93	79.12
272.162	90.12
272.394	72.12
272.626	76.12
272.858	72.12
273.09	91.12
273.322	75.12
273.553	81.12
273.785	93.12
274.017	81.12
274.249	80.12
274.481	81.12
274.713	74.12
274.945	90.12
275.176	71.12
275.408	91.12
275.64	93.12
275.872	83.12
276.104	96.12
276.335	82.12
276.567	96.12
276.799	108.12
277.031	102.12
277.262	81.12
277.494	69.12
277.726	83.12
277.957	97.12
278.189	96.12
278.421	80.12
278.652	90.12
278.884	74.12
279.115	79.12
279.347	77.12
279.579	86.12
279.81	87.12
280.042	93.12
280.273	76.12
280.505	99.12
280.736	79.12
280.968	84.12
281.199	81.12
281.431	79.12
281.662	84.12
281.894	100.12
282.125	113.12
282.356	116.12
282.588	136.12
282.819	119.12
283.051	103.12
283.282	80.12
283.513	91.12
283.745	84.12
283.976	73.12
284.207	86.12
284.439	94.12
284.67	93.12
284.901	90.12
285.132	87.12
285.364	85.12
285.595	94.12
285.826	82.12
286.057	92.12
286.288	91.12
286.52	97.12
286.751	79.12
286.982	83.12
287.213	75.12
287.444	94.12
287.675	92.12
287.906	83.12
288.138	92.12
288.369	96.12
288.6	99.12
288.831	81.12
289.062	88.12
289.293	86.12
289.524	99.12
289.755	93.12
289.986	95.12
290.217	85.12
290.448	90.12
290.679	82.12
290.91	78.12
291.141	71.12
291.371	91.12
291.602	88.12
291.833	84.12
292.064	89.12
292.295	95.12
292.526	86.12
292.757	92.12
292.987	90.12
293.218	99.12
293.449	77.12
293.68	88.12
293.91	79.12
294.141	86.12
294.372	91.12
294.603	80.12
294.833	82.12
295.064	81.12
295.295	96.12
295.525	92.12
295.756	97.12
295.987	109.12
296.217	148.12
296.448	134.12
296.679	94.12
296.909	86.12
297.14	84.12
297.37	94.12
297.601	103.12
297.831	100.12
298.062	96.12
298.292	99.12
298.523	104.12
298.753	71.12
298.984	89.12
299.214	101.12
299.445	97.12
299.675	89.12
299.905	100.12
300.136	90.12
300.366	94.12
300.597	102.12
300.827	98.12
301.057	100.12
301.288	95.12
301.518	83.12
301.748	95.12
301.979	92.12
302.209	90.12
302.439	84.12
302.669	83.12
302.9	94.12
303.13	99.12
303.36	111.12
303.59	113.12
303.82	95.12
304.051	101.12
304.281	92.12
304.511	94.12
304.741	85.12
304.971	91.12
305.201	79.12
305.431	97.12
305.661	82.12
305.891	97.12
306.121	105.12
306.352	103.12
306.582	111.12
306.812	96.12
307.042	82.12
307.272	92.12
307.502	78.12
307.731	80.12
307.961	89.12
308.191	81.12
308.421	78.12
308.651	80.12
308.881	88.12
309.111	87.12
309.341	91.12
309.571	83.12
309.8	98.12
310.03	95.12
310.26	96.12
310.49	90.12
310.72	97.12
310.949	97.12
311.179	99.12
311.409	104.12
311.639	93.12
311.868	80.12
312.098	86.12
312.328	95.12
312.557	98.12
312.787	95.12
313.017	96.12
313.246	93.12
313.476	97.12
313.706	87.12
313.935	98.12
314.165	105.12
314.394	108.12
314.624	106.12
314.853	106.12
315.083	82.12
315.312	98.12
315.542	100.12
315.771	100.12
316.001	105.12
316.23	94.12
316.46	74.12
316.689	84.12
316.919	86.12
317.148	100.12
317.377	103.12
317.607	93.12
317.836	98.12
318.065	87.12
318.295	94.12
318.524	94.12
318.753	105.12
318.983	95.12
319.212	108.12
319.441	107.12
319.67	114.12
319.9	96.12
320.129	82.12
320.358	90.12
320.587	88.12
320.816	88.12
321.046	91.12
321.275	93.12
321.504	93.12
321.733	90.12
321.962	101.12
322.191	102.12
322.42	98.12
322.649	119.12
322.878	111.12
323.108	124.12
323.337	120.12
323.566	128.12
323.795	160.12
324.024	222.12
324.253	452.12
324.482	1020.12
324.71	2083.12
324.939	2763.12
325.168	958.12
325.397	276.12
325.626	170.12
325.855	133.12
326.084	130.12
326.313	126.12
326.542	176.12
326.77	235.12
326.999	543.12
327.228	1131.12
327.457	2070.12
327.686	1629.12
327.914	424.12
328.143	210.12
328.372	156.12
328.6	138.12
328.829	126.12
329.058	137.12
329.287	135.12
329.515	116.12
329.744	94.12
329.972	104.12
330.201	102.12
330.43	106.12
330.658	110.12
330.887	142.12
331.115	124.12
331.344	103.12
331.572	105.12
331.801	102.12
332.03	110.12
332.258	90.12
332.486	119.12
332.715	81.12
332.943	95.12
333.172	103.12
333.4	101.12
333.629	104.12
333.857	116.12
334.085	98.12
334.314	101.12
334.542	88.12
334.771	89.12
334.999	98.12
335.227	111.12
335.455	90.12
335.684	91.12
335.912	93.12
336.14	98.12
336.369	106.12
336.597	100.12
336.825	91.12
337.053	94.12
337.281	93.12
337.51	89.12
337.738	93.12
337.966	89.12
338.194	95.12
338.422	97.12
338.65	95.12
338.878	95.12
339.106	97.12
339.334	96.12
339.562	99.12
339.79	103.12
340.018	94.12
340.246	86.12
340.474	89.12
340.702	78.12
340.93	91.12
341.158	97.12
341.386	106.12
341.614	92.12
341.842	96.12
342.07	90.12
342.298	104.12
342.526	93.12
342.754	98.12
342.981	94.12
343.209	73.12
343.437	95.12
343.665	99.12
343.893	94.12
344.12	99.12
344.348	83.12
344.576	94.12
344.804	82.12
345.031	84.12
345.259	88.12
345.487	95.12
345.714	107.12
345.942	93.12
346.17	84.12
346.397	89.12
346.625	96.12
346.853	94.12
347.08	79.12
347.308	84.12
347.535	99.12
347.763	103.12
347.99	86.12
348.218	95.12
348.445	115.12
348.673	105.12
348.9	108.12
349.128	89.12
349.355	93.12
349.583	96.12
349.81	81.12
350.037	89.12
350.265	93.12
350.492	88.12
350.72	99.12
350.947	105.12
351.174	124.12
351.402	114.12
351.629	107.12
351.856	99.12
352.083	101.12
352.311	92.12
352.538	116.12
352.765	124.12
352.992	108.12
353.22	120.12
353.447	94.12
353.674	87.12
353.901	105.12
354.128	95.12
354.355	88.12
354.583	97.12
354.81	90.12
355.037	104.12
355.264	94.12
355.491	97.12
355.718	80.12
355.945	93.12
356.172	91.12
356.399	94.12
356.626	91.12
356.853	97.12
357.08	98.12
357.307	80.12
357.534	89.12
357.761	99.12
357.988	88.12
358.215	95.12
358.441	87.12
358.668	87.12
358.895	81.12
359.122	100.12
359.349	94.12
359.576	93.12
359.802	103.12
360.029	112.12
360.256	118.12
360.483	92.12
360.709	88.12
360.936	93.12
361.163	91.12
361.39	109.12
361.616	103.12
361.843	99.12
362.07	99.12
362.296	96.12
362.523	90.12
362.749	102.12
362.976	97.12
363.203	87.12
363.429	86.12
363.656	90.12
363.882	76.12
364.109	92.12
364.335	94.12
364.562	87.12
364.788	96.12
365.015	89.12
365.241	89.12
365.468	108.12
365.694	117.12
365.92	86.12
366.147	91.12
366.373	80.12
366.599	92.12
366.826	83.12
367.052	100.12
367.278	84.12
367.505	88.12
367.731	93.12
367.957	98.12
368.184	91.12
368.41	100.12
368.636	120.12
368.862	126.12
369.089	113.12
369.315	91.12
369.541	83.12
369.767	91.12
369.993	77.12
370.219	87.12
370.445	93.12
370.672	91.12
370.898	81.12
371.124	81.12
371.35	90.12
371.576	78.12
371.802	74.12
372.028	94.12
372.254	110.12
372.48	83.12
372.706	81.12
372.932	84.12
373.158	98.12
373.384	98.12
373.61	81.12
373.835	86.12
374.061	88.12
374.287	96.12
374.513	91.12
374.739	84.12
374.965	86.12
375.191	79.12
375.416	75.12
375.642	102.12
375.868	82.12
376.094	103.12
376.319	89.12
376.545	92.12
376.771	101.12
376.997	98.12
377.222	96.12
377.448	94.12
377.674	94.12
377.899	99.12
378.125	98.12
378.35	91.12
378.576	99.12
378.802	85.12
379.027	87.12
379.253	87.12
379.478	89.12
379.704	93.12
379.929	97.12
380.155	99.12
380.38	97.12
380.606	89.12
380.831	96.12
381.057	82.12
381.282	90.12
381.507	93.12
381.733	87.12
381.958	94.12
382.184	107.12
382.409	115.12
382.634	88.12
382.86	83.12
383.085	93.12
383.31	94.12
383.535	103.12
383.761	102.12
383.986	102.12
384.211	84.12
384.436	95.12
384.662	90.12
384.887	96.12
385.112	103.12
385.337	110.12
385.562	102.12
385.787	100.12
386.013	104.12
386.238	103.12
386.463	87.12
386.688	111.12
386.913	107.12
387.138	99.12
387.363	92.12
387.588	86.12
387.813	86.12
388.038	100.12
388.263	99.12
388.488	106.12
388.713	85.12
388.938	86.12
389.163	90.12
389.387	90.12
389.612	94.12
389.837	91.12
390.062	98.12
390.287	73.12
390.512	93.12
390.736	98.12
390.961	93.12
391.186	91.12
391.411	83.12
391.636	94.12
391.86	93.12
392.085	100.12
392.31	92.12
392.534	89.12
392.759	88.12
392.984	84.12
393.208	103.12
393.433	82.12
393.658	77.12
393.882	77.12
394.107	95.12
394.331	71.12
394.556	78.12
394.78	75.12
395.005	78.12
395.229	81.12
395.454	83.12
395.678	95.12
395.903	92.12
396.127	83.12
396.352	81.12
396.576	88.12
396.801	90.12
397.025	89.12
397.249	87.12
397.474	96.12
397.698	87.12
397.922	83.12
398.147	85.12
398.371	84.12
398.595	96.12
398.82	92.12
399.044	78.12
399.268	99.12
399.492	90.12
399.717	92.12
399.941	88.12
400.165	93.12
400.389	90.12
400.613	80.12
400.837	84.12
401.062	84.12
401.286	81.12
401.51	91.12
401.734	96.12
401.958	108.12
402.182	151.12
402.406	164.12
402.63	111.12
402.854	86.12
403.078	97.12
403.302	81.12
403.526	97.12
403.75	91.12
403.974	88.12
404.198	82.12
404.422	94.12
404.645	89.12
404.869	101.12
405.093	95.12
405.317	95.12
405.541	83.12
405.765	108.12
405.988	112.12
406.212	182.12
406.436	244.12
406.66	155.12
406.883	91.12
407.107	91.12
407.331	101.12
407.555	109.12
407.778	102.12
408.002	81.12
408.226	86.12
408.449	79.12
408.673	88.12
408.896	95.12
409.12	95.12
409.344	85.12
409.567	90.12
409.791	102.12
410.014	99.12
410.238	92.12
410.461	88.12
410.685	92.12
410.908	98.12
411.132	118.12
411.355	100.12
411.578	102.12
411.802	96.12
412.025	92.12
412.249	93.12
412.472	91.12
412.695	99.12
412.919	100.12
413.142	99.12
413.365	97.12
413.589	80.12
413.812	93.12
414.035	90.12
414.258	86.12
414.482	83.12
414.705	88.12
414.928	89.12
415.151	90.12
415.374	100.12
415.597	81.12
415.821	99.12
416.044	75.12
416.267	88.12
416.49	93.12
416.713	79.12
416.936	88.12
417.159	88.12
417.382	91.12
417.605	102.12
417.828	95.12
418.051	109.12
418.274	95.12
418.497	88.12
418.72	77.12
418.943	88.12
419.166	73.12
419.389	91.12
419.611	81.12
419.834	95.12
420.057	88.12
420.28	93.12
420.503	90.12
420.726	91.12
420.948	94.12
421.171	89.12
421.394	96.12
421.617	80.12
421.839	90.12
422.062	103.12
422.285	90.12
422.507	95.12
422.73	109.12
422.953	111.12
423.175	88.12
423.398	91.12
423.621	94.12
423.843	81.12
424.066	91.12
424.288	96.12
424.511	84.12
424.733	105.12
424.956	100.12
425.178	109.12
425.401	88.12
425.623	87.12
425.846	91.12
426.068	98.12
426.291	97.12
426.513	91.12
426.735	98.12
426.958	99.12
427.18	104.12
427.402	140.12
427.625	184.12
427.847	143.12
428.069	90.12
428.292	91.12
428.514	86.12
428.736	87.12
428.958	65.12
429.181	84.12
429.403	80.12
429.625	81.12
429.847	97.12
430.069	102.12
430.292	99.12
430.514	88.12
430.736	96.12
430.958	68.12
431.18	81.12
431.402	92.12
431.624	94.12
431.846	74.12
432.068	99.12
432.29	94.12
432.512	84.12
432.734	86.12
432.956	102.12
433.178	115.12
433.4	107.12
433.622	95.12
433.844	96.12
434.066	98.12
434.287	97.12
434.509	75.12
434.731	93.12
434.953	94.12
435.175	88.12
435.397	88.12
435.618	78.12
435.84	102.12
436.062	112.12
436.284	134.12
436.505	92.12
436.727	104.12
436.949	103.12
437.17	80.12
437.392	83.12
437.614	98.12
437.835	112.12
438.057	123.12
438.278	115.12
438.5	111.12
438.721	106.12
438.943	98.12
439.165	88.12
439.386	82.12
439.608	70.12
439.829	91.12
440.05	132.12
440.272	152.12
440.493	104.12
440.715	91.12
440.936	91.12
441.158	92.12
441.379	80.12
441.6	88.12
441.822	94.12
442.043	109.12
442.264	102.12
442.486	89.12
442.707	87.12
442.928	90.12
443.149	138.12
443.371	127.12
443.592	118.12
443.813	104.12
444.034	119.12
444.255	90.12
444.476	80.12
444.698	91.12
444.919	98.12
445.14	137.12
445.361	122.12
445.582	109.12
445.803	146.12
446.024	144.12
446.245	144.12
446.466	108.12
446.687	98.12
446.908	100.12
447.129	78.12
447.35	87.12
447.571	102.12
447.792	90.12
448.013	98.12
448.234	119.12
448.455	108.12
448.675	125.12
448.896	130.12
449.117	103.12
449.338	101.12
449.559	131.12
449.779	140.12
450	90.12
450.221	92.12
450.442	83.12
450.662	95.12
450.883	103.12
451.104	114.12
451.324	102.12
451.545	96.12
451.766	93.12
451.986	88.12
452.207	78.12
452.428	91.12
452.648	108.12
452.869	116.12
453.089	118.12
453.31	130.12
453.53	94.12
453.751	95.12
453.971	96.12
454.192	108.12
454.412	86.12
454.633	95.12
454.853	83.12
455.073	91.12
455.294	86.12
455.514	102.12
455.734	87.12
455.955	83.12
456.175	81.12
456.395	84.12
456.616	91.12
456.836	90.12
457.056	91.12
457.276	76.12
457.497	84.12
457.717	90.12
457.937	82.12
458.157	91.12
458.377	92.12
458.598	118.12
458.818	161.12
459.038	166.12
459.258	109.12
459.478	98.12
459.698	74.12
459.918	72.12
460.138	91.12
460.358	79.12
460.578	82.12
460.798	94.12
461.018	108.12
461.238	91.12
461.458	94.12
461.678	80.12
461.898	89.12
462.118	90.12
462.338	95.12
462.558	94.12
462.777	90.12
462.997	97.12
463.217	87.12
463.437	91.12
463.657	87.12
463.876	76.12
464.096	83.12
464.316	74.12
464.536	98.12
464.755	98.12
464.975	124.12
465.195	171.12
465.414	186.12
465.634	103.12
465.854	76.12
466.073	88.12
466.293	75.12
466.512	94.12
466.732	82.12
466.951	85.12
467.171	87.12
467.391	100.12
467.61	107.12
467.829	105.12
468.049	87.12
468.268	77.12
468.488	102.12
468.707	97.12
468.927	79.12
469.146	88.12
469.365	73.12
469.585	94.12
469.804	101.12
470.023	102.12
470.243	81.12
470.462	100.12
470.681	120.12
470.901	95.12
471.12	84.12
471.339	77.12
471.558	77.12
471.777	84.12
471.997	71.12
472.216	70.12
472.435	92.12
472.654	92.12
472.873	85.12
473.092	84.12
473.311	76.12
473.53	91.12
473.749	83.12
473.968	100.12
474.187	112.12
474.406	93.12
474.625	90.12
474.844	90.12
475.063	93.12
475.282	93.12
475.501	84.12
475.72	88.12
475.939	84.12
476.158	91.12
476.377	80.12
476.596	87.12
476.814	98.12
477.033	90.12
477.252	83.12
477.471	75.12
477.69	80.12
477.908	89.12
478.127	75.12
478.346	76.12
478.564	97.12
478.783	98.12
479.002	90.12
479.22	88.12
479.439	105.12
479.658	103.12
479.876	97.12
480.095	101.12
480.313	97.12
480.532	90.12
480.751	92.12
480.969	89.12
481.188	97.12
481.406	88.12
481.624	111.12
481.843	88.12
482.061	88.12
482.28	95.12
482.498	84.12
482.717	87.12
482.935	99.12
483.153	82.12
483.372	85.12
483.59	85.12
483.808	88.12
484.027	87.12
484.245	100.12
484.463	108.12
484.681	97.12
484.9	85.12
485.118	106.12
485.336	81.12
485.554	96.12
485.772	97.12
485.99	104.12
486.209	108.12
486.427	103.12
486.645	103.12
486.863	99.12
487.081	95.12
487.299	100.12
487.517	97.12
487.735	97.12
487.953	80.12
488.171	94.12
488.389	85.12
488.607	92.12
488.825	84.12
489.043	84.12
489.261	93.12
489.479	93.12
489.696	80.12
489.914	79.12
490.132	71.12
490.35	81.12
490.568	89.12
490.786	81.12
491.003	89.12
491.221	73.12
491.439	99.12
491.657	99.12
491.874	82.12
492.092	102.12
492.31	79.12
492.527	97.12
492.745	95.12
492.963	87.12
493.18	95.12
493.398	90.12
493.615	92.12
493.833	90.12
494.05	93.12
494.268	85.12
494.485	103.12
494.703	96.12
494.92	105.12
495.138	93.12
495.355	80.12
495.573	83.12
495.79	84.12
496.008	84.12
496.225	91.12
496.442	80.12
496.66	90.12
496.877	76.12
497.094	86.12
497.312	89.12
497.529	94.12
497.746	94.12
497.963	98.12
498.181	91.12
498.398	104.12
498.615	108.12
498.832	100.12
499.049	89.12
499.267	97.12
499.484	87.12
499.701	106.12
499.918	72.12
500.135	97.12
500.352	94.12
500.569	73.12
500.786	74.12
501.003	73.12
501.22	78.12
501.437	92.12
501.654	97.12
501.871	105.12
502.088	89.12
502.305	90.12
502.522	87.12
502.739	102.12
502.956	97.12
503.172	91.12
503.389	97.12
503.606	103.12
503.823	83.12
504.04	92.12
504.256	89.12
504.473	90.12
504.69	90.12
504.907	88.12
505.123	85.12
505.34	76.12
505.557	86.12
505.773	82.12
505.99	104.12
506.207	79.12
506.423	90.12
506.64	99.12
506.856	107.12
507.073	101.12
507.289	89.12
507.506	87.12
507.722	113.12
507.939	102.12
508.155	93.12
508.372	95.12
508.588	86.12
508.805	94.12
509.021	88.12
509.238	91.12
509.454	122.12
509.67	104.12
509.887	111.12
510.103	125.12
510.319	231.12
510.536	899.12
510.752	2872.12
510.968	795.12
511.184	174.12
511.401	106.12
511.617	114.12
511.833	96.12
512.049	95.12
512.265	120.12
512.481	81.12
512.698	74.12
512.914	90.12
513.13	93.12
513.346	85.12
513.562	101.12
513.778	108.12
513.994	96.12
514.21	101.12
514.426	126.12
514.642	115.12
514.858	136.12
515.074	168.12
515.29	523.12
515.506	1820.12
515.721	649.12
