Data from Uncirc_2007_H10_HRD10591_00029.txt Node
Date: Wed Jan 03 10:20:48 EST 2024
User: Yrep
Spectrometer: HR+D1059
Trigger mode: 1
Integration Time (sec): 1.000000E-1
Scans to average: 1
Electric dark correction enabled: true
Nonlinearity correction enabled: false
Boxcar width: 0
XAxis mode: Wavelengths
Number of Pixels in Spectrum: 2048
>>>>>Begin Spectral Data<<<<<
223.165	-22.19
223.4	-22.19
223.635	-22.19
223.869	-6.19
224.104	-13.19
224.338	-14.19
224.573	-16.19
224.808	-27.19
225.042	-13.19
225.277	-4.19
225.511	-10.19
225.746	18.81
225.98	19.81
226.215	3.81
226.449	12.81
226.683	25.81
226.918	22.81
227.152	22.81
227.387	25.81
227.621	31.81
227.856	31.81
228.09	54.81
228.324	63.81
228.559	62.81
228.793	66.81
229.027	51.81
229.262	71.81
229.496	73.81
229.73	76.81
229.964	77.81
230.199	85.81
230.433	73.81
230.667	65.81
230.901	75.81
231.136	79.81
231.37	68.81
231.604	80.81
231.838	77.81
232.072	73.81
232.306	66.81
232.541	83.81
232.775	74.81
233.009	79.81
233.243	95.81
233.477	75.81
233.711	75.81
233.945	82.81
234.179	90.81
234.413	87.81
234.647	83.81
234.881	75.81
235.115	84.81
235.349	75.81
235.583	90.81
235.817	84.81
236.051	86.81
236.285	75.81
236.519	70.81
236.753	83.81
236.987	87.81
237.221	86.81
237.455	62.81
237.689	73.81
237.922	77.81
238.156	83.81
238.39	77.81
238.624	67.81
238.858	76.81
239.091	75.81
239.325	85.81
239.559	73.81
239.793	85.81
240.027	80.81
240.26	75.81
240.494	77.81
240.728	72.81
240.961	74.81
241.195	61.81
241.429	73.81
241.662	81.81
241.896	73.81
242.13	74.81
242.363	77.81
242.597	71.81
242.83	89.81
243.064	73.81
243.298	75.81
243.531	80.81
243.765	71.81
243.998	77.81
244.232	68.81
244.465	86.81
244.699	95.81
244.932	58.81
245.166	73.81
245.399	74.81
245.633	73.81
245.866	72.81
246.099	79.81
246.333	74.81
246.566	75.81
246.8	66.81
247.033	62.81
247.266	76.81
247.5	65.81
247.733	69.81
247.966	73.81
248.2	76.81
248.433	85.81
248.666	77.81
248.899	94.81
249.133	92.81
249.366	102.81
249.599	94.81
249.832	88.81
250.066	90.81
250.299	86.81
250.532	72.81
250.765	61.81
250.998	65.81
251.231	68.81
251.465	66.81
251.698	88.81
251.931	76.81
252.164	85.81
252.397	79.81
252.63	73.81
252.863	83.81
253.096	82.81
253.329	82.81
253.562	79.81
253.795	72.81
254.028	73.81
254.261	78.81
254.494	89.81
254.727	76.81
254.96	82.81
255.193	80.81
255.426	87.81
255.659	81.81
255.892	71.81
256.124	72.81
256.357	82.81
256.59	80.81
256.823	66.81
257.056	83.81
257.289	74.81
257.521	83.81
257.754	83.81
257.987	65.81
258.22	72.81
258.452	81.81
258.685	86.81
258.918	81.81
259.151	67.81
259.383	86.81
259.616	73.81
259.849	77.81
260.081	86.81
260.314	73.81
260.547	77.81
260.779	91.81
261.012	88.81
261.244	92.81
261.477	83.81
261.71	89.81
261.942	106.81
262.175	107.81
262.407	77.81
262.64	84.81
262.872	84.81
263.105	77.81
263.337	81.81
263.57	75.81
263.802	91.81
264.035	81.81
264.267	76.81
264.499	85.81
264.732	96.81
264.964	86.81
265.197	93.81
265.429	77.81
265.661	74.81
265.894	83.81
266.126	93.81
266.358	87.81
266.591	90.81
266.823	87.81
267.055	87.81
267.287	83.81
267.52	81.81
267.752	76.81
267.984	77.81
268.216	104.81
268.448	83.81
268.681	73.81
268.913	70.81
269.145	83.81
269.377	99.81
269.609	82.81
269.841	83.81
270.073	81.81
270.306	83.81
270.538	90.81
270.77	85.81
271.002	93.81
271.234	91.81
271.466	90.81
271.698	95.81
271.93	82.81
272.162	73.81
272.394	83.81
272.626	93.81
272.858	95.81
273.09	76.81
273.322	81.81
273.553	77.81
273.785	88.81
274.017	92.81
274.249	82.81
274.481	91.81
274.713	102.81
274.945	82.81
275.176	89.81
275.408	87.81
275.64	92.81
275.872	89.81
276.104	92.81
276.335	83.81
276.567	90.81
276.799	103.81
277.031	93.81
277.262	87.81
277.494	79.81
277.726	78.81
277.957	85.81
278.189	77.81
278.421	92.81
278.652	82.81
278.884	97.81
279.115	74.81
279.347	97.81
279.579	83.81
279.81	78.81
280.042	74.81
280.273	87.81
280.505	93.81
280.736	82.81
280.968	81.81
281.199	80.81
281.431	81.81
281.662	89.81
281.894	101.81
282.125	107.81
282.356	111.81
282.588	122.81
282.819	113.81
283.051	75.81
283.282	84.81
283.513	82.81
283.745	96.81
283.976	76.81
284.207	102.81
284.439	87.81
284.67	75.81
284.901	66.81
285.132	81.81
285.364	84.81
285.595	78.81
285.826	81.81
286.057	77.81
286.288	78.81
286.52	72.81
286.751	82.81
286.982	81.81
287.213	87.81
287.444	94.81
287.675	90.81
287.906	83.81
288.138	90.81
288.369	76.81
288.6	90.81
288.831	103.81
289.062	82.81
289.293	68.81
289.524	86.81
289.755	83.81
289.986	88.81
290.217	86.81
290.448	91.81
290.679	89.81
290.91	92.81
291.141	82.81
291.371	78.81
291.602	97.81
291.833	87.81
292.064	88.81
292.295	91.81
292.526	94.81
292.757	90.81
292.987	81.81
293.218	88.81
293.449	78.81
293.68	90.81
293.91	86.81
294.141	102.81
294.372	89.81
294.603	85.81
294.833	82.81
295.064	81.81
295.295	70.81
295.525	102.81
295.756	95.81
295.987	120.81
296.217	146.81
296.448	125.81
296.679	106.81
296.909	91.81
297.14	95.81
297.37	94.81
297.601	101.81
297.831	95.81
298.062	89.81
298.292	89.81
298.523	81.81
298.753	87.81
298.984	83.81
299.214	84.81
299.445	101.81
299.675	95.81
299.905	114.81
300.136	111.81
300.366	91.81
300.597	86.81
300.827	86.81
301.057	87.81
301.288	82.81
301.518	95.81
301.748	99.81
301.979	107.81
302.209	97.81
302.439	91.81
302.669	86.81
302.9	96.81
303.13	114.81
303.36	95.81
303.59	97.81
303.82	109.81
304.051	105.81
304.281	79.81
304.511	91.81
304.741	79.81
304.971	103.81
305.201	93.81
305.431	80.81
305.661	87.81
305.891	98.81
306.121	103.81
306.352	107.81
306.582	104.81
306.812	88.81
307.042	85.81
307.272	95.81
307.502	103.81
307.731	78.81
307.961	73.81
308.191	90.81
308.421	82.81
308.651	88.81
308.881	81.81
309.111	88.81
309.341	89.81
309.571	103.81
309.8	101.81
310.03	95.81
310.26	101.81
310.49	94.81
310.72	89.81
310.949	97.81
311.179	101.81
311.409	95.81
311.639	100.81
311.868	99.81
312.098	97.81
312.328	80.81
312.557	99.81
312.787	103.81
313.017	101.81
313.246	86.81
313.476	78.81
313.706	89.81
313.935	105.81
314.165	90.81
314.394	95.81
314.624	103.81
314.853	89.81
315.083	109.81
315.312	96.81
315.542	93.81
315.771	90.81
316.001	77.81
316.23	92.81
316.46	86.81
316.689	102.81
316.919	89.81
317.148	97.81
317.377	106.81
317.607	97.81
317.836	95.81
318.065	94.81
318.295	97.81
318.524	98.81
318.753	82.81
318.983	80.81
319.212	97.81
319.441	102.81
319.67	107.81
319.9	89.81
320.129	87.81
320.358	77.81
320.587	94.81
320.816	101.81
321.046	110.81
321.275	91.81
321.504	94.81
321.733	90.81
321.962	93.81
322.191	109.81
322.42	99.81
322.649	101.81
322.878	101.81
323.108	115.81
323.337	116.81
323.566	126.81
323.795	152.81
324.024	224.81
324.253	410.81
324.482	881.81
324.71	1837.81
324.939	2425.81
325.168	861.81
325.397	258.81
325.626	181.81
325.855	107.81
326.084	123.81
326.313	153.81
326.542	154.81
326.77	243.81
326.999	482.81
327.228	1038.81
327.457	1845.81
327.686	1446.81
327.914	373.81
328.143	193.81
328.372	136.81
328.6	107.81
328.829	106.81
329.058	128.81
329.287	119.81
329.515	123.81
329.744	105.81
329.972	94.81
330.201	103.81
330.43	97.81
330.658	117.81
330.887	143.81
331.115	122.81
331.344	90.81
331.572	94.81
331.801	95.81
332.03	86.81
332.258	109.81
332.486	82.81
332.715	82.81
332.943	91.81
333.172	96.81
333.4	108.81
333.629	107.81
333.857	112.81
334.085	102.81
334.314	99.81
334.542	102.81
334.771	106.81
334.999	86.81
335.227	103.81
335.455	88.81
335.684	96.81
335.912	89.81
336.14	94.81
336.369	95.81
336.597	107.81
336.825	98.81
337.053	93.81
337.281	90.81
337.51	104.81
337.738	100.81
337.966	102.81
338.194	89.81
338.422	82.81
338.65	83.81
338.878	86.81
339.106	87.81
339.334	82.81
339.562	83.81
339.79	75.81
340.018	75.81
340.246	96.81
340.474	94.81
340.702	91.81
340.93	86.81
341.158	84.81
341.386	81.81
341.614	98.81
341.842	102.81
342.07	106.81
342.298	87.81
342.526	82.81
342.754	97.81
342.981	79.81
343.209	83.81
343.437	105.81
343.665	83.81
343.893	93.81
344.12	88.81
344.348	88.81
344.576	81.81
344.804	91.81
345.031	83.81
345.259	86.81
345.487	84.81
345.714	99.81
345.942	94.81
346.17	94.81
346.397	102.81
346.625	87.81
346.853	91.81
347.08	98.81
347.308	96.81
347.535	90.81
347.763	104.81
347.99	104.81
348.218	90.81
348.445	106.81
348.673	90.81
348.9	83.81
349.128	90.81
349.355	82.81
349.583	88.81
349.81	102.81
350.037	88.81
350.265	86.81
350.492	106.81
350.72	88.81
350.947	106.81
351.174	95.81
351.402	107.81
351.629	105.81
351.856	94.81
352.083	94.81
352.311	95.81
352.538	111.81
352.765	124.81
352.992	114.81
353.22	99.81
353.447	104.81
353.674	90.81
353.901	86.81
354.128	90.81
354.355	109.81
354.583	104.81
354.81	96.81
355.037	101.81
355.264	99.81
355.491	101.81
355.718	95.81
355.945	103.81
356.172	79.81
356.399	82.81
356.626	93.81
356.853	95.81
357.08	93.81
357.307	95.81
357.534	83.81
357.761	105.81
357.988	89.81
358.215	77.81
358.441	84.81
358.668	88.81
358.895	96.81
359.122	90.81
359.349	77.81
359.576	86.81
359.802	98.81
360.029	108.81
360.256	107.81
360.483	106.81
360.709	91.81
360.936	93.81
361.163	90.81
361.39	99.81
361.616	93.81
361.843	98.81
362.07	101.81
362.296	94.81
362.523	100.81
362.749	96.81
362.976	91.81
363.203	94.81
363.429	85.81
363.656	86.81
363.882	71.81
364.109	86.81
364.335	83.81
364.562	87.81
364.788	90.81
365.015	85.81
365.241	100.81
365.468	102.81
365.694	110.81
365.92	104.81
366.147	98.81
366.373	87.81
366.599	79.81
366.826	85.81
367.052	86.81
367.278	91.81
367.505	90.81
367.731	82.81
367.957	97.81
368.184	92.81
368.41	104.81
368.636	112.81
368.862	125.81
369.089	98.81
369.315	97.81
369.541	88.81
369.767	96.81
369.993	92.81
370.219	90.81
370.445	78.81
370.672	93.81
370.898	90.81
371.124	86.81
371.35	89.81
371.576	92.81
371.802	81.81
372.028	73.81
372.254	89.81
372.48	85.81
372.706	90.81
372.932	105.81
373.158	77.81
373.384	92.81
373.61	86.81
373.835	87.81
374.061	94.81
374.287	91.81
374.513	87.81
374.739	75.81
374.965	86.81
375.191	92.81
375.416	75.81
375.642	81.81
375.868	97.81
376.094	84.81
376.319	89.81
376.545	77.81
376.771	91.81
376.997	85.81
377.222	74.81
377.448	85.81
377.674	104.81
377.899	86.81
378.125	93.81
378.35	98.81
378.576	82.81
378.802	88.81
379.027	78.81
379.253	95.81
379.478	89.81
379.704	86.81
379.929	87.81
380.155	97.81
380.38	86.81
380.606	90.81
380.831	82.81
381.057	88.81
381.282	98.81
381.507	90.81
381.733	88.81
381.958	93.81
382.184	105.81
382.409	93.81
382.634	99.81
382.86	80.81
383.085	78.81
383.31	89.81
383.535	97.81
383.761	88.81
383.986	84.81
384.211	95.81
384.436	92.81
384.662	89.81
384.887	95.81
385.112	90.81
385.337	109.81
385.562	98.81
385.787	105.81
386.013	106.81
386.238	106.81
386.463	109.81
386.688	102.81
386.913	96.81
387.138	100.81
387.363	97.81
387.588	88.81
387.813	90.81
388.038	99.81
388.263	97.81
388.488	97.81
388.713	98.81
388.938	98.81
389.163	94.81
389.387	92.81
389.612	84.81
389.837	92.81
390.062	88.81
390.287	92.81
390.512	89.81
390.736	105.81
390.961	78.81
391.186	78.81
391.411	98.81
391.636	86.81
391.86	82.81
392.085	83.81
392.31	83.81
392.534	83.81
392.759	76.81
392.984	97.81
393.208	79.81
393.433	83.81
393.658	72.81
393.882	91.81
394.107	96.81
394.331	69.81
394.556	73.81
394.78	71.81
395.005	88.81
395.229	84.81
395.454	82.81
395.678	79.81
395.903	87.81
396.127	79.81
396.352	88.81
396.576	87.81
396.801	82.81
397.025	85.81
397.249	64.81
397.474	77.81
397.698	87.81
397.922	61.81
398.147	71.81
398.371	82.81
398.595	73.81
398.82	86.81
399.044	89.81
399.268	77.81
399.492	87.81
399.717	101.81
399.941	90.81
400.165	80.81
400.389	92.81
400.613	94.81
400.837	81.81
401.062	95.81
401.286	88.81
401.51	99.81
401.734	83.81
401.958	96.81
402.182	106.81
402.406	163.81
402.63	103.81
402.854	80.81
403.078	82.81
403.302	96.81
403.526	60.81
403.75	77.81
403.974	92.81
404.198	79.81
404.422	78.81
404.645	87.81
404.869	82.81
405.093	81.81
405.317	98.81
405.541	95.81
405.765	85.81
405.988	115.81
406.212	178.81
406.436	210.81
406.66	139.81
406.883	100.81
407.107	95.81
407.331	75.81
407.555	86.81
407.778	84.81
408.002	97.81
408.226	93.81
408.449	81.81
408.673	83.81
408.896	94.81
409.12	94.81
409.344	97.81
409.567	76.81
409.791	87.81
410.014	93.81
410.238	100.81
410.461	93.81
410.685	91.81
410.908	95.81
411.132	96.81
411.355	92.81
411.578	98.81
411.802	88.81
412.025	97.81
412.249	91.81
412.472	90.81
412.695	89.81
412.919	88.81
413.142	96.81
413.365	84.81
413.589	81.81
413.812	70.81
414.035	78.81
414.258	77.81
414.482	70.81
414.705	75.81
414.928	80.81
415.151	96.81
415.374	89.81
415.597	85.81
415.821	93.81
416.044	98.81
416.267	87.81
416.49	75.81
416.713	82.81
416.936	86.81
417.159	86.81
417.382	78.81
417.605	93.81
417.828	92.81
418.051	85.81
418.274	79.81
418.497	90.81
418.72	85.81
418.943	86.81
419.166	97.81
419.389	84.81
419.611	92.81
419.834	87.81
420.057	75.81
420.28	89.81
420.503	83.81
420.726	81.81
420.948	83.81
421.171	88.81
421.394	107.81
421.617	84.81
421.839	90.81
422.062	96.81
422.285	89.81
422.507	98.81
422.73	96.81
422.953	86.81
423.175	81.81
423.398	96.81
423.621	80.81
423.843	80.81
424.066	81.81
424.288	91.81
424.511	98.81
424.733	96.81
424.956	103.81
425.178	96.81
425.401	92.81
425.623	98.81
425.846	92.81
426.068	95.81
426.291	72.81
426.513	92.81
426.735	86.81
426.958	95.81
427.18	95.81
427.402	141.81
427.625	148.81
427.847	121.81
428.069	89.81
428.292	82.81
428.514	80.81
428.736	74.81
428.958	89.81
429.181	82.81
429.403	94.81
429.625	79.81
429.847	85.81
430.069	86.81
430.292	89.81
430.514	85.81
430.736	90.81
430.958	84.81
431.18	79.81
431.402	89.81
431.624	80.81
431.846	99.81
432.068	93.81
432.29	89.81
432.512	75.81
432.734	85.81
432.956	85.81
433.178	106.81
433.4	109.81
433.622	83.81
433.844	86.81
434.066	91.81
434.287	92.81
434.509	90.81
434.731	96.81
434.953	82.81
435.175	87.81
435.397	85.81
435.618	86.81
435.84	112.81
436.062	122.81
436.284	128.81
436.505	111.81
436.727	110.81
436.949	86.81
437.17	85.81
437.392	82.81
437.614	87.81
437.835	98.81
438.057	110.81
438.278	98.81
438.5	87.81
438.721	106.81
438.943	87.81
439.165	97.81
439.386	82.81
439.608	83.81
439.829	105.81
440.05	124.81
440.272	134.81
440.493	89.81
440.715	85.81
440.936	84.81
441.158	93.81
441.379	102.81
441.6	101.81
441.822	92.81
442.043	102.81
442.264	105.81
442.486	107.81
442.707	106.81
442.928	106.81
443.149	123.81
443.371	125.81
443.592	99.81
443.813	112.81
444.034	118.81
444.255	101.81
444.476	87.81
444.698	84.81
444.919	85.81
445.14	118.81
445.361	117.81
445.582	109.81
445.803	143.81
446.024	120.81
446.245	141.81
446.466	102.81
446.687	95.81
446.908	78.81
447.129	77.81
447.35	87.81
447.571	88.81
447.792	83.81
448.013	94.81
448.234	99.81
448.455	98.81
448.675	115.81
448.896	126.81
449.117	99.81
449.338	98.81
449.559	133.81
449.779	125.81
450	90.81
450.221	84.81
450.442	84.81
450.662	86.81
450.883	108.81
451.104	119.81
451.324	82.81
451.545	86.81
451.766	87.81
451.986	91.81
452.207	91.81
452.428	91.81
452.648	83.81
452.869	113.81
453.089	96.81
453.31	113.81
453.53	94.81
453.751	85.81
453.971	91.81
454.192	105.81
454.412	77.81
454.633	89.81
454.853	85.81
455.073	74.81
455.294	80.81
455.514	97.81
455.734	88.81
455.955	86.81
456.175	83.81
456.395	91.81
456.616	78.81
456.836	80.81
457.056	86.81
457.276	85.81
457.497	79.81
457.717	94.81
457.937	80.81
458.157	81.81
458.377	78.81
458.598	100.81
458.818	137.81
459.038	138.81
459.258	114.81
459.478	80.81
459.698	83.81
459.918	76.81
460.138	79.81
460.358	87.81
460.578	81.81
460.798	95.81
461.018	88.81
461.238	81.81
461.458	105.81
461.678	90.81
461.898	97.81
462.118	75.81
462.338	75.81
462.558	82.81
462.777	74.81
462.997	75.81
463.217	73.81
463.437	81.81
463.657	89.81
463.876	85.81
464.096	99.81
464.316	90.81
464.536	94.81
464.755	84.81
464.975	85.81
465.195	154.81
465.414	144.81
465.634	86.81
465.854	83.81
466.073	89.81
466.293	88.81
466.512	82.81
466.732	83.81
466.951	85.81
467.171	72.81
467.391	93.81
467.61	87.81
467.829	96.81
468.049	83.81
468.268	83.81
468.488	89.81
468.707	77.81
468.927	97.81
469.146	99.81
469.365	94.81
469.585	80.81
469.804	86.81
470.023	98.81
470.243	87.81
470.462	85.81
470.681	101.81
470.901	87.81
471.12	89.81
471.339	72.81
471.558	80.81
471.777	89.81
471.997	69.81
472.216	93.81
472.435	66.81
472.654	75.81
472.873	70.81
473.092	84.81
473.311	88.81
473.53	87.81
473.749	96.81
473.968	88.81
474.187	104.81
474.406	90.81
474.625	76.81
474.844	78.81
475.063	89.81
475.282	105.81
475.501	72.81
475.72	76.81
475.939	95.81
476.158	83.81
476.377	90.81
476.596	83.81
476.814	81.81
477.033	101.81
477.252	106.81
477.471	84.81
477.69	85.81
477.908	90.81
478.127	83.81
478.346	89.81
478.564	87.81
478.783	106.81
479.002	91.81
479.22	95.81
479.439	92.81
479.658	103.81
479.876	69.81
480.095	83.81
480.313	89.81
480.532	101.81
480.751	86.81
480.969	73.81
481.188	91.81
481.406	89.81
481.624	89.81
481.843	97.81
482.061	77.81
482.28	73.81
482.498	90.81
482.717	82.81
482.935	85.81
483.153	83.81
483.372	85.81
483.59	76.81
483.808	87.81
484.027	92.81
484.245	93.81
484.463	85.81
484.681	96.81
484.9	80.81
485.118	82.81
485.336	89.81
485.554	96.81
485.772	97.81
485.99	89.81
486.209	98.81
486.427	97.81
486.645	123.81
486.863	121.81
487.081	97.81
487.299	85.81
487.517	108.81
487.735	90.81
487.953	100.81
488.171	98.81
488.389	73.81
488.607	96.81
488.825	79.81
489.043	92.81
489.261	101.81
489.479	95.81
489.696	83.81
489.914	88.81
490.132	89.81
490.35	86.81
490.568	80.81
490.786	81.81
491.003	91.81
491.221	81.81
491.439	85.81
491.657	89.81
491.874	98.81
492.092	96.81
492.31	105.81
492.527	90.81
492.745	85.81
492.963	85.81
493.18	82.81
493.398	92.81
493.615	103.81
493.833	96.81
494.05	98.81
494.268	83.81
494.485	98.81
494.703	81.81
494.92	96.81
495.138	94.81
495.355	84.81
495.573	97.81
495.79	85.81
496.008	89.81
496.225	93.81
496.442	88.81
496.66	87.81
496.877	83.81
497.094	79.81
497.312	93.81
497.529	92.81
497.746	85.81
497.963	82.81
498.181	81.81
498.398	99.81
498.615	99.81
498.832	87.81
499.049	86.81
499.267	86.81
499.484	84.81
499.701	90.81
499.918	93.81
500.135	79.81
500.352	86.81
500.569	82.81
500.786	106.81
501.003	80.81
501.22	103.81
501.437	92.81
501.654	86.81
501.871	96.81
502.088	111.81
502.305	77.81
502.522	82.81
502.739	87.81
502.956	93.81
503.172	102.81
503.389	102.81
503.606	107.81
503.823	90.81
504.04	99.81
504.256	83.81
504.473	88.81
504.69	87.81
504.907	97.81
505.123	80.81
505.34	79.81
505.557	97.81
505.773	91.81
505.99	106.81
506.207	92.81
506.423	88.81
506.64	88.81
506.856	84.81
507.073	98.81
507.289	93.81
507.506	82.81
507.722	105.81
507.939	99.81
508.155	94.81
508.372	99.81
508.588	81.81
508.805	92.81
509.021	89.81
509.238	88.81
509.454	72.81
509.67	95.81
509.887	109.81
510.103	136.81
510.319	190.81
510.536	749.81
510.752	2379.81
510.968	665.81
511.184	150.81
511.401	105.81
511.617	92.81
511.833	90.81
512.049	98.81
512.265	93.81
512.481	93.81
512.698	73.81
512.914	76.81
513.13	94.81
513.346	94.81
513.562	91.81
513.778	102.81
513.994	103.81
514.21	93.81
514.426	129.81
514.642	125.81
514.858	112.81
515.074	163.81
515.29	435.81
515.506	1415.81
515.721	534.81
515.937	146.81
516.153	106.81
516.369	98.81
516.585	85.81
