Data from Uncirc_2007_H10_HRD10591_00094.txt Node
Date: Wed Jan 03 10:21:01 EST 2024
User: Yrep
Spectrometer: HR+D1059
Trigger mode: 1
Integration Time (sec): 1.000000E-1
Scans to average: 1
Electric dark correction enabled: true
Nonlinearity correction enabled: false
Boxcar width: 0
XAxis mode: Wavelengths
Number of Pixels in Spectrum: 2048
>>>>>Begin Spectral Data<<<<<
223.165	-15.38
223.4	-15.38
223.635	-15.38
223.869	-11.38
224.104	-14.38
224.338	-18.38
224.573	-30.38
224.808	-4.38
225.042	-3.38
225.277	2.62
225.511	-11.38
225.746	-3.38
225.98	10.62
226.215	3.62
226.449	14.62
226.683	18.62
226.918	28.62
227.152	33.62
227.387	48.62
227.621	54.62
227.856	24.62
228.09	51.62
228.324	49.62
228.559	73.62
228.793	66.62
229.027	50.62
229.262	68.62
229.496	74.62
229.73	86.62
229.964	79.62
230.199	83.62
230.433	78.62
230.667	76.62
230.901	76.62
231.136	84.62
231.37	87.62
231.604	85.62
231.838	83.62
232.072	85.62
232.306	91.62
232.541	91.62
232.775	87.62
233.009	81.62
233.243	87.62
233.477	85.62
233.711	66.62
233.945	80.62
234.179	82.62
234.413	93.62
234.647	86.62
234.881	86.62
235.115	89.62
235.349	91.62
235.583	79.62
235.817	85.62
236.051	82.62
236.285	76.62
236.519	88.62
236.753	83.62
236.987	99.62
237.221	85.62
237.455	88.62
237.689	87.62
237.922	84.62
238.156	86.62
238.39	69.62
238.624	82.62
238.858	73.62
239.091	75.62
239.325	82.62
239.559	79.62
239.793	87.62
240.027	61.62
240.26	83.62
240.494	84.62
240.728	82.62
240.961	83.62
241.195	79.62
241.429	78.62
241.662	74.62
241.896	83.62
242.13	77.62
242.363	89.62
242.597	91.62
242.83	77.62
243.064	64.62
243.298	74.62
243.531	88.62
243.765	78.62
243.998	80.62
244.232	85.62
244.465	78.62
244.699	86.62
244.932	77.62
245.166	79.62
245.399	76.62
245.633	84.62
245.866	99.62
246.099	93.62
246.333	82.62
246.566	90.62
246.8	90.62
247.033	74.62
247.266	86.62
247.5	85.62
247.733	82.62
247.966	91.62
248.2	73.62
248.433	75.62
248.666	79.62
248.899	83.62
249.133	78.62
249.366	94.62
249.599	108.62
249.832	81.62
250.066	87.62
250.299	92.62
250.532	95.62
250.765	98.62
250.998	84.62
251.231	88.62
251.465	82.62
251.698	77.62
251.931	85.62
252.164	80.62
252.397	86.62
252.63	79.62
252.863	88.62
253.096	86.62
253.329	97.62
253.562	75.62
253.795	88.62
254.028	87.62
254.261	87.62
254.494	86.62
254.727	95.62
254.96	94.62
255.193	88.62
255.426	79.62
255.659	85.62
255.892	81.62
256.124	96.62
256.357	71.62
256.59	90.62
256.823	87.62
257.056	65.62
257.289	87.62
257.521	81.62
257.754	85.62
257.987	70.62
258.22	94.62
258.452	76.62
258.685	83.62
258.918	88.62
259.151	87.62
259.383	88.62
259.616	91.62
259.849	84.62
260.081	78.62
260.314	92.62
260.547	84.62
260.779	78.62
261.012	83.62
261.244	81.62
261.477	77.62
261.71	93.62
261.942	114.62
262.175	114.62
262.407	98.62
262.64	87.62
262.872	79.62
263.105	89.62
263.337	79.62
263.57	70.62
263.802	92.62
264.035	88.62
264.267	84.62
264.499	78.62
264.732	81.62
264.964	92.62
265.197	88.62
265.429	89.62
265.661	87.62
265.894	87.62
266.126	94.62
266.358	80.62
266.591	80.62
266.823	86.62
267.055	93.62
267.287	70.62
267.52	91.62
267.752	87.62
267.984	82.62
268.216	91.62
268.448	79.62
268.681	84.62
268.913	87.62
269.145	92.62
269.377	95.62
269.609	91.62
269.841	94.62
270.073	82.62
270.306	85.62
270.538	91.62
270.77	85.62
271.002	80.62
271.234	88.62
271.466	85.62
271.698	80.62
271.93	93.62
272.162	91.62
272.394	102.62
272.626	83.62
272.858	96.62
273.09	100.62
273.322	100.62
273.553	85.62
273.785	93.62
274.017	88.62
274.249	80.62
274.481	66.62
274.713	74.62
274.945	91.62
275.176	82.62
275.408	99.62
275.64	85.62
275.872	84.62
276.104	90.62
276.335	101.62
276.567	91.62
276.799	113.62
277.031	102.62
277.262	86.62
277.494	83.62
277.726	92.62
277.957	89.62
278.189	79.62
278.421	93.62
278.652	106.62
278.884	82.62
279.115	87.62
279.347	82.62
279.579	84.62
279.81	74.62
280.042	83.62
280.273	92.62
280.505	80.62
280.736	94.62
280.968	82.62
281.199	90.62
281.431	74.62
281.662	99.62
281.894	106.62
282.125	107.62
282.356	130.62
282.588	144.62
282.819	118.62
283.051	95.62
283.282	90.62
283.513	94.62
283.745	73.62
283.976	75.62
284.207	70.62
284.439	90.62
284.67	98.62
284.901	83.62
285.132	87.62
285.364	87.62
285.595	88.62
285.826	89.62
286.057	90.62
286.288	94.62
286.52	83.62
286.751	82.62
286.982	90.62
287.213	100.62
287.444	91.62
287.675	81.62
287.906	92.62
288.138	87.62
288.369	89.62
288.6	81.62
288.831	87.62
289.062	98.62
289.293	92.62
289.524	96.62
289.755	99.62
289.986	85.62
290.217	92.62
290.448	80.62
290.679	95.62
290.91	96.62
291.141	101.62
291.371	86.62
291.602	97.62
291.833	84.62
292.064	90.62
292.295	84.62
292.526	96.62
292.757	89.62
292.987	88.62
293.218	92.62
293.449	94.62
293.68	94.62
293.91	94.62
294.141	101.62
294.372	73.62
294.603	87.62
294.833	94.62
295.064	98.62
295.295	92.62
295.525	88.62
295.756	104.62
295.987	114.62
296.217	150.62
296.448	124.62
296.679	89.62
296.909	94.62
297.14	95.62
297.37	102.62
297.601	78.62
297.831	94.62
298.062	91.62
298.292	79.62
298.523	98.62
298.753	91.62
298.984	96.62
299.214	92.62
299.445	108.62
299.675	93.62
299.905	107.62
300.136	93.62
300.366	93.62
300.597	104.62
300.827	95.62
301.057	108.62
301.288	113.62
301.518	89.62
301.748	107.62
301.979	99.62
302.209	86.62
302.439	81.62
302.669	86.62
302.9	96.62
303.13	88.62
303.36	92.62
303.59	111.62
303.82	105.62
304.051	96.62
304.281	91.62
304.511	96.62
304.741	98.62
304.971	89.62
305.201	92.62
305.431	86.62
305.661	85.62
305.891	93.62
306.121	85.62
306.352	96.62
306.582	115.62
306.812	76.62
307.042	102.62
307.272	94.62
307.502	86.62
307.731	86.62
307.961	93.62
308.191	95.62
308.421	81.62
308.651	98.62
308.881	112.62
309.111	109.62
309.341	99.62
309.571	94.62
309.8	108.62
310.03	98.62
310.26	92.62
310.49	87.62
310.72	102.62
310.949	102.62
311.179	99.62
311.409	104.62
311.639	98.62
311.868	106.62
312.098	95.62
312.328	94.62
312.557	103.62
312.787	115.62
313.017	119.62
313.246	98.62
313.476	102.62
313.706	100.62
313.935	92.62
314.165	100.62
314.394	111.62
314.624	106.62
314.853	108.62
315.083	91.62
315.312	88.62
315.542	101.62
315.771	101.62
316.001	104.62
316.23	103.62
316.46	73.62
316.689	98.62
316.919	86.62
317.148	107.62
317.377	114.62
317.607	108.62
317.836	76.62
318.065	71.62
318.295	95.62
318.524	101.62
318.753	98.62
318.983	107.62
319.212	98.62
319.441	109.62
319.67	116.62
319.9	92.62
320.129	97.62
320.358	93.62
320.587	100.62
320.816	98.62
321.046	108.62
321.275	80.62
321.504	101.62
321.733	109.62
321.962	99.62
322.191	117.62
322.42	103.62
322.649	117.62
322.878	130.62
323.108	122.62
323.337	126.62
323.566	138.62
323.795	156.62
324.024	213.62
324.253	428.62
324.482	904.62
324.71	1843.62
324.939	2474.62
325.168	865.62
325.397	267.62
325.626	156.62
325.855	139.62
326.084	145.62
326.313	139.62
326.542	158.62
326.77	247.62
326.999	527.62
327.228	1046.62
327.457	1912.62
327.686	1531.62
327.914	398.62
328.143	206.62
328.372	151.62
328.6	138.62
328.829	107.62
329.058	136.62
329.287	126.62
329.515	102.62
329.744	97.62
329.972	96.62
330.201	100.62
330.43	96.62
330.658	135.62
330.887	140.62
331.115	127.62
331.344	93.62
331.572	102.62
331.801	94.62
332.03	93.62
332.258	100.62
332.486	90.62
332.715	77.62
332.943	98.62
333.172	95.62
333.4	106.62
333.629	98.62
333.857	101.62
334.085	103.62
334.314	94.62
334.542	104.62
334.771	80.62
334.999	91.62
335.227	103.62
335.455	96.62
335.684	103.62
335.912	94.62
336.14	101.62
336.369	96.62
336.597	104.62
336.825	108.62
337.053	98.62
337.281	92.62
337.51	100.62
337.738	105.62
337.966	93.62
338.194	92.62
338.422	92.62
338.65	90.62
338.878	86.62
339.106	96.62
339.334	104.62
339.562	95.62
339.79	81.62
340.018	92.62
340.246	99.62
340.474	109.62
340.702	106.62
340.93	95.62
341.158	97.62
341.386	97.62
341.614	96.62
341.842	90.62
342.07	74.62
342.298	99.62
342.526	87.62
342.754	84.62
342.981	100.62
343.209	84.62
343.437	86.62
343.665	84.62
343.893	83.62
344.12	80.62
344.348	92.62
344.576	102.62
344.804	100.62
345.031	108.62
345.259	96.62
345.487	101.62
345.714	84.62
345.942	94.62
346.17	106.62
346.397	109.62
346.625	89.62
346.853	93.62
347.08	85.62
347.308	96.62
347.535	99.62
347.763	96.62
347.99	102.62
348.218	101.62
348.445	102.62
348.673	114.62
348.9	96.62
349.128	90.62
349.355	81.62
349.583	98.62
349.81	88.62
350.037	100.62
350.265	103.62
350.492	95.62
350.72	88.62
350.947	113.62
351.174	99.62
351.402	113.62
351.629	90.62
351.856	115.62
352.083	107.62
352.311	96.62
352.538	107.62
352.765	109.62
352.992	116.62
353.22	117.62
353.447	103.62
353.674	99.62
353.901	85.62
354.128	106.62
354.355	94.62
354.583	99.62
354.81	91.62
355.037	99.62
355.264	105.62
355.491	82.62
355.718	102.62
355.945	88.62
356.172	98.62
356.399	90.62
356.626	88.62
356.853	105.62
357.08	100.62
357.307	103.62
357.534	99.62
357.761	99.62
357.988	94.62
358.215	93.62
358.441	95.62
358.668	92.62
358.895	94.62
359.122	94.62
359.349	97.62
359.576	104.62
359.802	97.62
360.029	114.62
360.256	100.62
360.483	97.62
360.709	92.62
360.936	93.62
361.163	98.62
361.39	94.62
361.616	102.62
361.843	103.62
362.07	102.62
362.296	94.62
362.523	96.62
362.749	94.62
362.976	101.62
363.203	86.62
363.429	89.62
363.656	102.62
363.882	89.62
364.109	93.62
364.335	94.62
364.562	100.62
364.788	85.62
365.015	89.62
365.241	104.62
365.468	115.62
365.694	107.62
365.92	95.62
366.147	90.62
366.373	85.62
366.599	91.62
366.826	84.62
367.052	80.62
367.278	96.62
367.505	95.62
367.731	94.62
367.957	102.62
368.184	95.62
368.41	111.62
368.636	107.62
368.862	118.62
369.089	106.62
369.315	93.62
369.541	105.62
369.767	92.62
369.993	92.62
370.219	101.62
370.445	94.62
370.672	87.62
370.898	88.62
371.124	77.62
371.35	87.62
371.576	92.62
371.802	91.62
372.028	87.62
372.254	92.62
372.48	90.62
372.706	94.62
372.932	95.62
373.158	81.62
373.384	102.62
373.61	102.62
373.835	95.62
374.061	90.62
374.287	108.62
374.513	89.62
374.739	87.62
374.965	101.62
375.191	96.62
375.416	100.62
375.642	92.62
375.868	90.62
376.094	108.62
376.319	105.62
376.545	91.62
376.771	99.62
376.997	98.62
377.222	100.62
377.448	87.62
377.674	99.62
377.899	100.62
378.125	92.62
378.35	103.62
378.576	85.62
378.802	97.62
379.027	79.62
379.253	85.62
379.478	96.62
379.704	93.62
379.929	101.62
380.155	94.62
380.38	98.62
380.606	99.62
380.831	95.62
381.057	100.62
381.282	86.62
381.507	91.62
381.733	100.62
381.958	96.62
382.184	99.62
382.409	104.62
382.634	113.62
382.86	85.62
383.085	103.62
383.31	85.62
383.535	91.62
383.761	102.62
383.986	96.62
384.211	97.62
384.436	94.62
384.662	91.62
384.887	85.62
385.112	101.62
385.337	115.62
385.562	116.62
385.787	97.62
386.013	118.62
386.238	95.62
386.463	112.62
386.688	120.62
386.913	117.62
387.138	105.62
387.363	90.62
387.588	88.62
387.813	97.62
388.038	100.62
388.263	101.62
388.488	106.62
388.713	114.62
388.938	96.62
389.163	96.62
389.387	114.62
389.612	101.62
389.837	102.62
390.062	102.62
390.287	99.62
390.512	88.62
390.736	84.62
390.961	102.62
391.186	80.62
391.411	97.62
391.636	100.62
391.86	79.62
392.085	96.62
392.31	91.62
392.534	92.62
392.759	80.62
392.984	83.62
393.208	83.62
393.433	81.62
393.658	91.62
393.882	84.62
394.107	79.62
394.331	73.62
394.556	70.62
394.78	103.62
395.005	90.62
395.229	93.62
395.454	96.62
395.678	100.62
395.903	92.62
396.127	88.62
396.352	93.62
396.576	78.62
396.801	87.62
397.025	81.62
397.249	92.62
397.474	93.62
397.698	98.62
397.922	88.62
398.147	84.62
398.371	87.62
398.595	82.62
398.82	78.62
399.044	102.62
399.268	112.62
399.492	95.62
399.717	92.62
399.941	85.62
400.165	95.62
400.389	88.62
400.613	93.62
400.837	92.62
401.062	107.62
401.286	95.62
401.51	74.62
401.734	94.62
401.958	103.62
402.182	125.62
402.406	170.62
402.63	127.62
402.854	95.62
403.078	80.62
403.302	91.62
403.526	91.62
403.75	76.62
403.974	93.62
404.198	84.62
404.422	93.62
404.645	84.62
404.869	90.62
405.093	95.62
405.317	88.62
405.541	93.62
405.765	93.62
405.988	117.62
406.212	173.62
406.436	234.62
406.66	147.62
406.883	91.62
407.107	86.62
407.331	86.62
407.555	96.62
407.778	107.62
408.002	95.62
408.226	83.62
408.449	81.62
408.673	89.62
408.896	91.62
409.12	91.62
409.344	89.62
409.567	106.62
409.791	89.62
410.014	92.62
410.238	94.62
410.461	80.62
410.685	80.62
410.908	101.62
411.132	116.62
411.355	92.62
411.578	91.62
411.802	94.62
412.025	104.62
412.249	80.62
412.472	76.62
412.695	80.62
412.919	88.62
413.142	84.62
413.365	93.62
413.589	84.62
413.812	72.62
414.035	87.62
414.258	88.62
414.482	94.62
414.705	92.62
414.928	103.62
415.151	84.62
415.374	87.62
415.597	93.62
415.821	93.62
416.044	91.62
416.267	79.62
416.49	86.62
416.713	92.62
416.936	87.62
417.159	89.62
417.382	86.62
417.605	79.62
417.828	100.62
418.051	101.62
418.274	86.62
418.497	88.62
418.72	100.62
418.943	82.62
419.166	87.62
419.389	87.62
419.611	100.62
419.834	84.62
420.057	80.62
420.28	85.62
420.503	94.62
420.726	92.62
420.948	92.62
421.171	113.62
421.394	88.62
421.617	87.62
421.839	83.62
422.062	87.62
422.285	107.62
422.507	86.62
422.73	110.62
422.953	86.62
423.175	92.62
423.398	87.62
423.621	97.62
423.843	79.62
424.066	83.62
424.288	85.62
424.511	93.62
424.733	102.62
424.956	117.62
425.178	106.62
425.401	106.62
425.623	101.62
425.846	97.62
426.068	98.62
426.291	95.62
426.513	88.62
426.735	104.62
426.958	82.62
427.18	108.62
427.402	134.62
427.625	183.62
427.847	149.62
428.069	102.62
428.292	104.62
428.514	71.62
428.736	80.62
428.958	86.62
429.181	86.62
429.403	90.62
429.625	86.62
429.847	105.62
430.069	109.62
430.292	98.62
430.514	84.62
430.736	88.62
430.958	93.62
431.18	84.62
431.402	84.62
431.624	82.62
431.846	95.62
432.068	93.62
432.29	102.62
432.512	97.62
432.734	97.62
432.956	83.62
433.178	100.62
433.4	104.62
433.622	100.62
433.844	90.62
434.066	85.62
434.287	90.62
434.509	86.62
434.731	88.62
434.953	99.62
435.175	102.62
435.397	97.62
435.618	91.62
435.84	111.62
436.062	139.62
436.284	122.62
436.505	103.62
436.727	112.62
436.949	99.62
437.17	92.62
437.392	90.62
437.614	97.62
437.835	103.62
438.057	123.62
438.278	111.62
438.5	98.62
438.721	117.62
438.943	98.62
439.165	99.62
439.386	93.62
439.608	83.62
439.829	112.62
440.05	118.62
440.272	152.62
440.493	99.62
440.715	91.62
440.936	102.62
441.158	103.62
441.379	103.62
441.6	91.62
441.822	99.62
442.043	87.62
442.264	98.62
442.486	106.62
442.707	104.62
442.928	102.62
443.149	134.62
443.371	125.62
443.592	97.62
443.813	108.62
444.034	108.62
444.255	82.62
444.476	86.62
444.698	102.62
444.919	95.62
445.14	135.62
445.361	131.62
445.582	121.62
445.803	144.62
446.024	141.62
446.245	144.62
446.466	105.62
446.687	81.62
446.908	98.62
447.129	86.62
447.35	98.62
447.571	95.62
447.792	100.62
448.013	101.62
448.234	105.62
448.455	106.62
448.675	114.62
448.896	123.62
449.117	110.62
449.338	101.62
449.559	137.62
449.779	159.62
450	101.62
450.221	94.62
450.442	93.62
450.662	94.62
450.883	107.62
451.104	114.62
451.324	93.62
451.545	102.62
451.766	96.62
451.986	92.62
452.207	79.62
452.428	77.62
452.648	109.62
452.869	120.62
453.089	113.62
453.31	106.62
453.53	101.62
453.751	98.62
453.971	119.62
454.192	122.62
454.412	102.62
454.633	94.62
454.853	96.62
455.073	86.62
455.294	101.62
455.514	102.62
455.734	98.62
455.955	83.62
456.175	104.62
456.395	84.62
456.616	99.62
456.836	104.62
457.056	99.62
457.276	82.62
457.497	95.62
457.717	86.62
457.937	92.62
458.157	92.62
458.377	93.62
458.598	107.62
458.818	141.62
459.038	176.62
459.258	126.62
459.478	87.62
459.698	99.62
459.918	77.62
460.138	84.62
460.358	96.62
460.578	92.62
460.798	99.62
461.018	85.62
461.238	96.62
461.458	80.62
461.678	85.62
461.898	84.62
462.118	94.62
462.338	75.62
462.558	83.62
462.777	93.62
462.997	93.62
463.217	83.62
463.437	82.62
463.657	80.62
463.876	96.62
464.096	94.62
464.316	98.62
464.536	84.62
464.755	96.62
464.975	102.62
465.195	156.62
465.414	176.62
465.634	108.62
465.854	96.62
466.073	91.62
466.293	98.62
466.512	86.62
466.732	80.62
466.951	96.62
467.171	86.62
467.391	93.62
467.61	97.62
467.829	102.62
468.049	91.62
468.268	93.62
468.488	87.62
468.707	92.62
468.927	104.62
469.146	81.62
469.365	88.62
469.585	88.62
469.804	85.62
470.023	88.62
470.243	87.62
470.462	102.62
470.681	99.62
470.901	100.62
471.12	93.62
471.339	96.62
471.558	89.62
471.777	101.62
471.997	76.62
472.216	96.62
472.435	92.62
472.654	76.62
472.873	93.62
473.092	71.62
473.311	88.62
473.53	78.62
473.749	87.62
473.968	96.62
474.187	105.62
474.406	96.62
474.625	74.62
474.844	90.62
475.063	74.62
475.282	90.62
475.501	86.62
475.72	85.62
475.939	94.62
476.158	78.62
476.377	93.62
476.596	94.62
476.814	100.62
477.033	101.62
477.252	103.62
477.471	96.62
477.69	93.62
477.908	98.62
478.127	103.62
478.346	97.62
478.564	82.62
478.783	99.62
479.002	92.62
479.22	105.62
479.439	101.62
479.658	109.62
479.876	106.62
480.095	89.62
480.313	88.62
480.532	98.62
480.751	102.62
480.969	100.62
481.188	87.62
481.406	91.62
481.624	88.62
481.843	95.62
482.061	103.62
482.28	82.62
482.498	91.62
482.717	102.62
482.935	88.62
483.153	87.62
483.372	84.62
483.59	95.62
483.808	93.62
484.027	92.62
484.245	76.62
484.463	91.62
484.681	95.62
484.9	93.62
485.118	94.62
485.336	89.62
485.554	98.62
485.772	99.62
485.99	109.62
486.209	109.62
486.427	99.62
486.645	123.62
486.863	102.62
487.081	109.62
487.299	111.62
487.517	85.62
487.735	87.62
487.953	107.62
488.171	97.62
488.389	98.62
488.607	102.62
488.825	101.62
489.043	103.62
489.261	95.62
489.479	93.62
489.696	84.62
489.914	86.62
490.132	93.62
490.35	92.62
490.568	78.62
490.786	98.62
491.003	93.62
491.221	91.62
491.439	101.62
491.657	91.62
491.874	94.62
492.092	78.62
492.31	89.62
492.527	88.62
492.745	87.62
492.963	95.62
493.18	93.62
493.398	81.62
493.615	92.62
493.833	94.62
494.05	88.62
494.268	95.62
494.485	111.62
494.703	104.62
494.92	96.62
495.138	83.62
495.355	99.62
495.573	97.62
495.79	112.62
496.008	94.62
496.225	87.62
496.442	92.62
496.66	99.62
496.877	94.62
497.094	100.62
497.312	91.62
497.529	91.62
497.746	95.62
497.963	107.62
498.181	88.62
498.398	98.62
498.615	118.62
498.832	102.62
499.049	78.62
499.267	93.62
499.484	97.62
499.701	108.62
499.918	96.62
500.135	92.62
500.352	107.62
500.569	102.62
500.786	92.62
501.003	96.62
501.22	86.62
501.437	85.62
501.654	93.62
501.871	121.62
502.088	119.62
502.305	92.62
502.522	109.62
502.739	95.62
502.956	95.62
503.172	85.62
503.389	101.62
503.606	113.62
503.823	93.62
504.04	98.62
504.256	87.62
504.473	96.62
504.69	91.62
504.907	105.62
505.123	97.62
505.34	105.62
505.557	91.62
505.773	79.62
505.99	109.62
506.207	88.62
506.423	104.62
506.64	82.62
506.856	85.62
507.073	79.62
507.289	97.62
507.506	111.62
507.722	105.62
507.939	116.62
508.155	95.62
508.372	108.62
508.588	96.62
508.805	97.62
509.021	111.62
509.238	102.62
509.454	90.62
509.67	95.62
509.887	119.62
510.103	146.62
510.319	219.62
510.536	799.62
510.752	2586.62
510.968	726.62
511.184	160.62
511.401	118.62
511.617	102.62
511.833	96.62
512.049	86.62
512.265	92.62
512.481	107.62
512.698	86.62
512.914	91.62
513.13	96.62
513.346	106.62
513.562	100.62
513.778	91.62
513.994	83.62
514.21	98.62
514.426	126.62
514.642	144.62
