Data from Uncirc_2007_H10_HRD10591_00030.txt Node
Date: Wed Jan 03 10:20:48 EST 2024
User: Yrep
Spectrometer: HR+D1059
Trigger mode: 1
Integration Time (sec): 1.000000E-1
Scans to average: 1
Electric dark correction enabled: true
Nonlinearity correction enabled: false
Boxcar width: 0
XAxis mode: Wavelengths
Number of Pixels in Spectrum: 2048
>>>>>Begin Spectral Data<<<<<
223.165	-28.62
223.4	-28.62
223.635	-28.62
223.869	-26.62
224.104	-8.62
224.338	-8.62
224.573	-21.62
224.808	-18.62
225.042	-8.62
225.277	2.38
225.511	-3.62
225.746	7.38
225.98	11.38
226.215	21.38
226.449	10.38
226.683	11.38
226.918	29.38
227.152	31.38
227.387	44.38
227.621	45.38
227.856	54.38
228.09	57.38
228.324	52.38
228.559	63.38
228.793	66.38
229.027	74.38
229.262	75.38
229.496	76.38
229.73	85.38
229.964	84.38
230.199	74.38
230.433	71.38
230.667	86.38
230.901	92.38
231.136	103.38
231.37	82.38
231.604	81.38
231.838	93.38
232.072	86.38
232.306	67.38
232.541	94.38
232.775	76.38
233.009	82.38
233.243	81.38
233.477	95.38
233.711	73.38
233.945	84.38
234.179	82.38
234.413	70.38
234.647	76.38
234.881	82.38
235.115	77.38
235.349	85.38
235.583	69.38
235.817	78.38
236.051	71.38
236.285	81.38
236.519	82.38
236.753	87.38
236.987	79.38
237.221	95.38
237.455	96.38
237.689	69.38
237.922	82.38
238.156	66.38
238.39	84.38
238.624	84.38
238.858	94.38
239.091	102.38
239.325	89.38
239.559	72.38
239.793	80.38
240.027	67.38
240.26	76.38
240.494	76.38
240.728	85.38
240.961	81.38
241.195	85.38
241.429	85.38
241.662	76.38
241.896	85.38
242.13	77.38
242.363	76.38
242.597	66.38
242.83	81.38
243.064	82.38
243.298	83.38
243.531	73.38
243.765	79.38
243.998	83.38
244.232	82.38
244.465	87.38
244.699	85.38
244.932	81.38
245.166	75.38
245.399	86.38
245.633	80.38
245.866	93.38
246.099	82.38
246.333	82.38
246.566	71.38
246.8	87.38
247.033	93.38
247.266	73.38
247.5	78.38
247.733	62.38
247.966	79.38
248.2	91.38
248.433	69.38
248.666	96.38
248.899	79.38
249.133	89.38
249.366	97.38
249.599	97.38
249.832	71.38
250.066	85.38
250.299	77.38
250.532	75.38
250.765	80.38
250.998	82.38
251.231	87.38
251.465	94.38
251.698	74.38
251.931	78.38
252.164	76.38
252.397	80.38
252.63	73.38
252.863	85.38
253.096	73.38
253.329	83.38
253.562	76.38
253.795	85.38
254.028	98.38
254.261	75.38
254.494	70.38
254.727	87.38
254.96	99.38
255.193	81.38
255.426	88.38
255.659	81.38
255.892	94.38
256.124	75.38
256.357	80.38
256.59	72.38
256.823	81.38
257.056	90.38
257.289	82.38
257.521	71.38
257.754	89.38
257.987	74.38
258.22	94.38
258.452	83.38
258.685	81.38
258.918	84.38
259.151	78.38
259.383	94.38
259.616	86.38
259.849	84.38
260.081	84.38
260.314	86.38
260.547	69.38
260.779	70.38
261.012	79.38
261.244	76.38
261.477	83.38
261.71	94.38
261.942	110.38
262.175	118.38
262.407	87.38
262.64	92.38
262.872	74.38
263.105	82.38
263.337	91.38
263.57	87.38
263.802	91.38
264.035	81.38
264.267	81.38
264.499	87.38
264.732	96.38
264.964	82.38
265.197	75.38
265.429	87.38
265.661	89.38
265.894	81.38
266.126	80.38
266.358	92.38
266.591	70.38
266.823	71.38
267.055	86.38
267.287	91.38
267.52	81.38
267.752	89.38
267.984	107.38
268.216	80.38
268.448	83.38
268.681	82.38
268.913	85.38
269.145	83.38
269.377	86.38
269.609	76.38
269.841	94.38
270.073	91.38
270.306	89.38
270.538	83.38
270.77	102.38
271.002	74.38
271.234	85.38
271.466	97.38
271.698	94.38
271.93	91.38
272.162	81.38
272.394	102.38
272.626	98.38
272.858	86.38
273.09	93.38
273.322	75.38
273.553	79.38
273.785	79.38
274.017	77.38
274.249	92.38
274.481	86.38
274.713	81.38
274.945	96.38
275.176	75.38
275.408	87.38
275.64	98.38
275.872	89.38
276.104	80.38
276.335	89.38
276.567	101.38
276.799	92.38
277.031	108.38
277.262	92.38
277.494	106.38
277.726	81.38
277.957	76.38
278.189	83.38
278.421	85.38
278.652	91.38
278.884	91.38
279.115	86.38
279.347	95.38
279.579	79.38
279.81	86.38
280.042	79.38
280.273	95.38
280.505	86.38
280.736	91.38
280.968	81.38
281.199	85.38
281.431	83.38
281.662	90.38
281.894	101.38
282.125	108.38
282.356	101.38
282.588	141.38
282.819	114.38
283.051	93.38
283.282	95.38
283.513	80.38
283.745	85.38
283.976	93.38
284.207	77.38
284.439	83.38
284.67	105.38
284.901	81.38
285.132	91.38
285.364	85.38
285.595	87.38
285.826	90.38
286.057	98.38
286.288	95.38
286.52	90.38
286.751	97.38
286.982	100.38
287.213	86.38
287.444	93.38
287.675	83.38
287.906	91.38
288.138	86.38
288.369	88.38
288.6	103.38
288.831	83.38
289.062	105.38
289.293	86.38
289.524	98.38
289.755	98.38
289.986	86.38
290.217	100.38
290.448	102.38
290.679	88.38
290.91	80.38
291.141	85.38
291.371	93.38
291.602	91.38
291.833	95.38
292.064	85.38
292.295	86.38
292.526	92.38
292.757	84.38
292.987	90.38
293.218	86.38
293.449	85.38
293.68	99.38
293.91	75.38
294.141	91.38
294.372	104.38
294.603	97.38
294.833	93.38
295.064	99.38
295.295	75.38
295.525	83.38
295.756	88.38
295.987	103.38
296.217	141.38
296.448	139.38
296.679	104.38
296.909	96.38
297.14	98.38
297.37	113.38
297.601	93.38
297.831	95.38
298.062	86.38
298.292	79.38
298.523	90.38
298.753	89.38
298.984	92.38
299.214	87.38
299.445	77.38
299.675	97.38
299.905	91.38
300.136	92.38
300.366	91.38
300.597	86.38
300.827	102.38
301.057	101.38
301.288	98.38
301.518	102.38
301.748	94.38
301.979	90.38
302.209	94.38
302.439	95.38
302.669	93.38
302.9	86.38
303.13	106.38
303.36	102.38
303.59	106.38
303.82	121.38
304.051	102.38
304.281	87.38
304.511	92.38
304.741	91.38
304.971	81.38
305.201	84.38
305.431	91.38
305.661	86.38
305.891	86.38
306.121	102.38
306.352	103.38
306.582	107.38
306.812	103.38
307.042	98.38
307.272	99.38
307.502	102.38
307.731	87.38
307.961	87.38
308.191	90.38
308.421	79.38
308.651	94.38
308.881	95.38
309.111	106.38
309.341	94.38
309.571	113.38
309.8	87.38
310.03	91.38
310.26	75.38
310.49	84.38
310.72	100.38
310.949	102.38
311.179	96.38
311.409	99.38
311.639	93.38
311.868	93.38
312.098	96.38
312.328	97.38
312.557	86.38
312.787	98.38
313.017	96.38
313.246	94.38
313.476	96.38
313.706	89.38
313.935	103.38
314.165	88.38
314.394	102.38
314.624	94.38
314.853	95.38
315.083	103.38
315.312	96.38
315.542	91.38
315.771	90.38
316.001	101.38
316.23	90.38
316.46	85.38
316.689	87.38
316.919	96.38
317.148	113.38
317.377	103.38
317.607	100.38
317.836	92.38
318.065	100.38
318.295	103.38
318.524	94.38
318.753	85.38
318.983	93.38
319.212	100.38
319.441	108.38
319.67	102.38
319.9	101.38
320.129	101.38
320.358	94.38
320.587	110.38
320.816	99.38
321.046	113.38
321.275	94.38
321.504	83.38
321.733	91.38
321.962	94.38
322.191	108.38
322.42	111.38
322.649	115.38
322.878	128.38
323.108	106.38
323.337	125.38
323.566	147.38
323.795	154.38
324.024	236.38
324.253	443.38
324.482	885.38
324.71	1846.38
324.939	2495.38
325.168	874.38
325.397	263.38
325.626	157.38
325.855	137.38
326.084	139.38
326.313	135.38
326.542	166.38
326.77	246.38
326.999	499.38
327.228	1034.38
327.457	1899.38
327.686	1469.38
327.914	383.38
328.143	189.38
328.372	142.38
328.6	123.38
328.829	121.38
329.058	126.38
329.287	127.38
329.515	107.38
329.744	101.38
329.972	106.38
330.201	91.38
330.43	106.38
330.658	119.38
330.887	140.38
331.115	122.38
331.344	96.38
331.572	88.38
331.801	86.38
332.03	97.38
332.258	105.38
332.486	86.38
332.715	93.38
332.943	85.38
333.172	105.38
333.4	94.38
333.629	101.38
333.857	96.38
334.085	97.38
334.314	92.38
334.542	90.38
334.771	84.38
334.999	102.38
335.227	93.38
335.455	96.38
335.684	95.38
335.912	99.38
336.14	95.38
336.369	105.38
336.597	107.38
336.825	105.38
337.053	96.38
337.281	113.38
337.51	97.38
337.738	91.38
337.966	99.38
338.194	92.38
338.422	103.38
338.65	112.38
338.878	104.38
339.106	89.38
339.334	80.38
339.562	90.38
339.79	85.38
340.018	91.38
340.246	94.38
340.474	95.38
340.702	100.38
340.93	91.38
341.158	89.38
341.386	87.38
341.614	89.38
341.842	93.38
342.07	101.38
342.298	95.38
342.526	84.38
342.754	102.38
342.981	94.38
343.209	84.38
343.437	100.38
343.665	86.38
343.893	100.38
344.12	101.38
344.348	98.38
344.576	91.38
344.804	82.38
345.031	90.38
345.259	83.38
345.487	79.38
345.714	98.38
345.942	101.38
346.17	107.38
346.397	100.38
346.625	98.38
346.853	93.38
347.08	88.38
347.308	92.38
347.535	97.38
347.763	103.38
347.99	104.38
348.218	113.38
348.445	103.38
348.673	103.38
348.9	91.38
349.128	94.38
349.355	96.38
349.583	107.38
349.81	97.38
350.037	87.38
350.265	97.38
350.492	97.38
350.72	92.38
350.947	96.38
351.174	98.38
351.402	106.38
351.629	90.38
351.856	94.38
352.083	98.38
352.311	107.38
352.538	110.38
352.765	121.38
352.992	106.38
353.22	105.38
353.447	105.38
353.674	103.38
353.901	101.38
354.128	102.38
354.355	102.38
354.583	98.38
354.81	99.38
355.037	106.38
355.264	109.38
355.491	101.38
355.718	94.38
355.945	93.38
356.172	93.38
356.399	94.38
356.626	109.38
356.853	88.38
357.08	91.38
357.307	94.38
357.534	90.38
357.761	107.38
357.988	98.38
358.215	101.38
358.441	85.38
358.668	85.38
358.895	90.38
359.122	89.38
359.349	86.38
359.576	88.38
359.802	102.38
360.029	122.38
360.256	115.38
360.483	100.38
360.709	92.38
360.936	83.38
361.163	97.38
361.39	98.38
361.616	109.38
361.843	98.38
362.07	91.38
362.296	88.38
362.523	86.38
362.749	91.38
362.976	86.38
363.203	103.38
363.429	92.38
363.656	92.38
363.882	94.38
364.109	85.38
364.335	93.38
364.562	91.38
364.788	106.38
365.015	72.38
365.241	110.38
365.468	105.38
365.694	108.38
365.92	89.38
366.147	98.38
366.373	92.38
366.599	86.38
366.826	80.38
367.052	89.38
367.278	81.38
367.505	103.38
367.731	92.38
367.957	96.38
368.184	93.38
368.41	90.38
368.636	99.38
368.862	124.38
369.089	114.38
369.315	107.38
369.541	88.38
369.767	89.38
369.993	94.38
370.219	103.38
370.445	87.38
370.672	90.38
370.898	81.38
371.124	89.38
371.35	86.38
371.576	102.38
371.802	90.38
372.028	92.38
372.254	93.38
372.48	90.38
372.706	93.38
372.932	95.38
373.158	91.38
373.384	108.38
373.61	104.38
373.835	96.38
374.061	94.38
374.287	92.38
374.513	94.38
374.739	84.38
374.965	85.38
375.191	73.38
375.416	96.38
375.642	104.38
375.868	99.38
376.094	91.38
376.319	86.38
376.545	96.38
376.771	89.38
376.997	91.38
377.222	92.38
377.448	90.38
377.674	84.38
377.899	87.38
378.125	90.38
378.35	93.38
378.576	100.38
378.802	87.38
379.027	85.38
379.253	92.38
379.478	99.38
379.704	101.38
379.929	95.38
380.155	84.38
380.38	101.38
380.606	85.38
380.831	93.38
381.057	97.38
381.282	98.38
381.507	111.38
381.733	103.38
381.958	108.38
382.184	93.38
382.409	109.38
382.634	110.38
382.86	99.38
383.085	106.38
383.31	109.38
383.535	96.38
383.761	98.38
383.986	102.38
384.211	94.38
384.436	101.38
384.662	98.38
384.887	107.38
385.112	103.38
385.337	98.38
385.562	100.38
385.787	107.38
386.013	105.38
386.238	113.38
386.463	90.38
386.688	114.38
386.913	98.38
387.138	107.38
387.363	95.38
387.588	109.38
387.813	95.38
388.038	118.38
388.263	105.38
388.488	101.38
388.713	104.38
388.938	80.38
389.163	82.38
389.387	101.38
389.612	103.38
389.837	106.38
390.062	109.38
390.287	92.38
390.512	92.38
390.736	94.38
390.961	90.38
391.186	93.38
391.411	94.38
391.636	101.38
391.86	84.38
392.085	86.38
392.31	82.38
392.534	92.38
392.759	90.38
392.984	84.38
393.208	88.38
393.433	92.38
393.658	92.38
393.882	86.38
394.107	109.38
394.331	93.38
394.556	79.38
394.78	86.38
395.005	86.38
395.229	86.38
395.454	98.38
395.678	93.38
395.903	86.38
396.127	76.38
396.352	98.38
396.576	99.38
396.801	81.38
397.025	90.38
397.249	86.38
397.474	84.38
397.698	95.38
397.922	80.38
398.147	95.38
398.371	93.38
398.595	86.38
398.82	83.38
399.044	86.38
399.268	84.38
399.492	93.38
399.717	105.38
399.941	86.38
400.165	92.38
400.389	91.38
400.613	93.38
400.837	79.38
401.062	92.38
401.286	91.38
401.51	91.38
401.734	100.38
401.958	102.38
402.182	118.38
402.406	163.38
402.63	116.38
402.854	110.38
403.078	100.38
403.302	82.38
403.526	99.38
403.75	95.38
403.974	74.38
404.198	93.38
404.422	87.38
404.645	98.38
404.869	100.38
405.093	104.38
405.317	100.38
405.541	97.38
405.765	85.38
405.988	123.38
406.212	164.38
406.436	221.38
406.66	130.38
406.883	97.38
407.107	100.38
407.331	110.38
407.555	98.38
407.778	82.38
408.002	94.38
408.226	102.38
408.449	81.38
408.673	101.38
408.896	103.38
409.12	88.38
409.344	82.38
409.567	94.38
409.791	91.38
410.014	90.38
410.238	92.38
410.461	91.38
410.685	93.38
410.908	97.38
411.132	112.38
411.355	101.38
411.578	93.38
411.802	92.38
412.025	85.38
412.249	87.38
412.472	98.38
412.695	82.38
412.919	89.38
413.142	91.38
413.365	94.38
413.589	82.38
413.812	95.38
414.035	98.38
414.258	91.38
414.482	87.38
414.705	107.38
414.928	96.38
415.151	100.38
415.374	106.38
415.597	95.38
415.821	89.38
416.044	96.38
416.267	82.38
416.49	83.38
416.713	101.38
416.936	86.38
417.159	93.38
417.382	70.38
417.605	91.38
417.828	85.38
418.051	99.38
418.274	93.38
418.497	75.38
418.72	91.38
418.943	88.38
419.166	86.38
419.389	81.38
419.611	90.38
419.834	87.38
420.057	93.38
420.28	94.38
420.503	94.38
420.726	90.38
420.948	78.38
421.171	105.38
421.394	97.38
421.617	82.38
421.839	87.38
422.062	88.38
422.285	101.38
422.507	87.38
422.73	96.38
422.953	87.38
423.175	86.38
423.398	102.38
423.621	81.38
423.843	100.38
424.066	84.38
424.288	85.38
424.511	91.38
424.733	109.38
424.956	110.38
425.178	94.38
425.401	90.38
425.623	94.38
425.846	97.38
426.068	87.38
426.291	112.38
426.513	87.38
426.735	105.38
426.958	89.38
427.18	113.38
427.402	138.38
427.625	163.38
427.847	121.38
428.069	92.38
428.292	91.38
428.514	93.38
428.736	87.38
428.958	85.38
429.181	84.38
429.403	90.38
429.625	93.38
429.847	93.38
430.069	104.38
430.292	91.38
430.514	90.38
430.736	93.38
430.958	91.38
431.18	89.38
431.402	83.38
431.624	98.38
431.846	108.38
432.068	84.38
432.29	82.38
432.512	81.38
432.734	89.38
432.956	84.38
433.178	86.38
433.4	114.38
433.622	100.38
433.844	89.38
434.066	108.38
434.287	103.38
434.509	92.38
434.731	93.38
434.953	99.38
435.175	69.38
435.397	86.38
435.618	102.38
435.84	106.38
436.062	129.38
436.284	134.38
436.505	118.38
436.727	106.38
436.949	98.38
437.17	97.38
437.392	90.38
437.614	97.38
437.835	118.38
438.057	115.38
438.278	109.38
438.5	101.38
438.721	135.38
438.943	111.38
439.165	91.38
439.386	106.38
439.608	97.38
439.829	100.38
440.05	127.38
440.272	146.38
440.493	104.38
440.715	92.38
440.936	87.38
441.158	96.38
441.379	101.38
441.6	102.38
441.822	106.38
442.043	109.38
442.264	118.38
442.486	120.38
442.707	94.38
442.928	104.38
443.149	123.38
443.371	142.38
443.592	128.38
443.813	116.38
444.034	100.38
444.255	106.38
444.476	88.38
444.698	90.38
444.919	86.38
445.14	125.38
445.361	123.38
445.582	123.38
445.803	140.38
446.024	126.38
446.245	140.38
446.466	118.38
446.687	97.38
446.908	100.38
447.129	83.38
447.35	99.38
447.571	103.38
447.792	82.38
448.013	87.38
448.234	103.38
448.455	110.38
448.675	101.38
448.896	107.38
449.117	114.38
449.338	108.38
449.559	130.38
449.779	137.38
450	79.38
450.221	82.38
450.442	91.38
450.662	105.38
450.883	122.38
451.104	113.38
451.324	91.38
451.545	82.38
451.766	76.38
451.986	82.38
452.207	77.38
452.428	92.38
452.648	109.38
452.869	116.38
453.089	129.38
453.31	114.38
453.53	115.38
453.751	98.38
453.971	86.38
454.192	99.38
454.412	93.38
454.633	86.38
454.853	86.38
455.073	94.38
455.294	92.38
455.514	93.38
455.734	82.38
455.955	75.38
456.175	79.38
456.395	82.38
456.616	89.38
456.836	91.38
457.056	85.38
457.276	92.38
457.497	69.38
457.717	93.38
457.937	81.38
458.157	84.38
458.377	97.38
458.598	107.38
458.818	152.38
459.038	147.38
459.258	102.38
459.478	77.38
459.698	92.38
459.918	90.38
460.138	85.38
460.358	84.38
460.578	93.38
460.798	91.38
461.018	88.38
461.238	100.38
461.458	87.38
461.678	68.38
461.898	97.38
462.118	84.38
462.338	94.38
462.558	89.38
462.777	98.38
462.997	80.38
463.217	85.38
463.437	77.38
463.657	82.38
463.876	88.38
464.096	92.38
464.316	99.38
464.536	93.38
464.755	104.38
464.975	113.38
465.195	170.38
465.414	147.38
465.634	108.38
465.854	91.38
466.073	76.38
466.293	83.38
466.512	78.38
466.732	87.38
466.951	91.38
467.171	106.38
467.391	91.38
467.61	107.38
467.829	111.38
468.049	100.38
468.268	84.38
468.488	98.38
468.707	73.38
468.927	89.38
469.146	86.38
469.365	76.38
469.585	88.38
469.804	104.38
470.023	106.38
470.243	97.38
470.462	98.38
470.681	88.38
470.901	91.38
471.12	95.38
471.339	95.38
471.558	95.38
471.777	75.38
471.997	103.38
472.216	96.38
472.435	78.38
472.654	94.38
472.873	75.38
473.092	104.38
473.311	96.38
473.53	84.38
473.749	94.38
473.968	94.38
474.187	101.38
474.406	94.38
474.625	87.38
474.844	95.38
475.063	83.38
475.282	75.38
475.501	101.38
475.72	102.38
475.939	87.38
476.158	91.38
476.377	82.38
476.596	90.38
476.814	91.38
477.033	97.38
477.252	98.38
477.471	88.38
477.69	100.38
477.908	94.38
478.127	73.38
478.346	77.38
478.564	93.38
478.783	100.38
479.002	97.38
479.22	103.38
479.439	100.38
479.658	102.38
479.876	106.38
480.095	97.38
480.313	97.38
480.532	96.38
480.751	85.38
480.969	95.38
481.188	108.38
481.406	100.38
481.624	79.38
481.843	97.38
482.061	93.38
482.28	94.38
482.498	91.38
482.717	91.38
482.935	83.38
483.153	93.38
483.372	96.38
483.59	94.38
483.808	97.38
484.027	100.38
484.245	87.38
484.463	100.38
484.681	91.38
484.9	108.38
485.118	78.38
485.336	94.38
485.554	102.38
485.772	100.38
485.99	106.38
486.209	108.38
486.427	105.38
486.645	115.38
486.863	105.38
487.081	103.38
487.299	87.38
487.517	93.38
487.735	114.38
487.953	102.38
488.171	103.38
488.389	100.38
488.607	96.38
488.825	85.38
489.043	85.38
489.261	94.38
489.479	90.38
489.696	79.38
489.914	100.38
490.132	84.38
490.35	91.38
490.568	90.38
490.786	90.38
491.003	99.38
491.221	106.38
491.439	96.38
491.657	85.38
491.874	93.38
492.092	92.38
492.31	85.38
492.527	76.38
492.745	107.38
492.963	92.38
493.18	105.38
493.398	90.38
493.615	103.38
493.833	105.38
494.05	93.38
494.268	85.38
494.485	89.38
494.703	90.38
494.92	93.38
495.138	101.38
495.355	102.38
495.573	101.38
495.79	85.38
496.008	83.38
496.225	90.38
496.442	98.38
496.66	99.38
496.877	99.38
497.094	90.38
497.312	96.38
497.529	92.38
497.746	90.38
497.963	98.38
498.181	92.38
498.398	108.38
498.615	114.38
498.832	105.38
499.049	90.38
499.267	93.38
499.484	89.38
499.701	76.38
499.918	92.38
500.135	93.38
500.352	106.38
500.569	99.38
500.786	96.38
501.003	81.38
501.22	95.38
501.437	95.38
501.654	80.38
501.871	106.38
502.088	94.38
502.305	98.38
502.522	94.38
502.739	93.38
502.956	94.38
503.172	97.38
503.389	98.38
503.606	103.38
503.823	89.38
504.04	95.38
504.256	95.38
504.473	96.38
504.69	101.38
504.907	92.38
505.123	85.38
505.34	87.38
505.557	102.38
505.773	90.38
505.99	108.38
506.207	84.38
506.423	99.38
506.64	96.38
506.856	82.38
507.073	98.38
507.289	100.38
507.506	108.38
507.722	100.38
507.939	115.38
508.155	95.38
508.372	98.38
508.588	88.38
508.805	103.38
509.021	85.38
509.238	104.38
509.454	100.38
509.67	109.38
509.887	105.38
510.103	126.38
510.319	201.38
510.536	779.38
510.752	2533.38
510.968	705.38
511.184	173.38
511.401	112.38
511.617	95.38
511.833	87.38
512.049	92.38
512.265	101.38
512.481	100.38
512.698	104.38
512.914	90.38
513.13	85.38
513.346	86.38
513.562	90.38
513.778	87.38
513.994	94.38
514.21	111.38
514.426	110.38
514.642	150.38
