Data from Uncirc_2007_H10_HRD10591_00056.txt Node
Date: Wed Jan 03 10:20:53 EST 2024
User: Yrep
Spectrometer: HR+D1059
Trigger mode: 1
Integration Time (sec): 1.000000E-1
Scans to average: 1
Electric dark correction enabled: true
Nonlinearity correction enabled: false
Boxcar width: 0
XAxis mode: Wavelengths
Number of Pixels in Spectrum: 2048
>>>>>Begin Spectral Data<<<<<
223.165	-27.19
223.4	-27.19
223.635	-27.19
223.869	-24.19
224.104	-25.19
224.338	-20.19
224.573	-15.19
224.808	-7.19
225.042	-13.19
225.277	-19.19
225.511	-2.19
225.746	3.81
225.98	14.81
226.215	20.81
226.449	15.81
226.683	13.81
226.918	35.81
227.152	48.81
227.387	34.81
227.621	40.81
227.856	54.81
228.09	52.81
228.324	56.81
228.559	59.81
228.793	49.81
229.027	58.81
229.262	85.81
229.496	70.81
229.73	86.81
229.964	62.81
230.199	68.81
230.433	77.81
230.667	86.81
230.901	67.81
231.136	84.81
231.37	84.81
231.604	87.81
231.838	82.81
232.072	90.81
232.306	88.81
232.541	75.81
232.775	73.81
233.009	89.81
233.243	91.81
233.477	83.81
233.711	72.81
233.945	82.81
234.179	82.81
234.413	80.81
234.647	91.81
234.881	86.81
235.115	87.81
235.349	80.81
235.583	78.81
235.817	78.81
236.051	83.81
236.285	81.81
236.519	87.81
236.753	72.81
236.987	76.81
237.221	88.81
237.455	85.81
237.689	79.81
237.922	77.81
238.156	84.81
238.39	84.81
238.624	70.81
238.858	72.81
239.091	89.81
239.325	75.81
239.559	85.81
239.793	83.81
240.027	86.81
240.26	89.81
240.494	88.81
240.728	85.81
240.961	72.81
241.195	85.81
241.429	85.81
241.662	73.81
241.896	84.81
242.13	84.81
242.363	72.81
242.597	82.81
242.83	79.81
243.064	65.81
243.298	76.81
243.531	77.81
243.765	66.81
243.998	86.81
244.232	80.81
244.465	95.81
244.699	94.81
244.932	76.81
245.166	89.81
245.399	88.81
245.633	97.81
245.866	67.81
246.099	80.81
246.333	72.81
246.566	81.81
246.8	77.81
247.033	80.81
247.266	71.81
247.5	84.81
247.733	70.81
247.966	76.81
248.2	77.81
248.433	92.81
248.666	79.81
248.899	80.81
249.133	83.81
249.366	92.81
249.599	93.81
249.832	88.81
250.066	84.81
250.299	89.81
250.532	76.81
250.765	70.81
250.998	84.81
251.231	87.81
251.465	89.81
251.698	96.81
251.931	76.81
252.164	80.81
252.397	90.81
252.63	77.81
252.863	81.81
253.096	72.81
253.329	76.81
253.562	78.81
253.795	81.81
254.028	77.81
254.261	77.81
254.494	99.81
254.727	80.81
254.96	95.81
255.193	81.81
255.426	97.81
255.659	77.81
255.892	90.81
256.124	85.81
256.357	85.81
256.59	79.81
256.823	83.81
257.056	86.81
257.289	84.81
257.521	80.81
257.754	72.81
257.987	85.81
258.22	96.81
258.452	83.81
258.685	95.81
258.918	96.81
259.151	77.81
259.383	90.81
259.616	86.81
259.849	97.81
260.081	84.81
260.314	75.81
260.547	82.81
260.779	76.81
261.012	81.81
261.244	91.81
261.477	95.81
261.71	97.81
261.942	98.81
262.175	100.81
262.407	86.81
262.64	74.81
262.872	77.81
263.105	78.81
263.337	85.81
263.57	90.81
263.802	89.81
264.035	92.81
264.267	90.81
264.499	87.81
264.732	85.81
264.964	92.81
265.197	73.81
265.429	83.81
265.661	84.81
265.894	90.81
266.126	93.81
266.358	91.81
266.591	80.81
266.823	85.81
267.055	89.81
267.287	89.81
267.52	91.81
267.752	78.81
267.984	77.81
268.216	89.81
268.448	78.81
268.681	84.81
268.913	90.81
269.145	88.81
269.377	85.81
269.609	95.81
269.841	89.81
270.073	77.81
270.306	92.81
270.538	77.81
270.77	70.81
271.002	86.81
271.234	86.81
271.466	76.81
271.698	95.81
271.93	96.81
272.162	78.81
272.394	95.81
272.626	93.81
272.858	90.81
273.09	95.81
273.322	92.81
273.553	76.81
273.785	88.81
274.017	79.81
274.249	81.81
274.481	89.81
274.713	84.81
274.945	88.81
275.176	95.81
275.408	81.81
275.64	82.81
275.872	103.81
276.104	98.81
276.335	101.81
276.567	97.81
276.799	105.81
277.031	112.81
277.262	83.81
277.494	78.81
277.726	80.81
277.957	90.81
278.189	84.81
278.421	94.81
278.652	89.81
278.884	99.81
279.115	89.81
279.347	73.81
279.579	80.81
279.81	86.81
280.042	69.81
280.273	85.81
280.505	72.81
280.736	89.81
280.968	83.81
281.199	84.81
281.431	103.81
281.662	96.81
281.894	92.81
282.125	101.81
282.356	125.81
282.588	142.81
282.819	125.81
283.051	91.81
283.282	97.81
283.513	97.81
283.745	89.81
283.976	90.81
284.207	87.81
284.439	85.81
284.67	90.81
284.901	85.81
285.132	75.81
285.364	89.81
285.595	101.81
285.826	88.81
286.057	83.81
286.288	86.81
286.52	72.81
286.751	79.81
286.982	96.81
287.213	81.81
287.444	99.81
287.675	87.81
287.906	83.81
288.138	80.81
288.369	90.81
288.6	92.81
288.831	93.81
289.062	106.81
289.293	80.81
289.524	93.81
289.755	101.81
289.986	102.81
290.217	97.81
290.448	84.81
290.679	86.81
290.91	81.81
291.141	91.81
291.371	68.81
291.602	86.81
291.833	84.81
292.064	82.81
292.295	96.81
292.526	76.81
292.757	90.81
292.987	104.81
293.218	80.81
293.449	86.81
293.68	93.81
293.91	88.81
294.141	97.81
294.372	93.81
294.603	99.81
294.833	86.81
295.064	92.81
295.295	83.81
295.525	91.81
295.756	107.81
295.987	118.81
296.217	140.81
296.448	115.81
296.679	92.81
296.909	84.81
297.14	90.81
297.37	86.81
297.601	94.81
297.831	80.81
298.062	100.81
298.292	79.81
298.523	78.81
298.753	89.81
298.984	85.81
299.214	90.81
299.445	101.81
299.675	108.81
299.905	102.81
300.136	93.81
300.366	91.81
300.597	83.81
300.827	89.81
301.057	85.81
301.288	99.81
301.518	93.81
301.748	92.81
301.979	109.81
302.209	77.81
302.439	78.81
302.669	86.81
302.9	89.81
303.13	98.81
303.36	92.81
303.59	110.81
303.82	103.81
304.051	97.81
304.281	80.81
304.511	78.81
304.741	81.81
304.971	90.81
305.201	98.81
305.431	96.81
305.661	99.81
305.891	97.81
306.121	94.81
306.352	101.81
306.582	106.81
306.812	95.81
307.042	93.81
307.272	98.81
307.502	96.81
307.731	82.81
307.961	100.81
308.191	89.81
308.421	90.81
308.651	100.81
308.881	100.81
309.111	99.81
309.341	108.81
309.571	97.81
309.8	89.81
310.03	91.81
310.26	107.81
310.49	90.81
310.72	101.81
310.949	106.81
311.179	104.81
311.409	101.81
311.639	98.81
311.868	97.81
312.098	104.81
312.328	101.81
312.557	109.81
312.787	109.81
313.017	81.81
313.246	96.81
313.476	90.81
313.706	93.81
313.935	104.81
314.165	93.81
314.394	105.81
314.624	92.81
314.853	77.81
315.083	93.81
315.312	81.81
315.542	85.81
315.771	101.81
316.001	102.81
316.23	86.81
316.46	84.81
316.689	93.81
316.919	97.81
317.148	97.81
317.377	80.81
317.607	96.81
317.836	87.81
318.065	104.81
318.295	81.81
318.524	84.81
318.753	81.81
318.983	109.81
319.212	106.81
319.441	99.81
319.67	96.81
319.9	96.81
320.129	99.81
320.358	106.81
320.587	96.81
320.816	95.81
321.046	99.81
321.275	90.81
321.504	97.81
321.733	72.81
321.962	94.81
322.191	111.81
322.42	91.81
322.649	110.81
322.878	113.81
323.108	124.81
323.337	139.81
323.566	131.81
323.795	159.81
324.024	205.81
324.253	409.81
324.482	866.81
324.71	1777.81
324.939	2352.81
325.168	863.81
325.397	243.81
325.626	140.81
325.855	120.81
326.084	123.81
326.313	141.81
326.542	149.81
326.77	225.81
326.999	478.81
327.228	1020.81
327.457	1824.81
327.686	1426.81
327.914	383.81
328.143	191.81
328.372	146.81
328.6	126.81
328.829	116.81
329.058	109.81
329.287	136.81
329.515	114.81
329.744	97.81
329.972	97.81
330.201	93.81
330.43	108.81
330.658	114.81
330.887	138.81
331.115	127.81
331.344	104.81
331.572	93.81
331.801	100.81
332.03	101.81
332.258	84.81
332.486	86.81
332.715	101.81
332.943	97.81
333.172	96.81
333.4	89.81
333.629	125.81
333.857	120.81
334.085	98.81
334.314	86.81
334.542	85.81
334.771	107.81
334.999	94.81
335.227	85.81
335.455	98.81
335.684	88.81
335.912	81.81
336.14	98.81
336.369	93.81
336.597	102.81
336.825	96.81
337.053	94.81
337.281	104.81
337.51	111.81
337.738	97.81
337.966	95.81
338.194	89.81
338.422	97.81
338.65	90.81
338.878	96.81
339.106	94.81
339.334	98.81
339.562	97.81
339.79	84.81
340.018	96.81
340.246	104.81
340.474	95.81
340.702	97.81
340.93	94.81
341.158	91.81
341.386	91.81
341.614	103.81
341.842	97.81
342.07	97.81
342.298	100.81
342.526	92.81
342.754	89.81
342.981	86.81
343.209	81.81
343.437	80.81
343.665	101.81
343.893	91.81
344.12	87.81
344.348	97.81
344.576	96.81
344.804	97.81
345.031	88.81
345.259	98.81
345.487	102.81
345.714	97.81
345.942	107.81
346.17	85.81
346.397	89.81
346.625	76.81
346.853	71.81
347.08	95.81
347.308	101.81
347.535	95.81
347.763	103.81
347.99	99.81
348.218	101.81
348.445	83.81
348.673	105.81
348.9	91.81
349.128	106.81
349.355	107.81
349.583	85.81
349.81	79.81
350.037	96.81
350.265	90.81
350.492	102.81
350.72	89.81
350.947	86.81
351.174	101.81
351.402	111.81
351.629	106.81
351.856	95.81
352.083	107.81
352.311	117.81
352.538	115.81
352.765	110.81
352.992	121.81
353.22	111.81
353.447	106.81
353.674	96.81
353.901	95.81
354.128	91.81
354.355	85.81
354.583	92.81
354.81	108.81
355.037	94.81
355.264	91.81
355.491	87.81
355.718	98.81
355.945	81.81
356.172	97.81
356.399	105.81
356.626	90.81
356.853	98.81
357.08	81.81
357.307	85.81
357.534	86.81
357.761	92.81
357.988	87.81
358.215	104.81
358.441	117.81
358.668	79.81
358.895	93.81
359.122	97.81
359.349	82.81
359.576	102.81
359.802	93.81
360.029	106.81
360.256	102.81
360.483	97.81
360.709	92.81
360.936	84.81
361.163	88.81
361.39	90.81
361.616	122.81
361.843	101.81
362.07	92.81
362.296	92.81
362.523	95.81
362.749	104.81
362.976	93.81
363.203	87.81
363.429	97.81
363.656	84.81
363.882	76.81
364.109	96.81
364.335	89.81
364.562	90.81
364.788	91.81
365.015	97.81
365.241	99.81
365.468	112.81
365.694	111.81
365.92	115.81
366.147	86.81
366.373	98.81
366.599	97.81
366.826	93.81
367.052	99.81
367.278	101.81
367.505	100.81
367.731	93.81
367.957	88.81
368.184	96.81
368.41	99.81
368.636	100.81
368.862	106.81
369.089	103.81
369.315	91.81
369.541	80.81
369.767	93.81
369.993	74.81
370.219	96.81
370.445	90.81
370.672	85.81
370.898	93.81
371.124	88.81
371.35	85.81
371.576	97.81
371.802	80.81
372.028	91.81
372.254	84.81
372.48	90.81
372.706	91.81
372.932	97.81
373.158	94.81
373.384	89.81
373.61	84.81
373.835	94.81
374.061	105.81
374.287	106.81
374.513	98.81
374.739	99.81
374.965	78.81
375.191	93.81
375.416	85.81
375.642	86.81
375.868	95.81
376.094	101.81
376.319	78.81
376.545	84.81
376.771	80.81
376.997	96.81
377.222	84.81
377.448	80.81
377.674	95.81
377.899	87.81
378.125	97.81
378.35	92.81
378.576	84.81
378.802	80.81
379.027	91.81
379.253	92.81
379.478	82.81
379.704	93.81
379.929	95.81
380.155	80.81
380.38	107.81
380.606	90.81
380.831	88.81
381.057	107.81
381.282	93.81
381.507	97.81
381.733	80.81
381.958	98.81
382.184	108.81
382.409	104.81
382.634	115.81
382.86	97.81
383.085	96.81
383.31	92.81
383.535	83.81
383.761	97.81
383.986	91.81
384.211	83.81
384.436	94.81
384.662	105.81
384.887	108.81
385.112	84.81
385.337	100.81
385.562	91.81
385.787	97.81
386.013	98.81
386.238	115.81
386.463	89.81
386.688	121.81
386.913	101.81
387.138	96.81
387.363	109.81
387.588	101.81
387.813	105.81
388.038	93.81
388.263	105.81
388.488	99.81
388.713	96.81
388.938	94.81
389.163	81.81
389.387	98.81
389.612	104.81
389.837	84.81
390.062	86.81
390.287	100.81
390.512	83.81
390.736	75.81
390.961	93.81
391.186	91.81
391.411	101.81
391.636	80.81
391.86	93.81
392.085	90.81
392.31	89.81
392.534	92.81
392.759	84.81
392.984	84.81
393.208	98.81
393.433	82.81
393.658	98.81
393.882	78.81
394.107	70.81
394.331	91.81
394.556	83.81
394.78	93.81
395.005	95.81
395.229	77.81
395.454	98.81
395.678	104.81
395.903	86.81
396.127	90.81
396.352	89.81
396.576	84.81
396.801	88.81
397.025	81.81
397.249	88.81
397.474	97.81
397.698	91.81
397.922	85.81
398.147	78.81
398.371	88.81
398.595	87.81
398.82	92.81
399.044	88.81
399.268	99.81
399.492	98.81
399.717	89.81
399.941	91.81
400.165	101.81
400.389	93.81
400.613	81.81
400.837	94.81
401.062	90.81
401.286	82.81
401.51	88.81
401.734	85.81
401.958	94.81
402.182	140.81
402.406	164.81
402.63	123.81
402.854	95.81
403.078	94.81
403.302	80.81
403.526	80.81
403.75	86.81
403.974	93.81
404.198	78.81
404.422	93.81
404.645	99.81
404.869	90.81
405.093	77.81
405.317	112.81
405.541	102.81
405.765	99.81
405.988	116.81
406.212	162.81
406.436	212.81
406.66	144.81
406.883	108.81
407.107	91.81
407.331	104.81
407.555	99.81
407.778	109.81
408.002	98.81
408.226	95.81
408.449	85.81
408.673	104.81
408.896	88.81
409.12	105.81
409.344	90.81
409.567	95.81
409.791	90.81
410.014	92.81
410.238	92.81
410.461	89.81
410.685	85.81
410.908	99.81
411.132	108.81
411.355	110.81
411.578	91.81
411.802	89.81
412.025	87.81
412.249	100.81
412.472	92.81
412.695	82.81
412.919	91.81
413.142	98.81
413.365	81.81
413.589	83.81
413.812	94.81
414.035	93.81
414.258	101.81
414.482	95.81
414.705	85.81
414.928	93.81
415.151	99.81
415.374	82.81
415.597	86.81
415.821	81.81
416.044	88.81
416.267	84.81
416.49	83.81
416.713	92.81
416.936	82.81
417.159	90.81
417.382	95.81
417.605	88.81
417.828	91.81
418.051	104.81
418.274	97.81
418.497	85.81
418.72	95.81
418.943	92.81
419.166	97.81
419.389	93.81
419.611	87.81
419.834	89.81
420.057	97.81
420.28	87.81
420.503	97.81
420.726	104.81
420.948	90.81
421.171	93.81
421.394	94.81
421.617	76.81
421.839	88.81
422.062	86.81
422.285	86.81
422.507	100.81
422.73	110.81
422.953	96.81
423.175	99.81
423.398	106.81
423.621	80.81
423.843	89.81
424.066	77.81
424.288	102.81
424.511	98.81
424.733	107.81
424.956	112.81
425.178	95.81
425.401	109.81
425.623	94.81
425.846	89.81
426.068	86.81
426.291	84.81
426.513	85.81
426.735	84.81
426.958	92.81
427.18	109.81
427.402	121.81
427.625	158.81
427.847	118.81
428.069	92.81
428.292	93.81
428.514	91.81
428.736	82.81
428.958	78.81
429.181	90.81
429.403	79.81
429.625	71.81
429.847	96.81
430.069	107.81
430.292	92.81
430.514	89.81
430.736	93.81
430.958	100.81
431.18	86.81
431.402	81.81
431.624	95.81
431.846	96.81
432.068	73.81
432.29	90.81
432.512	94.81
432.734	84.81
432.956	85.81
433.178	100.81
433.4	100.81
433.622	90.81
433.844	91.81
434.066	96.81
434.287	96.81
434.509	95.81
434.731	88.81
434.953	90.81
435.175	69.81
435.397	77.81
435.618	87.81
435.84	104.81
436.062	127.81
436.284	108.81
436.505	98.81
436.727	101.81
436.949	86.81
437.17	90.81
437.392	86.81
437.614	98.81
437.835	108.81
438.057	124.81
438.278	114.81
438.5	99.81
438.721	114.81
438.943	96.81
439.165	81.81
439.386	97.81
439.608	105.81
439.829	105.81
440.05	128.81
440.272	123.81
440.493	105.81
440.715	96.81
440.936	81.81
441.158	87.81
441.379	92.81
441.6	98.81
441.822	108.81
442.043	90.81
442.264	98.81
442.486	101.81
442.707	94.81
442.928	101.81
443.149	129.81
443.371	127.81
443.592	128.81
443.813	106.81
444.034	101.81
444.255	98.81
444.476	90.81
444.698	96.81
444.919	84.81
445.14	122.81
445.361	136.81
445.582	115.81
445.803	128.81
446.024	136.81
446.245	141.81
446.466	111.81
446.687	98.81
446.908	99.81
447.129	103.81
447.35	91.81
447.571	92.81
447.792	88.81
448.013	110.81
448.234	90.81
448.455	108.81
448.675	99.81
448.896	141.81
449.117	108.81
449.338	128.81
449.559	143.81
449.779	137.81
450	96.81
450.221	76.81
450.442	81.81
450.662	109.81
450.883	97.81
451.104	113.81
451.324	91.81
451.545	93.81
451.766	86.81
451.986	81.81
452.207	96.81
452.428	96.81
452.648	89.81
452.869	109.81
453.089	105.81
453.31	113.81
453.53	89.81
453.751	98.81
453.971	112.81
454.192	115.81
454.412	97.81
454.633	90.81
454.853	79.81
455.073	78.81
455.294	81.81
455.514	95.81
455.734	101.81
455.955	84.81
456.175	84.81
456.395	72.81
456.616	85.81
456.836	92.81
457.056	88.81
457.276	94.81
457.497	89.81
457.717	92.81
457.937	82.81
458.157	76.81
458.377	81.81
458.598	111.81
458.818	146.81
459.038	160.81
459.258	124.81
459.478	95.81
459.698	92.81
459.918	86.81
460.138	86.81
460.358	87.81
460.578	88.81
460.798	91.81
461.018	72.81
461.238	89.81
461.458	83.81
461.678	90.81
461.898	90.81
462.118	76.81
462.338	94.81
462.558	85.81
462.777	91.81
462.997	93.81
463.217	85.81
463.437	91.81
463.657	92.81
463.876	98.81
464.096	81.81
464.316	93.81
464.536	91.81
464.755	74.81
464.975	105.81
465.195	160.81
465.414	152.81
465.634	101.81
465.854	91.81
466.073	88.81
466.293	92.81
466.512	104.81
466.732	95.81
466.951	88.81
467.171	104.81
467.391	89.81
467.61	92.81
467.829	93.81
468.049	93.81
468.268	99.81
468.488	99.81
468.707	85.81
468.927	80.81
469.146	79.81
469.365	91.81
469.585	82.81
469.804	86.81
470.023	82.81
470.243	100.81
470.462	90.81
470.681	101.81
470.901	84.81
471.12	86.81
471.339	96.81
471.558	85.81
471.777	81.81
471.997	90.81
472.216	91.81
472.435	82.81
472.654	88.81
472.873	89.81
473.092	97.81
473.311	85.81
473.53	97.81
473.749	94.81
473.968	92.81
474.187	104.81
474.406	106.81
474.625	82.81
474.844	92.81
475.063	90.81
475.282	88.81
475.501	71.81
475.72	103.81
475.939	96.81
476.158	83.81
476.377	86.81
476.596	84.81
476.814	92.81
477.033	91.81
477.252	79.81
477.471	77.81
477.69	87.81
477.908	81.81
478.127	104.81
478.346	104.81
478.564	102.81
478.783	77.81
479.002	88.81
479.22	89.81
479.439	97.81
479.658	103.81
479.876	97.81
480.095	81.81
480.313	90.81
480.532	93.81
480.751	102.81
480.969	77.81
481.188	95.81
481.406	99.81
481.624	100.81
481.843	90.81
482.061	95.81
482.28	86.81
482.498	95.81
482.717	98.81
482.935	83.81
483.153	86.81
483.372	95.81
483.59	82.81
483.808	91.81
484.027	96.81
484.245	94.81
484.463	80.81
484.681	116.81
484.9	95.81
485.118	81.81
485.336	98.81
485.554	99.81
485.772	105.81
485.99	101.81
486.209	101.81
486.427	104.81
486.645	109.81
486.863	105.81
487.081	98.81
487.299	101.81
487.517	112.81
487.735	82.81
487.953	86.81
488.171	84.81
488.389	95.81
488.607	105.81
488.825	93.81
489.043	98.81
489.261	111.81
489.479	84.81
489.696	98.81
489.914	92.81
490.132	92.81
490.35	89.81
490.568	94.81
490.786	85.81
491.003	81.81
491.221	92.81
491.439	95.81
491.657	80.81
491.874	93.81
492.092	83.81
492.31	90.81
492.527	114.81
492.745	97.81
492.963	101.81
493.18	84.81
493.398	92.81
493.615	98.81
493.833	87.81
494.05	83.81
494.268	88.81
494.485	89.81
494.703	85.81
494.92	97.81
495.138	85.81
495.355	76.81
495.573	92.81
495.79	72.81
496.008	86.81
496.225	89.81
496.442	91.81
496.66	97.81
496.877	108.81
497.094	104.81
497.312	96.81
497.529	89.81
497.746	89.81
497.963	104.81
498.181	98.81
498.398	100.81
498.615	115.81
498.832	106.81
499.049	106.81
499.267	93.81
499.484	92.81
499.701	82.81
499.918	79.81
500.135	84.81
500.352	104.81
500.569	93.81
500.786	104.81
501.003	94.81
501.22	93.81
501.437	87.81
501.654	96.81
501.871	95.81
502.088	68.81
502.305	86.81
502.522	91.81
502.739	100.81
502.956	87.81
503.172	99.81
503.389	100.81
503.606	98.81
503.823	97.81
504.04	98.81
504.256	108.81
504.473	80.81
504.69	78.81
504.907	97.81
505.123	81.81
505.34	84.81
505.557	94.81
505.773	96.81
505.99	78.81
506.207	102.81
506.423	79.81
506.64	85.81
506.856	95.81
507.073	86.81
507.289	100.81
507.506	106.81
507.722	104.81
507.939	105.81
508.155	93.81
508.372	88.81
508.588	99.81
508.805	90.81
509.021	98.81
509.238	90.81
509.454	96.81
509.67	110.81
509.887	110.81
510.103	130.81
510.319	214.81
510.536	743.81
510.752	2365.81
510.968	681.81
511.184	161.81
511.401	122.81
511.617	97.81
511.833	93.81
512.049	91.81
512.265	86.81
512.481	96.81
512.698	95.81
512.914	90.81
513.13	96.81
513.346	95.81
513.562	96.81
513.778	86.81
513.994	107.81
514.21	101.81
514.426	121.81
514.642	131.81
514.858	129.81
515.074	158.81
515.29	435.81
515.506	1482.81
515.721	556.81
