Data from Uncirc_2007_H10_HRD10591_00051.txt Node
Date: Wed Jan 03 10:20:52 EST 2024
User: Yrep
Spectrometer: HR+D1059
Trigger mode: 1
Integration Time (sec): 1.000000E-1
Scans to average: 1
Electric dark correction enabled: true
Nonlinearity correction enabled: false
Boxcar width: 0
XAxis mode: Wavelengths
Number of Pixels in Spectrum: 2048
>>>>>Begin Spectral Data<<<<<
223.165	-13.62
223.4	-13.62
223.635	-13.62
223.869	-20.62
224.104	-13.62
224.338	-13.62
224.573	-15.62
224.808	-13.62
225.042	-17.62
225.277	6.38
225.511	1.38
225.746	-2.62
225.98	2.38
226.215	12.38
226.449	15.38
226.683	15.38
226.918	22.38
227.152	35.38
227.387	31.38
227.621	34.38
227.856	41.38
228.09	60.38
228.324	46.38
228.559	62.38
228.793	51.38
229.027	61.38
229.262	73.38
229.496	70.38
229.73	84.38
229.964	83.38
230.199	70.38
230.433	71.38
230.667	72.38
230.901	74.38
231.136	84.38
231.37	78.38
231.604	83.38
231.838	66.38
232.072	82.38
232.306	66.38
232.541	84.38
232.775	74.38
233.009	88.38
233.243	80.38
233.477	67.38
233.711	76.38
233.945	77.38
234.179	74.38
234.413	77.38
234.647	81.38
234.881	90.38
235.115	79.38
235.349	79.38
235.583	92.38
235.817	80.38
236.051	66.38
236.285	91.38
236.519	87.38
236.753	81.38
236.987	75.38
237.221	68.38
237.455	91.38
237.689	81.38
237.922	89.38
238.156	80.38
238.39	60.38
238.624	67.38
238.858	84.38
239.091	66.38
239.325	82.38
239.559	81.38
239.793	77.38
240.027	81.38
240.26	85.38
240.494	68.38
240.728	72.38
240.961	66.38
241.195	67.38
241.429	80.38
241.662	76.38
241.896	83.38
242.13	78.38
242.363	62.38
242.597	74.38
242.83	71.38
243.064	91.38
243.298	64.38
243.531	71.38
243.765	82.38
243.998	76.38
244.232	79.38
244.465	89.38
244.699	79.38
244.932	79.38
245.166	84.38
245.399	80.38
245.633	81.38
245.866	60.38
246.099	86.38
246.333	65.38
246.566	64.38
246.8	72.38
247.033	70.38
247.266	80.38
247.5	74.38
247.733	77.38
247.966	86.38
248.2	92.38
248.433	78.38
248.666	78.38
248.899	71.38
249.133	73.38
249.366	88.38
249.599	105.38
249.832	75.38
250.066	82.38
250.299	79.38
250.532	65.38
250.765	82.38
250.998	79.38
251.231	64.38
251.465	76.38
251.698	83.38
251.931	70.38
252.164	83.38
252.397	89.38
252.63	86.38
252.863	92.38
253.096	95.38
253.329	78.38
253.562	82.38
253.795	96.38
254.028	79.38
254.261	79.38
254.494	83.38
254.727	84.38
254.96	73.38
255.193	80.38
255.426	82.38
255.659	82.38
255.892	87.38
256.124	79.38
256.357	83.38
256.59	88.38
256.823	85.38
257.056	76.38
257.289	79.38
257.521	81.38
257.754	75.38
257.987	83.38
258.22	92.38
258.452	84.38
258.685	78.38
258.918	87.38
259.151	88.38
259.383	90.38
259.616	75.38
259.849	71.38
260.081	89.38
260.314	91.38
260.547	86.38
260.779	70.38
261.012	90.38
261.244	85.38
261.477	81.38
261.71	90.38
261.942	92.38
262.175	121.38
262.407	88.38
262.64	77.38
262.872	73.38
263.105	72.38
263.337	83.38
263.57	88.38
263.802	70.38
264.035	81.38
264.267	81.38
264.499	90.38
264.732	83.38
264.964	83.38
265.197	71.38
265.429	69.38
265.661	84.38
265.894	86.38
266.126	80.38
266.358	83.38
266.591	77.38
266.823	97.38
267.055	86.38
267.287	75.38
267.52	84.38
267.752	84.38
267.984	79.38
268.216	69.38
268.448	77.38
268.681	87.38
268.913	81.38
269.145	84.38
269.377	88.38
269.609	84.38
269.841	79.38
270.073	84.38
270.306	84.38
270.538	74.38
270.77	79.38
271.002	85.38
271.234	88.38
271.466	96.38
271.698	90.38
271.93	87.38
272.162	82.38
272.394	87.38
272.626	91.38
272.858	81.38
273.09	91.38
273.322	82.38
273.553	88.38
273.785	76.38
274.017	76.38
274.249	98.38
274.481	76.38
274.713	81.38
274.945	87.38
275.176	80.38
275.408	91.38
275.64	91.38
275.872	87.38
276.104	77.38
276.335	95.38
276.567	103.38
276.799	110.38
277.031	87.38
277.262	88.38
277.494	81.38
277.726	87.38
277.957	72.38
278.189	89.38
278.421	85.38
278.652	95.38
278.884	76.38
279.115	86.38
279.347	86.38
279.579	76.38
279.81	80.38
280.042	82.38
280.273	99.38
280.505	78.38
280.736	85.38
280.968	92.38
281.199	87.38
281.431	79.38
281.662	89.38
281.894	69.38
282.125	96.38
282.356	116.38
282.588	140.38
282.819	100.38
283.051	77.38
283.282	73.38
283.513	78.38
283.745	75.38
283.976	67.38
284.207	98.38
284.439	81.38
284.67	76.38
284.901	77.38
285.132	83.38
285.364	82.38
285.595	83.38
285.826	91.38
286.057	102.38
286.288	74.38
286.52	81.38
286.751	80.38
286.982	87.38
287.213	86.38
287.444	83.38
287.675	75.38
287.906	93.38
288.138	90.38
288.369	99.38
288.6	98.38
288.831	80.38
289.062	88.38
289.293	73.38
289.524	70.38
289.755	84.38
289.986	87.38
290.217	73.38
290.448	75.38
290.679	84.38
290.91	83.38
291.141	95.38
291.371	89.38
291.602	86.38
291.833	90.38
292.064	75.38
292.295	82.38
292.526	88.38
292.757	81.38
292.987	76.38
293.218	74.38
293.449	80.38
293.68	79.38
293.91	80.38
294.141	81.38
294.372	84.38
294.603	81.38
294.833	90.38
295.064	87.38
295.295	78.38
295.525	94.38
295.756	103.38
295.987	105.38
296.217	144.38
296.448	114.38
296.679	80.38
296.909	84.38
297.14	87.38
297.37	89.38
297.601	76.38
297.831	90.38
298.062	88.38
298.292	90.38
298.523	85.38
298.753	86.38
298.984	85.38
299.214	89.38
299.445	97.38
299.675	94.38
299.905	89.38
300.136	104.38
300.366	86.38
300.597	96.38
300.827	89.38
301.057	95.38
301.288	92.38
301.518	86.38
301.748	77.38
301.979	107.38
302.209	90.38
302.439	88.38
302.669	97.38
302.9	82.38
303.13	86.38
303.36	87.38
303.59	93.38
303.82	108.38
304.051	92.38
304.281	92.38
304.511	71.38
304.741	87.38
304.971	88.38
305.201	75.38
305.431	86.38
305.661	86.38
305.891	85.38
306.121	92.38
306.352	103.38
306.582	92.38
306.812	86.38
307.042	89.38
307.272	83.38
307.502	97.38
307.731	92.38
307.961	101.38
308.191	103.38
308.421	91.38
308.651	103.38
308.881	97.38
309.111	91.38
309.341	73.38
309.571	92.38
309.8	83.38
310.03	109.38
310.26	82.38
310.49	79.38
310.72	100.38
310.949	97.38
311.179	101.38
311.409	93.38
311.639	94.38
311.868	89.38
312.098	88.38
312.328	94.38
312.557	102.38
312.787	94.38
313.017	103.38
313.246	88.38
313.476	93.38
313.706	98.38
313.935	92.38
314.165	81.38
314.394	92.38
314.624	78.38
314.853	86.38
315.083	90.38
315.312	92.38
315.542	88.38
315.771	96.38
316.001	86.38
316.23	93.38
316.46	93.38
316.689	96.38
316.919	94.38
317.148	78.38
317.377	103.38
317.607	101.38
317.836	93.38
318.065	93.38
318.295	81.38
318.524	85.38
318.753	97.38
318.983	94.38
319.212	81.38
319.441	96.38
319.67	104.38
319.9	101.38
320.129	92.38
320.358	87.38
320.587	94.38
320.816	83.38
321.046	101.38
321.275	104.38
321.504	95.38
321.733	87.38
321.962	92.38
322.191	112.38
322.42	121.38
322.649	100.38
322.878	116.38
323.108	110.38
323.337	122.38
323.566	135.38
323.795	154.38
324.024	231.38
324.253	431.38
324.482	918.38
324.71	1928.38
324.939	2505.38
325.168	901.38
325.397	271.38
325.626	149.38
325.855	113.38
326.084	117.38
326.313	127.38
326.542	161.38
326.77	258.38
326.999	514.38
327.228	1077.38
327.457	1952.38
327.686	1550.38
327.914	384.38
328.143	206.38
328.372	152.38
328.6	138.38
328.829	96.38
329.058	120.38
329.287	135.38
329.515	120.38
329.744	103.38
329.972	104.38
330.201	102.38
330.43	96.38
330.658	122.38
330.887	121.38
331.115	126.38
331.344	100.38
331.572	114.38
331.801	105.38
332.03	102.38
332.258	107.38
332.486	84.38
332.715	83.38
332.943	93.38
333.172	92.38
333.4	99.38
333.629	99.38
333.857	121.38
334.085	98.38
334.314	87.38
334.542	93.38
334.771	96.38
334.999	87.38
335.227	101.38
335.455	95.38
335.684	92.38
335.912	102.38
336.14	98.38
336.369	87.38
336.597	98.38
336.825	93.38
337.053	91.38
337.281	90.38
337.51	77.38
337.738	94.38
337.966	92.38
338.194	96.38
338.422	88.38
338.65	92.38
338.878	98.38
339.106	90.38
339.334	81.38
339.562	90.38
339.79	92.38
340.018	104.38
340.246	87.38
340.474	92.38
340.702	97.38
340.93	74.38
341.158	80.38
341.386	88.38
341.614	102.38
341.842	106.38
342.07	94.38
342.298	105.38
342.526	91.38
342.754	93.38
342.981	86.38
343.209	76.38
343.437	104.38
343.665	101.38
343.893	80.38
344.12	95.38
344.348	84.38
344.576	70.38
344.804	92.38
345.031	102.38
345.259	76.38
345.487	82.38
345.714	92.38
345.942	88.38
346.17	92.38
346.397	103.38
346.625	75.38
346.853	83.38
347.08	92.38
347.308	91.38
347.535	107.38
347.763	91.38
347.99	94.38
348.218	94.38
348.445	103.38
348.673	98.38
348.9	80.38
349.128	106.38
349.355	81.38
349.583	82.38
349.81	103.38
350.037	91.38
350.265	88.38
350.492	90.38
350.72	94.38
350.947	103.38
351.174	104.38
351.402	106.38
351.629	95.38
351.856	101.38
352.083	112.38
352.311	117.38
352.538	102.38
352.765	88.38
352.992	91.38
353.22	109.38
353.447	108.38
353.674	95.38
353.901	103.38
354.128	103.38
354.355	94.38
354.583	93.38
354.81	92.38
355.037	91.38
355.264	103.38
355.491	83.38
355.718	100.38
355.945	95.38
356.172	99.38
356.399	87.38
356.626	84.38
356.853	84.38
357.08	80.38
357.307	94.38
357.534	100.38
357.761	88.38
357.988	83.38
358.215	117.38
358.441	86.38
358.668	98.38
358.895	94.38
359.122	87.38
359.349	84.38
359.576	104.38
359.802	106.38
360.029	107.38
360.256	103.38
360.483	79.38
360.709	96.38
360.936	83.38
361.163	83.38
361.39	97.38
361.616	97.38
361.843	81.38
362.07	74.38
362.296	95.38
362.523	83.38
362.749	101.38
362.976	99.38
363.203	97.38
363.429	78.38
363.656	98.38
363.882	85.38
364.109	88.38
364.335	94.38
364.562	79.38
364.788	81.38
365.015	94.38
365.241	101.38
365.468	98.38
365.694	104.38
365.92	97.38
366.147	79.38
366.373	86.38
366.599	93.38
366.826	99.38
367.052	82.38
367.278	95.38
367.505	93.38
367.731	85.38
367.957	89.38
368.184	76.38
368.41	97.38
368.636	93.38
368.862	95.38
369.089	99.38
369.315	94.38
369.541	86.38
369.767	92.38
369.993	90.38
370.219	92.38
370.445	80.38
370.672	88.38
370.898	76.38
371.124	78.38
371.35	91.38
371.576	87.38
371.802	83.38
372.028	91.38
372.254	96.38
372.48	82.38
372.706	88.38
372.932	87.38
373.158	82.38
373.384	97.38
373.61	104.38
373.835	88.38
374.061	87.38
374.287	88.38
374.513	99.38
374.739	95.38
374.965	89.38
375.191	101.38
375.416	88.38
375.642	93.38
375.868	89.38
376.094	97.38
376.319	83.38
376.545	94.38
376.771	92.38
376.997	84.38
377.222	89.38
377.448	88.38
377.674	83.38
377.899	68.38
378.125	103.38
378.35	96.38
378.576	82.38
378.802	86.38
379.027	87.38
379.253	94.38
379.478	99.38
379.704	80.38
379.929	76.38
380.155	95.38
380.38	89.38
380.606	83.38
380.831	90.38
381.057	95.38
381.282	105.38
381.507	106.38
381.733	92.38
381.958	93.38
382.184	96.38
382.409	96.38
382.634	107.38
382.86	91.38
383.085	85.38
383.31	111.38
383.535	107.38
383.761	97.38
383.986	96.38
384.211	76.38
384.436	108.38
384.662	97.38
384.887	110.38
385.112	97.38
385.337	93.38
385.562	100.38
385.787	98.38
386.013	113.38
386.238	113.38
386.463	119.38
386.688	94.38
386.913	91.38
387.138	110.38
387.363	102.38
387.588	86.38
387.813	98.38
388.038	96.38
388.263	112.38
388.488	115.38
388.713	100.38
388.938	103.38
389.163	99.38
389.387	97.38
389.612	77.38
389.837	104.38
390.062	115.38
390.287	91.38
390.512	83.38
390.736	98.38
390.961	101.38
391.186	84.38
391.411	92.38
391.636	89.38
391.86	95.38
392.085	95.38
392.31	75.38
392.534	94.38
392.759	95.38
392.984	87.38
393.208	83.38
393.433	90.38
393.658	83.38
393.882	84.38
394.107	82.38
394.331	82.38
394.556	68.38
394.78	83.38
395.005	95.38
395.229	80.38
395.454	88.38
395.678	80.38
395.903	79.38
396.127	88.38
396.352	90.38
396.576	94.38
396.801	82.38
397.025	96.38
397.249	95.38
397.474	92.38
397.698	84.38
397.922	94.38
398.147	75.38
398.371	76.38
398.595	76.38
398.82	96.38
399.044	84.38
399.268	78.38
399.492	96.38
399.717	82.38
399.941	94.38
400.165	113.38
400.389	90.38
400.613	92.38
400.837	80.38
401.062	102.38
401.286	93.38
401.51	91.38
401.734	94.38
401.958	99.38
402.182	128.38
402.406	170.38
402.63	132.38
402.854	116.38
403.078	95.38
403.302	80.38
403.526	100.38
403.75	89.38
403.974	101.38
404.198	80.38
404.422	96.38
404.645	90.38
404.869	92.38
405.093	100.38
405.317	98.38
405.541	93.38
405.765	86.38
405.988	124.38
406.212	156.38
406.436	223.38
406.66	159.38
406.883	106.38
407.107	99.38
407.331	94.38
407.555	97.38
407.778	90.38
408.002	90.38
408.226	81.38
408.449	86.38
408.673	86.38
408.896	90.38
409.12	104.38
409.344	81.38
409.567	78.38
409.791	91.38
410.014	99.38
410.238	96.38
410.461	85.38
410.685	102.38
410.908	95.38
411.132	95.38
411.355	102.38
411.578	94.38
411.802	87.38
412.025	92.38
412.249	93.38
412.472	99.38
412.695	94.38
412.919	95.38
413.142	84.38
413.365	89.38
413.589	94.38
413.812	96.38
414.035	88.38
414.258	72.38
414.482	83.38
414.705	83.38
414.928	90.38
415.151	95.38
415.374	91.38
415.597	90.38
415.821	75.38
416.044	81.38
416.267	91.38
416.49	84.38
416.713	91.38
416.936	88.38
417.159	84.38
417.382	78.38
417.605	99.38
417.828	88.38
418.051	83.38
418.274	87.38
418.497	75.38
418.72	88.38
418.943	84.38
419.166	95.38
419.389	87.38
419.611	83.38
419.834	83.38
420.057	92.38
420.28	89.38
420.503	72.38
420.726	84.38
420.948	88.38
421.171	99.38
421.394	83.38
421.617	110.38
421.839	79.38
422.062	80.38
422.285	93.38
422.507	86.38
422.73	95.38
422.953	92.38
423.175	96.38
423.398	83.38
423.621	94.38
423.843	89.38
424.066	78.38
424.288	88.38
424.511	77.38
424.733	96.38
424.956	101.38
425.178	88.38
425.401	96.38
425.623	86.38
425.846	88.38
426.068	92.38
426.291	89.38
426.513	96.38
426.735	88.38
426.958	94.38
427.18	113.38
427.402	132.38
427.625	162.38
427.847	115.38
428.069	101.38
428.292	87.38
428.514	94.38
428.736	89.38
428.958	95.38
429.181	79.38
429.403	87.38
429.625	88.38
429.847	94.38
430.069	89.38
430.292	94.38
430.514	81.38
430.736	91.38
430.958	93.38
431.18	95.38
431.402	65.38
431.624	70.38
431.846	71.38
432.068	78.38
432.29	94.38
432.512	86.38
432.734	83.38
432.956	96.38
433.178	108.38
433.4	94.38
433.622	102.38
433.844	81.38
434.066	98.38
434.287	93.38
434.509	86.38
434.731	81.38
434.953	88.38
435.175	95.38
435.397	94.38
435.618	80.38
435.84	107.38
436.062	125.38
436.284	109.38
436.505	118.38
436.727	109.38
436.949	97.38
437.17	85.38
437.392	93.38
437.614	87.38
437.835	115.38
438.057	119.38
438.278	104.38
438.5	96.38
438.721	127.38
438.943	89.38
439.165	87.38
439.386	88.38
439.608	82.38
439.829	114.38
440.05	113.38
440.272	133.38
440.493	106.38
440.715	88.38
440.936	80.38
441.158	93.38
441.379	100.38
441.6	94.38
441.822	103.38
442.043	83.38
442.264	104.38
442.486	104.38
442.707	97.38
442.928	97.38
443.149	121.38
443.371	141.38
443.592	116.38
443.813	112.38
444.034	121.38
444.255	102.38
444.476	80.38
444.698	91.38
444.919	88.38
445.14	136.38
445.361	127.38
445.582	106.38
445.803	136.38
446.024	149.38
446.245	148.38
446.466	120.38
446.687	79.38
446.908	92.38
447.129	92.38
447.35	87.38
447.571	84.38
447.792	92.38
448.013	89.38
448.234	112.38
448.455	102.38
448.675	111.38
448.896	122.38
449.117	101.38
449.338	99.38
449.559	134.38
449.779	144.38
450	92.38
450.221	91.38
450.442	94.38
450.662	81.38
450.883	106.38
451.104	103.38
451.324	90.38
451.545	78.38
451.766	87.38
451.986	84.38
452.207	87.38
452.428	98.38
452.648	89.38
452.869	105.38
453.089	99.38
453.31	119.38
453.53	96.38
453.751	106.38
453.971	108.38
454.192	113.38
454.412	89.38
454.633	83.38
454.853	74.38
455.073	92.38
455.294	94.38
455.514	92.38
455.734	89.38
455.955	74.38
456.175	90.38
456.395	87.38
456.616	85.38
456.836	92.38
457.056	89.38
457.276	84.38
457.497	95.38
457.717	85.38
457.937	90.38
458.157	90.38
458.377	82.38
458.598	120.38
458.818	150.38
459.038	175.38
459.258	109.38
459.478	90.38
459.698	96.38
459.918	94.38
460.138	79.38
460.358	95.38
460.578	73.38
460.798	75.38
461.018	91.38
461.238	97.38
461.458	84.38
461.678	73.38
461.898	80.38
462.118	82.38
462.338	92.38
462.558	74.38
462.777	78.38
462.997	82.38
463.217	84.38
463.437	84.38
463.657	99.38
463.876	69.38
464.096	95.38
464.316	90.38
464.536	94.38
464.755	99.38
464.975	107.38
465.195	186.38
465.414	147.38
465.634	93.38
465.854	85.38
466.073	76.38
466.293	74.38
466.512	87.38
466.732	100.38
466.951	74.38
467.171	99.38
467.391	91.38
467.61	96.38
467.829	100.38
468.049	106.38
468.268	89.38
468.488	95.38
468.707	89.38
468.927	92.38
469.146	72.38
469.365	79.38
469.585	87.38
469.804	93.38
470.023	84.38
470.243	82.38
470.462	101.38
470.681	102.38
470.901	96.38
471.12	96.38
471.339	76.38
471.558	105.38
471.777	90.38
471.997	80.38
472.216	102.38
472.435	80.38
472.654	86.38
472.873	80.38
473.092	88.38
473.311	78.38
473.53	88.38
473.749	93.38
473.968	105.38
474.187	106.38
474.406	100.38
474.625	99.38
474.844	89.38
475.063	82.38
475.282	87.38
475.501	67.38
475.72	96.38
475.939	89.38
476.158	92.38
476.377	88.38
476.596	90.38
476.814	100.38
477.033	89.38
477.252	87.38
477.471	83.38
477.69	87.38
477.908	86.38
478.127	91.38
478.346	82.38
478.564	96.38
478.783	81.38
479.002	89.38
479.22	97.38
479.439	92.38
479.658	86.38
479.876	93.38
480.095	77.38
480.313	83.38
480.532	89.38
480.751	87.38
480.969	80.38
481.188	76.38
481.406	86.38
481.624	89.38
481.843	98.38
482.061	89.38
482.28	88.38
482.498	103.38
482.717	87.38
482.935	99.38
483.153	87.38
483.372	89.38
483.59	98.38
483.808	91.38
484.027	91.38
484.245	101.38
484.463	99.38
484.681	80.38
484.9	90.38
485.118	92.38
485.336	92.38
485.554	85.38
485.772	90.38
485.99	97.38
486.209	99.38
486.427	115.38
486.645	104.38
486.863	120.38
487.081	102.38
487.299	86.38
487.517	88.38
487.735	98.38
487.953	98.38
488.171	90.38
488.389	99.38
488.607	104.38
488.825	98.38
489.043	76.38
489.261	91.38
489.479	84.38
489.696	92.38
489.914	97.38
490.132	88.38
490.35	89.38
490.568	82.38
490.786	101.38
491.003	89.38
491.221	95.38
491.439	89.38
491.657	78.38
491.874	102.38
492.092	97.38
492.31	94.38
492.527	97.38
492.745	83.38
492.963	85.38
493.18	82.38
493.398	89.38
493.615	104.38
493.833	87.38
494.05	102.38
494.268	79.38
494.485	87.38
494.703	91.38
494.92	82.38
495.138	105.38
495.355	94.38
495.573	92.38
495.79	88.38
496.008	76.38
496.225	83.38
496.442	89.38
496.66	98.38
496.877	80.38
497.094	88.38
497.312	93.38
497.529	88.38
497.746	84.38
497.963	76.38
498.181	94.38
498.398	91.38
498.615	103.38
498.832	103.38
499.049	90.38
499.267	85.38
499.484	79.38
499.701	77.38
499.918	98.38
500.135	87.38
500.352	92.38
500.569	95.38
500.786	82.38
501.003	67.38
501.22	88.38
501.437	90.38
501.654	110.38
501.871	111.38
502.088	91.38
502.305	94.38
502.522	97.38
502.739	100.38
502.956	97.38
503.172	99.38
503.389	95.38
503.606	95.38
503.823	99.38
504.04	97.38
504.256	93.38
504.473	94.38
504.69	90.38
504.907	78.38
505.123	88.38
505.34	90.38
505.557	93.38
505.773	88.38
505.99	99.38
506.207	76.38
506.423	96.38
506.64	88.38
506.856	90.38
507.073	72.38
507.289	103.38
507.506	92.38
507.722	115.38
507.939	107.38
508.155	96.38
508.372	99.38
508.588	87.38
508.805	88.38
509.021	93.38
509.238	98.38
509.454	89.38
509.67	91.38
509.887	99.38
510.103	133.38
510.319	224.38
510.536	768.38
510.752	2458.38
510.968	728.38
511.184	162.38
511.401	102.38
511.617	112.38
511.833	85.38
512.049	97.38
512.265	104.38
512.481	104.38
512.698	84.38
512.914	87.38
513.13	98.38
513.346	86.38
513.562	98.38
513.778	112.38
513.994	101.38
514.21	94.38
514.426	121.38
514.642	138.38
514.858	134.38
515.074	177.38
515.29	473.38
515.506	1593.38
515.721	558.38
515.937	162.38
516.153	112.38
516.369	107.38
