Data from Uncirc_2007_H10_HRD10591_00062.txt Node
Date: Wed Jan 03 10:20:55 EST 2024
User: Yrep
Spectrometer: HR+D1059
Trigger mode: 1
Integration Time (sec): 1.000000E-1
Scans to average: 1
Electric dark correction enabled: true
Nonlinearity correction enabled: false
Boxcar width: 0
XAxis mode: Wavelengths
Number of Pixels in Spectrum: 2048
>>>>>Begin Spectral Data<<<<<
223.165	-12.5
223.4	-12.5
223.635	-12.5
223.869	-28.5
224.104	-7.5
224.338	-14.5
224.573	-17.5
224.808	-5.5
225.042	3.5
225.277	-7.5
225.511	-4.5
225.746	5.5
225.98	3.5
226.215	10.5
226.449	4.5
226.683	31.5
226.918	6.5
227.152	32.5
227.387	35.5
227.621	34.5
227.856	51.5
228.09	43.5
228.324	60.5
228.559	51.5
228.793	57.5
229.027	59.5
229.262	69.5
229.496	61.5
229.73	78.5
229.964	82.5
230.199	74.5
230.433	80.5
230.667	73.5
230.901	81.5
231.136	82.5
231.37	77.5
231.604	85.5
231.838	85.5
232.072	77.5
232.306	82.5
232.541	76.5
232.775	75.5
233.009	87.5
233.243	78.5
233.477	90.5
233.711	99.5
233.945	77.5
234.179	73.5
234.413	82.5
234.647	81.5
234.881	65.5
235.115	82.5
235.349	88.5
235.583	82.5
235.817	67.5
236.051	61.5
236.285	84.5
236.519	76.5
236.753	89.5
236.987	91.5
237.221	81.5
237.455	80.5
237.689	79.5
237.922	79.5
238.156	74.5
238.39	72.5
238.624	69.5
238.858	81.5
239.091	72.5
239.325	76.5
239.559	86.5
239.793	78.5
240.027	74.5
240.26	76.5
240.494	72.5
240.728	76.5
240.961	76.5
241.195	85.5
241.429	90.5
241.662	58.5
241.896	78.5
242.13	75.5
242.363	69.5
242.597	85.5
242.83	78.5
243.064	74.5
243.298	64.5
243.531	73.5
243.765	75.5
243.998	76.5
244.232	80.5
244.465	88.5
244.699	70.5
244.932	61.5
245.166	83.5
245.399	88.5
245.633	79.5
245.866	68.5
246.099	72.5
246.333	78.5
246.566	74.5
246.8	81.5
247.033	65.5
247.266	91.5
247.5	88.5
247.733	77.5
247.966	62.5
248.2	72.5
248.433	75.5
248.666	95.5
248.899	86.5
249.133	75.5
249.366	93.5
249.599	91.5
249.832	87.5
250.066	71.5
250.299	77.5
250.532	78.5
250.765	73.5
250.998	65.5
251.231	70.5
251.465	91.5
251.698	69.5
251.931	80.5
252.164	81.5
252.397	84.5
252.63	70.5
252.863	93.5
253.096	78.5
253.329	74.5
253.562	80.5
253.795	96.5
254.028	78.5
254.261	85.5
254.494	76.5
254.727	65.5
254.96	81.5
255.193	72.5
255.426	80.5
255.659	75.5
255.892	75.5
256.124	88.5
256.357	92.5
256.59	80.5
256.823	82.5
257.056	82.5
257.289	87.5
257.521	85.5
257.754	76.5
257.987	82.5
258.22	80.5
258.452	77.5
258.685	87.5
258.918	72.5
259.151	76.5
259.383	81.5
259.616	80.5
259.849	84.5
260.081	80.5
260.314	80.5
260.547	73.5
260.779	71.5
261.012	83.5
261.244	95.5
261.477	88.5
261.71	109.5
261.942	102.5
262.175	123.5
262.407	78.5
262.64	82.5
262.872	93.5
263.105	87.5
263.337	75.5
263.57	85.5
263.802	89.5
264.035	77.5
264.267	78.5
264.499	81.5
264.732	88.5
264.964	79.5
265.197	70.5
265.429	79.5
265.661	86.5
265.894	77.5
266.126	86.5
266.358	82.5
266.591	79.5
266.823	86.5
267.055	85.5
267.287	89.5
267.52	77.5
267.752	92.5
267.984	79.5
268.216	69.5
268.448	82.5
268.681	71.5
268.913	77.5
269.145	83.5
269.377	94.5
269.609	91.5
269.841	86.5
270.073	103.5
270.306	73.5
270.538	82.5
270.77	79.5
271.002	83.5
271.234	95.5
271.466	80.5
271.698	90.5
271.93	73.5
272.162	76.5
272.394	83.5
272.626	79.5
272.858	85.5
273.09	89.5
273.322	81.5
273.553	89.5
273.785	94.5
274.017	81.5
274.249	88.5
274.481	83.5
274.713	84.5
274.945	92.5
275.176	87.5
275.408	89.5
275.64	74.5
275.872	74.5
276.104	77.5
276.335	89.5
276.567	106.5
276.799	109.5
277.031	106.5
277.262	84.5
277.494	78.5
277.726	91.5
277.957	89.5
278.189	79.5
278.421	81.5
278.652	93.5
278.884	77.5
279.115	81.5
279.347	83.5
279.579	89.5
279.81	90.5
280.042	78.5
280.273	97.5
280.505	86.5
280.736	103.5
280.968	84.5
281.199	82.5
281.431	79.5
281.662	85.5
281.894	83.5
282.125	103.5
282.356	124.5
282.588	135.5
282.819	108.5
283.051	92.5
283.282	88.5
283.513	81.5
283.745	81.5
283.976	69.5
284.207	81.5
284.439	84.5
284.67	75.5
284.901	108.5
285.132	101.5
285.364	87.5
285.595	66.5
285.826	68.5
286.057	86.5
286.288	77.5
286.52	89.5
286.751	83.5
286.982	87.5
287.213	81.5
287.444	75.5
287.675	88.5
287.906	84.5
288.138	84.5
288.369	87.5
288.6	103.5
288.831	101.5
289.062	92.5
289.293	83.5
289.524	91.5
289.755	83.5
289.986	75.5
290.217	79.5
290.448	83.5
290.679	95.5
290.91	91.5
291.141	75.5
291.371	91.5
291.602	92.5
291.833	91.5
292.064	81.5
292.295	83.5
292.526	94.5
292.757	98.5
292.987	83.5
293.218	76.5
293.449	99.5
293.68	79.5
293.91	91.5
294.141	93.5
294.372	92.5
294.603	85.5
294.833	93.5
295.064	80.5
295.295	84.5
295.525	84.5
295.756	99.5
295.987	111.5
296.217	140.5
296.448	111.5
296.679	89.5
296.909	84.5
297.14	87.5
297.37	91.5
297.601	87.5
297.831	83.5
298.062	94.5
298.292	98.5
298.523	87.5
298.753	83.5
298.984	95.5
299.214	90.5
299.445	83.5
299.675	90.5
299.905	92.5
300.136	85.5
300.366	93.5
300.597	91.5
300.827	88.5
301.057	111.5
301.288	100.5
301.518	95.5
301.748	96.5
301.979	106.5
302.209	89.5
302.439	88.5
302.669	104.5
302.9	91.5
303.13	93.5
303.36	90.5
303.59	96.5
303.82	100.5
304.051	100.5
304.281	90.5
304.511	90.5
304.741	94.5
304.971	89.5
305.201	77.5
305.431	98.5
305.661	78.5
305.891	97.5
306.121	92.5
306.352	88.5
306.582	100.5
306.812	103.5
307.042	85.5
307.272	87.5
307.502	91.5
307.731	90.5
307.961	92.5
308.191	85.5
308.421	98.5
308.651	69.5
308.881	83.5
309.111	107.5
309.341	98.5
309.571	93.5
309.8	97.5
310.03	90.5
310.26	93.5
310.49	96.5
310.72	103.5
310.949	100.5
311.179	99.5
311.409	86.5
311.639	100.5
311.868	88.5
312.098	85.5
312.328	105.5
312.557	99.5
312.787	111.5
313.017	90.5
313.246	91.5
313.476	92.5
313.706	102.5
313.935	94.5
314.165	113.5
314.394	95.5
314.624	100.5
314.853	90.5
315.083	80.5
315.312	102.5
315.542	85.5
315.771	94.5
316.001	90.5
316.23	83.5
316.46	88.5
316.689	87.5
316.919	93.5
317.148	99.5
317.377	91.5
317.607	86.5
317.836	79.5
318.065	93.5
318.295	86.5
318.524	84.5
318.753	71.5
318.983	89.5
319.212	109.5
319.441	98.5
319.67	106.5
319.9	80.5
320.129	107.5
320.358	105.5
320.587	101.5
320.816	105.5
321.046	105.5
321.275	97.5
321.504	98.5
321.733	104.5
321.962	86.5
322.191	100.5
322.42	95.5
322.649	113.5
322.878	116.5
323.108	112.5
323.337	112.5
323.566	136.5
323.795	169.5
324.024	214.5
324.253	438.5
324.482	910.5
324.71	1926.5
324.939	2600.5
325.168	907.5
325.397	250.5
325.626	153.5
325.855	143.5
326.084	131.5
326.313	147.5
326.542	153.5
326.77	261.5
326.999	531.5
327.228	1081.5
327.457	1955.5
327.686	1550.5
327.914	409.5
328.143	199.5
328.372	132.5
328.6	129.5
328.829	100.5
329.058	140.5
329.287	107.5
329.515	108.5
329.744	97.5
329.972	110.5
330.201	92.5
330.43	119.5
330.658	130.5
330.887	159.5
331.115	119.5
331.344	105.5
331.572	113.5
331.801	107.5
332.03	105.5
332.258	104.5
332.486	80.5
332.715	84.5
332.943	92.5
333.172	89.5
333.4	87.5
333.629	122.5
333.857	113.5
334.085	93.5
334.314	98.5
334.542	99.5
334.771	99.5
334.999	98.5
335.227	97.5
335.455	99.5
335.684	85.5
335.912	85.5
336.14	79.5
336.369	104.5
336.597	81.5
336.825	108.5
337.053	99.5
337.281	91.5
337.51	94.5
337.738	91.5
337.966	84.5
338.194	75.5
338.422	93.5
338.65	75.5
338.878	92.5
339.106	89.5
339.334	90.5
339.562	107.5
339.79	79.5
340.018	79.5
340.246	89.5
340.474	90.5
340.702	71.5
340.93	89.5
341.158	89.5
341.386	99.5
341.614	96.5
341.842	93.5
342.07	80.5
342.298	104.5
342.526	85.5
342.754	109.5
342.981	90.5
343.209	86.5
343.437	101.5
343.665	89.5
343.893	89.5
344.12	96.5
344.348	103.5
344.576	98.5
344.804	104.5
345.031	90.5
345.259	95.5
345.487	97.5
345.714	77.5
345.942	82.5
346.17	93.5
346.397	90.5
346.625	85.5
346.853	98.5
347.08	85.5
347.308	107.5
347.535	91.5
347.763	89.5
347.99	104.5
348.218	110.5
348.445	97.5
348.673	95.5
348.9	101.5
349.128	96.5
349.355	97.5
349.583	90.5
349.81	91.5
350.037	91.5
350.265	100.5
350.492	82.5
350.72	92.5
350.947	101.5
351.174	104.5
351.402	106.5
351.629	111.5
351.856	93.5
352.083	80.5
352.311	93.5
352.538	111.5
352.765	111.5
352.992	110.5
353.22	108.5
353.447	100.5
353.674	109.5
353.901	104.5
354.128	86.5
354.355	97.5
354.583	88.5
354.81	112.5
355.037	97.5
355.264	93.5
355.491	89.5
355.718	96.5
355.945	100.5
356.172	93.5
356.399	99.5
356.626	83.5
356.853	76.5
357.08	81.5
357.307	90.5
357.534	99.5
357.761	91.5
357.988	93.5
358.215	98.5
358.441	95.5
358.668	98.5
358.895	87.5
359.122	80.5
359.349	81.5
359.576	87.5
359.802	95.5
360.029	90.5
360.256	102.5
360.483	96.5
360.709	84.5
360.936	92.5
361.163	96.5
361.39	88.5
361.616	96.5
361.843	98.5
362.07	86.5
362.296	92.5
362.523	90.5
362.749	87.5
362.976	81.5
363.203	77.5
363.429	98.5
363.656	99.5
363.882	92.5
364.109	95.5
364.335	89.5
364.562	92.5
364.788	96.5
365.015	95.5
365.241	85.5
365.468	108.5
365.694	122.5
365.92	96.5
366.147	88.5
366.373	110.5
366.599	89.5
366.826	92.5
367.052	96.5
367.278	88.5
367.505	107.5
367.731	85.5
367.957	99.5
368.184	98.5
368.41	85.5
368.636	112.5
368.862	119.5
369.089	100.5
369.315	87.5
369.541	91.5
369.767	92.5
369.993	83.5
370.219	92.5
370.445	84.5
370.672	87.5
370.898	96.5
371.124	98.5
371.35	95.5
371.576	90.5
371.802	79.5
372.028	90.5
372.254	75.5
372.48	94.5
372.706	89.5
372.932	87.5
373.158	94.5
373.384	79.5
373.61	90.5
373.835	95.5
374.061	89.5
374.287	75.5
374.513	84.5
374.739	91.5
374.965	76.5
375.191	71.5
375.416	89.5
375.642	86.5
375.868	93.5
376.094	90.5
376.319	81.5
376.545	91.5
376.771	101.5
376.997	75.5
377.222	104.5
377.448	87.5
377.674	80.5
377.899	92.5
378.125	89.5
378.35	86.5
378.576	85.5
378.802	100.5
379.027	80.5
379.253	89.5
379.478	88.5
379.704	96.5
379.929	90.5
380.155	83.5
380.38	89.5
380.606	94.5
380.831	83.5
381.057	109.5
381.282	93.5
381.507	86.5
381.733	101.5
381.958	96.5
382.184	94.5
382.409	98.5
382.634	86.5
382.86	95.5
383.085	99.5
383.31	98.5
383.535	90.5
383.761	91.5
383.986	82.5
384.211	91.5
384.436	94.5
384.662	100.5
384.887	100.5
385.112	97.5
385.337	88.5
385.562	102.5
385.787	109.5
386.013	120.5
386.238	121.5
386.463	97.5
386.688	88.5
386.913	101.5
387.138	100.5
387.363	84.5
387.588	119.5
387.813	101.5
388.038	110.5
388.263	123.5
388.488	107.5
388.713	93.5
388.938	91.5
389.163	90.5
389.387	85.5
389.612	98.5
389.837	98.5
390.062	96.5
390.287	82.5
390.512	86.5
390.736	92.5
390.961	85.5
391.186	91.5
391.411	83.5
391.636	92.5
391.86	97.5
392.085	89.5
392.31	64.5
392.534	90.5
392.759	80.5
392.984	79.5
393.208	91.5
393.433	93.5
393.658	79.5
393.882	92.5
394.107	89.5
394.331	75.5
394.556	71.5
394.78	104.5
395.005	90.5
395.229	87.5
395.454	76.5
395.678	89.5
395.903	88.5
396.127	91.5
396.352	84.5
396.576	92.5
396.801	71.5
397.025	86.5
397.249	78.5
397.474	91.5
397.698	92.5
397.922	99.5
398.147	82.5
398.371	73.5
398.595	92.5
398.82	85.5
399.044	90.5
399.268	81.5
399.492	90.5
399.717	84.5
399.941	84.5
400.165	92.5
400.389	101.5
400.613	90.5
400.837	93.5
401.062	97.5
401.286	96.5
401.51	84.5
401.734	84.5
401.958	88.5
402.182	127.5
402.406	164.5
402.63	104.5
402.854	86.5
403.078	80.5
403.302	77.5
403.526	95.5
403.75	89.5
403.974	95.5
404.198	82.5
404.422	76.5
404.645	85.5
404.869	91.5
405.093	94.5
405.317	97.5
405.541	92.5
405.765	96.5
405.988	129.5
406.212	175.5
406.436	241.5
406.66	172.5
406.883	102.5
407.107	103.5
407.331	94.5
407.555	97.5
407.778	101.5
408.002	92.5
408.226	83.5
408.449	83.5
408.673	89.5
408.896	94.5
409.12	95.5
409.344	95.5
409.567	83.5
409.791	89.5
410.014	98.5
410.238	106.5
410.461	91.5
410.685	98.5
410.908	91.5
411.132	99.5
411.355	78.5
411.578	84.5
411.802	96.5
412.025	85.5
412.249	89.5
412.472	83.5
412.695	68.5
412.919	90.5
413.142	89.5
413.365	97.5
413.589	80.5
413.812	72.5
414.035	81.5
414.258	87.5
414.482	85.5
414.705	83.5
414.928	85.5
415.151	101.5
415.374	98.5
415.597	84.5
415.821	88.5
416.044	86.5
416.267	86.5
416.49	93.5
416.713	95.5
416.936	84.5
417.159	96.5
417.382	91.5
417.605	100.5
417.828	87.5
418.051	85.5
418.274	88.5
418.497	74.5
418.72	96.5
418.943	84.5
419.166	96.5
419.389	93.5
419.611	92.5
419.834	83.5
420.057	84.5
420.28	73.5
420.503	86.5
420.726	89.5
420.948	90.5
421.171	91.5
421.394	98.5
421.617	94.5
421.839	69.5
422.062	96.5
422.285	98.5
422.507	101.5
422.73	99.5
422.953	88.5
423.175	89.5
423.398	84.5
423.621	89.5
423.843	91.5
424.066	72.5
424.288	101.5
424.511	76.5
424.733	91.5
424.956	120.5
425.178	89.5
425.401	107.5
425.623	109.5
425.846	99.5
426.068	95.5
426.291	81.5
426.513	85.5
426.735	95.5
426.958	98.5
427.18	108.5
427.402	137.5
427.625	153.5
427.847	133.5
428.069	106.5
428.292	92.5
428.514	73.5
428.736	85.5
428.958	76.5
429.181	72.5
429.403	77.5
429.625	86.5
429.847	87.5
430.069	80.5
430.292	96.5
430.514	81.5
430.736	83.5
430.958	78.5
431.18	79.5
431.402	85.5
431.624	97.5
431.846	85.5
432.068	91.5
432.29	79.5
432.512	109.5
432.734	82.5
432.956	91.5
433.178	99.5
433.4	106.5
433.622	95.5
433.844	78.5
434.066	79.5
434.287	91.5
434.509	87.5
434.731	91.5
434.953	80.5
435.175	87.5
435.397	87.5
435.618	87.5
435.84	112.5
436.062	125.5
436.284	108.5
436.505	108.5
436.727	97.5
436.949	89.5
437.17	84.5
437.392	93.5
437.614	94.5
437.835	119.5
438.057	115.5
438.278	107.5
438.5	116.5
438.721	135.5
438.943	113.5
439.165	89.5
439.386	89.5
439.608	91.5
439.829	101.5
440.05	135.5
440.272	135.5
440.493	96.5
440.715	76.5
440.936	78.5
441.158	90.5
441.379	79.5
441.6	78.5
441.822	95.5
442.043	87.5
442.264	106.5
442.486	82.5
442.707	85.5
442.928	87.5
443.149	129.5
443.371	135.5
443.592	104.5
443.813	112.5
444.034	114.5
444.255	84.5
444.476	92.5
444.698	82.5
444.919	91.5
445.14	128.5
445.361	114.5
445.582	118.5
445.803	148.5
446.024	137.5
446.245	139.5
446.466	111.5
446.687	73.5
446.908	84.5
447.129	92.5
447.35	101.5
447.571	83.5
447.792	90.5
448.013	97.5
448.234	106.5
448.455	95.5
448.675	108.5
448.896	117.5
449.117	101.5
449.338	115.5
449.559	129.5
449.779	134.5
450	98.5
450.221	94.5
450.442	90.5
450.662	92.5
450.883	102.5
451.104	108.5
451.324	82.5
451.545	85.5
451.766	96.5
451.986	88.5
452.207	106.5
452.428	99.5
452.648	97.5
452.869	112.5
453.089	123.5
453.31	123.5
453.53	109.5
453.751	97.5
453.971	100.5
454.192	104.5
454.412	107.5
454.633	93.5
454.853	89.5
455.073	68.5
455.294	83.5
455.514	106.5
455.734	103.5
455.955	80.5
456.175	84.5
456.395	84.5
456.616	92.5
456.836	90.5
457.056	88.5
457.276	81.5
457.497	81.5
457.717	84.5
457.937	87.5
458.157	83.5
458.377	94.5
458.598	112.5
458.818	152.5
459.038	162.5
459.258	122.5
459.478	91.5
459.698	79.5
459.918	89.5
460.138	87.5
460.358	83.5
460.578	88.5
460.798	104.5
461.018	92.5
461.238	90.5
461.458	91.5
461.678	81.5
461.898	91.5
462.118	80.5
462.338	89.5
462.558	74.5
462.777	80.5
462.997	77.5
463.217	76.5
463.437	80.5
463.657	86.5
463.876	107.5
464.096	92.5
464.316	87.5
464.536	92.5
464.755	105.5
464.975	104.5
465.195	169.5
465.414	159.5
465.634	104.5
465.854	71.5
466.073	91.5
466.293	93.5
466.512	80.5
466.732	80.5
466.951	91.5
467.171	89.5
467.391	111.5
467.61	95.5
467.829	95.5
468.049	96.5
468.268	75.5
468.488	77.5
468.707	90.5
468.927	84.5
469.146	93.5
469.365	94.5
469.585	90.5
469.804	94.5
470.023	98.5
470.243	104.5
470.462	103.5
470.681	119.5
470.901	83.5
471.12	74.5
471.339	81.5
471.558	92.5
471.777	79.5
471.997	75.5
472.216	93.5
472.435	91.5
472.654	83.5
472.873	97.5
473.092	91.5
473.311	94.5
473.53	92.5
473.749	98.5
473.968	94.5
474.187	106.5
474.406	94.5
474.625	90.5
474.844	75.5
475.063	84.5
475.282	80.5
475.501	94.5
475.72	90.5
475.939	86.5
476.158	90.5
476.377	87.5
476.596	84.5
476.814	80.5
477.033	95.5
477.252	93.5
477.471	99.5
477.69	80.5
477.908	87.5
478.127	92.5
478.346	88.5
478.564	91.5
478.783	97.5
479.002	85.5
479.22	92.5
479.439	96.5
479.658	112.5
479.876	89.5
480.095	73.5
480.313	90.5
480.532	90.5
480.751	97.5
480.969	96.5
481.188	94.5
481.406	96.5
481.624	84.5
481.843	93.5
482.061	84.5
482.28	84.5
482.498	92.5
482.717	96.5
482.935	90.5
483.153	82.5
483.372	77.5
483.59	75.5
483.808	89.5
484.027	88.5
484.245	81.5
484.463	94.5
484.681	97.5
484.9	85.5
485.118	107.5
485.336	88.5
485.554	101.5
485.772	103.5
485.99	74.5
486.209	107.5
486.427	91.5
486.645	120.5
486.863	114.5
487.081	93.5
487.299	105.5
487.517	105.5
487.735	95.5
487.953	80.5
488.171	85.5
488.389	84.5
488.607	113.5
488.825	98.5
489.043	81.5
489.261	85.5
489.479	88.5
489.696	110.5
489.914	99.5
490.132	88.5
490.35	85.5
490.568	90.5
490.786	98.5
491.003	92.5
491.221	75.5
491.439	82.5
491.657	83.5
491.874	85.5
492.092	107.5
492.31	92.5
492.527	99.5
492.745	82.5
492.963	90.5
493.18	88.5
493.398	94.5
493.615	97.5
493.833	88.5
494.05	90.5
494.268	94.5
494.485	69.5
494.703	83.5
494.92	95.5
495.138	91.5
495.355	85.5
495.573	92.5
495.79	90.5
496.008	77.5
496.225	97.5
496.442	100.5
496.66	93.5
496.877	92.5
497.094	95.5
497.312	98.5
497.529	99.5
497.746	75.5
497.963	87.5
498.181	79.5
498.398	110.5
498.615	112.5
498.832	100.5
499.049	98.5
499.267	76.5
499.484	89.5
499.701	89.5
499.918	84.5
500.135	91.5
500.352	91.5
500.569	91.5
500.786	82.5
501.003	83.5
501.22	93.5
501.437	93.5
501.654	110.5
501.871	112.5
502.088	91.5
502.305	95.5
502.522	88.5
502.739	87.5
502.956	89.5
503.172	81.5
503.389	101.5
503.606	98.5
503.823	90.5
504.04	96.5
504.256	75.5
504.473	75.5
504.69	77.5
504.907	99.5
505.123	108.5
505.34	88.5
505.557	74.5
505.773	85.5
505.99	99.5
506.207	85.5
506.423	87.5
506.64	104.5
506.856	84.5
507.073	81.5
507.289	89.5
507.506	85.5
507.722	125.5
507.939	110.5
508.155	95.5
508.372	93.5
508.588	77.5
508.805	104.5
509.021	100.5
509.238	103.5
509.454	91.5
509.67	96.5
509.887	103.5
510.103	119.5
510.319	221.5
510.536	787.5
510.752	2644.5
510.968	719.5
511.184	162.5
511.401	109.5
511.617	98.5
511.833	111.5
512.049	98.5
512.265	95.5
512.481	95.5
512.698	104.5
512.914	100.5
513.13	95.5
513.346	91.5
513.562	83.5
513.778	92.5
513.994	93.5
514.21	105.5
514.426	122.5
514.642	131.5
514.858	135.5
515.074	174.5
515.29	508.5
515.506	1635.5
515.721	607.5
515.937	168.5
516.153	111.5
516.369	96.5
516.585	98.5
516.801	98.5
517.016	101.5
517.232	104.5
517.448	85.5
517.664	107.5
517.879	89.5
518.095	95.5
518.311	81.5
518.527	89.5
518.742	96.5
518.958	91.5
519.173	97.5
519.389	85.5
519.605	95.5
519.82	92.5
520.036	100.5
520.251	118.5
520.467	110.5
520.682	95.5
520.898	114.5
521.113	107.5
521.329	143.5
521.544	215.5
521.76	598.5
521.975	2660.5
522.19	1626.5
522.406	333.5
522.621	133.5
522.836	87.5
523.052	110.5
523.267	102.5
523.482	88.5
523.698	92.5
523.913	119.5
524.128	109.5
524.343	95.5
524.559	94.5
524.774	91.5
524.989	98.5
525.204	95.5
525.419	98.5
525.634	93.5
525.849	101.5
526.064	98.5
526.28	99.5
526.495	99.5
526.71	82.5
526.925	84.5
527.14	84.5
527.355	93.5
527.57	86.5
527.785	92.5
527.999	75.5
528.214	101.5
528.429	86.5
528.644	86.5
528.859	89.5
529.074	88.5
529.289	112.5
529.503	178.5
529.718	92.5
529.933	93.5
530.148	97.5
530.363	98.5
530.577	102.5
530.792	101.5
531.007	94.5
531.221	84.5
531.436	77.5
531.651	91.5
531.865	92.5
532.08	76.5
532.295	83.5
532.509	101.5
532.724	98.5
532.938	99.5
533.153	88.5
533.367	87.5
533.582	91.5
533.796	92.5
534.011	94.5
534.225	77.5
534.44	81.5
534.654	108.5
534.868	75.5
535.083	89.5
535.297	87.5
535.511	97.5
535.726	95.5
