Data from Uncirc_2007_H10_HRD10591_00071.txt Node
Date: Wed Jan 03 10:20:56 EST 2024
User: Yrep
Spectrometer: HR+D1059
Trigger mode: 1
Integration Time (sec): 1.000000E-1
Scans to average: 1
Electric dark correction enabled: true
Nonlinearity correction enabled: false
Boxcar width: 0
XAxis mode: Wavelengths
Number of Pixels in Spectrum: 2048
>>>>>Begin Spectral Data<<<<<
223.165	-13.06
223.4	-13.06
223.635	-13.06
223.869	-29.06
224.104	-11.06
224.338	-14.06
224.573	-11.06
224.808	-17.06
225.042	-9.06
225.277	-13.06
225.511	-7.06
225.746	8.94
225.98	17.94
226.215	1.94
226.449	21.94
226.683	24.94
226.918	17.94
227.152	30.94
227.387	19.94
227.621	26.94
227.856	24.94
228.09	46.94
228.324	51.94
228.559	62.94
228.793	47.94
229.027	50.94
229.262	66.94
229.496	66.94
229.73	81.94
229.964	76.94
230.199	66.94
230.433	74.94
230.667	66.94
230.901	73.94
231.136	84.94
231.37	71.94
231.604	84.94
231.838	80.94
232.072	68.94
232.306	76.94
232.541	88.94
232.775	74.94
233.009	77.94
233.243	75.94
233.477	60.94
233.711	69.94
233.945	76.94
234.179	80.94
234.413	62.94
234.647	74.94
234.881	72.94
235.115	68.94
235.349	71.94
235.583	73.94
235.817	83.94
236.051	84.94
236.285	75.94
236.519	69.94
236.753	87.94
236.987	77.94
237.221	79.94
237.455	71.94
237.689	71.94
237.922	65.94
238.156	69.94
238.39	70.94
238.624	74.94
238.858	76.94
239.091	62.94
239.325	75.94
239.559	65.94
239.793	90.94
240.027	79.94
240.26	80.94
240.494	79.94
240.728	89.94
240.961	72.94
241.195	67.94
241.429	68.94
241.662	67.94
241.896	74.94
242.13	66.94
242.363	75.94
242.597	80.94
242.83	62.94
243.064	70.94
243.298	68.94
243.531	76.94
243.765	69.94
243.998	78.94
244.232	69.94
244.465	77.94
244.699	96.94
244.932	79.94
245.166	78.94
245.399	76.94
245.633	90.94
245.866	74.94
246.099	72.94
246.333	79.94
246.566	68.94
246.8	77.94
247.033	75.94
247.266	77.94
247.5	76.94
247.733	79.94
247.966	78.94
248.2	78.94
248.433	76.94
248.666	74.94
248.899	85.94
249.133	74.94
249.366	91.94
249.599	103.94
249.832	81.94
250.066	80.94
250.299	89.94
250.532	78.94
250.765	80.94
250.998	75.94
251.231	75.94
251.465	71.94
251.698	80.94
251.931	75.94
252.164	90.94
252.397	68.94
252.63	79.94
252.863	75.94
253.096	81.94
253.329	84.94
253.562	89.94
253.795	72.94
254.028	89.94
254.261	75.94
254.494	70.94
254.727	86.94
254.96	57.94
255.193	76.94
255.426	65.94
255.659	77.94
255.892	80.94
256.124	79.94
256.357	71.94
256.59	64.94
256.823	62.94
257.056	77.94
257.289	86.94
257.521	76.94
257.754	73.94
257.987	79.94
258.22	89.94
258.452	80.94
258.685	83.94
258.918	80.94
259.151	55.94
259.383	78.94
259.616	71.94
259.849	82.94
260.081	87.94
260.314	90.94
260.547	80.94
260.779	77.94
261.012	62.94
261.244	71.94
261.477	86.94
261.71	94.94
261.942	109.94
262.175	115.94
262.407	97.94
262.64	86.94
262.872	76.94
263.105	90.94
263.337	83.94
263.57	87.94
263.802	79.94
264.035	76.94
264.267	90.94
264.499	86.94
264.732	76.94
264.964	73.94
265.197	64.94
265.429	85.94
265.661	84.94
265.894	79.94
266.126	80.94
266.358	74.94
266.591	76.94
266.823	71.94
267.055	74.94
267.287	72.94
267.52	85.94
267.752	82.94
267.984	81.94
268.216	95.94
268.448	90.94
268.681	74.94
268.913	71.94
269.145	86.94
269.377	79.94
269.609	84.94
269.841	82.94
270.073	83.94
270.306	92.94
270.538	76.94
270.77	84.94
271.002	86.94
271.234	78.94
271.466	86.94
271.698	84.94
271.93	84.94
272.162	87.94
272.394	92.94
272.626	88.94
272.858	87.94
273.09	86.94
273.322	78.94
273.553	71.94
273.785	90.94
274.017	76.94
274.249	85.94
274.481	85.94
274.713	89.94
274.945	74.94
275.176	92.94
275.408	74.94
275.64	87.94
275.872	88.94
276.104	80.94
276.335	88.94
276.567	93.94
276.799	102.94
277.031	99.94
277.262	97.94
277.494	73.94
277.726	74.94
277.957	83.94
278.189	85.94
278.421	75.94
278.652	72.94
278.884	87.94
279.115	87.94
279.347	82.94
279.579	83.94
279.81	80.94
280.042	83.94
280.273	77.94
280.505	80.94
280.736	85.94
280.968	88.94
281.199	90.94
281.431	82.94
281.662	80.94
281.894	88.94
282.125	87.94
282.356	108.94
282.588	134.94
282.819	111.94
283.051	81.94
283.282	83.94
283.513	93.94
283.745	78.94
283.976	84.94
284.207	86.94
284.439	79.94
284.67	101.94
284.901	73.94
285.132	73.94
285.364	74.94
285.595	79.94
285.826	80.94
286.057	89.94
286.288	86.94
286.52	75.94
286.751	77.94
286.982	78.94
287.213	94.94
287.444	88.94
287.675	79.94
287.906	94.94
288.138	74.94
288.369	93.94
288.6	88.94
288.831	89.94
289.062	79.94
289.293	77.94
289.524	84.94
289.755	92.94
289.986	90.94
290.217	79.94
290.448	79.94
290.679	87.94
290.91	88.94
291.141	72.94
291.371	82.94
291.602	75.94
291.833	78.94
292.064	85.94
292.295	94.94
292.526	87.94
292.757	93.94
292.987	78.94
293.218	65.94
293.449	83.94
293.68	92.94
293.91	84.94
294.141	92.94
294.372	85.94
294.603	79.94
294.833	78.94
295.064	75.94
295.295	90.94
295.525	76.94
295.756	86.94
295.987	118.94
296.217	131.94
296.448	118.94
296.679	88.94
296.909	96.94
297.14	82.94
297.37	94.94
297.601	77.94
297.831	82.94
298.062	76.94
298.292	83.94
298.523	82.94
298.753	69.94
298.984	92.94
299.214	80.94
299.445	86.94
299.675	99.94
299.905	97.94
300.136	77.94
300.366	78.94
300.597	92.94
300.827	81.94
301.057	88.94
301.288	98.94
301.518	99.94
301.748	103.94
301.979	86.94
302.209	71.94
302.439	86.94
302.669	86.94
302.9	84.94
303.13	69.94
303.36	95.94
303.59	96.94
303.82	92.94
304.051	86.94
304.281	77.94
304.511	63.94
304.741	80.94
304.971	81.94
305.201	83.94
305.431	86.94
305.661	97.94
305.891	84.94
306.121	97.94
306.352	96.94
306.582	93.94
306.812	96.94
307.042	87.94
307.272	75.94
307.502	80.94
307.731	95.94
307.961	87.94
308.191	74.94
308.421	87.94
308.651	80.94
308.881	90.94
309.111	93.94
309.341	96.94
309.571	95.94
309.8	84.94
310.03	85.94
310.26	85.94
310.49	87.94
310.72	98.94
310.949	98.94
311.179	92.94
311.409	94.94
311.639	94.94
311.868	89.94
312.098	88.94
312.328	101.94
312.557	94.94
312.787	103.94
313.017	101.94
313.246	83.94
313.476	84.94
313.706	79.94
313.935	92.94
314.165	102.94
314.394	91.94
314.624	85.94
314.853	88.94
315.083	75.94
315.312	103.94
315.542	79.94
315.771	81.94
316.001	72.94
316.23	91.94
316.46	83.94
316.689	93.94
316.919	86.94
317.148	77.94
317.377	91.94
317.607	87.94
317.836	97.94
318.065	85.94
318.295	89.94
318.524	84.94
318.753	98.94
318.983	91.94
319.212	88.94
319.441	90.94
319.67	88.94
319.9	75.94
320.129	92.94
320.358	87.94
320.587	96.94
320.816	99.94
321.046	86.94
321.275	84.94
321.504	85.94
321.733	90.94
321.962	103.94
322.191	93.94
322.42	110.94
322.649	107.94
322.878	110.94
323.108	108.94
323.337	121.94
323.566	134.94
323.795	148.94
324.024	207.94
324.253	440.94
324.482	953.94
324.71	1994.94
324.939	2626.94
325.168	954.94
325.397	255.94
325.626	158.94
325.855	119.94
326.084	146.94
326.313	132.94
326.542	173.94
326.77	250.94
326.999	519.94
327.228	1092.94
327.457	2004.94
327.686	1606.94
327.914	428.94
328.143	193.94
328.372	138.94
328.6	140.94
328.829	120.94
329.058	134.94
329.287	119.94
329.515	111.94
329.744	105.94
329.972	96.94
330.201	98.94
330.43	110.94
330.658	118.94
330.887	124.94
331.115	110.94
331.344	94.94
331.572	92.94
331.801	98.94
332.03	91.94
332.258	94.94
332.486	82.94
332.715	87.94
332.943	70.94
333.172	88.94
333.4	98.94
333.629	94.94
333.857	102.94
334.085	89.94
334.314	99.94
334.542	87.94
334.771	96.94
334.999	88.94
335.227	97.94
335.455	95.94
335.684	91.94
335.912	101.94
336.14	82.94
336.369	96.94
336.597	106.94
336.825	80.94
337.053	80.94
337.281	80.94
337.51	98.94
337.738	86.94
337.966	84.94
338.194	101.94
338.422	98.94
338.65	76.94
338.878	96.94
339.106	84.94
339.334	92.94
339.562	84.94
339.79	85.94
340.018	79.94
340.246	76.94
340.474	86.94
340.702	78.94
340.93	75.94
341.158	83.94
341.386	99.94
341.614	98.94
341.842	90.94
342.07	91.94
342.298	88.94
342.526	76.94
342.754	81.94
342.981	68.94
343.209	83.94
343.437	91.94
343.665	99.94
343.893	74.94
344.12	85.94
344.348	68.94
344.576	66.94
344.804	84.94
345.031	89.94
345.259	72.94
345.487	75.94
345.714	85.94
345.942	101.94
346.17	94.94
346.397	97.94
346.625	70.94
346.853	82.94
347.08	66.94
347.308	78.94
347.535	89.94
347.763	95.94
347.99	87.94
348.218	94.94
348.445	103.94
348.673	87.94
348.9	105.94
349.128	91.94
349.355	87.94
349.583	84.94
349.81	83.94
350.037	96.94
350.265	82.94
350.492	94.94
350.72	69.94
350.947	92.94
351.174	107.94
351.402	105.94
351.629	93.94
351.856	88.94
352.083	94.94
352.311	107.94
352.538	88.94
352.765	95.94
352.992	103.94
353.22	99.94
353.447	86.94
353.674	85.94
353.901	87.94
354.128	88.94
354.355	99.94
354.583	91.94
354.81	92.94
355.037	92.94
355.264	102.94
355.491	83.94
355.718	89.94
355.945	88.94
356.172	89.94
356.399	78.94
356.626	98.94
356.853	92.94
357.08	79.94
357.307	86.94
357.534	78.94
357.761	89.94
357.988	83.94
358.215	93.94
358.441	89.94
358.668	78.94
358.895	75.94
359.122	76.94
359.349	80.94
359.576	88.94
359.802	108.94
360.029	108.94
360.256	106.94
360.483	94.94
360.709	89.94
360.936	88.94
361.163	85.94
361.39	99.94
361.616	71.94
361.843	91.94
362.07	85.94
362.296	78.94
362.523	81.94
362.749	85.94
362.976	89.94
363.203	84.94
363.429	77.94
363.656	95.94
363.882	85.94
364.109	71.94
364.335	90.94
364.562	88.94
364.788	88.94
365.015	84.94
365.241	107.94
365.468	102.94
365.694	105.94
365.92	103.94
366.147	81.94
366.373	77.94
366.599	85.94
366.826	84.94
367.052	85.94
367.278	94.94
367.505	76.94
367.731	93.94
367.957	89.94
368.184	90.94
368.41	92.94
368.636	111.94
368.862	111.94
369.089	95.94
369.315	80.94
369.541	91.94
369.767	93.94
369.993	87.94
370.219	91.94
370.445	68.94
370.672	93.94
370.898	84.94
371.124	81.94
371.35	86.94
371.576	97.94
371.802	91.94
372.028	74.94
372.254	66.94
372.48	78.94
372.706	87.94
372.932	86.94
373.158	73.94
373.384	101.94
373.61	76.94
373.835	78.94
374.061	87.94
374.287	69.94
374.513	84.94
374.739	87.94
374.965	88.94
375.191	89.94
375.416	86.94
375.642	102.94
375.868	72.94
376.094	75.94
376.319	94.94
376.545	90.94
376.771	93.94
376.997	87.94
377.222	75.94
377.448	86.94
377.674	100.94
377.899	91.94
378.125	90.94
378.35	88.94
378.576	70.94
378.802	85.94
379.027	88.94
379.253	104.94
379.478	83.94
379.704	89.94
379.929	80.94
380.155	89.94
380.38	86.94
380.606	108.94
380.831	95.94
381.057	102.94
381.282	91.94
381.507	92.94
381.733	88.94
381.958	88.94
382.184	101.94
382.409	88.94
382.634	85.94
382.86	95.94
383.085	89.94
383.31	102.94
383.535	90.94
383.761	71.94
383.986	107.94
384.211	81.94
384.436	96.94
384.662	115.94
384.887	92.94
385.112	106.94
385.337	93.94
385.562	95.94
385.787	84.94
386.013	90.94
386.238	114.94
386.463	106.94
386.688	101.94
386.913	101.94
387.138	86.94
387.363	96.94
387.588	85.94
387.813	95.94
388.038	88.94
388.263	95.94
388.488	107.94
388.713	94.94
388.938	87.94
389.163	75.94
389.387	92.94
389.612	90.94
389.837	98.94
390.062	93.94
390.287	94.94
390.512	92.94
390.736	90.94
390.961	93.94
391.186	80.94
391.411	91.94
391.636	88.94
391.86	91.94
392.085	72.94
392.31	85.94
392.534	79.94
392.759	84.94
392.984	76.94
393.208	75.94
393.433	79.94
393.658	79.94
393.882	72.94
394.107	74.94
394.331	78.94
394.556	81.94
394.78	76.94
395.005	80.94
395.229	72.94
395.454	95.94
395.678	74.94
395.903	77.94
396.127	91.94
396.352	87.94
396.576	71.94
396.801	86.94
397.025	89.94
397.249	69.94
397.474	75.94
397.698	92.94
397.922	80.94
398.147	84.94
398.371	78.94
398.595	88.94
398.82	80.94
399.044	80.94
399.268	80.94
399.492	86.94
399.717	77.94
399.941	79.94
400.165	102.94
400.389	93.94
400.613	95.94
400.837	72.94
401.062	87.94
401.286	79.94
401.51	79.94
401.734	100.94
401.958	104.94
402.182	117.94
402.406	144.94
402.63	118.94
402.854	94.94
403.078	82.94
403.302	79.94
403.526	94.94
403.75	78.94
403.974	87.94
404.198	80.94
404.422	83.94
404.645	75.94
404.869	71.94
405.093	82.94
405.317	81.94
405.541	89.94
405.765	103.94
405.988	122.94
406.212	189.94
406.436	229.94
406.66	146.94
406.883	101.94
407.107	87.94
407.331	83.94
407.555	98.94
407.778	96.94
408.002	90.94
408.226	84.94
408.449	88.94
408.673	69.94
408.896	81.94
409.12	90.94
409.344	86.94
409.567	97.94
409.791	88.94
410.014	90.94
410.238	76.94
410.461	81.94
410.685	103.94
410.908	86.94
411.132	101.94
411.355	89.94
411.578	90.94
411.802	74.94
412.025	79.94
412.249	82.94
412.472	82.94
412.695	83.94
412.919	77.94
413.142	81.94
413.365	74.94
413.589	82.94
413.812	79.94
414.035	96.94
414.258	73.94
414.482	88.94
414.705	72.94
414.928	78.94
415.151	87.94
415.374	79.94
415.597	82.94
415.821	71.94
416.044	86.94
416.267	85.94
416.49	93.94
416.713	87.94
416.936	92.94
417.159	72.94
417.382	95.94
417.605	88.94
417.828	83.94
418.051	92.94
418.274	93.94
418.497	74.94
418.72	71.94
418.943	81.94
419.166	80.94
419.389	87.94
419.611	77.94
419.834	65.94
420.057	83.94
420.28	79.94
420.503	75.94
420.726	80.94
420.948	84.94
421.171	79.94
421.394	74.94
421.617	94.94
421.839	89.94
422.062	93.94
422.285	91.94
422.507	90.94
422.73	94.94
422.953	84.94
423.175	86.94
423.398	83.94
423.621	83.94
423.843	84.94
424.066	87.94
424.288	73.94
424.511	73.94
424.733	100.94
424.956	95.94
425.178	79.94
425.401	88.94
425.623	87.94
425.846	72.94
426.068	85.94
426.291	84.94
426.513	86.94
426.735	80.94
426.958	90.94
427.18	96.94
427.402	133.94
427.625	155.94
427.847	123.94
428.069	82.94
428.292	82.94
428.514	66.94
428.736	84.94
428.958	84.94
429.181	76.94
429.403	77.94
429.625	81.94
429.847	85.94
430.069	92.94
430.292	86.94
430.514	87.94
430.736	71.94
430.958	80.94
431.18	91.94
431.402	84.94
431.624	68.94
431.846	80.94
432.068	63.94
432.29	76.94
432.512	74.94
432.734	77.94
432.956	94.94
433.178	90.94
433.4	98.94
433.622	91.94
433.844	77.94
434.066	89.94
434.287	68.94
434.509	86.94
434.731	71.94
434.953	72.94
435.175	76.94
435.397	80.94
435.618	86.94
435.84	98.94
436.062	115.94
436.284	130.94
436.505	94.94
436.727	87.94
436.949	87.94
437.17	101.94
437.392	83.94
437.614	76.94
437.835	90.94
438.057	106.94
438.278	99.94
438.5	100.94
438.721	127.94
438.943	104.94
439.165	95.94
439.386	78.94
439.608	70.94
439.829	105.94
440.05	132.94
440.272	152.94
440.493	93.94
440.715	72.94
440.936	78.94
441.158	78.94
441.379	88.94
441.6	82.94
441.822	81.94
442.043	88.94
442.264	102.94
442.486	94.94
442.707	87.94
442.928	98.94
443.149	131.94
443.371	130.94
443.592	94.94
443.813	104.94
444.034	118.94
444.255	75.94
444.476	80.94
444.698	88.94
444.919	94.94
445.14	128.94
445.361	119.94
445.582	99.94
445.803	130.94
446.024	119.94
446.245	130.94
446.466	114.94
446.687	81.94
446.908	86.94
447.129	71.94
447.35	80.94
447.571	81.94
447.792	75.94
448.013	94.94
448.234	124.94
448.455	90.94
448.675	120.94
448.896	91.94
449.117	78.94
449.338	100.94
449.559	117.94
449.779	126.94
450	104.94
450.221	74.94
450.442	70.94
450.662	94.94
450.883	112.94
451.104	119.94
451.324	93.94
451.545	79.94
451.766	94.94
451.986	86.94
452.207	92.94
452.428	95.94
452.648	90.94
452.869	95.94
453.089	114.94
453.31	107.94
453.53	102.94
453.751	84.94
453.971	92.94
454.192	94.94
454.412	90.94
454.633	82.94
454.853	68.94
455.073	85.94
455.294	92.94
455.514	80.94
455.734	75.94
455.955	86.94
456.175	84.94
456.395	83.94
456.616	78.94
456.836	84.94
457.056	69.94
457.276	70.94
457.497	69.94
457.717	84.94
457.937	70.94
458.157	84.94
458.377	89.94
458.598	95.94
458.818	136.94
459.038	148.94
459.258	116.94
459.478	90.94
459.698	88.94
459.918	88.94
460.138	85.94
460.358	88.94
460.578	83.94
460.798	92.94
461.018	70.94
461.238	65.94
461.458	67.94
461.678	80.94
461.898	85.94
462.118	75.94
462.338	88.94
462.558	78.94
462.777	77.94
462.997	79.94
463.217	75.94
463.437	65.94
463.657	77.94
463.876	86.94
464.096	88.94
464.316	101.94
464.536	90.94
464.755	89.94
464.975	105.94
465.195	154.94
465.414	180.94
465.634	98.94
465.854	90.94
466.073	85.94
466.293	75.94
466.512	82.94
466.732	81.94
466.951	75.94
467.171	74.94
467.391	96.94
467.61	101.94
467.829	92.94
468.049	84.94
468.268	83.94
468.488	80.94
468.707	92.94
468.927	80.94
469.146	84.94
469.365	94.94
469.585	96.94
469.804	90.94
470.023	86.94
470.243	95.94
470.462	91.94
470.681	99.94
470.901	89.94
471.12	72.94
471.339	86.94
471.558	79.94
471.777	88.94
471.997	75.94
472.216	83.94
472.435	79.94
472.654	84.94
472.873	77.94
473.092	80.94
473.311	66.94
473.53	61.94
473.749	76.94
473.968	88.94
474.187	103.94
474.406	92.94
474.625	87.94
474.844	64.94
475.063	77.94
475.282	87.94
475.501	70.94
475.72	60.94
475.939	81.94
476.158	70.94
476.377	80.94
476.596	79.94
476.814	80.94
477.033	93.94
477.252	83.94
477.471	79.94
477.69	78.94
477.908	72.94
478.127	87.94
478.346	74.94
478.564	84.94
478.783	101.94
479.002	76.94
479.22	78.94
479.439	102.94
479.658	101.94
479.876	79.94
480.095	86.94
480.313	83.94
480.532	84.94
480.751	85.94
480.969	83.94
481.188	91.94
481.406	101.94
481.624	91.94
481.843	84.94
482.061	77.94
482.28	86.94
482.498	90.94
482.717	94.94
482.935	93.94
483.153	81.94
483.372	72.94
483.59	79.94
483.808	83.94
484.027	104.94
484.245	94.94
484.463	94.94
484.681	94.94
484.9	86.94
485.118	84.94
485.336	80.94
485.554	96.94
485.772	102.94
485.99	104.94
486.209	98.94
486.427	105.94
486.645	97.94
486.863	102.94
487.081	93.94
487.299	85.94
487.517	77.94
487.735	89.94
487.953	92.94
488.171	97.94
488.389	94.94
488.607	89.94
488.825	92.94
489.043	86.94
489.261	86.94
489.479	68.94
489.696	79.94
489.914	85.94
490.132	79.94
490.35	77.94
490.568	80.94
490.786	76.94
491.003	84.94
491.221	87.94
491.439	88.94
491.657	87.94
491.874	84.94
492.092	74.94
492.31	95.94
492.527	93.94
492.745	76.94
492.963	90.94
493.18	87.94
493.398	83.94
493.615	83.94
493.833	87.94
494.05	87.94
494.268	86.94
494.485	67.94
494.703	81.94
494.92	77.94
495.138	79.94
495.355	87.94
495.573	76.94
495.79	80.94
496.008	82.94
496.225	81.94
496.442	86.94
496.66	81.94
496.877	87.94
497.094	87.94
497.312	71.94
497.529	96.94
497.746	78.94
497.963	93.94
498.181	81.94
498.398	89.94
498.615	97.94
498.832	88.94
499.049	91.94
499.267	97.94
499.484	79.94
499.701	72.94
499.918	72.94
500.135	87.94
500.352	89.94
500.569	68.94
500.786	77.94
501.003	96.94
501.22	95.94
501.437	90.94
501.654	101.94
501.871	99.94
502.088	69.94
502.305	94.94
502.522	82.94
502.739	77.94
502.956	72.94
503.172	90.94
503.389	86.94
503.606	91.94
503.823	102.94
504.04	76.94
504.256	90.94
504.473	74.94
504.69	87.94
504.907	82.94
505.123	87.94
505.34	86.94
505.557	90.94
505.773	90.94
505.99	92.94
506.207	75.94
506.423	66.94
506.64	89.94
506.856	82.94
507.073	78.94
507.289	87.94
507.506	95.94
507.722	106.94
507.939	111.94
508.155	83.94
508.372	87.94
508.588	92.94
508.805	95.94
509.021	84.94
509.238	81.94
509.454	111.94
509.67	93.94
509.887	103.94
510.103	139.94
510.319	224.94
510.536	824.94
510.752	2727.94
510.968	768.94
511.184	160.94
511.401	115.94
511.617	99.94
511.833	84.94
512.049	86.94
512.265	74.94
512.481	94.94
512.698	80.94
512.914	89.94
513.13	79.94
513.346	91.94
513.562	98.94
513.778	89.94
513.994	94.94
514.21	93.94
514.426	110.94
514.642	142.94
514.858	130.94
515.074	186.94
515.29	487.94
515.506	1682.94
515.721	598.94
515.937	161.94
516.153	108.94
516.369	82.94
516.585	98.94
516.801	83.94
517.016	81.94
517.232	72.94
517.448	93.94
