Data from Uncirc_2007_H10_HRD10591_00064.txt Node
Date: Wed Jan 03 10:20:55 EST 2024
User: Yrep
Spectrometer: HR+D1059
Trigger mode: 1
Integration Time (sec): 1.000000E-1
Scans to average: 1
Electric dark correction enabled: true
Nonlinearity correction enabled: false
Boxcar width: 0
XAxis mode: Wavelengths
Number of Pixels in Spectrum: 2048
>>>>>Begin Spectral Data<<<<<
223.165	-14.94
223.4	-14.94
223.635	-14.94
223.869	-15.94
224.104	-15.94
224.338	-15.94
224.573	-11.94
224.808	-10.94
225.042	-16.94
225.277	0.06
225.511	2.06
225.746	-2.94
225.98	5.06
226.215	19.06
226.449	14.06
226.683	16.06
226.918	18.06
227.152	31.06
227.387	34.06
227.621	41.06
227.856	35.06
228.09	55.06
228.324	44.06
228.559	38.06
228.793	45.06
229.027	59.06
229.262	65.06
229.496	74.06
229.73	89.06
229.964	77.06
230.199	72.06
230.433	82.06
230.667	61.06
230.901	69.06
231.136	82.06
231.37	72.06
231.604	76.06
231.838	93.06
232.072	82.06
232.306	78.06
232.541	95.06
232.775	90.06
233.009	74.06
233.243	79.06
233.477	82.06
233.711	92.06
233.945	68.06
234.179	68.06
234.413	66.06
234.647	76.06
234.881	68.06
235.115	78.06
235.349	79.06
235.583	73.06
235.817	80.06
236.051	82.06
236.285	71.06
236.519	82.06
236.753	76.06
236.987	88.06
237.221	79.06
237.455	85.06
237.689	84.06
237.922	72.06
238.156	68.06
238.39	74.06
238.624	76.06
238.858	73.06
239.091	69.06
239.325	71.06
239.559	75.06
239.793	87.06
240.027	82.06
240.26	80.06
240.494	73.06
240.728	75.06
240.961	77.06
241.195	76.06
241.429	68.06
241.662	59.06
241.896	74.06
242.13	78.06
242.363	80.06
242.597	70.06
242.83	61.06
243.064	68.06
243.298	79.06
243.531	64.06
243.765	82.06
243.998	82.06
244.232	67.06
244.465	86.06
244.699	86.06
244.932	77.06
245.166	70.06
245.399	73.06
245.633	78.06
245.866	72.06
246.099	72.06
246.333	70.06
246.566	81.06
246.8	82.06
247.033	80.06
247.266	81.06
247.5	90.06
247.733	79.06
247.966	79.06
248.2	73.06
248.433	71.06
248.666	67.06
248.899	65.06
249.133	77.06
249.366	98.06
249.599	95.06
249.832	77.06
250.066	79.06
250.299	75.06
250.532	76.06
250.765	68.06
250.998	71.06
251.231	78.06
251.465	74.06
251.698	79.06
251.931	77.06
252.164	73.06
252.397	71.06
252.63	73.06
252.863	65.06
253.096	64.06
253.329	77.06
253.562	88.06
253.795	79.06
254.028	84.06
254.261	86.06
254.494	69.06
254.727	87.06
254.96	81.06
255.193	78.06
255.426	67.06
255.659	91.06
255.892	84.06
256.124	77.06
256.357	60.06
256.59	86.06
256.823	88.06
257.056	65.06
257.289	64.06
257.521	75.06
257.754	66.06
257.987	71.06
258.22	93.06
258.452	80.06
258.685	84.06
258.918	73.06
259.151	93.06
259.383	90.06
259.616	97.06
259.849	89.06
260.081	68.06
260.314	78.06
260.547	80.06
260.779	78.06
261.012	76.06
261.244	76.06
261.477	95.06
261.71	90.06
261.942	95.06
262.175	118.06
262.407	77.06
262.64	96.06
262.872	77.06
263.105	76.06
263.337	86.06
263.57	74.06
263.802	88.06
264.035	81.06
264.267	77.06
264.499	89.06
264.732	83.06
264.964	81.06
265.197	83.06
265.429	68.06
265.661	74.06
265.894	65.06
266.126	91.06
266.358	84.06
266.591	75.06
266.823	85.06
267.055	83.06
267.287	71.06
267.52	69.06
267.752	79.06
267.984	80.06
268.216	73.06
268.448	73.06
268.681	78.06
268.913	82.06
269.145	81.06
269.377	80.06
269.609	82.06
269.841	91.06
270.073	82.06
270.306	83.06
270.538	74.06
270.77	79.06
271.002	93.06
271.234	73.06
271.466	69.06
271.698	79.06
271.93	81.06
272.162	89.06
272.394	95.06
272.626	89.06
272.858	81.06
273.09	87.06
273.322	81.06
273.553	76.06
273.785	101.06
274.017	81.06
274.249	77.06
274.481	92.06
274.713	81.06
274.945	87.06
275.176	71.06
275.408	84.06
275.64	89.06
275.872	81.06
276.104	86.06
276.335	97.06
276.567	98.06
276.799	95.06
277.031	95.06
277.262	78.06
277.494	76.06
277.726	80.06
277.957	80.06
278.189	85.06
278.421	84.06
278.652	88.06
278.884	92.06
279.115	81.06
279.347	71.06
279.579	80.06
279.81	88.06
280.042	84.06
280.273	76.06
280.505	79.06
280.736	79.06
280.968	68.06
281.199	85.06
281.431	84.06
281.662	79.06
281.894	95.06
282.125	102.06
282.356	118.06
282.588	130.06
282.819	114.06
283.051	101.06
283.282	87.06
283.513	72.06
283.745	90.06
283.976	87.06
284.207	93.06
284.439	79.06
284.67	90.06
284.901	76.06
285.132	86.06
285.364	104.06
285.595	87.06
285.826	82.06
286.057	75.06
286.288	87.06
286.52	86.06
286.751	82.06
286.982	89.06
287.213	66.06
287.444	76.06
287.675	79.06
287.906	98.06
288.138	82.06
288.369	81.06
288.6	81.06
288.831	76.06
289.062	89.06
289.293	94.06
289.524	79.06
289.755	83.06
289.986	98.06
290.217	83.06
290.448	90.06
290.679	96.06
290.91	88.06
291.141	88.06
291.371	74.06
291.602	99.06
291.833	87.06
292.064	80.06
292.295	77.06
292.526	96.06
292.757	92.06
292.987	75.06
293.218	90.06
293.449	72.06
293.68	88.06
293.91	88.06
294.141	88.06
294.372	75.06
294.603	83.06
294.833	90.06
295.064	79.06
295.295	88.06
295.525	98.06
295.756	84.06
295.987	112.06
296.217	134.06
296.448	125.06
296.679	95.06
296.909	84.06
297.14	78.06
297.37	90.06
297.601	86.06
297.831	73.06
298.062	94.06
298.292	86.06
298.523	81.06
298.753	94.06
298.984	82.06
299.214	86.06
299.445	86.06
299.675	81.06
299.905	80.06
300.136	93.06
300.366	90.06
300.597	96.06
300.827	94.06
301.057	94.06
301.288	87.06
301.518	87.06
301.748	89.06
301.979	92.06
302.209	102.06
302.439	95.06
302.669	80.06
302.9	90.06
303.13	94.06
303.36	78.06
303.59	92.06
303.82	101.06
304.051	97.06
304.281	98.06
304.511	85.06
304.741	85.06
304.971	82.06
305.201	81.06
305.431	97.06
305.661	81.06
305.891	100.06
306.121	93.06
306.352	106.06
306.582	106.06
306.812	89.06
307.042	78.06
307.272	98.06
307.502	85.06
307.731	89.06
307.961	88.06
308.191	74.06
308.421	85.06
308.651	96.06
308.881	92.06
309.111	91.06
309.341	92.06
309.571	79.06
309.8	107.06
310.03	100.06
310.26	96.06
310.49	104.06
310.72	98.06
310.949	95.06
311.179	100.06
311.409	76.06
311.639	91.06
311.868	97.06
312.098	86.06
312.328	90.06
312.557	109.06
312.787	104.06
313.017	108.06
313.246	76.06
313.476	77.06
313.706	94.06
313.935	83.06
314.165	96.06
314.394	98.06
314.624	102.06
314.853	94.06
315.083	101.06
315.312	86.06
315.542	90.06
315.771	88.06
316.001	97.06
316.23	84.06
316.46	77.06
316.689	104.06
316.919	78.06
317.148	90.06
317.377	87.06
317.607	91.06
317.836	101.06
318.065	99.06
318.295	99.06
318.524	98.06
318.753	77.06
318.983	70.06
319.212	101.06
319.441	97.06
319.67	105.06
319.9	79.06
320.129	78.06
320.358	93.06
320.587	96.06
320.816	103.06
321.046	88.06
321.275	96.06
321.504	92.06
321.733	101.06
321.962	88.06
322.191	99.06
322.42	100.06
322.649	111.06
322.878	104.06
323.108	109.06
323.337	119.06
323.566	128.06
323.795	159.06
324.024	207.06
324.253	434.06
324.482	938.06
324.71	1912.06
324.939	2500.06
325.168	887.06
325.397	258.06
325.626	142.06
325.855	136.06
326.084	132.06
326.313	140.06
326.542	163.06
326.77	245.06
326.999	522.06
327.228	1028.06
327.457	1912.06
327.686	1534.06
327.914	406.06
328.143	180.06
328.372	140.06
328.6	131.06
328.829	108.06
329.058	128.06
329.287	120.06
329.515	101.06
329.744	95.06
329.972	97.06
330.201	105.06
330.43	103.06
330.658	118.06
330.887	132.06
331.115	123.06
331.344	103.06
331.572	106.06
331.801	103.06
332.03	88.06
332.258	98.06
332.486	96.06
332.715	92.06
332.943	85.06
333.172	99.06
333.4	102.06
333.629	98.06
333.857	112.06
334.085	79.06
334.314	100.06
334.542	95.06
334.771	101.06
334.999	77.06
335.227	84.06
335.455	88.06
335.684	94.06
335.912	85.06
336.14	93.06
336.369	95.06
336.597	93.06
336.825	84.06
337.053	82.06
337.281	82.06
337.51	92.06
337.738	77.06
337.966	87.06
338.194	103.06
338.422	100.06
338.65	93.06
338.878	96.06
339.106	85.06
339.334	95.06
339.562	81.06
339.79	84.06
340.018	93.06
340.246	84.06
340.474	92.06
340.702	76.06
340.93	89.06
341.158	88.06
341.386	88.06
341.614	91.06
341.842	99.06
342.07	87.06
342.298	84.06
342.526	82.06
342.754	77.06
342.981	90.06
343.209	89.06
343.437	94.06
343.665	92.06
343.893	93.06
344.12	87.06
344.348	93.06
344.576	87.06
344.804	86.06
345.031	78.06
345.259	101.06
345.487	101.06
345.714	84.06
345.942	76.06
346.17	82.06
346.397	87.06
346.625	98.06
346.853	90.06
347.08	81.06
347.308	70.06
347.535	96.06
347.763	102.06
347.99	98.06
348.218	98.06
348.445	97.06
348.673	95.06
348.9	85.06
349.128	92.06
349.355	82.06
349.583	106.06
349.81	97.06
350.037	98.06
350.265	99.06
350.492	77.06
350.72	93.06
350.947	105.06
351.174	103.06
351.402	93.06
351.629	104.06
351.856	94.06
352.083	92.06
352.311	116.06
352.538	109.06
352.765	101.06
352.992	115.06
353.22	103.06
353.447	91.06
353.674	100.06
353.901	91.06
354.128	94.06
354.355	89.06
354.583	82.06
354.81	89.06
355.037	81.06
355.264	97.06
355.491	94.06
355.718	94.06
355.945	95.06
356.172	95.06
356.399	81.06
356.626	74.06
356.853	84.06
357.08	89.06
357.307	85.06
357.534	85.06
357.761	95.06
357.988	89.06
358.215	86.06
358.441	92.06
358.668	90.06
358.895	85.06
359.122	80.06
359.349	90.06
359.576	93.06
359.802	101.06
360.029	101.06
360.256	85.06
360.483	107.06
360.709	105.06
360.936	97.06
361.163	88.06
361.39	94.06
361.616	94.06
361.843	74.06
362.07	76.06
362.296	87.06
362.523	89.06
362.749	84.06
362.976	71.06
363.203	95.06
363.429	91.06
363.656	93.06
363.882	75.06
364.109	92.06
364.335	88.06
364.562	98.06
364.788	69.06
365.015	95.06
365.241	95.06
365.468	120.06
365.694	107.06
365.92	90.06
366.147	96.06
366.373	75.06
366.599	92.06
366.826	78.06
367.052	83.06
367.278	85.06
367.505	77.06
367.731	90.06
367.957	86.06
368.184	90.06
368.41	89.06
368.636	111.06
368.862	121.06
369.089	104.06
369.315	93.06
369.541	88.06
369.767	86.06
369.993	71.06
370.219	90.06
370.445	77.06
370.672	76.06
370.898	86.06
371.124	83.06
371.35	79.06
371.576	86.06
371.802	79.06
372.028	90.06
372.254	92.06
372.48	83.06
372.706	79.06
372.932	81.06
373.158	92.06
373.384	89.06
373.61	84.06
373.835	94.06
374.061	85.06
374.287	98.06
374.513	83.06
374.739	86.06
374.965	76.06
375.191	96.06
375.416	71.06
375.642	74.06
375.868	81.06
376.094	70.06
376.319	72.06
376.545	91.06
376.771	94.06
376.997	95.06
377.222	78.06
377.448	84.06
377.674	82.06
377.899	84.06
378.125	84.06
378.35	92.06
378.576	97.06
378.802	112.06
379.027	82.06
379.253	81.06
379.478	86.06
379.704	82.06
379.929	86.06
380.155	84.06
380.38	86.06
380.606	96.06
380.831	83.06
381.057	81.06
381.282	97.06
381.507	105.06
381.733	89.06
381.958	88.06
382.184	100.06
382.409	93.06
382.634	84.06
382.86	92.06
383.085	87.06
383.31	104.06
383.535	85.06
383.761	92.06
383.986	86.06
384.211	112.06
384.436	101.06
384.662	97.06
384.887	108.06
385.112	88.06
385.337	86.06
385.562	100.06
385.787	110.06
386.013	91.06
386.238	103.06
386.463	106.06
386.688	113.06
386.913	102.06
387.138	103.06
387.363	91.06
387.588	87.06
387.813	86.06
388.038	100.06
388.263	104.06
388.488	108.06
388.713	109.06
388.938	95.06
389.163	85.06
389.387	101.06
389.612	86.06
389.837	85.06
390.062	87.06
390.287	102.06
390.512	86.06
390.736	86.06
390.961	86.06
391.186	81.06
391.411	94.06
391.636	91.06
391.86	95.06
392.085	88.06
392.31	91.06
392.534	94.06
392.759	63.06
392.984	85.06
393.208	90.06
393.433	77.06
393.658	92.06
393.882	83.06
394.107	89.06
394.331	79.06
394.556	97.06
394.78	75.06
395.005	96.06
395.229	77.06
395.454	78.06
395.678	86.06
395.903	92.06
396.127	96.06
396.352	79.06
396.576	80.06
396.801	83.06
397.025	83.06
397.249	104.06
397.474	86.06
397.698	85.06
397.922	80.06
398.147	94.06
398.371	94.06
398.595	95.06
398.82	82.06
399.044	80.06
399.268	77.06
399.492	69.06
399.717	101.06
399.941	107.06
400.165	92.06
400.389	83.06
400.613	82.06
400.837	80.06
401.062	87.06
401.286	97.06
401.51	87.06
401.734	89.06
401.958	91.06
402.182	136.06
402.406	138.06
402.63	124.06
402.854	86.06
403.078	84.06
403.302	81.06
403.526	80.06
403.75	85.06
403.974	88.06
404.198	78.06
404.422	75.06
404.645	89.06
404.869	84.06
405.093	81.06
405.317	84.06
405.541	91.06
405.765	89.06
405.988	106.06
406.212	165.06
406.436	220.06
406.66	140.06
406.883	110.06
407.107	85.06
407.331	81.06
407.555	91.06
407.778	97.06
408.002	82.06
408.226	98.06
408.449	93.06
408.673	89.06
408.896	97.06
409.12	86.06
409.344	94.06
409.567	90.06
409.791	97.06
410.014	85.06
410.238	78.06
410.461	95.06
410.685	103.06
410.908	95.06
411.132	104.06
411.355	93.06
411.578	82.06
411.802	73.06
412.025	93.06
412.249	88.06
412.472	92.06
412.695	93.06
412.919	76.06
413.142	84.06
413.365	85.06
413.589	81.06
413.812	80.06
414.035	81.06
414.258	75.06
414.482	82.06
414.705	68.06
414.928	77.06
415.151	92.06
415.374	89.06
415.597	82.06
415.821	93.06
416.044	101.06
416.267	81.06
416.49	88.06
416.713	81.06
416.936	92.06
417.159	83.06
417.382	79.06
417.605	87.06
417.828	87.06
418.051	92.06
418.274	74.06
418.497	79.06
418.72	81.06
418.943	80.06
419.166	86.06
419.389	93.06
419.611	94.06
419.834	86.06
420.057	80.06
420.28	75.06
420.503	85.06
420.726	84.06
420.948	86.06
421.171	93.06
421.394	86.06
421.617	99.06
421.839	92.06
422.062	80.06
422.285	88.06
422.507	79.06
422.73	98.06
422.953	81.06
423.175	92.06
423.398	91.06
423.621	81.06
423.843	74.06
424.066	79.06
424.288	70.06
424.511	83.06
424.733	105.06
424.956	97.06
425.178	105.06
425.401	89.06
425.623	87.06
425.846	82.06
426.068	82.06
426.291	93.06
426.513	81.06
426.735	86.06
426.958	97.06
427.18	97.06
427.402	132.06
427.625	146.06
427.847	122.06
428.069	92.06
428.292	74.06
428.514	86.06
428.736	91.06
428.958	81.06
429.181	88.06
429.403	83.06
429.625	98.06
429.847	93.06
430.069	89.06
430.292	102.06
430.514	85.06
430.736	93.06
430.958	88.06
431.18	81.06
431.402	96.06
431.624	84.06
431.846	61.06
432.068	86.06
432.29	80.06
432.512	92.06
432.734	92.06
432.956	89.06
433.178	109.06
433.4	92.06
433.622	84.06
433.844	70.06
434.066	81.06
434.287	87.06
434.509	87.06
434.731	99.06
434.953	90.06
435.175	96.06
435.397	87.06
435.618	97.06
435.84	124.06
436.062	110.06
436.284	105.06
436.505	95.06
436.727	97.06
436.949	92.06
437.17	82.06
437.392	83.06
437.614	107.06
437.835	107.06
438.057	123.06
438.278	110.06
438.5	108.06
438.721	108.06
438.943	106.06
439.165	84.06
439.386	86.06
439.608	85.06
439.829	88.06
440.05	116.06
440.272	154.06
440.493	104.06
440.715	62.06
440.936	80.06
441.158	90.06
441.379	88.06
441.6	93.06
441.822	85.06
442.043	93.06
442.264	103.06
442.486	99.06
442.707	87.06
442.928	100.06
443.149	120.06
443.371	125.06
443.592	104.06
443.813	116.06
444.034	106.06
444.255	82.06
444.476	98.06
444.698	93.06
444.919	80.06
445.14	126.06
445.361	113.06
445.582	104.06
445.803	142.06
446.024	125.06
446.245	128.06
446.466	107.06
446.687	78.06
446.908	71.06
447.129	93.06
447.35	82.06
447.571	81.06
447.792	92.06
448.013	100.06
448.234	110.06
448.455	106.06
448.675	118.06
448.896	121.06
449.117	99.06
449.338	96.06
449.559	123.06
449.779	128.06
450	82.06
450.221	92.06
450.442	94.06
450.662	86.06
450.883	83.06
451.104	106.06
451.324	97.06
451.545	85.06
451.766	85.06
451.986	83.06
452.207	96.06
452.428	80.06
452.648	92.06
452.869	98.06
453.089	113.06
453.31	120.06
453.53	86.06
453.751	82.06
453.971	86.06
454.192	105.06
454.412	88.06
454.633	85.06
454.853	82.06
455.073	76.06
455.294	101.06
455.514	97.06
455.734	87.06
455.955	94.06
456.175	85.06
456.395	79.06
456.616	83.06
456.836	77.06
457.056	96.06
457.276	72.06
457.497	75.06
457.717	92.06
457.937	80.06
458.157	95.06
458.377	101.06
458.598	104.06
458.818	153.06
459.038	151.06
459.258	106.06
459.478	80.06
459.698	96.06
459.918	80.06
460.138	89.06
460.358	75.06
460.578	90.06
460.798	91.06
461.018	71.06
461.238	82.06
461.458	90.06
461.678	90.06
461.898	81.06
462.118	94.06
462.338	95.06
462.558	88.06
462.777	103.06
462.997	70.06
463.217	87.06
463.437	74.06
463.657	80.06
463.876	83.06
464.096	75.06
464.316	85.06
464.536	87.06
464.755	102.06
464.975	98.06
465.195	155.06
465.414	159.06
465.634	91.06
465.854	92.06
466.073	94.06
466.293	78.06
466.512	76.06
466.732	80.06
466.951	84.06
467.171	93.06
467.391	87.06
467.61	111.06
467.829	104.06
468.049	106.06
468.268	84.06
468.488	83.06
468.707	86.06
468.927	87.06
469.146	77.06
469.365	85.06
469.585	72.06
469.804	92.06
470.023	101.06
470.243	76.06
470.462	95.06
470.681	108.06
470.901	93.06
471.12	81.06
471.339	81.06
471.558	93.06
471.777	71.06
471.997	76.06
472.216	75.06
472.435	67.06
472.654	86.06
472.873	84.06
473.092	77.06
473.311	74.06
473.53	75.06
473.749	80.06
473.968	80.06
474.187	103.06
474.406	100.06
474.625	87.06
474.844	80.06
475.063	89.06
475.282	81.06
475.501	85.06
475.72	88.06
475.939	78.06
476.158	73.06
476.377	85.06
476.596	77.06
476.814	81.06
477.033	101.06
477.252	76.06
477.471	74.06
477.69	80.06
477.908	91.06
478.127	93.06
478.346	92.06
478.564	96.06
478.783	93.06
479.002	84.06
479.22	89.06
479.439	80.06
479.658	89.06
479.876	79.06
480.095	94.06
480.313	86.06
480.532	76.06
480.751	85.06
480.969	100.06
481.188	73.06
481.406	90.06
481.624	89.06
481.843	82.06
482.061	85.06
482.28	91.06
482.498	82.06
482.717	90.06
482.935	87.06
483.153	69.06
483.372	83.06
483.59	86.06
483.808	74.06
484.027	101.06
484.245	90.06
484.463	87.06
484.681	77.06
484.9	86.06
485.118	88.06
485.336	84.06
485.554	97.06
485.772	100.06
485.99	97.06
486.209	96.06
486.427	89.06
486.645	106.06
486.863	120.06
487.081	95.06
487.299	88.06
487.517	84.06
487.735	88.06
487.953	88.06
488.171	88.06
488.389	98.06
488.607	90.06
488.825	94.06
489.043	85.06
489.261	80.06
489.479	81.06
489.696	80.06
489.914	82.06
490.132	79.06
490.35	85.06
490.568	80.06
490.786	84.06
491.003	84.06
491.221	77.06
491.439	75.06
491.657	90.06
491.874	85.06
492.092	82.06
492.31	85.06
492.527	67.06
492.745	91.06
492.963	94.06
493.18	77.06
493.398	102.06
493.615	87.06
493.833	91.06
494.05	95.06
494.268	94.06
494.485	76.06
494.703	78.06
494.92	82.06
495.138	86.06
495.355	74.06
495.573	85.06
495.79	84.06
496.008	95.06
496.225	88.06
496.442	85.06
496.66	108.06
496.877	92.06
497.094	86.06
497.312	90.06
497.529	92.06
497.746	94.06
497.963	81.06
498.181	86.06
498.398	102.06
498.615	107.06
498.832	109.06
499.049	94.06
499.267	87.06
499.484	96.06
499.701	93.06
499.918	80.06
500.135	97.06
500.352	91.06
500.569	83.06
500.786	97.06
501.003	87.06
501.22	91.06
501.437	86.06
501.654	98.06
501.871	93.06
502.088	95.06
502.305	89.06
502.522	79.06
502.739	84.06
502.956	84.06
503.172	79.06
503.389	89.06
503.606	100.06
503.823	89.06
504.04	90.06
504.256	86.06
504.473	102.06
504.69	86.06
504.907	93.06
505.123	83.06
505.34	89.06
505.557	76.06
505.773	77.06
505.99	84.06
506.207	90.06
506.423	99.06
506.64	87.06
506.856	95.06
507.073	78.06
507.289	106.06
507.506	90.06
507.722	100.06
507.939	103.06
508.155	79.06
508.372	96.06
508.588	93.06
508.805	100.06
509.021	98.06
509.238	88.06
509.454	95.06
509.67	81.06
509.887	103.06
510.103	135.06
510.319	205.06
510.536	787.06
510.752	2554.06
510.968	688.06
511.184	146.06
511.401	102.06
511.617	101.06
511.833	96.06
512.049	101.06
512.265	82.06
512.481	84.06
512.698	87.06
512.914	83.06
513.13	90.06
513.346	88.06
513.562	103.06
513.778	102.06
513.994	105.06
514.21	102.06
514.426	102.06
514.642	128.06
514.858	131.06
515.074	167.06
515.29	452.06
515.506	1547.06
515.721	575.06
515.937	148.06
516.153	105.06
516.369	92.06
516.585	88.06
516.801	90.06
