Data from Uncirc_2007_H10_HRD10591_00042.txt Node
Date: Wed Jan 03 10:20:51 EST 2024
User: Yrep
Spectrometer: HR+D1059
Trigger mode: 1
Integration Time (sec): 1.000000E-1
Scans to average: 1
Electric dark correction enabled: true
Nonlinearity correction enabled: false
Boxcar width: 0
XAxis mode: Wavelengths
Number of Pixels in Spectrum: 2048
>>>>>Begin Spectral Data<<<<<
223.165	-2.62
223.4	-2.62
223.635	-2.62
223.869	-21.62
224.104	-25.62
224.338	-11.62
224.573	-11.62
224.808	-23.62
225.042	-3.62
225.277	-2.62
225.511	5.38
225.746	0.38
225.98	10.38
226.215	-2.62
226.449	11.38
226.683	30.38
226.918	21.38
227.152	26.38
227.387	28.38
227.621	40.38
227.856	37.38
228.09	44.38
228.324	53.38
228.559	62.38
228.793	59.38
229.027	63.38
229.262	76.38
229.496	70.38
229.73	94.38
229.964	79.38
230.199	80.38
230.433	66.38
230.667	72.38
230.901	95.38
231.136	74.38
231.37	85.38
231.604	75.38
231.838	75.38
232.072	89.38
232.306	90.38
232.541	77.38
232.775	78.38
233.009	87.38
233.243	78.38
233.477	77.38
233.711	93.38
233.945	84.38
234.179	82.38
234.413	80.38
234.647	80.38
234.881	72.38
235.115	75.38
235.349	75.38
235.583	81.38
235.817	81.38
236.051	92.38
236.285	74.38
236.519	77.38
236.753	92.38
236.987	78.38
237.221	88.38
237.455	74.38
237.689	86.38
237.922	73.38
238.156	94.38
238.39	81.38
238.624	79.38
238.858	73.38
239.091	70.38
239.325	86.38
239.559	63.38
239.793	87.38
240.027	80.38
240.26	84.38
240.494	85.38
240.728	74.38
240.961	67.38
241.195	68.38
241.429	62.38
241.662	76.38
241.896	66.38
242.13	73.38
242.363	85.38
242.597	73.38
242.83	84.38
243.064	80.38
243.298	66.38
243.531	71.38
243.765	72.38
243.998	83.38
244.232	88.38
244.465	77.38
244.699	77.38
244.932	81.38
245.166	65.38
245.399	79.38
245.633	73.38
245.866	77.38
246.099	79.38
246.333	77.38
246.566	78.38
246.8	83.38
247.033	86.38
247.266	89.38
247.5	76.38
247.733	72.38
247.966	68.38
248.2	75.38
248.433	74.38
248.666	68.38
248.899	88.38
249.133	91.38
249.366	106.38
249.599	94.38
249.832	90.38
250.066	87.38
250.299	80.38
250.532	75.38
250.765	78.38
250.998	83.38
251.231	85.38
251.465	91.38
251.698	77.38
251.931	76.38
252.164	84.38
252.397	84.38
252.63	71.38
252.863	75.38
253.096	89.38
253.329	71.38
253.562	80.38
253.795	74.38
254.028	81.38
254.261	83.38
254.494	74.38
254.727	96.38
254.96	86.38
255.193	85.38
255.426	68.38
255.659	88.38
255.892	87.38
256.124	84.38
256.357	89.38
256.59	78.38
256.823	76.38
257.056	96.38
257.289	91.38
257.521	85.38
257.754	87.38
257.987	75.38
258.22	86.38
258.452	79.38
258.685	75.38
258.918	79.38
259.151	78.38
259.383	78.38
259.616	99.38
259.849	74.38
260.081	74.38
260.314	85.38
260.547	85.38
260.779	81.38
261.012	77.38
261.244	93.38
261.477	96.38
261.71	100.38
261.942	107.38
262.175	115.38
262.407	96.38
262.64	84.38
262.872	106.38
263.105	82.38
263.337	81.38
263.57	76.38
263.802	88.38
264.035	81.38
264.267	63.38
264.499	79.38
264.732	73.38
264.964	82.38
265.197	85.38
265.429	78.38
265.661	81.38
265.894	68.38
266.126	94.38
266.358	84.38
266.591	84.38
266.823	72.38
267.055	80.38
267.287	88.38
267.52	67.38
267.752	85.38
267.984	90.38
268.216	84.38
268.448	77.38
268.681	85.38
268.913	88.38
269.145	76.38
269.377	85.38
269.609	90.38
269.841	91.38
270.073	92.38
270.306	86.38
270.538	64.38
270.77	85.38
271.002	84.38
271.234	92.38
271.466	70.38
271.698	94.38
271.93	76.38
272.162	90.38
272.394	77.38
272.626	79.38
272.858	79.38
273.09	84.38
273.322	82.38
273.553	77.38
273.785	89.38
274.017	96.38
274.249	84.38
274.481	88.38
274.713	80.38
274.945	89.38
275.176	84.38
275.408	90.38
275.64	93.38
275.872	89.38
276.104	88.38
276.335	97.38
276.567	90.38
276.799	98.38
277.031	96.38
277.262	75.38
277.494	80.38
277.726	94.38
277.957	78.38
278.189	101.38
278.421	95.38
278.652	82.38
278.884	93.38
279.115	90.38
279.347	97.38
279.579	84.38
279.81	91.38
280.042	88.38
280.273	90.38
280.505	84.38
280.736	76.38
280.968	97.38
281.199	94.38
281.431	89.38
281.662	94.38
281.894	97.38
282.125	102.38
282.356	119.38
282.588	129.38
282.819	114.38
283.051	81.38
283.282	73.38
283.513	84.38
283.745	91.38
283.976	83.38
284.207	74.38
284.439	85.38
284.67	81.38
284.901	93.38
285.132	87.38
285.364	91.38
285.595	97.38
285.826	77.38
286.057	74.38
286.288	81.38
286.52	90.38
286.751	95.38
286.982	80.38
287.213	82.38
287.444	96.38
287.675	91.38
287.906	80.38
288.138	93.38
288.369	94.38
288.6	92.38
288.831	82.38
289.062	83.38
289.293	100.38
289.524	96.38
289.755	91.38
289.986	90.38
290.217	87.38
290.448	81.38
290.679	85.38
290.91	94.38
291.141	95.38
291.371	92.38
291.602	82.38
291.833	94.38
292.064	85.38
292.295	90.38
292.526	88.38
292.757	83.38
292.987	90.38
293.218	76.38
293.449	93.38
293.68	101.38
293.91	101.38
294.141	99.38
294.372	81.38
294.603	76.38
294.833	97.38
295.064	85.38
295.295	91.38
295.525	90.38
295.756	96.38
295.987	106.38
296.217	144.38
296.448	117.38
296.679	98.38
296.909	93.38
297.14	80.38
297.37	104.38
297.601	113.38
297.831	73.38
298.062	98.38
298.292	84.38
298.523	90.38
298.753	85.38
298.984	82.38
299.214	78.38
299.445	94.38
299.675	91.38
299.905	99.38
300.136	89.38
300.366	94.38
300.597	85.38
300.827	90.38
301.057	94.38
301.288	103.38
301.518	90.38
301.748	88.38
301.979	107.38
302.209	89.38
302.439	90.38
302.669	80.38
302.9	101.38
303.13	91.38
303.36	107.38
303.59	111.38
303.82	103.38
304.051	98.38
304.281	91.38
304.511	71.38
304.741	93.38
304.971	101.38
305.201	103.38
305.431	88.38
305.661	99.38
305.891	84.38
306.121	93.38
306.352	93.38
306.582	105.38
306.812	83.38
307.042	89.38
307.272	85.38
307.502	81.38
307.731	100.38
307.961	92.38
308.191	87.38
308.421	92.38
308.651	86.38
308.881	83.38
309.111	91.38
309.341	102.38
309.571	96.38
309.8	92.38
310.03	97.38
310.26	103.38
310.49	90.38
310.72	103.38
310.949	104.38
311.179	102.38
311.409	91.38
311.639	89.38
311.868	95.38
312.098	96.38
312.328	88.38
312.557	116.38
312.787	95.38
313.017	97.38
313.246	96.38
313.476	94.38
313.706	90.38
313.935	98.38
314.165	97.38
314.394	92.38
314.624	80.38
314.853	108.38
315.083	101.38
315.312	96.38
315.542	88.38
315.771	94.38
316.001	95.38
316.23	91.38
316.46	83.38
316.689	85.38
316.919	88.38
317.148	86.38
317.377	78.38
317.607	101.38
317.836	97.38
318.065	97.38
318.295	94.38
318.524	98.38
318.753	94.38
318.983	92.38
319.212	105.38
319.441	118.38
319.67	115.38
319.9	97.38
320.129	95.38
320.358	100.38
320.587	88.38
320.816	86.38
321.046	99.38
321.275	100.38
321.504	92.38
321.733	103.38
321.962	83.38
322.191	99.38
322.42	108.38
322.649	117.38
322.878	109.38
323.108	133.38
323.337	145.38
323.566	131.38
323.795	162.38
324.024	230.38
324.253	422.38
324.482	904.38
324.71	1936.38
324.939	2552.38
325.168	901.38
325.397	264.38
325.626	147.38
325.855	133.38
326.084	126.38
326.313	111.38
326.542	164.38
326.77	241.38
326.999	478.38
327.228	1059.38
327.457	1922.38
327.686	1544.38
327.914	382.38
328.143	200.38
328.372	139.38
328.6	126.38
328.829	121.38
329.058	125.38
329.287	117.38
329.515	117.38
329.744	89.38
329.972	106.38
330.201	97.38
330.43	95.38
330.658	112.38
330.887	138.38
331.115	139.38
331.344	101.38
331.572	114.38
331.801	101.38
332.03	95.38
332.258	101.38
332.486	90.38
332.715	104.38
332.943	102.38
333.172	98.38
333.4	100.38
333.629	113.38
333.857	104.38
334.085	106.38
334.314	82.38
334.542	88.38
334.771	95.38
334.999	83.38
335.227	97.38
335.455	84.38
335.684	96.38
335.912	104.38
336.14	89.38
336.369	92.38
336.597	101.38
336.825	102.38
337.053	96.38
337.281	103.38
337.51	99.38
337.738	93.38
337.966	97.38
338.194	90.38
338.422	97.38
338.65	98.38
338.878	75.38
339.106	102.38
339.334	94.38
339.562	86.38
339.79	96.38
340.018	90.38
340.246	82.38
340.474	100.38
340.702	98.38
340.93	98.38
341.158	90.38
341.386	107.38
341.614	91.38
341.842	101.38
342.07	96.38
342.298	82.38
342.526	86.38
342.754	102.38
342.981	92.38
343.209	92.38
343.437	99.38
343.665	92.38
343.893	90.38
344.12	104.38
344.348	87.38
344.576	89.38
344.804	95.38
345.031	90.38
345.259	109.38
345.487	95.38
345.714	82.38
345.942	84.38
346.17	92.38
346.397	77.38
346.625	92.38
346.853	76.38
347.08	103.38
347.308	107.38
347.535	93.38
347.763	103.38
347.99	94.38
348.218	82.38
348.445	98.38
348.673	98.38
348.9	111.38
349.128	107.38
349.355	105.38
349.583	95.38
349.81	86.38
350.037	98.38
350.265	97.38
350.492	100.38
350.72	96.38
350.947	92.38
351.174	110.38
351.402	113.38
351.629	115.38
351.856	83.38
352.083	99.38
352.311	114.38
352.538	105.38
352.765	115.38
352.992	110.38
353.22	115.38
353.447	111.38
353.674	102.38
353.901	96.38
354.128	86.38
354.355	84.38
354.583	99.38
354.81	84.38
355.037	86.38
355.264	92.38
355.491	89.38
355.718	90.38
355.945	102.38
356.172	95.38
356.399	81.38
356.626	87.38
356.853	92.38
357.08	103.38
357.307	100.38
357.534	91.38
357.761	72.38
357.988	88.38
358.215	101.38
358.441	90.38
358.668	94.38
358.895	92.38
359.122	84.38
359.349	86.38
359.576	124.38
359.802	85.38
360.029	93.38
360.256	102.38
360.483	101.38
360.709	103.38
360.936	90.38
361.163	84.38
361.39	97.38
361.616	86.38
361.843	96.38
362.07	96.38
362.296	96.38
362.523	97.38
362.749	90.38
362.976	110.38
363.203	91.38
363.429	93.38
363.656	105.38
363.882	96.38
364.109	80.38
364.335	88.38
364.562	100.38
364.788	93.38
365.015	93.38
365.241	98.38
365.468	117.38
365.694	115.38
365.92	97.38
366.147	94.38
366.373	91.38
366.599	89.38
366.826	83.38
367.052	89.38
367.278	99.38
367.505	81.38
367.731	93.38
367.957	85.38
368.184	93.38
368.41	95.38
368.636	113.38
368.862	115.38
369.089	113.38
369.315	89.38
369.541	105.38
369.767	99.38
369.993	101.38
370.219	84.38
370.445	94.38
370.672	92.38
370.898	92.38
371.124	97.38
371.35	90.38
371.576	99.38
371.802	81.38
372.028	82.38
372.254	96.38
372.48	93.38
372.706	84.38
372.932	99.38
373.158	93.38
373.384	97.38
373.61	76.38
373.835	87.38
374.061	106.38
374.287	87.38
374.513	93.38
374.739	93.38
374.965	72.38
375.191	89.38
375.416	82.38
375.642	91.38
375.868	76.38
376.094	81.38
376.319	89.38
376.545	97.38
376.771	101.38
376.997	96.38
377.222	91.38
377.448	104.38
377.674	92.38
377.899	99.38
378.125	86.38
378.35	98.38
378.576	90.38
378.802	85.38
379.027	100.38
379.253	89.38
379.478	93.38
379.704	91.38
379.929	102.38
380.155	85.38
380.38	106.38
380.606	76.38
380.831	89.38
381.057	100.38
381.282	97.38
381.507	98.38
381.733	96.38
381.958	78.38
382.184	96.38
382.409	104.38
382.634	109.38
382.86	72.38
383.085	102.38
383.31	81.38
383.535	95.38
383.761	85.38
383.986	95.38
384.211	106.38
384.436	102.38
384.662	94.38
384.887	114.38
385.112	90.38
385.337	93.38
385.562	101.38
385.787	94.38
386.013	119.38
386.238	106.38
386.463	96.38
386.688	113.38
386.913	91.38
387.138	102.38
387.363	96.38
387.588	99.38
387.813	113.38
388.038	100.38
388.263	96.38
388.488	98.38
388.713	107.38
388.938	91.38
389.163	109.38
389.387	100.38
389.612	95.38
389.837	113.38
390.062	89.38
390.287	88.38
390.512	84.38
390.736	100.38
390.961	105.38
391.186	97.38
391.411	94.38
391.636	105.38
391.86	80.38
392.085	84.38
392.31	107.38
392.534	83.38
392.759	98.38
392.984	68.38
393.208	72.38
393.433	78.38
393.658	75.38
393.882	97.38
394.107	97.38
394.331	95.38
394.556	86.38
394.78	93.38
395.005	88.38
395.229	85.38
395.454	93.38
395.678	95.38
395.903	85.38
396.127	96.38
396.352	90.38
396.576	65.38
396.801	86.38
397.025	93.38
397.249	98.38
397.474	91.38
397.698	91.38
397.922	81.38
398.147	91.38
398.371	85.38
398.595	87.38
398.82	92.38
399.044	93.38
399.268	88.38
399.492	94.38
399.717	98.38
399.941	101.38
400.165	81.38
400.389	92.38
400.613	99.38
400.837	97.38
401.062	77.38
401.286	83.38
401.51	90.38
401.734	102.38
401.958	112.38
402.182	128.38
402.406	162.38
402.63	120.38
402.854	87.38
403.078	96.38
403.302	82.38
403.526	100.38
403.75	82.38
403.974	72.38
404.198	91.38
404.422	93.38
404.645	100.38
404.869	81.38
405.093	93.38
405.317	107.38
405.541	101.38
405.765	101.38
405.988	115.38
406.212	177.38
406.436	233.38
406.66	148.38
406.883	99.38
407.107	100.38
407.331	88.38
407.555	103.38
407.778	110.38
408.002	79.38
408.226	88.38
408.449	92.38
408.673	93.38
408.896	88.38
409.12	100.38
409.344	86.38
409.567	96.38
409.791	95.38
410.014	102.38
410.238	88.38
410.461	94.38
410.685	110.38
410.908	99.38
411.132	117.38
411.355	98.38
411.578	100.38
411.802	96.38
412.025	91.38
412.249	92.38
412.472	82.38
412.695	83.38
412.919	97.38
413.142	91.38
413.365	93.38
413.589	93.38
413.812	98.38
414.035	104.38
414.258	89.38
414.482	91.38
414.705	95.38
414.928	106.38
415.151	92.38
415.374	92.38
415.597	110.38
415.821	77.38
416.044	78.38
416.267	89.38
416.49	97.38
416.713	98.38
416.936	77.38
417.159	84.38
417.382	90.38
417.605	87.38
417.828	101.38
418.051	85.38
418.274	90.38
418.497	98.38
418.72	95.38
418.943	92.38
419.166	78.38
419.389	95.38
419.611	98.38
419.834	93.38
420.057	94.38
420.28	83.38
420.503	83.38
420.726	92.38
420.948	82.38
421.171	73.38
421.394	99.38
421.617	96.38
421.839	92.38
422.062	94.38
422.285	90.38
422.507	100.38
422.73	101.38
422.953	95.38
423.175	88.38
423.398	87.38
423.621	91.38
423.843	93.38
424.066	89.38
424.288	89.38
424.511	86.38
424.733	101.38
424.956	104.38
425.178	91.38
425.401	115.38
425.623	115.38
425.846	107.38
426.068	95.38
426.291	105.38
426.513	94.38
426.735	77.38
426.958	89.38
427.18	93.38
427.402	140.38
427.625	170.38
427.847	135.38
428.069	89.38
428.292	101.38
428.514	91.38
428.736	96.38
428.958	92.38
429.181	94.38
429.403	67.38
429.625	84.38
429.847	83.38
430.069	105.38
430.292	76.38
430.514	80.38
430.736	84.38
430.958	86.38
431.18	69.38
431.402	85.38
431.624	94.38
431.846	93.38
432.068	95.38
432.29	92.38
432.512	84.38
432.734	107.38
432.956	104.38
433.178	84.38
433.4	97.38
433.622	89.38
433.844	82.38
434.066	98.38
434.287	100.38
434.509	83.38
434.731	99.38
434.953	93.38
435.175	96.38
435.397	99.38
435.618	109.38
435.84	111.38
436.062	126.38
436.284	115.38
436.505	105.38
436.727	106.38
436.949	96.38
437.17	104.38
437.392	97.38
437.614	95.38
437.835	104.38
438.057	117.38
438.278	105.38
438.5	104.38
438.721	113.38
438.943	100.38
439.165	79.38
439.386	99.38
439.608	100.38
439.829	113.38
440.05	114.38
440.272	139.38
440.493	106.38
440.715	103.38
440.936	82.38
441.158	104.38
441.379	83.38
441.6	87.38
441.822	91.38
442.043	90.38
442.264	115.38
442.486	109.38
442.707	75.38
442.928	99.38
443.149	136.38
443.371	138.38
443.592	113.38
443.813	109.38
444.034	112.38
444.255	97.38
444.476	88.38
444.698	89.38
444.919	88.38
445.14	133.38
445.361	117.38
445.582	120.38
445.803	145.38
446.024	132.38
446.245	143.38
446.466	109.38
446.687	95.38
446.908	111.38
447.129	89.38
447.35	89.38
447.571	92.38
447.792	85.38
448.013	105.38
448.234	99.38
448.455	86.38
448.675	123.38
448.896	133.38
449.117	108.38
449.338	112.38
449.559	139.38
449.779	138.38
450	119.38
450.221	100.38
450.442	80.38
450.662	97.38
450.883	101.38
451.104	112.38
451.324	98.38
451.545	104.38
451.766	91.38
451.986	94.38
452.207	84.38
452.428	92.38
452.648	89.38
452.869	112.38
453.089	110.38
453.31	121.38
453.53	98.38
453.751	92.38
453.971	114.38
454.192	118.38
454.412	98.38
454.633	101.38
454.853	83.38
455.073	86.38
455.294	90.38
455.514	95.38
455.734	96.38
455.955	94.38
456.175	84.38
456.395	82.38
456.616	86.38
456.836	84.38
457.056	91.38
457.276	102.38
457.497	78.38
457.717	94.38
457.937	93.38
458.157	82.38
458.377	85.38
458.598	110.38
458.818	137.38
459.038	163.38
459.258	117.38
459.478	103.38
459.698	87.38
459.918	81.38
460.138	80.38
460.358	84.38
460.578	89.38
460.798	116.38
461.018	89.38
461.238	80.38
461.458	95.38
461.678	96.38
461.898	80.38
462.118	74.38
462.338	77.38
462.558	88.38
462.777	81.38
462.997	90.38
463.217	82.38
463.437	78.38
463.657	96.38
463.876	81.38
464.096	86.38
464.316	103.38
464.536	98.38
464.755	85.38
464.975	105.38
465.195	154.38
465.414	163.38
465.634	102.38
465.854	84.38
466.073	84.38
466.293	100.38
466.512	76.38
466.732	96.38
466.951	90.38
467.171	82.38
467.391	91.38
467.61	99.38
467.829	98.38
468.049	97.38
468.268	84.38
468.488	87.38
468.707	77.38
468.927	84.38
469.146	83.38
469.365	83.38
469.585	96.38
469.804	94.38
470.023	106.38
470.243	98.38
470.462	102.38
470.681	112.38
470.901	101.38
471.12	93.38
471.339	86.38
471.558	88.38
471.777	82.38
471.997	93.38
472.216	86.38
472.435	109.38
472.654	85.38
472.873	91.38
473.092	84.38
473.311	92.38
473.53	89.38
473.749	104.38
473.968	97.38
474.187	105.38
474.406	102.38
474.625	84.38
474.844	79.38
475.063	85.38
475.282	103.38
475.501	76.38
475.72	81.38
475.939	90.38
476.158	85.38
476.377	84.38
476.596	85.38
476.814	85.38
477.033	96.38
477.252	97.38
477.471	80.38
477.69	96.38
477.908	100.38
478.127	91.38
478.346	102.38
478.564	102.38
478.783	91.38
479.002	104.38
479.22	91.38
479.439	88.38
479.658	101.38
479.876	96.38
480.095	92.38
480.313	92.38
480.532	75.38
480.751	90.38
480.969	77.38
481.188	82.38
481.406	101.38
481.624	78.38
481.843	98.38
482.061	87.38
482.28	77.38
482.498	82.38
482.717	96.38
482.935	92.38
483.153	94.38
483.372	95.38
483.59	97.38
483.808	85.38
484.027	94.38
484.245	98.38
484.463	97.38
484.681	92.38
484.9	107.38
485.118	93.38
485.336	91.38
485.554	106.38
485.772	95.38
485.99	97.38
486.209	92.38
486.427	114.38
486.645	107.38
486.863	112.38
487.081	95.38
487.299	116.38
487.517	108.38
487.735	107.38
487.953	86.38
488.171	93.38
488.389	90.38
488.607	97.38
488.825	86.38
489.043	93.38
489.261	86.38
489.479	88.38
489.696	81.38
489.914	82.38
490.132	88.38
490.35	93.38
490.568	74.38
490.786	101.38
491.003	93.38
491.221	96.38
491.439	85.38
491.657	91.38
491.874	116.38
492.092	92.38
492.31	104.38
492.527	85.38
492.745	97.38
492.963	98.38
493.18	88.38
493.398	88.38
493.615	91.38
493.833	92.38
494.05	90.38
494.268	77.38
494.485	95.38
494.703	90.38
494.92	82.38
495.138	98.38
495.355	83.38
495.573	86.38
495.79	96.38
496.008	76.38
496.225	101.38
496.442	85.38
496.66	90.38
496.877	95.38
497.094	102.38
497.312	97.38
497.529	105.38
497.746	96.38
497.963	79.38
498.181	87.38
498.398	109.38
498.615	116.38
498.832	107.38
499.049	84.38
499.267	90.38
499.484	81.38
499.701	102.38
499.918	80.38
500.135	89.38
500.352	90.38
500.569	96.38
500.786	96.38
501.003	94.38
501.22	86.38
501.437	101.38
501.654	104.38
501.871	111.38
502.088	92.38
502.305	87.38
502.522	96.38
502.739	93.38
502.956	86.38
503.172	98.38
503.389	92.38
503.606	105.38
503.823	90.38
504.04	97.38
504.256	88.38
504.473	94.38
504.69	96.38
504.907	103.38
505.123	86.38
505.34	76.38
505.557	93.38
505.773	99.38
505.99	96.38
506.207	79.38
506.423	86.38
506.64	104.38
506.856	83.38
507.073	105.38
507.289	86.38
507.506	100.38
507.722	112.38
507.939	111.38
508.155	100.38
508.372	99.38
508.588	90.38
508.805	95.38
509.021	107.38
509.238	105.38
509.454	95.38
509.67	106.38
509.887	110.38
510.103	131.38
510.319	215.38
510.536	799.38
510.752	2607.38
510.968	720.38
511.184	155.38
511.401	107.38
511.617	108.38
511.833	106.38
512.049	96.38
512.265	85.38
512.481	93.38
512.698	100.38
512.914	97.38
513.13	81.38
513.346	106.38
513.562	86.38
513.778	114.38
513.994	104.38
514.21	94.38
514.426	127.38
514.642	129.38
514.858	129.38
515.074	164.38
515.29	472.38
