Data from Uncirc_2007_H10_HRD10591_00057.txt Node
Date: Wed Jan 03 10:20:54 EST 2024
User: Yrep
Spectrometer: HR+D1059
Trigger mode: 1
Integration Time (sec): 1.000000E-1
Scans to average: 1
Electric dark correction enabled: true
Nonlinearity correction enabled: false
Boxcar width: 0
XAxis mode: Wavelengths
Number of Pixels in Spectrum: 2048
>>>>>Begin Spectral Data<<<<<
223.165	-12.62
223.4	-12.62
223.635	-12.62
223.869	-20.62
224.104	-30.62
224.338	-5.62
224.573	-13.62
224.808	-1.62
225.042	0.38
225.277	-15.62
225.511	-3.62
225.746	-4.62
225.98	1.38
226.215	11.38
226.449	21.38
226.683	19.38
226.918	24.38
227.152	30.38
227.387	28.38
227.621	39.38
227.856	42.38
228.09	43.38
228.324	44.38
228.559	50.38
228.793	61.38
229.027	70.38
229.262	62.38
229.496	65.38
229.73	88.38
229.964	71.38
230.199	63.38
230.433	73.38
230.667	68.38
230.901	78.38
231.136	75.38
231.37	91.38
231.604	72.38
231.838	78.38
232.072	75.38
232.306	70.38
232.541	71.38
232.775	76.38
233.009	90.38
233.243	90.38
233.477	77.38
233.711	79.38
233.945	75.38
234.179	79.38
234.413	72.38
234.647	77.38
234.881	84.38
235.115	74.38
235.349	84.38
235.583	82.38
235.817	79.38
236.051	77.38
236.285	74.38
236.519	67.38
236.753	51.38
236.987	74.38
237.221	85.38
237.455	83.38
237.689	73.38
237.922	68.38
238.156	77.38
238.39	75.38
238.624	81.38
238.858	68.38
239.091	79.38
239.325	78.38
239.559	87.38
239.793	73.38
240.027	64.38
240.26	73.38
240.494	74.38
240.728	83.38
240.961	80.38
241.195	82.38
241.429	72.38
241.662	74.38
241.896	81.38
242.13	91.38
242.363	75.38
242.597	73.38
242.83	78.38
243.064	82.38
243.298	71.38
243.531	72.38
243.765	76.38
243.998	73.38
244.232	75.38
244.465	75.38
244.699	86.38
244.932	74.38
245.166	75.38
245.399	80.38
245.633	80.38
245.866	71.38
246.099	82.38
246.333	81.38
246.566	85.38
246.8	77.38
247.033	78.38
247.266	81.38
247.5	78.38
247.733	88.38
247.966	76.38
248.2	59.38
248.433	80.38
248.666	79.38
248.899	76.38
249.133	78.38
249.366	107.38
249.599	92.38
249.832	73.38
250.066	82.38
250.299	88.38
250.532	88.38
250.765	87.38
250.998	77.38
251.231	88.38
251.465	83.38
251.698	85.38
251.931	80.38
252.164	72.38
252.397	70.38
252.63	75.38
252.863	85.38
253.096	88.38
253.329	62.38
253.562	83.38
253.795	85.38
254.028	88.38
254.261	82.38
254.494	73.38
254.727	83.38
254.96	87.38
255.193	90.38
255.426	85.38
255.659	78.38
255.892	82.38
256.124	81.38
256.357	70.38
256.59	94.38
256.823	83.38
257.056	98.38
257.289	81.38
257.521	94.38
257.754	66.38
257.987	71.38
258.22	70.38
258.452	80.38
258.685	82.38
258.918	86.38
259.151	94.38
259.383	80.38
259.616	70.38
259.849	80.38
260.081	84.38
260.314	76.38
260.547	82.38
260.779	84.38
261.012	77.38
261.244	91.38
261.477	84.38
261.71	102.38
261.942	100.38
262.175	115.38
262.407	83.38
262.64	78.38
262.872	72.38
263.105	82.38
263.337	85.38
263.57	72.38
263.802	89.38
264.035	73.38
264.267	81.38
264.499	83.38
264.732	86.38
264.964	75.38
265.197	90.38
265.429	78.38
265.661	81.38
265.894	81.38
266.126	103.38
266.358	90.38
266.591	89.38
266.823	84.38
267.055	86.38
267.287	76.38
267.52	100.38
267.752	96.38
267.984	76.38
268.216	63.38
268.448	83.38
268.681	81.38
268.913	80.38
269.145	83.38
269.377	71.38
269.609	92.38
269.841	81.38
270.073	85.38
270.306	88.38
270.538	88.38
270.77	87.38
271.002	82.38
271.234	75.38
271.466	82.38
271.698	84.38
271.93	97.38
272.162	106.38
272.394	90.38
272.626	84.38
272.858	80.38
273.09	72.38
273.322	84.38
273.553	79.38
273.785	76.38
274.017	83.38
274.249	83.38
274.481	66.38
274.713	83.38
274.945	96.38
275.176	83.38
275.408	87.38
275.64	76.38
275.872	91.38
276.104	85.38
276.335	90.38
276.567	87.38
276.799	108.38
277.031	95.38
277.262	97.38
277.494	89.38
277.726	84.38
277.957	91.38
278.189	91.38
278.421	86.38
278.652	95.38
278.884	90.38
279.115	89.38
279.347	79.38
279.579	79.38
279.81	81.38
280.042	71.38
280.273	73.38
280.505	90.38
280.736	90.38
280.968	82.38
281.199	79.38
281.431	94.38
281.662	79.38
281.894	75.38
282.125	98.38
282.356	94.38
282.588	131.38
282.819	109.38
283.051	83.38
283.282	88.38
283.513	88.38
283.745	87.38
283.976	94.38
284.207	84.38
284.439	80.38
284.67	89.38
284.901	74.38
285.132	76.38
285.364	79.38
285.595	96.38
285.826	99.38
286.057	79.38
286.288	81.38
286.52	79.38
286.751	95.38
286.982	84.38
287.213	77.38
287.444	90.38
287.675	97.38
287.906	84.38
288.138	91.38
288.369	85.38
288.6	90.38
288.831	83.38
289.062	97.38
289.293	89.38
289.524	86.38
289.755	81.38
289.986	86.38
290.217	88.38
290.448	83.38
290.679	86.38
290.91	91.38
291.141	75.38
291.371	89.38
291.602	84.38
291.833	92.38
292.064	83.38
292.295	81.38
292.526	90.38
292.757	90.38
292.987	89.38
293.218	82.38
293.449	85.38
293.68	78.38
293.91	78.38
294.141	86.38
294.372	77.38
294.603	96.38
294.833	88.38
295.064	82.38
295.295	87.38
295.525	96.38
295.756	105.38
295.987	116.38
296.217	136.38
296.448	111.38
296.679	88.38
296.909	94.38
297.14	91.38
297.37	103.38
297.601	98.38
297.831	90.38
298.062	102.38
298.292	82.38
298.523	82.38
298.753	75.38
298.984	78.38
299.214	77.38
299.445	83.38
299.675	93.38
299.905	85.38
300.136	95.38
300.366	83.38
300.597	90.38
300.827	93.38
301.057	91.38
301.288	91.38
301.518	98.38
301.748	97.38
301.979	91.38
302.209	75.38
302.439	95.38
302.669	87.38
302.9	72.38
303.13	88.38
303.36	89.38
303.59	90.38
303.82	107.38
304.051	90.38
304.281	89.38
304.511	91.38
304.741	91.38
304.971	93.38
305.201	87.38
305.431	83.38
305.661	91.38
305.891	74.38
306.121	89.38
306.352	91.38
306.582	100.38
306.812	93.38
307.042	94.38
307.272	84.38
307.502	102.38
307.731	86.38
307.961	102.38
308.191	93.38
308.421	96.38
308.651	87.38
308.881	97.38
309.111	100.38
309.341	92.38
309.571	107.38
309.8	104.38
310.03	97.38
310.26	93.38
310.49	88.38
310.72	97.38
310.949	107.38
311.179	96.38
311.409	102.38
311.639	97.38
311.868	88.38
312.098	97.38
312.328	89.38
312.557	98.38
312.787	102.38
313.017	98.38
313.246	77.38
313.476	79.38
313.706	95.38
313.935	98.38
314.165	95.38
314.394	99.38
314.624	105.38
314.853	93.38
315.083	88.38
315.312	104.38
315.542	77.38
315.771	104.38
316.001	90.38
316.23	98.38
316.46	78.38
316.689	93.38
316.919	101.38
317.148	107.38
317.377	98.38
317.607	87.38
317.836	86.38
318.065	95.38
318.295	94.38
318.524	100.38
318.753	94.38
318.983	93.38
319.212	96.38
319.441	102.38
319.67	115.38
319.9	101.38
320.129	78.38
320.358	86.38
320.587	89.38
320.816	109.38
321.046	99.38
321.275	97.38
321.504	95.38
321.733	113.38
321.962	112.38
322.191	84.38
322.42	100.38
322.649	115.38
322.878	107.38
323.108	118.38
323.337	125.38
323.566	141.38
323.795	170.38
324.024	188.38
324.253	409.38
324.482	847.38
324.71	1770.38
324.939	2345.38
325.168	856.38
325.397	257.38
325.626	158.38
325.855	134.38
326.084	123.38
326.313	125.38
326.542	147.38
326.77	225.38
326.999	467.38
327.228	1017.38
327.457	1783.38
327.686	1369.38
327.914	376.38
328.143	184.38
328.372	139.38
328.6	119.38
328.829	110.38
329.058	134.38
329.287	126.38
329.515	106.38
329.744	114.38
329.972	99.38
330.201	78.38
330.43	97.38
330.658	109.38
330.887	122.38
331.115	112.38
331.344	94.38
331.572	88.38
331.801	109.38
332.03	112.38
332.258	95.38
332.486	99.38
332.715	90.38
332.943	99.38
333.172	104.38
333.4	83.38
333.629	104.38
333.857	105.38
334.085	100.38
334.314	88.38
334.542	84.38
334.771	95.38
334.999	92.38
335.227	91.38
335.455	85.38
335.684	94.38
335.912	84.38
336.14	102.38
336.369	99.38
336.597	96.38
336.825	91.38
337.053	90.38
337.281	91.38
337.51	94.38
337.738	104.38
337.966	89.38
338.194	100.38
338.422	93.38
338.65	96.38
338.878	78.38
339.106	97.38
339.334	76.38
339.562	90.38
339.79	86.38
340.018	80.38
340.246	81.38
340.474	105.38
340.702	91.38
340.93	104.38
341.158	92.38
341.386	104.38
341.614	91.38
341.842	88.38
342.07	90.38
342.298	95.38
342.526	94.38
342.754	91.38
342.981	83.38
343.209	84.38
343.437	88.38
343.665	92.38
343.893	98.38
344.12	89.38
344.348	77.38
344.576	84.38
344.804	94.38
345.031	96.38
345.259	100.38
345.487	97.38
345.714	71.38
345.942	98.38
346.17	91.38
346.397	83.38
346.625	87.38
346.853	91.38
347.08	94.38
347.308	100.38
347.535	80.38
347.763	106.38
347.99	92.38
348.218	107.38
348.445	112.38
348.673	90.38
348.9	92.38
349.128	99.38
349.355	96.38
349.583	92.38
349.81	95.38
350.037	81.38
350.265	88.38
350.492	99.38
350.72	96.38
350.947	84.38
351.174	122.38
351.402	88.38
351.629	99.38
351.856	101.38
352.083	102.38
352.311	116.38
352.538	88.38
352.765	92.38
352.992	115.38
353.22	111.38
353.447	82.38
353.674	99.38
353.901	109.38
354.128	97.38
354.355	87.38
354.583	105.38
354.81	101.38
355.037	105.38
355.264	91.38
355.491	94.38
355.718	84.38
355.945	78.38
356.172	94.38
356.399	89.38
356.626	98.38
356.853	98.38
357.08	86.38
357.307	100.38
357.534	106.38
357.761	105.38
357.988	95.38
358.215	79.38
358.441	101.38
358.668	91.38
358.895	82.38
359.122	93.38
359.349	84.38
359.576	95.38
359.802	96.38
360.029	96.38
360.256	92.38
360.483	88.38
360.709	94.38
360.936	109.38
361.163	91.38
361.39	86.38
361.616	85.38
361.843	109.38
362.07	96.38
362.296	85.38
362.523	91.38
362.749	97.38
362.976	94.38
363.203	94.38
363.429	88.38
363.656	84.38
363.882	87.38
364.109	92.38
364.335	84.38
364.562	78.38
364.788	98.38
365.015	89.38
365.241	75.38
365.468	100.38
365.694	97.38
365.92	92.38
366.147	64.38
366.373	86.38
366.599	87.38
366.826	90.38
367.052	77.38
367.278	84.38
367.505	84.38
367.731	98.38
367.957	82.38
368.184	90.38
368.41	88.38
368.636	108.38
368.862	113.38
369.089	115.38
369.315	99.38
369.541	92.38
369.767	94.38
369.993	89.38
370.219	82.38
370.445	102.38
370.672	99.38
370.898	84.38
371.124	92.38
371.35	97.38
371.576	80.38
371.802	98.38
372.028	87.38
372.254	101.38
372.48	89.38
372.706	86.38
372.932	83.38
373.158	94.38
373.384	81.38
373.61	85.38
373.835	93.38
374.061	79.38
374.287	88.38
374.513	95.38
374.739	96.38
374.965	83.38
375.191	75.38
375.416	84.38
375.642	92.38
375.868	96.38
376.094	87.38
376.319	89.38
376.545	89.38
376.771	84.38
376.997	93.38
377.222	98.38
377.448	95.38
377.674	94.38
377.899	78.38
378.125	91.38
378.35	96.38
378.576	92.38
378.802	103.38
379.027	84.38
379.253	83.38
379.478	95.38
379.704	88.38
379.929	97.38
380.155	98.38
380.38	98.38
380.606	75.38
380.831	86.38
381.057	92.38
381.282	80.38
381.507	102.38
381.733	96.38
381.958	100.38
382.184	99.38
382.409	99.38
382.634	96.38
382.86	80.38
383.085	95.38
383.31	90.38
383.535	89.38
383.761	96.38
383.986	102.38
384.211	83.38
384.436	92.38
384.662	93.38
384.887	96.38
385.112	83.38
385.337	89.38
385.562	95.38
385.787	100.38
386.013	102.38
386.238	114.38
386.463	109.38
386.688	105.38
386.913	105.38
387.138	118.38
387.363	95.38
387.588	87.38
387.813	89.38
388.038	95.38
388.263	120.38
388.488	106.38
388.713	97.38
388.938	79.38
389.163	98.38
389.387	102.38
389.612	87.38
389.837	109.38
390.062	92.38
390.287	78.38
390.512	85.38
390.736	101.38
390.961	97.38
391.186	89.38
391.411	75.38
391.636	105.38
391.86	82.38
392.085	78.38
392.31	96.38
392.534	89.38
392.759	88.38
392.984	94.38
393.208	85.38
393.433	85.38
393.658	95.38
393.882	94.38
394.107	81.38
394.331	98.38
394.556	84.38
394.78	88.38
395.005	89.38
395.229	79.38
395.454	109.38
395.678	77.38
395.903	93.38
396.127	94.38
396.352	79.38
396.576	84.38
396.801	88.38
397.025	87.38
397.249	80.38
397.474	89.38
397.698	78.38
397.922	78.38
398.147	71.38
398.371	84.38
398.595	75.38
398.82	84.38
399.044	102.38
399.268	89.38
399.492	90.38
399.717	77.38
399.941	98.38
400.165	76.38
400.389	84.38
400.613	84.38
400.837	96.38
401.062	78.38
401.286	72.38
401.51	88.38
401.734	101.38
401.958	104.38
402.182	111.38
402.406	147.38
402.63	115.38
402.854	88.38
403.078	99.38
403.302	81.38
403.526	107.38
403.75	88.38
403.974	77.38
404.198	85.38
404.422	88.38
404.645	78.38
404.869	95.38
405.093	83.38
405.317	97.38
405.541	99.38
405.765	95.38
405.988	104.38
406.212	157.38
406.436	208.38
406.66	139.38
406.883	86.38
407.107	95.38
407.331	87.38
407.555	105.38
407.778	90.38
408.002	72.38
408.226	84.38
408.449	79.38
408.673	93.38
408.896	86.38
409.12	94.38
409.344	83.38
409.567	85.38
409.791	89.38
410.014	83.38
410.238	93.38
410.461	82.38
410.685	99.38
410.908	95.38
411.132	103.38
411.355	95.38
411.578	84.38
411.802	91.38
412.025	83.38
412.249	76.38
412.472	90.38
412.695	88.38
412.919	95.38
413.142	87.38
413.365	83.38
413.589	88.38
413.812	102.38
414.035	91.38
414.258	83.38
414.482	74.38
414.705	90.38
414.928	78.38
415.151	90.38
415.374	100.38
415.597	102.38
415.821	102.38
416.044	78.38
416.267	92.38
416.49	92.38
416.713	95.38
416.936	93.38
417.159	90.38
417.382	87.38
417.605	87.38
417.828	95.38
418.051	88.38
418.274	84.38
418.497	91.38
418.72	90.38
418.943	103.38
419.166	82.38
419.389	83.38
419.611	87.38
419.834	79.38
420.057	91.38
420.28	88.38
420.503	87.38
420.726	90.38
420.948	82.38
421.171	86.38
421.394	94.38
421.617	84.38
421.839	102.38
422.062	66.38
422.285	81.38
422.507	99.38
422.73	92.38
422.953	104.38
423.175	93.38
423.398	85.38
423.621	99.38
423.843	87.38
424.066	79.38
424.288	77.38
424.511	84.38
424.733	104.38
424.956	106.38
425.178	95.38
425.401	89.38
425.623	91.38
425.846	90.38
426.068	94.38
426.291	95.38
426.513	105.38
426.735	98.38
426.958	87.38
427.18	93.38
427.402	130.38
427.625	158.38
427.847	123.38
428.069	81.38
428.292	90.38
428.514	88.38
428.736	85.38
428.958	97.38
429.181	76.38
429.403	91.38
429.625	75.38
429.847	88.38
430.069	84.38
430.292	81.38
430.514	90.38
430.736	84.38
430.958	81.38
431.18	87.38
431.402	78.38
431.624	80.38
431.846	86.38
432.068	87.38
432.29	89.38
432.512	74.38
432.734	81.38
432.956	94.38
433.178	103.38
433.4	98.38
433.622	89.38
433.844	92.38
434.066	78.38
434.287	84.38
434.509	77.38
434.731	89.38
434.953	88.38
435.175	78.38
435.397	99.38
435.618	95.38
435.84	105.38
436.062	127.38
436.284	118.38
436.505	91.38
436.727	90.38
436.949	90.38
437.17	83.38
437.392	94.38
437.614	99.38
437.835	101.38
438.057	119.38
438.278	107.38
438.5	110.38
438.721	113.38
438.943	99.38
439.165	92.38
439.386	80.38
439.608	101.38
439.829	96.38
440.05	129.38
440.272	134.38
440.493	81.38
440.715	67.38
440.936	80.38
441.158	87.38
441.379	74.38
441.6	101.38
441.822	107.38
442.043	102.38
442.264	106.38
442.486	101.38
442.707	95.38
442.928	92.38
443.149	133.38
443.371	123.38
443.592	97.38
443.813	122.38
444.034	119.38
444.255	77.38
444.476	98.38
444.698	85.38
444.919	79.38
445.14	122.38
445.361	120.38
445.582	115.38
445.803	138.38
446.024	119.38
446.245	133.38
446.466	132.38
446.687	88.38
446.908	78.38
447.129	82.38
447.35	76.38
447.571	93.38
447.792	94.38
448.013	110.38
448.234	110.38
448.455	104.38
448.675	104.38
448.896	113.38
449.117	98.38
449.338	94.38
449.559	125.38
449.779	137.38
450	90.38
450.221	80.38
450.442	90.38
450.662	92.38
450.883	91.38
451.104	106.38
451.324	87.38
451.545	83.38
451.766	83.38
451.986	87.38
452.207	87.38
452.428	91.38
452.648	92.38
452.869	100.38
453.089	101.38
453.31	111.38
453.53	100.38
453.751	94.38
453.971	95.38
454.192	119.38
454.412	77.38
454.633	83.38
454.853	80.38
455.073	103.38
455.294	92.38
455.514	103.38
455.734	89.38
455.955	93.38
456.175	84.38
456.395	83.38
456.616	80.38
456.836	83.38
457.056	75.38
457.276	96.38
457.497	80.38
457.717	79.38
457.937	91.38
458.157	89.38
458.377	86.38
458.598	117.38
458.818	147.38
459.038	134.38
459.258	112.38
459.478	93.38
459.698	77.38
459.918	82.38
460.138	87.38
460.358	103.38
460.578	77.38
460.798	79.38
461.018	79.38
461.238	83.38
461.458	81.38
461.678	82.38
461.898	90.38
462.118	71.38
462.338	77.38
462.558	72.38
462.777	75.38
462.997	87.38
463.217	75.38
463.437	79.38
463.657	78.38
463.876	81.38
464.096	87.38
464.316	86.38
464.536	92.38
464.755	94.38
464.975	109.38
465.195	154.38
465.414	152.38
465.634	81.38
465.854	78.38
466.073	88.38
466.293	84.38
466.512	60.38
466.732	76.38
466.951	77.38
467.171	92.38
467.391	99.38
467.61	98.38
467.829	105.38
468.049	89.38
468.268	74.38
468.488	67.38
468.707	93.38
468.927	82.38
469.146	87.38
469.365	78.38
469.585	78.38
469.804	87.38
470.023	112.38
470.243	89.38
470.462	95.38
470.681	104.38
470.901	95.38
471.12	83.38
471.339	84.38
471.558	87.38
471.777	83.38
471.997	84.38
472.216	87.38
472.435	84.38
472.654	94.38
472.873	75.38
473.092	86.38
473.311	74.38
473.53	81.38
473.749	85.38
473.968	94.38
474.187	92.38
474.406	77.38
474.625	75.38
474.844	70.38
475.063	89.38
475.282	88.38
475.501	87.38
475.72	92.38
475.939	84.38
476.158	96.38
476.377	91.38
476.596	83.38
476.814	90.38
477.033	102.38
477.252	87.38
477.471	94.38
477.69	90.38
477.908	99.38
478.127	100.38
478.346	91.38
478.564	98.38
478.783	94.38
479.002	89.38
479.22	88.38
479.439	91.38
479.658	108.38
479.876	94.38
480.095	105.38
480.313	81.38
480.532	93.38
480.751	86.38
480.969	95.38
481.188	97.38
481.406	98.38
481.624	92.38
481.843	82.38
482.061	83.38
482.28	91.38
482.498	83.38
482.717	93.38
482.935	89.38
483.153	88.38
483.372	102.38
483.59	92.38
483.808	91.38
484.027	96.38
484.245	95.38
484.463	84.38
484.681	83.38
484.9	91.38
485.118	91.38
485.336	88.38
485.554	99.38
485.772	95.38
485.99	107.38
486.209	88.38
486.427	93.38
486.645	90.38
486.863	111.38
487.081	106.38
487.299	96.38
487.517	73.38
487.735	84.38
487.953	89.38
488.171	81.38
488.389	97.38
488.607	111.38
488.825	83.38
489.043	82.38
489.261	98.38
489.479	89.38
489.696	94.38
489.914	72.38
490.132	89.38
490.35	107.38
490.568	88.38
490.786	89.38
491.003	76.38
491.221	84.38
491.439	88.38
491.657	102.38
491.874	75.38
492.092	93.38
492.31	99.38
492.527	85.38
492.745	83.38
492.963	88.38
493.18	75.38
493.398	85.38
493.615	95.38
493.833	91.38
494.05	87.38
494.268	84.38
494.485	91.38
494.703	76.38
494.92	89.38
495.138	88.38
495.355	81.38
495.573	86.38
495.79	88.38
496.008	90.38
496.225	78.38
496.442	74.38
496.66	78.38
496.877	95.38
497.094	104.38
497.312	94.38
497.529	90.38
497.746	97.38
497.963	86.38
498.181	84.38
498.398	107.38
498.615	111.38
498.832	95.38
499.049	109.38
499.267	90.38
499.484	92.38
499.701	76.38
499.918	95.38
500.135	92.38
500.352	92.38
500.569	91.38
500.786	90.38
501.003	94.38
501.22	59.38
501.437	84.38
501.654	105.38
501.871	108.38
502.088	94.38
502.305	103.38
502.522	82.38
502.739	74.38
502.956	84.38
503.172	94.38
503.389	102.38
503.606	102.38
503.823	97.38
504.04	102.38
504.256	80.38
504.473	96.38
504.69	81.38
504.907	89.38
505.123	89.38
505.34	88.38
505.557	83.38
505.773	83.38
505.99	97.38
506.207	100.38
506.423	81.38
506.64	84.38
506.856	85.38
507.073	83.38
507.289	84.38
507.506	95.38
507.722	102.38
507.939	92.38
508.155	100.38
508.372	87.38
508.588	92.38
508.805	90.38
509.021	89.38
509.238	97.38
509.454	99.38
509.67	117.38
509.887	96.38
510.103	136.38
510.319	215.38
510.536	740.38
510.752	2438.38
510.968	671.38
511.184	148.38
511.401	102.38
511.617	99.38
511.833	86.38
512.049	84.38
512.265	90.38
512.481	97.38
512.698	102.38
512.914	90.38
513.13	91.38
513.346	83.38
513.562	95.38
513.778	91.38
513.994	88.38
514.21	107.38
514.426	110.38
514.642	130.38
514.858	128.38
515.074	165.38
515.29	449.38
515.506	1440.38
515.721	541.38
515.937	161.38
516.153	121.38
516.369	104.38
