Data from Uncirc_2007_H10_HRD10591_00053.txt Node
Date: Wed Jan 03 10:20:53 EST 2024
User: Yrep
Spectrometer: HR+D1059
Trigger mode: 1
Integration Time (sec): 1.000000E-1
Scans to average: 1
Electric dark correction enabled: true
Nonlinearity correction enabled: false
Boxcar width: 0
XAxis mode: Wavelengths
Number of Pixels in Spectrum: 2048
>>>>>Begin Spectral Data<<<<<
223.165	-25.5
223.4	-25.5
223.635	-25.5
223.869	-15.5
224.104	-19.5
224.338	-12.5
224.573	-17.5
224.808	-27.5
225.042	-4.5
225.277	4.5
225.511	-11.5
225.746	1.5
225.98	3.5
226.215	13.5
226.449	15.5
226.683	29.5
226.918	33.5
227.152	32.5
227.387	34.5
227.621	35.5
227.856	40.5
228.09	53.5
228.324	57.5
228.559	69.5
228.793	50.5
229.027	66.5
229.262	69.5
229.496	69.5
229.73	85.5
229.964	84.5
230.199	73.5
230.433	86.5
230.667	80.5
230.901	68.5
231.136	95.5
231.37	89.5
231.604	82.5
231.838	68.5
232.072	83.5
232.306	91.5
232.541	82.5
232.775	96.5
233.009	85.5
233.243	87.5
233.477	79.5
233.711	78.5
233.945	86.5
234.179	79.5
234.413	92.5
234.647	78.5
234.881	80.5
235.115	76.5
235.349	76.5
235.583	78.5
235.817	83.5
236.051	86.5
236.285	89.5
236.519	81.5
236.753	81.5
236.987	83.5
237.221	83.5
237.455	85.5
237.689	98.5
237.922	103.5
238.156	70.5
238.39	86.5
238.624	70.5
238.858	76.5
239.091	80.5
239.325	75.5
239.559	70.5
239.793	76.5
240.027	65.5
240.26	72.5
240.494	81.5
240.728	82.5
240.961	86.5
241.195	76.5
241.429	78.5
241.662	70.5
241.896	76.5
242.13	74.5
242.363	73.5
242.597	84.5
242.83	87.5
243.064	92.5
243.298	79.5
243.531	83.5
243.765	94.5
243.998	66.5
244.232	93.5
244.465	81.5
244.699	79.5
244.932	82.5
245.166	90.5
245.399	91.5
245.633	68.5
245.866	71.5
246.099	74.5
246.333	70.5
246.566	83.5
246.8	85.5
247.033	86.5
247.266	81.5
247.5	73.5
247.733	90.5
247.966	92.5
248.2	86.5
248.433	92.5
248.666	84.5
248.899	82.5
249.133	74.5
249.366	94.5
249.599	85.5
249.832	79.5
250.066	98.5
250.299	85.5
250.532	83.5
250.765	83.5
250.998	71.5
251.231	83.5
251.465	74.5
251.698	78.5
251.931	87.5
252.164	77.5
252.397	79.5
252.63	90.5
252.863	79.5
253.096	87.5
253.329	87.5
253.562	75.5
253.795	78.5
254.028	82.5
254.261	75.5
254.494	83.5
254.727	85.5
254.96	80.5
255.193	87.5
255.426	92.5
255.659	79.5
255.892	98.5
256.124	90.5
256.357	82.5
256.59	75.5
256.823	77.5
257.056	78.5
257.289	77.5
257.521	82.5
257.754	83.5
257.987	81.5
258.22	81.5
258.452	81.5
258.685	65.5
258.918	84.5
259.151	79.5
259.383	96.5
259.616	87.5
259.849	86.5
260.081	81.5
260.314	89.5
260.547	91.5
260.779	99.5
261.012	86.5
261.244	82.5
261.477	82.5
261.71	106.5
261.942	101.5
262.175	116.5
262.407	86.5
262.64	93.5
262.872	86.5
263.105	81.5
263.337	91.5
263.57	75.5
263.802	100.5
264.035	88.5
264.267	86.5
264.499	88.5
264.732	85.5
264.964	82.5
265.197	83.5
265.429	70.5
265.661	75.5
265.894	71.5
266.126	86.5
266.358	83.5
266.591	72.5
266.823	92.5
267.055	85.5
267.287	74.5
267.52	79.5
267.752	75.5
267.984	89.5
268.216	86.5
268.448	89.5
268.681	78.5
268.913	91.5
269.145	94.5
269.377	78.5
269.609	81.5
269.841	80.5
270.073	80.5
270.306	81.5
270.538	86.5
270.77	73.5
271.002	77.5
271.234	80.5
271.466	87.5
271.698	107.5
271.93	74.5
272.162	83.5
272.394	92.5
272.626	86.5
272.858	87.5
273.09	87.5
273.322	83.5
273.553	94.5
273.785	96.5
274.017	91.5
274.249	85.5
274.481	78.5
274.713	84.5
274.945	102.5
275.176	82.5
275.408	88.5
275.64	87.5
275.872	83.5
276.104	90.5
276.335	82.5
276.567	95.5
276.799	116.5
277.031	101.5
277.262	82.5
277.494	91.5
277.726	87.5
277.957	90.5
278.189	76.5
278.421	82.5
278.652	94.5
278.884	95.5
279.115	91.5
279.347	91.5
279.579	92.5
279.81	90.5
280.042	73.5
280.273	93.5
280.505	76.5
280.736	84.5
280.968	87.5
281.199	81.5
281.431	87.5
281.662	75.5
281.894	81.5
282.125	87.5
282.356	114.5
282.588	134.5
282.819	118.5
283.051	92.5
283.282	81.5
283.513	96.5
283.745	83.5
283.976	92.5
284.207	75.5
284.439	91.5
284.67	88.5
284.901	78.5
285.132	93.5
285.364	80.5
285.595	86.5
285.826	92.5
286.057	78.5
286.288	100.5
286.52	91.5
286.751	92.5
286.982	87.5
287.213	93.5
287.444	94.5
287.675	75.5
287.906	97.5
288.138	87.5
288.369	86.5
288.6	79.5
288.831	93.5
289.062	84.5
289.293	78.5
289.524	91.5
289.755	83.5
289.986	78.5
290.217	82.5
290.448	89.5
290.679	88.5
290.91	99.5
291.141	81.5
291.371	82.5
291.602	89.5
291.833	85.5
292.064	94.5
292.295	95.5
292.526	69.5
292.757	95.5
292.987	102.5
293.218	92.5
293.449	89.5
293.68	82.5
293.91	95.5
294.141	86.5
294.372	83.5
294.603	84.5
294.833	96.5
295.064	89.5
295.295	90.5
295.525	89.5
295.756	95.5
295.987	114.5
296.217	137.5
296.448	108.5
296.679	97.5
296.909	97.5
297.14	82.5
297.37	93.5
297.601	82.5
297.831	85.5
298.062	95.5
298.292	96.5
298.523	100.5
298.753	94.5
298.984	91.5
299.214	98.5
299.445	99.5
299.675	90.5
299.905	100.5
300.136	96.5
300.366	91.5
300.597	98.5
300.827	92.5
301.057	105.5
301.288	97.5
301.518	95.5
301.748	83.5
301.979	114.5
302.209	90.5
302.439	85.5
302.669	94.5
302.9	92.5
303.13	86.5
303.36	95.5
303.59	93.5
303.82	98.5
304.051	97.5
304.281	110.5
304.511	99.5
304.741	91.5
304.971	99.5
305.201	89.5
305.431	103.5
305.661	106.5
305.891	92.5
306.121	95.5
306.352	106.5
306.582	116.5
306.812	103.5
307.042	108.5
307.272	98.5
307.502	105.5
307.731	91.5
307.961	87.5
308.191	87.5
308.421	94.5
308.651	90.5
308.881	92.5
309.111	90.5
309.341	109.5
309.571	112.5
309.8	107.5
310.03	98.5
310.26	94.5
310.49	95.5
310.72	95.5
310.949	96.5
311.179	106.5
311.409	109.5
311.639	92.5
311.868	86.5
312.098	97.5
312.328	86.5
312.557	111.5
312.787	128.5
313.017	106.5
313.246	89.5
313.476	96.5
313.706	93.5
313.935	92.5
314.165	111.5
314.394	107.5
314.624	86.5
314.853	81.5
315.083	77.5
315.312	103.5
315.542	83.5
315.771	110.5
316.001	105.5
316.23	94.5
316.46	88.5
316.689	93.5
316.919	94.5
317.148	102.5
317.377	109.5
317.607	100.5
317.836	99.5
318.065	75.5
318.295	103.5
318.524	93.5
318.753	97.5
318.983	97.5
319.212	108.5
319.441	105.5
319.67	105.5
319.9	98.5
320.129	93.5
320.358	95.5
320.587	108.5
320.816	108.5
321.046	94.5
321.275	102.5
321.504	97.5
321.733	97.5
321.962	104.5
322.191	112.5
322.42	94.5
322.649	110.5
322.878	107.5
323.108	126.5
323.337	111.5
323.566	124.5
323.795	156.5
324.024	220.5
324.253	411.5
324.482	912.5
324.71	1860.5
324.939	2520.5
325.168	882.5
325.397	257.5
325.626	156.5
325.855	118.5
326.084	142.5
326.313	143.5
326.542	151.5
326.77	266.5
326.999	507.5
327.228	1066.5
327.457	1960.5
327.686	1510.5
327.914	393.5
328.143	194.5
328.372	144.5
328.6	129.5
328.829	134.5
329.058	133.5
329.287	122.5
329.515	135.5
329.744	113.5
329.972	82.5
330.201	96.5
330.43	105.5
330.658	123.5
330.887	137.5
331.115	127.5
331.344	110.5
331.572	87.5
331.801	110.5
332.03	99.5
332.258	104.5
332.486	93.5
332.715	84.5
332.943	104.5
333.172	102.5
333.4	108.5
333.629	93.5
333.857	98.5
334.085	95.5
334.314	96.5
334.542	87.5
334.771	88.5
334.999	99.5
335.227	85.5
335.455	95.5
335.684	111.5
335.912	92.5
336.14	100.5
336.369	107.5
336.597	106.5
336.825	100.5
337.053	93.5
337.281	99.5
337.51	89.5
337.738	75.5
337.966	92.5
338.194	109.5
338.422	95.5
338.65	101.5
338.878	95.5
339.106	112.5
339.334	92.5
339.562	92.5
339.79	106.5
340.018	97.5
340.246	85.5
340.474	95.5
340.702	93.5
340.93	94.5
341.158	99.5
341.386	84.5
341.614	99.5
341.842	98.5
342.07	97.5
342.298	106.5
342.526	102.5
342.754	97.5
342.981	100.5
343.209	87.5
343.437	102.5
343.665	84.5
343.893	78.5
344.12	89.5
344.348	96.5
344.576	108.5
344.804	68.5
345.031	89.5
345.259	95.5
345.487	94.5
345.714	102.5
345.942	88.5
346.17	95.5
346.397	89.5
346.625	100.5
346.853	106.5
347.08	96.5
347.308	89.5
347.535	99.5
347.763	89.5
347.99	101.5
348.218	116.5
348.445	117.5
348.673	101.5
348.9	99.5
349.128	87.5
349.355	87.5
349.583	111.5
349.81	84.5
350.037	101.5
350.265	94.5
350.492	103.5
350.72	107.5
350.947	103.5
351.174	103.5
351.402	112.5
351.629	86.5
351.856	101.5
352.083	94.5
352.311	86.5
352.538	114.5
352.765	113.5
352.992	121.5
353.22	104.5
353.447	101.5
353.674	102.5
353.901	98.5
354.128	98.5
354.355	75.5
354.583	104.5
354.81	107.5
355.037	100.5
355.264	103.5
355.491	94.5
355.718	99.5
355.945	86.5
356.172	96.5
356.399	111.5
356.626	92.5
356.853	91.5
357.08	88.5
357.307	87.5
357.534	85.5
357.761	98.5
357.988	90.5
358.215	94.5
358.441	90.5
358.668	95.5
358.895	99.5
359.122	90.5
359.349	92.5
359.576	82.5
359.802	100.5
360.029	98.5
360.256	95.5
360.483	102.5
360.709	94.5
360.936	91.5
361.163	85.5
361.39	80.5
361.616	98.5
361.843	84.5
362.07	100.5
362.296	85.5
362.523	106.5
362.749	92.5
362.976	86.5
363.203	106.5
363.429	101.5
363.656	83.5
363.882	76.5
364.109	101.5
364.335	82.5
364.562	91.5
364.788	87.5
365.015	98.5
365.241	90.5
365.468	99.5
365.694	103.5
365.92	107.5
366.147	100.5
366.373	85.5
366.599	96.5
366.826	77.5
367.052	86.5
367.278	101.5
367.505	106.5
367.731	108.5
367.957	89.5
368.184	100.5
368.41	97.5
368.636	116.5
368.862	114.5
369.089	108.5
369.315	99.5
369.541	106.5
369.767	99.5
369.993	109.5
370.219	96.5
370.445	100.5
370.672	84.5
370.898	100.5
371.124	82.5
371.35	90.5
371.576	91.5
371.802	87.5
372.028	92.5
372.254	87.5
372.48	93.5
372.706	92.5
372.932	101.5
373.158	90.5
373.384	88.5
373.61	99.5
373.835	86.5
374.061	83.5
374.287	91.5
374.513	95.5
374.739	93.5
374.965	81.5
375.191	93.5
375.416	84.5
375.642	91.5
375.868	101.5
376.094	87.5
376.319	98.5
376.545	102.5
376.771	92.5
376.997	82.5
377.222	91.5
377.448	89.5
377.674	94.5
377.899	92.5
378.125	91.5
378.35	101.5
378.576	84.5
378.802	94.5
379.027	96.5
379.253	90.5
379.478	84.5
379.704	90.5
379.929	107.5
380.155	102.5
380.38	88.5
380.606	102.5
380.831	106.5
381.057	107.5
381.282	98.5
381.507	105.5
381.733	97.5
381.958	104.5
382.184	96.5
382.409	96.5
382.634	100.5
382.86	100.5
383.085	98.5
383.31	113.5
383.535	108.5
383.761	110.5
383.986	113.5
384.211	92.5
384.436	124.5
384.662	118.5
384.887	95.5
385.112	121.5
385.337	117.5
385.562	98.5
385.787	102.5
386.013	113.5
386.238	117.5
386.463	101.5
386.688	112.5
386.913	103.5
387.138	103.5
387.363	100.5
387.588	89.5
387.813	95.5
388.038	104.5
388.263	110.5
388.488	120.5
388.713	109.5
388.938	100.5
389.163	83.5
389.387	83.5
389.612	96.5
389.837	80.5
390.062	98.5
390.287	92.5
390.512	92.5
390.736	91.5
390.961	82.5
391.186	85.5
391.411	88.5
391.636	102.5
391.86	91.5
392.085	89.5
392.31	85.5
392.534	92.5
392.759	79.5
392.984	82.5
393.208	98.5
393.433	91.5
393.658	86.5
393.882	77.5
394.107	84.5
394.331	93.5
394.556	74.5
394.78	86.5
395.005	87.5
395.229	92.5
395.454	96.5
395.678	92.5
395.903	96.5
396.127	89.5
396.352	90.5
396.576	91.5
396.801	87.5
397.025	83.5
397.249	80.5
397.474	82.5
397.698	97.5
397.922	88.5
398.147	104.5
398.371	87.5
398.595	79.5
398.82	86.5
399.044	97.5
399.268	94.5
399.492	99.5
399.717	85.5
399.941	96.5
400.165	92.5
400.389	83.5
400.613	87.5
400.837	93.5
401.062	91.5
401.286	80.5
401.51	93.5
401.734	86.5
401.958	98.5
402.182	129.5
402.406	169.5
402.63	119.5
402.854	87.5
403.078	101.5
403.302	91.5
403.526	99.5
403.75	102.5
403.974	100.5
404.198	87.5
404.422	82.5
404.645	83.5
404.869	91.5
405.093	79.5
405.317	98.5
405.541	82.5
405.765	102.5
405.988	115.5
406.212	190.5
406.436	220.5
406.66	142.5
406.883	99.5
407.107	102.5
407.331	101.5
407.555	107.5
407.778	82.5
408.002	93.5
408.226	79.5
408.449	86.5
408.673	78.5
408.896	87.5
409.12	88.5
409.344	99.5
409.567	91.5
409.791	95.5
410.014	98.5
410.238	94.5
410.461	90.5
410.685	96.5
410.908	97.5
411.132	116.5
411.355	102.5
411.578	85.5
411.802	91.5
412.025	102.5
412.249	96.5
412.472	84.5
412.695	94.5
412.919	102.5
413.142	100.5
413.365	89.5
413.589	97.5
413.812	95.5
414.035	93.5
414.258	81.5
414.482	103.5
414.705	100.5
414.928	84.5
415.151	81.5
415.374	96.5
415.597	85.5
415.821	93.5
416.044	87.5
416.267	92.5
416.49	75.5
416.713	85.5
416.936	85.5
417.159	102.5
417.382	89.5
417.605	87.5
417.828	86.5
418.051	101.5
418.274	79.5
418.497	99.5
418.72	96.5
418.943	84.5
419.166	86.5
419.389	90.5
419.611	96.5
419.834	93.5
420.057	97.5
420.28	84.5
420.503	86.5
420.726	99.5
420.948	107.5
421.171	100.5
421.394	92.5
421.617	97.5
421.839	91.5
422.062	101.5
422.285	90.5
422.507	108.5
422.73	107.5
422.953	80.5
423.175	86.5
423.398	81.5
423.621	75.5
423.843	86.5
424.066	79.5
424.288	94.5
424.511	81.5
424.733	102.5
424.956	107.5
425.178	100.5
425.401	96.5
425.623	109.5
425.846	89.5
426.068	93.5
426.291	91.5
426.513	94.5
426.735	94.5
426.958	107.5
427.18	112.5
427.402	145.5
427.625	156.5
427.847	123.5
428.069	109.5
428.292	104.5
428.514	80.5
428.736	87.5
428.958	86.5
429.181	84.5
429.403	99.5
429.625	84.5
429.847	89.5
430.069	93.5
430.292	79.5
430.514	85.5
430.736	74.5
430.958	92.5
431.18	81.5
431.402	92.5
431.624	81.5
431.846	83.5
432.068	83.5
432.29	94.5
432.512	104.5
432.734	86.5
432.956	99.5
433.178	99.5
433.4	99.5
433.622	95.5
433.844	87.5
434.066	94.5
434.287	97.5
434.509	91.5
434.731	92.5
434.953	89.5
435.175	93.5
435.397	91.5
435.618	101.5
435.84	108.5
436.062	116.5
436.284	109.5
436.505	105.5
436.727	106.5
436.949	76.5
437.17	90.5
437.392	91.5
437.614	98.5
437.835	105.5
438.057	114.5
438.278	98.5
438.5	94.5
438.721	126.5
438.943	92.5
439.165	86.5
439.386	81.5
439.608	102.5
439.829	121.5
440.05	140.5
440.272	135.5
440.493	95.5
440.715	92.5
440.936	90.5
441.158	91.5
441.379	93.5
441.6	93.5
441.822	99.5
442.043	95.5
442.264	114.5
442.486	103.5
442.707	93.5
442.928	101.5
443.149	122.5
443.371	144.5
443.592	118.5
443.813	121.5
444.034	111.5
444.255	91.5
444.476	84.5
444.698	82.5
444.919	97.5
445.14	143.5
445.361	134.5
445.582	124.5
445.803	135.5
446.024	128.5
446.245	127.5
446.466	114.5
446.687	101.5
446.908	85.5
447.129	85.5
447.35	93.5
447.571	102.5
447.792	95.5
448.013	109.5
448.234	109.5
448.455	96.5
448.675	103.5
448.896	121.5
449.117	101.5
449.338	117.5
449.559	136.5
449.779	141.5
450	103.5
450.221	93.5
450.442	90.5
450.662	107.5
450.883	108.5
451.104	108.5
451.324	96.5
451.545	92.5
451.766	97.5
451.986	95.5
452.207	82.5
452.428	87.5
452.648	94.5
452.869	111.5
453.089	131.5
453.31	122.5
453.53	103.5
453.751	103.5
453.971	102.5
454.192	93.5
454.412	97.5
454.633	96.5
454.853	93.5
455.073	86.5
455.294	97.5
455.514	115.5
455.734	93.5
455.955	81.5
456.175	78.5
456.395	98.5
456.616	96.5
456.836	94.5
457.056	93.5
457.276	84.5
457.497	100.5
457.717	90.5
457.937	97.5
458.157	83.5
458.377	102.5
458.598	107.5
458.818	149.5
459.038	162.5
459.258	124.5
459.478	90.5
459.698	85.5
459.918	80.5
460.138	82.5
460.358	84.5
460.578	93.5
460.798	87.5
461.018	93.5
461.238	84.5
461.458	85.5
461.678	83.5
461.898	75.5
462.118	89.5
462.338	84.5
462.558	81.5
462.777	84.5
462.997	93.5
463.217	79.5
463.437	86.5
463.657	92.5
463.876	78.5
464.096	89.5
464.316	83.5
464.536	91.5
464.755	89.5
464.975	98.5
465.195	164.5
465.414	164.5
465.634	93.5
465.854	109.5
466.073	104.5
466.293	93.5
466.512	87.5
466.732	102.5
466.951	92.5
467.171	99.5
467.391	91.5
467.61	106.5
467.829	105.5
468.049	90.5
468.268	83.5
468.488	91.5
468.707	82.5
468.927	75.5
469.146	91.5
469.365	91.5
469.585	77.5
469.804	88.5
470.023	87.5
470.243	98.5
470.462	103.5
470.681	111.5
470.901	86.5
471.12	89.5
471.339	89.5
471.558	85.5
471.777	97.5
471.997	68.5
472.216	86.5
472.435	81.5
472.654	92.5
472.873	92.5
473.092	93.5
473.311	85.5
473.53	103.5
473.749	94.5
473.968	82.5
474.187	115.5
474.406	109.5
474.625	102.5
474.844	84.5
475.063	81.5
475.282	83.5
475.501	95.5
475.72	83.5
475.939	83.5
476.158	100.5
476.377	88.5
476.596	89.5
476.814	90.5
477.033	84.5
477.252	95.5
477.471	84.5
477.69	85.5
477.908	91.5
478.127	93.5
478.346	84.5
478.564	93.5
478.783	92.5
479.002	95.5
479.22	81.5
479.439	99.5
479.658	101.5
479.876	101.5
480.095	77.5
480.313	93.5
480.532	96.5
480.751	81.5
480.969	86.5
481.188	91.5
481.406	95.5
481.624	87.5
481.843	89.5
482.061	102.5
482.28	95.5
482.498	86.5
482.717	79.5
482.935	96.5
483.153	93.5
483.372	87.5
483.59	80.5
483.808	94.5
484.027	91.5
484.245	74.5
484.463	96.5
484.681	95.5
484.9	82.5
485.118	100.5
485.336	101.5
485.554	95.5
485.772	99.5
485.99	86.5
486.209	106.5
486.427	100.5
486.645	103.5
486.863	111.5
487.081	110.5
487.299	92.5
487.517	101.5
487.735	113.5
487.953	94.5
488.171	83.5
488.389	87.5
488.607	97.5
488.825	96.5
489.043	86.5
489.261	110.5
489.479	92.5
489.696	90.5
489.914	93.5
490.132	84.5
490.35	97.5
490.568	105.5
490.786	85.5
491.003	102.5
491.221	99.5
491.439	95.5
491.657	93.5
491.874	94.5
492.092	93.5
492.31	90.5
492.527	92.5
492.745	94.5
492.963	91.5
493.18	99.5
493.398	86.5
493.615	91.5
493.833	84.5
494.05	86.5
494.268	94.5
494.485	88.5
494.703	103.5
494.92	83.5
495.138	99.5
495.355	89.5
495.573	99.5
495.79	75.5
496.008	94.5
496.225	91.5
496.442	97.5
496.66	100.5
496.877	97.5
497.094	92.5
497.312	100.5
497.529	100.5
497.746	86.5
497.963	103.5
498.181	114.5
498.398	105.5
498.615	115.5
498.832	108.5
499.049	83.5
499.267	87.5
499.484	98.5
499.701	105.5
499.918	85.5
500.135	98.5
500.352	99.5
500.569	99.5
500.786	75.5
501.003	81.5
501.22	82.5
501.437	89.5
501.654	90.5
501.871	95.5
502.088	94.5
502.305	94.5
502.522	97.5
502.739	82.5
502.956	92.5
503.172	77.5
503.389	100.5
503.606	97.5
503.823	106.5
504.04	85.5
504.256	91.5
504.473	116.5
504.69	94.5
504.907	91.5
505.123	80.5
505.34	86.5
505.557	109.5
505.773	105.5
505.99	91.5
506.207	85.5
506.423	89.5
506.64	89.5
506.856	92.5
507.073	94.5
507.289	100.5
507.506	101.5
507.722	110.5
507.939	111.5
508.155	107.5
508.372	104.5
508.588	95.5
508.805	83.5
509.021	97.5
509.238	108.5
509.454	107.5
509.67	102.5
509.887	115.5
510.103	142.5
510.319	217.5
510.536	763.5
510.752	2422.5
510.968	679.5
511.184	162.5
511.401	116.5
511.617	98.5
511.833	102.5
512.049	97.5
512.265	89.5
512.481	94.5
512.698	87.5
512.914	106.5
513.13	97.5
513.346	112.5
513.562	108.5
513.778	97.5
513.994	106.5
514.21	95.5
514.426	110.5
514.642	137.5
514.858	130.5
515.074	180.5
515.29	462.5
515.506	1530.5
515.721	573.5
515.937	151.5
516.153	121.5
516.369	101.5
516.585	80.5
516.801	110.5
517.016	105.5
517.232	92.5
517.448	97.5
517.664	102.5
517.879	99.5
518.095	100.5
518.311	91.5
518.527	87.5
518.742	88.5
518.958	97.5
519.173	95.5
519.389	98.5
519.605	96.5
519.82	96.5
520.036	97.5
520.251	112.5
520.467	114.5
520.682	106.5
520.898	113.5
521.113	129.5
521.329	135.5
521.544	212.5
521.76	575.5
521.975	2503.5
522.19	1528.5
522.406	305.5
522.621	124.5
522.836	115.5
523.052	100.5
523.267	98.5
523.482	112.5
523.698	113.5
523.913	115.5
524.128	119.5
524.343	103.5
524.559	107.5
524.774	100.5
524.989	109.5
525.204	105.5
525.419	107.5
525.634	91.5
525.849	89.5
526.064	90.5
526.28	89.5
526.495	102.5
526.71	71.5
526.925	92.5
527.14	97.5
527.355	102.5
527.57	89.5
527.785	94.5
527.999	98.5
528.214	99.5
528.429	101.5
528.644	94.5
528.859	80.5
529.074	97.5
529.289	133.5
529.503	182.5
529.718	111.5
529.933	91.5
530.148	87.5
530.363	94.5
530.577	87.5
530.792	95.5
531.007	86.5
531.221	102.5
531.436	99.5
531.651	98.5
531.865	81.5
532.08	91.5
532.295	108.5
532.509	100.5
532.724	90.5
532.938	100.5
533.153	93.5
533.367	97.5
533.582	78.5
533.796	96.5
534.011	84.5
534.225	86.5
