Data from Uncirc_2007_H10_HRD10591_00024.txt Node
Date: Wed Jan 03 10:20:47 EST 2024
User: Yrep
Spectrometer: HR+D1059
Trigger mode: 1
Integration Time (sec): 1.000000E-1
Scans to average: 1
Electric dark correction enabled: true
Nonlinearity correction enabled: false
Boxcar width: 0
XAxis mode: Wavelengths
Number of Pixels in Spectrum: 2048
>>>>>Begin Spectral Data<<<<<
223.165	-21.62
223.4	-21.62
223.635	-21.62
223.869	-14.62
224.104	-16.62
224.338	-16.62
224.573	-17.62
224.808	-1.62
225.042	-15.62
225.277	0.38
225.511	-19.62
225.746	1.38
225.98	17.38
226.215	12.38
226.449	19.38
226.683	11.38
226.918	26.38
227.152	35.38
227.387	32.38
227.621	48.38
227.856	46.38
228.09	41.38
228.324	39.38
228.559	53.38
228.793	75.38
229.027	64.38
229.262	67.38
229.496	73.38
229.73	78.38
229.964	98.38
230.199	73.38
230.433	74.38
230.667	79.38
230.901	70.38
231.136	81.38
231.37	84.38
231.604	84.38
231.838	78.38
232.072	77.38
232.306	78.38
232.541	75.38
232.775	96.38
233.009	69.38
233.243	89.38
233.477	81.38
233.711	80.38
233.945	94.38
234.179	82.38
234.413	81.38
234.647	90.38
234.881	76.38
235.115	83.38
235.349	85.38
235.583	84.38
235.817	86.38
236.051	69.38
236.285	83.38
236.519	60.38
236.753	75.38
236.987	69.38
237.221	77.38
237.455	95.38
237.689	82.38
237.922	76.38
238.156	75.38
238.39	83.38
238.624	59.38
238.858	73.38
239.091	69.38
239.325	60.38
239.559	93.38
239.793	82.38
240.027	88.38
240.26	82.38
240.494	79.38
240.728	76.38
240.961	89.38
241.195	76.38
241.429	65.38
241.662	78.38
241.896	77.38
242.13	78.38
242.363	62.38
242.597	81.38
242.83	70.38
243.064	82.38
243.298	66.38
243.531	70.38
243.765	62.38
243.998	85.38
244.232	81.38
244.465	78.38
244.699	83.38
244.932	88.38
245.166	73.38
245.399	82.38
245.633	92.38
245.866	78.38
246.099	77.38
246.333	76.38
246.566	81.38
246.8	83.38
247.033	74.38
247.266	86.38
247.5	79.38
247.733	82.38
247.966	86.38
248.2	68.38
248.433	87.38
248.666	72.38
248.899	81.38
249.133	83.38
249.366	100.38
249.599	91.38
249.832	93.38
250.066	76.38
250.299	80.38
250.532	82.38
250.765	89.38
250.998	88.38
251.231	71.38
251.465	80.38
251.698	91.38
251.931	82.38
252.164	73.38
252.397	100.38
252.63	90.38
252.863	82.38
253.096	79.38
253.329	78.38
253.562	82.38
253.795	85.38
254.028	89.38
254.261	81.38
254.494	84.38
254.727	68.38
254.96	82.38
255.193	83.38
255.426	99.38
255.659	85.38
255.892	82.38
256.124	73.38
256.357	80.38
256.59	72.38
256.823	81.38
257.056	76.38
257.289	80.38
257.521	78.38
257.754	76.38
257.987	79.38
258.22	86.38
258.452	74.38
258.685	81.38
258.918	92.38
259.151	81.38
259.383	80.38
259.616	76.38
259.849	75.38
260.081	94.38
260.314	77.38
260.547	88.38
260.779	86.38
261.012	74.38
261.244	92.38
261.477	88.38
261.71	86.38
261.942	96.38
262.175	119.38
262.407	91.38
262.64	76.38
262.872	92.38
263.105	76.38
263.337	90.38
263.57	95.38
263.802	90.38
264.035	84.38
264.267	78.38
264.499	84.38
264.732	86.38
264.964	73.38
265.197	92.38
265.429	95.38
265.661	90.38
265.894	81.38
266.126	69.38
266.358	89.38
266.591	74.38
266.823	73.38
267.055	79.38
267.287	99.38
267.52	88.38
267.752	79.38
267.984	74.38
268.216	92.38
268.448	84.38
268.681	90.38
268.913	97.38
269.145	83.38
269.377	88.38
269.609	79.38
269.841	95.38
270.073	99.38
270.306	89.38
270.538	84.38
270.77	86.38
271.002	86.38
271.234	74.38
271.466	80.38
271.698	99.38
271.93	100.38
272.162	80.38
272.394	93.38
272.626	87.38
272.858	97.38
273.09	90.38
273.322	68.38
273.553	84.38
273.785	93.38
274.017	68.38
274.249	94.38
274.481	90.38
274.713	89.38
274.945	92.38
275.176	90.38
275.408	90.38
275.64	79.38
275.872	97.38
276.104	89.38
276.335	97.38
276.567	75.38
276.799	98.38
277.031	98.38
277.262	87.38
277.494	97.38
277.726	85.38
277.957	77.38
278.189	96.38
278.421	90.38
278.652	84.38
278.884	90.38
279.115	77.38
279.347	91.38
279.579	96.38
279.81	96.38
280.042	102.38
280.273	87.38
280.505	71.38
280.736	81.38
280.968	93.38
281.199	89.38
281.431	88.38
281.662	105.38
281.894	84.38
282.125	96.38
282.356	108.38
282.588	152.38
282.819	110.38
283.051	90.38
283.282	83.38
283.513	92.38
283.745	90.38
283.976	97.38
284.207	89.38
284.439	83.38
284.67	81.38
284.901	85.38
285.132	86.38
285.364	84.38
285.595	69.38
285.826	88.38
286.057	84.38
286.288	95.38
286.52	82.38
286.751	92.38
286.982	97.38
287.213	90.38
287.444	79.38
287.675	91.38
287.906	94.38
288.138	88.38
288.369	85.38
288.6	92.38
288.831	103.38
289.062	89.38
289.293	94.38
289.524	92.38
289.755	89.38
289.986	84.38
290.217	86.38
290.448	79.38
290.679	74.38
290.91	86.38
291.141	77.38
291.371	97.38
291.602	96.38
291.833	82.38
292.064	87.38
292.295	86.38
292.526	85.38
292.757	85.38
292.987	95.38
293.218	86.38
293.449	84.38
293.68	90.38
293.91	92.38
294.141	86.38
294.372	83.38
294.603	96.38
294.833	89.38
295.064	81.38
295.295	77.38
295.525	91.38
295.756	115.38
295.987	134.38
296.217	138.38
296.448	118.38
296.679	89.38
296.909	91.38
297.14	86.38
297.37	90.38
297.601	76.38
297.831	91.38
298.062	101.38
298.292	89.38
298.523	92.38
298.753	93.38
298.984	93.38
299.214	93.38
299.445	98.38
299.675	90.38
299.905	92.38
300.136	84.38
300.366	95.38
300.597	91.38
300.827	96.38
301.057	91.38
301.288	107.38
301.518	89.38
301.748	89.38
301.979	96.38
302.209	94.38
302.439	84.38
302.669	86.38
302.9	85.38
303.13	90.38
303.36	85.38
303.59	105.38
303.82	97.38
304.051	103.38
304.281	99.38
304.511	97.38
304.741	86.38
304.971	84.38
305.201	76.38
305.431	78.38
305.661	103.38
305.891	91.38
306.121	97.38
306.352	91.38
306.582	108.38
306.812	97.38
307.042	91.38
307.272	80.38
307.502	92.38
307.731	82.38
307.961	93.38
308.191	94.38
308.421	95.38
308.651	80.38
308.881	78.38
309.111	86.38
309.341	108.38
309.571	110.38
309.8	103.38
310.03	101.38
310.26	102.38
310.49	94.38
310.72	112.38
310.949	102.38
311.179	110.38
311.409	98.38
311.639	94.38
311.868	91.38
312.098	90.38
312.328	99.38
312.557	102.38
312.787	96.38
313.017	98.38
313.246	97.38
313.476	90.38
313.706	88.38
313.935	95.38
314.165	98.38
314.394	104.38
314.624	92.38
314.853	91.38
315.083	85.38
315.312	76.38
315.542	97.38
315.771	88.38
316.001	84.38
316.23	88.38
316.46	96.38
316.689	94.38
316.919	89.38
317.148	94.38
317.377	91.38
317.607	85.38
317.836	99.38
318.065	90.38
318.295	87.38
318.524	98.38
318.753	104.38
318.983	100.38
319.212	106.38
319.441	100.38
319.67	123.38
319.9	89.38
320.129	86.38
320.358	71.38
320.587	97.38
320.816	95.38
321.046	107.38
321.275	109.38
321.504	98.38
321.733	83.38
321.962	86.38
322.191	98.38
322.42	100.38
322.649	124.38
322.878	108.38
323.108	121.38
323.337	134.38
323.566	146.38
323.795	162.38
324.024	213.38
324.253	426.38
324.482	922.38
324.71	1939.38
324.939	2537.38
325.168	919.38
325.397	273.38
325.626	141.38
325.855	140.38
326.084	125.38
326.313	141.38
326.542	161.38
326.77	271.38
326.999	537.38
327.228	1058.38
327.457	1962.38
327.686	1530.38
327.914	409.38
328.143	199.38
328.372	154.38
328.6	127.38
328.829	122.38
329.058	137.38
329.287	148.38
329.515	121.38
329.744	109.38
329.972	90.38
330.201	97.38
330.43	104.38
330.658	104.38
330.887	138.38
331.115	130.38
331.344	84.38
331.572	102.38
331.801	93.38
332.03	105.38
332.258	98.38
332.486	93.38
332.715	96.38
332.943	79.38
333.172	93.38
333.4	99.38
333.629	130.38
333.857	100.38
334.085	126.38
334.314	101.38
334.542	94.38
334.771	98.38
334.999	105.38
335.227	102.38
335.455	98.38
335.684	109.38
335.912	88.38
336.14	86.38
336.369	103.38
336.597	100.38
336.825	103.38
337.053	90.38
337.281	92.38
337.51	93.38
337.738	106.38
337.966	95.38
338.194	95.38
338.422	97.38
338.65	102.38
338.878	94.38
339.106	92.38
339.334	107.38
339.562	105.38
339.79	80.38
340.018	85.38
340.246	106.38
340.474	100.38
340.702	88.38
340.93	93.38
341.158	73.38
341.386	92.38
341.614	95.38
341.842	88.38
342.07	90.38
342.298	94.38
342.526	97.38
342.754	91.38
342.981	90.38
343.209	97.38
343.437	100.38
343.665	87.38
343.893	83.38
344.12	96.38
344.348	86.38
344.576	90.38
344.804	88.38
345.031	96.38
345.259	93.38
345.487	100.38
345.714	93.38
345.942	96.38
346.17	100.38
346.397	94.38
346.625	80.38
346.853	97.38
347.08	83.38
347.308	102.38
347.535	93.38
347.763	102.38
347.99	83.38
348.218	101.38
348.445	109.38
348.673	82.38
348.9	105.38
349.128	92.38
349.355	99.38
349.583	99.38
349.81	105.38
350.037	114.38
350.265	105.38
350.492	109.38
350.72	96.38
350.947	101.38
351.174	107.38
351.402	114.38
351.629	96.38
351.856	105.38
352.083	99.38
352.311	93.38
352.538	119.38
352.765	101.38
352.992	118.38
353.22	121.38
353.447	97.38
353.674	118.38
353.901	93.38
354.128	88.38
354.355	85.38
354.583	83.38
354.81	90.38
355.037	88.38
355.264	102.38
355.491	90.38
355.718	85.38
355.945	103.38
356.172	84.38
356.399	100.38
356.626	96.38
356.853	81.38
357.08	85.38
357.307	95.38
357.534	75.38
357.761	95.38
357.988	98.38
358.215	85.38
358.441	92.38
358.668	100.38
358.895	97.38
359.122	85.38
359.349	91.38
359.576	91.38
359.802	96.38
360.029	110.38
360.256	107.38
360.483	88.38
360.709	103.38
360.936	92.38
361.163	105.38
361.39	95.38
361.616	100.38
361.843	99.38
362.07	91.38
362.296	108.38
362.523	107.38
362.749	105.38
362.976	84.38
363.203	96.38
363.429	87.38
363.656	89.38
363.882	103.38
364.109	86.38
364.335	81.38
364.562	101.38
364.788	87.38
365.015	95.38
365.241	103.38
365.468	108.38
365.694	103.38
365.92	100.38
366.147	81.38
366.373	95.38
366.599	92.38
366.826	97.38
367.052	89.38
367.278	80.38
367.505	96.38
367.731	88.38
367.957	82.38
368.184	105.38
368.41	96.38
368.636	108.38
368.862	116.38
369.089	117.38
369.315	101.38
369.541	100.38
369.767	100.38
369.993	92.38
370.219	89.38
370.445	103.38
370.672	90.38
370.898	77.38
371.124	92.38
371.35	85.38
371.576	87.38
371.802	90.38
372.028	90.38
372.254	86.38
372.48	92.38
372.706	83.38
372.932	82.38
373.158	94.38
373.384	78.38
373.61	88.38
373.835	87.38
374.061	81.38
374.287	81.38
374.513	93.38
374.739	81.38
374.965	96.38
375.191	93.38
375.416	81.38
375.642	87.38
375.868	95.38
376.094	83.38
376.319	85.38
376.545	78.38
376.771	90.38
376.997	96.38
377.222	96.38
377.448	103.38
377.674	85.38
377.899	95.38
378.125	84.38
378.35	88.38
378.576	92.38
378.802	88.38
379.027	92.38
379.253	83.38
379.478	80.38
379.704	90.38
379.929	90.38
380.155	100.38
380.38	94.38
380.606	98.38
380.831	85.38
381.057	93.38
381.282	102.38
381.507	100.38
381.733	101.38
381.958	105.38
382.184	102.38
382.409	109.38
382.634	91.38
382.86	105.38
383.085	82.38
383.31	92.38
383.535	102.38
383.761	112.38
383.986	108.38
384.211	96.38
384.436	99.38
384.662	105.38
384.887	103.38
385.112	93.38
385.337	104.38
385.562	101.38
385.787	97.38
386.013	116.38
386.238	121.38
386.463	102.38
386.688	112.38
386.913	114.38
387.138	112.38
387.363	106.38
387.588	82.38
387.813	108.38
388.038	107.38
388.263	120.38
388.488	112.38
388.713	89.38
388.938	102.38
389.163	93.38
389.387	105.38
389.612	93.38
389.837	76.38
390.062	95.38
390.287	80.38
390.512	92.38
390.736	88.38
390.961	98.38
391.186	114.38
391.411	91.38
391.636	89.38
391.86	84.38
392.085	90.38
392.31	89.38
392.534	86.38
392.759	79.38
392.984	88.38
393.208	97.38
393.433	94.38
393.658	89.38
393.882	79.38
394.107	90.38
394.331	81.38
394.556	89.38
394.78	90.38
395.005	84.38
395.229	79.38
395.454	79.38
395.678	98.38
395.903	98.38
396.127	89.38
396.352	91.38
396.576	97.38
396.801	92.38
397.025	102.38
397.249	87.38
397.474	99.38
397.698	86.38
397.922	97.38
398.147	92.38
398.371	88.38
398.595	101.38
398.82	91.38
399.044	104.38
399.268	92.38
399.492	86.38
399.717	73.38
399.941	100.38
400.165	101.38
400.389	92.38
400.613	101.38
400.837	81.38
401.062	80.38
401.286	84.38
401.51	106.38
401.734	77.38
401.958	108.38
402.182	138.38
402.406	164.38
402.63	117.38
402.854	111.38
403.078	88.38
403.302	108.38
403.526	100.38
403.75	89.38
403.974	80.38
404.198	101.38
404.422	78.38
404.645	77.38
404.869	78.38
405.093	102.38
405.317	103.38
405.541	99.38
405.765	102.38
405.988	114.38
406.212	162.38
406.436	222.38
406.66	175.38
406.883	104.38
407.107	89.38
407.331	93.38
407.555	110.38
407.778	94.38
408.002	94.38
408.226	88.38
408.449	91.38
408.673	87.38
408.896	89.38
409.12	86.38
409.344	82.38
409.567	90.38
409.791	98.38
410.014	100.38
410.238	105.38
410.461	86.38
410.685	105.38
410.908	104.38
411.132	113.38
411.355	108.38
411.578	106.38
411.802	80.38
412.025	95.38
412.249	89.38
412.472	90.38
412.695	99.38
412.919	86.38
413.142	84.38
413.365	89.38
413.589	86.38
413.812	97.38
414.035	89.38
414.258	81.38
414.482	89.38
414.705	79.38
414.928	85.38
415.151	82.38
415.374	92.38
415.597	90.38
415.821	90.38
416.044	84.38
416.267	103.38
416.49	81.38
416.713	90.38
416.936	82.38
417.159	95.38
417.382	85.38
417.605	90.38
417.828	84.38
418.051	96.38
418.274	91.38
418.497	94.38
418.72	92.38
418.943	77.38
419.166	86.38
419.389	85.38
419.611	85.38
419.834	86.38
420.057	81.38
420.28	92.38
420.503	83.38
420.726	89.38
420.948	108.38
421.171	88.38
421.394	102.38
421.617	106.38
421.839	93.38
422.062	95.38
422.285	97.38
422.507	109.38
422.73	113.38
422.953	82.38
423.175	91.38
423.398	101.38
423.621	87.38
423.843	75.38
424.066	83.38
424.288	93.38
424.511	90.38
424.733	86.38
424.956	106.38
425.178	106.38
425.401	106.38
425.623	89.38
425.846	89.38
426.068	88.38
426.291	103.38
426.513	89.38
426.735	84.38
426.958	105.38
427.18	104.38
427.402	128.38
427.625	162.38
427.847	126.38
428.069	111.38
428.292	79.38
428.514	82.38
428.736	99.38
428.958	91.38
429.181	92.38
429.403	90.38
429.625	77.38
429.847	85.38
430.069	87.38
430.292	92.38
430.514	90.38
430.736	89.38
430.958	88.38
431.18	75.38
431.402	80.38
431.624	86.38
431.846	100.38
432.068	83.38
432.29	79.38
432.512	94.38
432.734	95.38
432.956	80.38
433.178	107.38
433.4	108.38
433.622	88.38
433.844	96.38
434.066	103.38
434.287	85.38
434.509	98.38
434.731	94.38
434.953	98.38
435.175	104.38
435.397	94.38
435.618	108.38
435.84	111.38
436.062	129.38
436.284	121.38
436.505	104.38
436.727	102.38
436.949	99.38
437.17	80.38
437.392	86.38
437.614	88.38
437.835	90.38
438.057	120.38
438.278	100.38
438.5	104.38
438.721	136.38
438.943	112.38
439.165	82.38
439.386	81.38
439.608	87.38
439.829	107.38
440.05	121.38
440.272	126.38
440.493	98.38
440.715	77.38
440.936	83.38
441.158	94.38
441.379	79.38
441.6	99.38
441.822	94.38
442.043	89.38
442.264	90.38
442.486	98.38
442.707	100.38
442.928	92.38
443.149	126.38
443.371	130.38
443.592	119.38
443.813	117.38
444.034	107.38
444.255	98.38
444.476	84.38
444.698	91.38
444.919	81.38
445.14	120.38
445.361	129.38
445.582	118.38
445.803	141.38
446.024	134.38
446.245	125.38
446.466	113.38
446.687	93.38
446.908	84.38
447.129	102.38
447.35	67.38
447.571	111.38
447.792	100.38
448.013	96.38
448.234	121.38
448.455	99.38
448.675	108.38
448.896	122.38
449.117	107.38
449.338	100.38
449.559	137.38
449.779	132.38
450	89.38
450.221	76.38
450.442	82.38
450.662	96.38
450.883	117.38
451.104	115.38
451.324	102.38
451.545	86.38
451.766	86.38
451.986	85.38
452.207	104.38
452.428	96.38
452.648	85.38
452.869	95.38
453.089	124.38
453.31	116.38
453.53	103.38
453.751	117.38
453.971	106.38
454.192	113.38
454.412	95.38
454.633	99.38
454.853	88.38
455.073	92.38
455.294	89.38
455.514	104.38
455.734	102.38
455.955	97.38
456.175	106.38
456.395	75.38
456.616	89.38
456.836	84.38
457.056	79.38
457.276	88.38
457.497	82.38
457.717	79.38
457.937	95.38
458.157	92.38
458.377	100.38
458.598	101.38
458.818	143.38
459.038	163.38
459.258	115.38
459.478	92.38
459.698	95.38
459.918	98.38
460.138	93.38
460.358	96.38
460.578	78.38
460.798	81.38
461.018	80.38
461.238	84.38
461.458	90.38
461.678	80.38
461.898	94.38
462.118	72.38
462.338	83.38
462.558	99.38
462.777	78.38
462.997	76.38
463.217	86.38
463.437	84.38
463.657	79.38
463.876	80.38
464.096	86.38
464.316	90.38
464.536	99.38
464.755	100.38
464.975	105.38
465.195	168.38
465.414	156.38
465.634	102.38
465.854	94.38
466.073	94.38
466.293	98.38
466.512	74.38
466.732	86.38
466.951	86.38
467.171	96.38
467.391	86.38
467.61	99.38
467.829	90.38
468.049	89.38
468.268	83.38
468.488	78.38
468.707	88.38
468.927	66.38
469.146	98.38
469.365	94.38
469.585	96.38
469.804	99.38
470.023	104.38
470.243	83.38
470.462	99.38
470.681	123.38
470.901	92.38
471.12	79.38
471.339	81.38
471.558	106.38
471.777	80.38
471.997	88.38
472.216	93.38
472.435	86.38
472.654	97.38
472.873	83.38
473.092	93.38
473.311	79.38
473.53	92.38
473.749	84.38
473.968	95.38
474.187	107.38
474.406	89.38
474.625	83.38
474.844	89.38
475.063	86.38
475.282	82.38
475.501	79.38
475.72	70.38
475.939	91.38
476.158	86.38
476.377	82.38
476.596	85.38
476.814	98.38
477.033	95.38
477.252	97.38
477.471	94.38
477.69	82.38
477.908	89.38
478.127	97.38
478.346	82.38
478.564	89.38
478.783	86.38
479.002	97.38
479.22	107.38
479.439	98.38
479.658	106.38
479.876	82.38
480.095	88.38
480.313	89.38
480.532	87.38
480.751	92.38
480.969	90.38
481.188	82.38
481.406	90.38
481.624	79.38
481.843	89.38
482.061	88.38
482.28	102.38
482.498	76.38
482.717	78.38
482.935	84.38
483.153	82.38
483.372	83.38
483.59	85.38
483.808	88.38
484.027	100.38
484.245	75.38
484.463	75.38
484.681	93.38
484.9	80.38
485.118	94.38
485.336	92.38
485.554	84.38
485.772	105.38
485.99	98.38
486.209	101.38
486.427	101.38
486.645	105.38
486.863	114.38
487.081	108.38
487.299	114.38
487.517	99.38
487.735	88.38
487.953	102.38
488.171	100.38
488.389	102.38
488.607	106.38
488.825	100.38
489.043	99.38
489.261	96.38
489.479	109.38
489.696	96.38
489.914	82.38
490.132	85.38
490.35	84.38
490.568	79.38
490.786	73.38
491.003	90.38
491.221	94.38
491.439	94.38
491.657	86.38
491.874	93.38
492.092	99.38
492.31	106.38
492.527	80.38
492.745	91.38
492.963	92.38
493.18	93.38
493.398	76.38
493.615	110.38
493.833	103.38
494.05	81.38
494.268	94.38
494.485	90.38
494.703	85.38
494.92	92.38
495.138	83.38
495.355	108.38
495.573	98.38
495.79	75.38
496.008	99.38
496.225	100.38
496.442	95.38
496.66	98.38
496.877	101.38
497.094	85.38
497.312	85.38
497.529	90.38
497.746	94.38
497.963	94.38
498.181	81.38
498.398	95.38
498.615	105.38
498.832	116.38
499.049	97.38
499.267	88.38
499.484	78.38
499.701	91.38
499.918	87.38
500.135	77.38
500.352	94.38
500.569	88.38
500.786	96.38
501.003	77.38
501.22	90.38
501.437	94.38
501.654	90.38
501.871	117.38
502.088	90.38
502.305	88.38
502.522	84.38
502.739	78.38
502.956	105.38
503.172	98.38
503.389	101.38
503.606	109.38
503.823	100.38
504.04	97.38
504.256	97.38
504.473	82.38
504.69	97.38
504.907	93.38
505.123	82.38
505.34	86.38
505.557	96.38
505.773	82.38
505.99	87.38
506.207	89.38
506.423	99.38
506.64	91.38
506.856	97.38
507.073	97.38
507.289	91.38
507.506	105.38
507.722	107.38
507.939	110.38
508.155	124.38
508.372	95.38
508.588	96.38
508.805	90.38
509.021	103.38
509.238	97.38
509.454	93.38
509.67	99.38
509.887	96.38
510.103	147.38
510.319	234.38
510.536	806.38
510.752	2584.38
510.968	736.38
511.184	169.38
511.401	110.38
511.617	101.38
511.833	97.38
512.049	103.38
512.265	101.38
512.481	97.38
512.698	95.38
512.914	91.38
513.13	80.38
513.346	80.38
513.562	102.38
513.778	93.38
513.994	104.38
514.21	100.38
514.426	112.38
514.642	134.38
514.858	130.38
515.074	178.38
515.29	499.38
