Data from Uncirc_2007_H10_HRD10591_00037.txt Node
Date: Wed Jan 03 10:20:50 EST 2024
User: Yrep
Spectrometer: HR+D1059
Trigger mode: 1
Integration Time (sec): 1.000000E-1
Scans to average: 1
Electric dark correction enabled: true
Nonlinearity correction enabled: false
Boxcar width: 0
XAxis mode: Wavelengths
Number of Pixels in Spectrum: 2048
>>>>>Begin Spectral Data<<<<<
223.165	-14.25
223.4	-14.25
223.635	-14.25
223.869	-9.25
224.104	-17.25
224.338	-7.25
224.573	-27.25
224.808	-15.25
225.042	-8.25
225.277	-1.25
225.511	0.75
225.746	5.75
225.98	8.75
226.215	14.75
226.449	8.75
226.683	13.75
226.918	25.75
227.152	21.75
227.387	25.75
227.621	33.75
227.856	38.75
228.09	43.75
228.324	44.75
228.559	53.75
228.793	64.75
229.027	72.75
229.262	61.75
229.496	62.75
229.73	75.75
229.964	83.75
230.199	70.75
230.433	72.75
230.667	86.75
230.901	78.75
231.136	73.75
231.37	69.75
231.604	78.75
231.838	82.75
232.072	73.75
232.306	86.75
232.541	73.75
232.775	74.75
233.009	79.75
233.243	76.75
233.477	80.75
233.711	82.75
233.945	81.75
234.179	72.75
234.413	76.75
234.647	71.75
234.881	77.75
235.115	81.75
235.349	72.75
235.583	59.75
235.817	81.75
236.051	64.75
236.285	67.75
236.519	76.75
236.753	67.75
236.987	66.75
237.221	87.75
237.455	90.75
237.689	72.75
237.922	83.75
238.156	76.75
238.39	74.75
238.624	77.75
238.858	83.75
239.091	79.75
239.325	69.75
239.559	75.75
239.793	88.75
240.027	76.75
240.26	74.75
240.494	85.75
240.728	78.75
240.961	66.75
241.195	74.75
241.429	70.75
241.662	70.75
241.896	83.75
242.13	69.75
242.363	61.75
242.597	82.75
242.83	85.75
243.064	78.75
243.298	80.75
243.531	82.75
243.765	83.75
243.998	73.75
244.232	86.75
244.465	83.75
244.699	90.75
244.932	81.75
245.166	76.75
245.399	75.75
245.633	66.75
245.866	76.75
246.099	70.75
246.333	70.75
246.566	72.75
246.8	70.75
247.033	72.75
247.266	73.75
247.5	82.75
247.733	81.75
247.966	87.75
248.2	76.75
248.433	68.75
248.666	70.75
248.899	82.75
249.133	76.75
249.366	87.75
249.599	99.75
249.832	74.75
250.066	77.75
250.299	78.75
250.532	66.75
250.765	71.75
250.998	71.75
251.231	83.75
251.465	79.75
251.698	69.75
251.931	67.75
252.164	75.75
252.397	70.75
252.63	68.75
252.863	72.75
253.096	71.75
253.329	92.75
253.562	82.75
253.795	87.75
254.028	88.75
254.261	80.75
254.494	66.75
254.727	96.75
254.96	81.75
255.193	91.75
255.426	72.75
255.659	75.75
255.892	72.75
256.124	87.75
256.357	83.75
256.59	71.75
256.823	72.75
257.056	82.75
257.289	77.75
257.521	79.75
257.754	84.75
257.987	82.75
258.22	76.75
258.452	83.75
258.685	63.75
258.918	79.75
259.151	81.75
259.383	81.75
259.616	74.75
259.849	75.75
260.081	77.75
260.314	63.75
260.547	82.75
260.779	70.75
261.012	88.75
261.244	68.75
261.477	88.75
261.71	92.75
261.942	101.75
262.175	106.75
262.407	81.75
262.64	97.75
262.872	79.75
263.105	79.75
263.337	87.75
263.57	86.75
263.802	87.75
264.035	78.75
264.267	86.75
264.499	85.75
264.732	91.75
264.964	92.75
265.197	89.75
265.429	96.75
265.661	77.75
265.894	80.75
266.126	77.75
266.358	83.75
266.591	92.75
266.823	79.75
267.055	85.75
267.287	93.75
267.52	95.75
267.752	78.75
267.984	76.75
268.216	96.75
268.448	92.75
268.681	76.75
268.913	81.75
269.145	87.75
269.377	83.75
269.609	90.75
269.841	79.75
270.073	73.75
270.306	77.75
270.538	81.75
270.77	71.75
271.002	80.75
271.234	87.75
271.466	79.75
271.698	86.75
271.93	82.75
272.162	79.75
272.394	77.75
272.626	80.75
272.858	91.75
273.09	77.75
273.322	81.75
273.553	73.75
273.785	74.75
274.017	92.75
274.249	93.75
274.481	88.75
274.713	89.75
274.945	82.75
275.176	99.75
275.408	87.75
275.64	99.75
275.872	88.75
276.104	80.75
276.335	83.75
276.567	89.75
276.799	87.75
277.031	97.75
277.262	98.75
277.494	84.75
277.726	86.75
277.957	85.75
278.189	94.75
278.421	100.75
278.652	91.75
278.884	78.75
279.115	90.75
279.347	84.75
279.579	82.75
279.81	84.75
280.042	100.75
280.273	62.75
280.505	82.75
280.736	74.75
280.968	92.75
281.199	93.75
281.431	79.75
281.662	86.75
281.894	83.75
282.125	88.75
282.356	106.75
282.588	141.75
282.819	104.75
283.051	97.75
283.282	97.75
283.513	87.75
283.745	70.75
283.976	83.75
284.207	79.75
284.439	81.75
284.67	91.75
284.901	84.75
285.132	72.75
285.364	88.75
285.595	90.75
285.826	94.75
286.057	86.75
286.288	84.75
286.52	82.75
286.751	82.75
286.982	88.75
287.213	77.75
287.444	89.75
287.675	96.75
287.906	89.75
288.138	100.75
288.369	89.75
288.6	75.75
288.831	96.75
289.062	88.75
289.293	80.75
289.524	88.75
289.755	93.75
289.986	76.75
290.217	79.75
290.448	80.75
290.679	103.75
290.91	93.75
291.141	81.75
291.371	84.75
291.602	73.75
291.833	96.75
292.064	82.75
292.295	82.75
292.526	83.75
292.757	92.75
292.987	84.75
293.218	80.75
293.449	86.75
293.68	85.75
293.91	94.75
294.141	96.75
294.372	84.75
294.603	93.75
294.833	72.75
295.064	89.75
295.295	88.75
295.525	88.75
295.756	81.75
295.987	106.75
296.217	134.75
296.448	117.75
296.679	89.75
296.909	78.75
297.14	77.75
297.37	91.75
297.601	82.75
297.831	89.75
298.062	93.75
298.292	79.75
298.523	101.75
298.753	89.75
298.984	99.75
299.214	91.75
299.445	95.75
299.675	85.75
299.905	97.75
300.136	73.75
300.366	83.75
300.597	89.75
300.827	105.75
301.057	88.75
301.288	101.75
301.518	88.75
301.748	77.75
301.979	101.75
302.209	96.75
302.439	70.75
302.669	97.75
302.9	81.75
303.13	91.75
303.36	86.75
303.59	93.75
303.82	109.75
304.051	93.75
304.281	92.75
304.511	89.75
304.741	80.75
304.971	91.75
305.201	98.75
305.431	86.75
305.661	88.75
305.891	82.75
306.121	104.75
306.352	93.75
306.582	98.75
306.812	93.75
307.042	89.75
307.272	95.75
307.502	82.75
307.731	90.75
307.961	90.75
308.191	104.75
308.421	91.75
308.651	86.75
308.881	91.75
309.111	92.75
309.341	94.75
309.571	93.75
309.8	78.75
310.03	97.75
310.26	91.75
310.49	102.75
310.72	94.75
310.949	88.75
311.179	103.75
311.409	90.75
311.639	91.75
311.868	81.75
312.098	92.75
312.328	88.75
312.557	108.75
312.787	87.75
313.017	112.75
313.246	85.75
313.476	87.75
313.706	100.75
313.935	88.75
314.165	123.75
314.394	102.75
314.624	82.75
314.853	97.75
315.083	95.75
315.312	90.75
315.542	101.75
315.771	93.75
316.001	93.75
316.23	79.75
316.46	86.75
316.689	81.75
316.919	93.75
317.148	103.75
317.377	86.75
317.607	99.75
317.836	97.75
318.065	81.75
318.295	94.75
318.524	87.75
318.753	85.75
318.983	82.75
319.212	93.75
319.441	112.75
319.67	110.75
319.9	90.75
320.129	81.75
320.358	89.75
320.587	101.75
320.816	86.75
321.046	118.75
321.275	96.75
321.504	100.75
321.733	98.75
321.962	105.75
322.191	103.75
322.42	110.75
322.649	105.75
322.878	105.75
323.108	113.75
323.337	122.75
323.566	126.75
323.795	156.75
324.024	220.75
324.253	429.75
324.482	854.75
324.71	1806.75
324.939	2375.75
325.168	859.75
325.397	249.75
325.626	151.75
325.855	137.75
326.084	114.75
326.313	130.75
326.542	155.75
326.77	242.75
326.999	454.75
327.228	1005.75
327.457	1798.75
327.686	1443.75
327.914	382.75
328.143	192.75
328.372	139.75
328.6	127.75
328.829	109.75
329.058	111.75
329.287	121.75
329.515	103.75
329.744	94.75
329.972	97.75
330.201	97.75
330.43	107.75
330.658	99.75
330.887	148.75
331.115	133.75
331.344	105.75
331.572	89.75
331.801	98.75
332.03	105.75
332.258	104.75
332.486	100.75
332.715	96.75
332.943	82.75
333.172	94.75
333.4	88.75
333.629	93.75
333.857	121.75
334.085	92.75
334.314	83.75
334.542	86.75
334.771	90.75
334.999	93.75
335.227	92.75
335.455	90.75
335.684	99.75
335.912	92.75
336.14	88.75
336.369	93.75
336.597	93.75
336.825	105.75
337.053	100.75
337.281	84.75
337.51	88.75
337.738	103.75
337.966	82.75
338.194	88.75
338.422	85.75
338.65	94.75
338.878	89.75
339.106	93.75
339.334	78.75
339.562	77.75
339.79	78.75
340.018	96.75
340.246	81.75
340.474	101.75
340.702	102.75
340.93	74.75
341.158	86.75
341.386	93.75
341.614	98.75
341.842	90.75
342.07	85.75
342.298	107.75
342.526	86.75
342.754	77.75
342.981	89.75
343.209	87.75
343.437	99.75
343.665	93.75
343.893	91.75
344.12	93.75
344.348	71.75
344.576	88.75
344.804	82.75
345.031	89.75
345.259	96.75
345.487	90.75
345.714	100.75
345.942	88.75
346.17	102.75
346.397	95.75
346.625	97.75
346.853	96.75
347.08	98.75
347.308	87.75
347.535	86.75
347.763	89.75
347.99	93.75
348.218	79.75
348.445	109.75
348.673	79.75
348.9	83.75
349.128	93.75
349.355	83.75
349.583	89.75
349.81	90.75
350.037	98.75
350.265	98.75
350.492	95.75
350.72	109.75
350.947	89.75
351.174	103.75
351.402	110.75
351.629	103.75
351.856	103.75
352.083	102.75
352.311	102.75
352.538	98.75
352.765	103.75
352.992	107.75
353.22	103.75
353.447	99.75
353.674	95.75
353.901	106.75
354.128	91.75
354.355	83.75
354.583	99.75
354.81	101.75
355.037	96.75
355.264	103.75
355.491	93.75
355.718	94.75
355.945	89.75
356.172	89.75
356.399	102.75
356.626	104.75
356.853	101.75
357.08	98.75
357.307	93.75
357.534	80.75
357.761	80.75
357.988	97.75
358.215	83.75
358.441	99.75
358.668	83.75
358.895	94.75
359.122	77.75
359.349	90.75
359.576	88.75
359.802	94.75
360.029	104.75
360.256	105.75
360.483	91.75
360.709	77.75
360.936	89.75
361.163	107.75
361.39	94.75
361.616	91.75
361.843	83.75
362.07	97.75
362.296	95.75
362.523	97.75
362.749	82.75
362.976	88.75
363.203	99.75
363.429	89.75
363.656	90.75
363.882	83.75
364.109	86.75
364.335	103.75
364.562	88.75
364.788	81.75
365.015	95.75
365.241	101.75
365.468	99.75
365.694	97.75
365.92	84.75
366.147	89.75
366.373	92.75
366.599	83.75
366.826	93.75
367.052	76.75
367.278	85.75
367.505	95.75
367.731	81.75
367.957	93.75
368.184	89.75
368.41	97.75
368.636	113.75
368.862	129.75
369.089	110.75
369.315	96.75
369.541	107.75
369.767	83.75
369.993	96.75
370.219	88.75
370.445	95.75
370.672	89.75
370.898	92.75
371.124	80.75
371.35	82.75
371.576	80.75
371.802	75.75
372.028	78.75
372.254	101.75
372.48	90.75
372.706	80.75
372.932	91.75
373.158	91.75
373.384	96.75
373.61	87.75
373.835	89.75
374.061	90.75
374.287	88.75
374.513	89.75
374.739	85.75
374.965	86.75
375.191	92.75
375.416	69.75
375.642	105.75
375.868	93.75
376.094	80.75
376.319	94.75
376.545	89.75
376.771	93.75
376.997	91.75
377.222	88.75
377.448	68.75
377.674	86.75
377.899	87.75
378.125	80.75
378.35	89.75
378.576	88.75
378.802	78.75
379.027	85.75
379.253	98.75
379.478	83.75
379.704	85.75
379.929	95.75
380.155	91.75
380.38	90.75
380.606	86.75
380.831	92.75
381.057	86.75
381.282	99.75
381.507	97.75
381.733	83.75
381.958	87.75
382.184	89.75
382.409	106.75
382.634	92.75
382.86	102.75
383.085	85.75
383.31	89.75
383.535	106.75
383.761	81.75
383.986	99.75
384.211	74.75
384.436	86.75
384.662	94.75
384.887	91.75
385.112	83.75
385.337	98.75
385.562	101.75
385.787	100.75
386.013	90.75
386.238	106.75
386.463	91.75
386.688	110.75
386.913	89.75
387.138	98.75
387.363	93.75
387.588	103.75
387.813	103.75
388.038	110.75
388.263	111.75
388.488	96.75
388.713	94.75
388.938	103.75
389.163	103.75
389.387	95.75
389.612	89.75
389.837	90.75
390.062	79.75
390.287	106.75
390.512	85.75
390.736	99.75
390.961	101.75
391.186	72.75
391.411	78.75
391.636	101.75
391.86	102.75
392.085	88.75
392.31	99.75
392.534	87.75
392.759	90.75
392.984	70.75
393.208	77.75
393.433	86.75
393.658	84.75
393.882	79.75
394.107	85.75
394.331	99.75
394.556	85.75
394.78	84.75
395.005	83.75
395.229	92.75
395.454	81.75
395.678	74.75
395.903	88.75
396.127	84.75
396.352	98.75
396.576	74.75
396.801	80.75
397.025	89.75
397.249	76.75
397.474	84.75
397.698	92.75
397.922	84.75
398.147	84.75
398.371	83.75
398.595	102.75
398.82	89.75
399.044	95.75
399.268	71.75
399.492	69.75
399.717	86.75
399.941	107.75
400.165	96.75
400.389	83.75
400.613	88.75
400.837	78.75
401.062	95.75
401.286	89.75
401.51	95.75
401.734	83.75
401.958	98.75
402.182	126.75
402.406	175.75
402.63	106.75
402.854	86.75
403.078	79.75
403.302	76.75
403.526	83.75
403.75	80.75
403.974	83.75
404.198	97.75
404.422	95.75
404.645	97.75
404.869	90.75
405.093	99.75
405.317	84.75
405.541	98.75
405.765	87.75
405.988	110.75
406.212	159.75
406.436	211.75
406.66	134.75
406.883	88.75
407.107	82.75
407.331	90.75
407.555	93.75
407.778	90.75
408.002	107.75
408.226	97.75
408.449	87.75
408.673	88.75
408.896	94.75
409.12	87.75
409.344	92.75
409.567	81.75
409.791	92.75
410.014	90.75
410.238	81.75
410.461	90.75
410.685	88.75
410.908	93.75
411.132	102.75
411.355	109.75
411.578	86.75
411.802	72.75
412.025	90.75
412.249	97.75
412.472	94.75
412.695	90.75
412.919	97.75
413.142	82.75
413.365	90.75
413.589	84.75
413.812	89.75
414.035	94.75
414.258	88.75
414.482	88.75
414.705	81.75
414.928	85.75
415.151	77.75
415.374	85.75
415.597	93.75
415.821	88.75
416.044	81.75
416.267	103.75
416.49	82.75
416.713	93.75
416.936	87.75
417.159	87.75
417.382	90.75
417.605	89.75
417.828	96.75
418.051	90.75
418.274	80.75
418.497	80.75
418.72	86.75
418.943	78.75
419.166	83.75
419.389	93.75
419.611	77.75
419.834	83.75
420.057	73.75
420.28	95.75
420.503	92.75
420.726	83.75
420.948	93.75
421.171	82.75
421.394	84.75
421.617	93.75
421.839	86.75
422.062	84.75
422.285	87.75
422.507	101.75
422.73	74.75
422.953	79.75
423.175	91.75
423.398	101.75
423.621	102.75
423.843	85.75
424.066	82.75
424.288	92.75
424.511	87.75
424.733	97.75
424.956	100.75
425.178	102.75
425.401	91.75
425.623	101.75
425.846	76.75
426.068	86.75
426.291	90.75
426.513	94.75
426.735	82.75
426.958	91.75
427.18	105.75
427.402	123.75
427.625	155.75
427.847	112.75
428.069	99.75
428.292	75.75
428.514	81.75
428.736	80.75
428.958	80.75
429.181	96.75
429.403	86.75
429.625	69.75
429.847	88.75
430.069	99.75
430.292	82.75
430.514	86.75
430.736	78.75
430.958	79.75
431.18	79.75
431.402	79.75
431.624	75.75
431.846	79.75
432.068	94.75
432.29	82.75
432.512	81.75
432.734	77.75
432.956	90.75
433.178	94.75
433.4	105.75
433.622	79.75
433.844	87.75
434.066	78.75
434.287	91.75
434.509	80.75
434.731	81.75
434.953	92.75
435.175	93.75
435.397	87.75
435.618	85.75
435.84	102.75
436.062	113.75
436.284	117.75
436.505	112.75
436.727	95.75
436.949	88.75
437.17	79.75
437.392	89.75
437.614	95.75
437.835	93.75
438.057	104.75
438.278	106.75
438.5	96.75
438.721	121.75
438.943	95.75
439.165	86.75
439.386	88.75
439.608	87.75
439.829	95.75
440.05	130.75
440.272	133.75
440.493	94.75
440.715	92.75
440.936	93.75
441.158	88.75
441.379	90.75
441.6	83.75
441.822	97.75
442.043	95.75
442.264	95.75
442.486	99.75
442.707	93.75
442.928	105.75
443.149	111.75
443.371	117.75
443.592	112.75
443.813	110.75
444.034	106.75
444.255	83.75
444.476	83.75
444.698	93.75
444.919	89.75
445.14	110.75
445.361	113.75
445.582	100.75
445.803	133.75
446.024	130.75
446.245	132.75
446.466	111.75
446.687	74.75
446.908	85.75
447.129	61.75
447.35	91.75
447.571	73.75
447.792	93.75
448.013	96.75
448.234	96.75
448.455	94.75
448.675	97.75
448.896	104.75
449.117	87.75
449.338	102.75
449.559	125.75
449.779	119.75
450	97.75
450.221	90.75
450.442	95.75
450.662	112.75
450.883	103.75
451.104	110.75
451.324	92.75
451.545	98.75
451.766	88.75
451.986	90.75
452.207	76.75
452.428	90.75
452.648	86.75
452.869	110.75
453.089	99.75
453.31	127.75
453.53	103.75
453.751	107.75
453.971	117.75
454.192	106.75
454.412	85.75
454.633	85.75
454.853	79.75
455.073	81.75
455.294	84.75
455.514	97.75
455.734	77.75
455.955	84.75
456.175	70.75
456.395	83.75
456.616	89.75
456.836	87.75
457.056	91.75
457.276	92.75
457.497	75.75
457.717	72.75
457.937	77.75
458.157	69.75
458.377	94.75
458.598	110.75
458.818	141.75
459.038	165.75
459.258	105.75
459.478	85.75
459.698	97.75
459.918	80.75
460.138	79.75
460.358	76.75
460.578	75.75
460.798	83.75
461.018	94.75
461.238	75.75
461.458	88.75
461.678	90.75
461.898	64.75
462.118	73.75
462.338	85.75
462.558	88.75
462.777	88.75
462.997	76.75
463.217	95.75
463.437	79.75
463.657	86.75
463.876	82.75
464.096	87.75
464.316	99.75
464.536	104.75
464.755	86.75
464.975	98.75
465.195	165.75
465.414	150.75
465.634	77.75
465.854	80.75
466.073	69.75
466.293	84.75
466.512	76.75
466.732	81.75
466.951	93.75
467.171	83.75
467.391	95.75
467.61	93.75
467.829	95.75
468.049	79.75
468.268	80.75
468.488	82.75
468.707	82.75
468.927	86.75
469.146	77.75
469.365	76.75
469.585	76.75
469.804	104.75
470.023	103.75
470.243	82.75
470.462	101.75
470.681	104.75
470.901	87.75
471.12	74.75
471.339	77.75
471.558	81.75
471.777	99.75
471.997	81.75
472.216	89.75
472.435	92.75
472.654	83.75
472.873	80.75
473.092	90.75
473.311	84.75
473.53	81.75
473.749	74.75
473.968	91.75
474.187	107.75
474.406	90.75
474.625	82.75
474.844	88.75
475.063	105.75
475.282	91.75
475.501	83.75
475.72	83.75
475.939	97.75
476.158	81.75
476.377	94.75
476.596	96.75
476.814	105.75
477.033	75.75
477.252	81.75
477.471	73.75
477.69	92.75
477.908	82.75
478.127	92.75
478.346	93.75
478.564	96.75
478.783	91.75
479.002	79.75
479.22	87.75
479.439	109.75
479.658	93.75
479.876	100.75
480.095	88.75
480.313	85.75
480.532	89.75
480.751	80.75
480.969	79.75
481.188	76.75
481.406	86.75
481.624	93.75
481.843	88.75
482.061	85.75
482.28	79.75
482.498	89.75
482.717	87.75
482.935	102.75
483.153	94.75
483.372	89.75
483.59	77.75
483.808	89.75
484.027	87.75
484.245	88.75
484.463	80.75
484.681	97.75
484.9	89.75
485.118	97.75
485.336	92.75
485.554	84.75
485.772	105.75
485.99	105.75
486.209	97.75
486.427	97.75
486.645	86.75
486.863	105.75
487.081	85.75
487.299	81.75
487.517	99.75
487.735	93.75
487.953	84.75
488.171	73.75
488.389	88.75
488.607	95.75
488.825	93.75
489.043	81.75
489.261	102.75
489.479	88.75
489.696	82.75
489.914	72.75
490.132	80.75
490.35	92.75
490.568	77.75
490.786	71.75
491.003	77.75
491.221	97.75
491.439	88.75
491.657	87.75
491.874	83.75
492.092	100.75
492.31	81.75
492.527	80.75
492.745	90.75
492.963	88.75
493.18	91.75
493.398	82.75
493.615	100.75
493.833	88.75
494.05	90.75
494.268	74.75
494.485	78.75
494.703	93.75
494.92	86.75
495.138	81.75
495.355	83.75
495.573	93.75
495.79	82.75
496.008	93.75
496.225	76.75
496.442	78.75
496.66	89.75
496.877	79.75
497.094	87.75
497.312	80.75
497.529	83.75
497.746	92.75
497.963	96.75
498.181	95.75
498.398	78.75
498.615	104.75
498.832	89.75
499.049	80.75
499.267	91.75
499.484	76.75
499.701	87.75
499.918	88.75
500.135	89.75
500.352	93.75
500.569	97.75
500.786	90.75
501.003	100.75
501.22	87.75
501.437	93.75
501.654	93.75
501.871	110.75
502.088	94.75
502.305	72.75
502.522	77.75
502.739	81.75
502.956	86.75
503.172	87.75
503.389	98.75
503.606	81.75
503.823	89.75
504.04	93.75
504.256	77.75
504.473	87.75
504.69	89.75
504.907	85.75
505.123	95.75
505.34	74.75
505.557	81.75
505.773	88.75
505.99	84.75
506.207	81.75
506.423	85.75
506.64	87.75
506.856	89.75
507.073	79.75
507.289	77.75
507.506	89.75
507.722	104.75
507.939	96.75
508.155	100.75
508.372	78.75
508.588	91.75
508.805	91.75
509.021	80.75
509.238	85.75
509.454	101.75
509.67	89.75
509.887	107.75
510.103	120.75
510.319	207.75
510.536	799.75
510.752	2526.75
510.968	691.75
511.184	174.75
511.401	110.75
511.617	96.75
511.833	99.75
512.049	98.75
512.265	95.75
512.481	92.75
512.698	90.75
512.914	82.75
513.13	86.75
513.346	96.75
513.562	79.75
513.778	103.75
513.994	87.75
514.21	95.75
514.426	132.75
514.642	122.75
514.858	138.75
515.074	153.75
515.29	461.75
515.506	1553.75
515.721	571.75
515.937	166.75
516.153	110.75
516.369	99.75
516.585	90.75
516.801	93.75
