Data from Uncirc_2007_H10_HRD10591_00044.txt Node
Date: Wed Jan 03 10:20:51 EST 2024
User: Yrep
Spectrometer: HR+D1059
Trigger mode: 1
Integration Time (sec): 1.000000E-1
Scans to average: 1
Electric dark correction enabled: true
Nonlinearity correction enabled: false
Boxcar width: 0
XAxis mode: Wavelengths
Number of Pixels in Spectrum: 2048
>>>>>Begin Spectral Data<<<<<
223.165	-19.44
223.4	-19.44
223.635	-19.44
223.869	-15.44
224.104	-14.44
224.338	-19.44
224.573	-9.44
224.808	-13.44
225.042	-3.44
225.277	5.56
225.511	9.56
225.746	6.56
225.98	1.56
226.215	3.56
226.449	7.56
226.683	12.56
226.918	28.56
227.152	19.56
227.387	33.56
227.621	36.56
227.856	34.56
228.09	54.56
228.324	46.56
228.559	66.56
228.793	65.56
229.027	70.56
229.262	68.56
229.496	70.56
229.73	81.56
229.964	81.56
230.199	55.56
230.433	64.56
230.667	83.56
230.901	84.56
231.136	85.56
231.37	71.56
231.604	85.56
231.838	72.56
232.072	84.56
232.306	87.56
232.541	77.56
232.775	97.56
233.009	91.56
233.243	81.56
233.477	83.56
233.711	90.56
233.945	89.56
234.179	89.56
234.413	82.56
234.647	83.56
234.881	87.56
235.115	69.56
235.349	84.56
235.583	88.56
235.817	69.56
236.051	86.56
236.285	62.56
236.519	73.56
236.753	79.56
236.987	63.56
237.221	83.56
237.455	93.56
237.689	79.56
237.922	73.56
238.156	68.56
238.39	78.56
238.624	76.56
238.858	88.56
239.091	61.56
239.325	78.56
239.559	85.56
239.793	96.56
240.027	74.56
240.26	79.56
240.494	71.56
240.728	72.56
240.961	82.56
241.195	73.56
241.429	86.56
241.662	75.56
241.896	78.56
242.13	81.56
242.363	75.56
242.597	82.56
242.83	81.56
243.064	70.56
243.298	87.56
243.531	77.56
243.765	83.56
243.998	85.56
244.232	76.56
244.465	78.56
244.699	87.56
244.932	78.56
245.166	77.56
245.399	86.56
245.633	83.56
245.866	83.56
246.099	84.56
246.333	75.56
246.566	79.56
246.8	62.56
247.033	76.56
247.266	92.56
247.5	89.56
247.733	85.56
247.966	77.56
248.2	77.56
248.433	97.56
248.666	80.56
248.899	85.56
249.133	83.56
249.366	105.56
249.599	104.56
249.832	82.56
250.066	75.56
250.299	94.56
250.532	81.56
250.765	80.56
250.998	77.56
251.231	77.56
251.465	78.56
251.698	81.56
251.931	77.56
252.164	79.56
252.397	73.56
252.63	69.56
252.863	89.56
253.096	73.56
253.329	73.56
253.562	88.56
253.795	98.56
254.028	95.56
254.261	76.56
254.494	82.56
254.727	73.56
254.96	76.56
255.193	83.56
255.426	83.56
255.659	73.56
255.892	77.56
256.124	81.56
256.357	78.56
256.59	70.56
256.823	67.56
257.056	72.56
257.289	81.56
257.521	83.56
257.754	88.56
257.987	76.56
258.22	92.56
258.452	82.56
258.685	91.56
258.918	95.56
259.151	81.56
259.383	91.56
259.616	73.56
259.849	78.56
260.081	90.56
260.314	81.56
260.547	79.56
260.779	81.56
261.012	92.56
261.244	90.56
261.477	102.56
261.71	103.56
261.942	108.56
262.175	106.56
262.407	85.56
262.64	74.56
262.872	79.56
263.105	79.56
263.337	61.56
263.57	85.56
263.802	83.56
264.035	83.56
264.267	80.56
264.499	84.56
264.732	86.56
264.964	81.56
265.197	95.56
265.429	86.56
265.661	83.56
265.894	91.56
266.126	70.56
266.358	72.56
266.591	88.56
266.823	74.56
267.055	90.56
267.287	81.56
267.52	73.56
267.752	67.56
267.984	61.56
268.216	89.56
268.448	87.56
268.681	83.56
268.913	92.56
269.145	76.56
269.377	62.56
269.609	82.56
269.841	93.56
270.073	69.56
270.306	86.56
270.538	83.56
270.77	78.56
271.002	75.56
271.234	86.56
271.466	81.56
271.698	80.56
271.93	80.56
272.162	71.56
272.394	77.56
272.626	90.56
272.858	63.56
273.09	83.56
273.322	78.56
273.553	84.56
273.785	82.56
274.017	79.56
274.249	80.56
274.481	89.56
274.713	87.56
274.945	90.56
275.176	77.56
275.408	85.56
275.64	86.56
275.872	85.56
276.104	90.56
276.335	86.56
276.567	105.56
276.799	109.56
277.031	106.56
277.262	77.56
277.494	91.56
277.726	81.56
277.957	77.56
278.189	83.56
278.421	86.56
278.652	87.56
278.884	84.56
279.115	85.56
279.347	99.56
279.579	82.56
279.81	95.56
280.042	80.56
280.273	97.56
280.505	91.56
280.736	89.56
280.968	94.56
281.199	94.56
281.431	79.56
281.662	87.56
281.894	91.56
282.125	92.56
282.356	123.56
282.588	139.56
282.819	119.56
283.051	85.56
283.282	87.56
283.513	90.56
283.745	88.56
283.976	89.56
284.207	83.56
284.439	74.56
284.67	72.56
284.901	101.56
285.132	87.56
285.364	88.56
285.595	87.56
285.826	99.56
286.057	78.56
286.288	70.56
286.52	80.56
286.751	92.56
286.982	77.56
287.213	89.56
287.444	96.56
287.675	95.56
287.906	96.56
288.138	93.56
288.369	79.56
288.6	90.56
288.831	81.56
289.062	97.56
289.293	92.56
289.524	92.56
289.755	88.56
289.986	90.56
290.217	92.56
290.448	74.56
290.679	83.56
290.91	81.56
291.141	96.56
291.371	94.56
291.602	73.56
291.833	90.56
292.064	88.56
292.295	98.56
292.526	84.56
292.757	86.56
292.987	91.56
293.218	96.56
293.449	104.56
293.68	92.56
293.91	78.56
294.141	94.56
294.372	94.56
294.603	91.56
294.833	98.56
295.064	80.56
295.295	95.56
295.525	109.56
295.756	96.56
295.987	108.56
296.217	130.56
296.448	127.56
296.679	103.56
296.909	96.56
297.14	93.56
297.37	99.56
297.601	87.56
297.831	87.56
298.062	99.56
298.292	83.56
298.523	99.56
298.753	96.56
298.984	102.56
299.214	83.56
299.445	88.56
299.675	102.56
299.905	91.56
300.136	84.56
300.366	99.56
300.597	91.56
300.827	97.56
301.057	94.56
301.288	111.56
301.518	102.56
301.748	87.56
301.979	99.56
302.209	97.56
302.439	76.56
302.669	85.56
302.9	86.56
303.13	94.56
303.36	82.56
303.59	106.56
303.82	105.56
304.051	94.56
304.281	79.56
304.511	90.56
304.741	83.56
304.971	81.56
305.201	93.56
305.431	86.56
305.661	91.56
305.891	77.56
306.121	94.56
306.352	98.56
306.582	110.56
306.812	98.56
307.042	93.56
307.272	99.56
307.502	89.56
307.731	99.56
307.961	88.56
308.191	94.56
308.421	98.56
308.651	95.56
308.881	96.56
309.111	97.56
309.341	99.56
309.571	94.56
309.8	102.56
310.03	92.56
310.26	106.56
310.49	101.56
310.72	86.56
310.949	94.56
311.179	99.56
311.409	89.56
311.639	99.56
311.868	90.56
312.098	90.56
312.328	84.56
312.557	107.56
312.787	99.56
313.017	93.56
313.246	95.56
313.476	93.56
313.706	89.56
313.935	97.56
314.165	98.56
314.394	103.56
314.624	97.56
314.853	106.56
315.083	90.56
315.312	71.56
315.542	93.56
315.771	86.56
316.001	87.56
316.23	94.56
316.46	89.56
316.689	91.56
316.919	98.56
317.148	109.56
317.377	91.56
317.607	100.56
317.836	104.56
318.065	88.56
318.295	93.56
318.524	82.56
318.753	85.56
318.983	103.56
319.212	106.56
319.441	110.56
319.67	103.56
319.9	93.56
320.129	90.56
320.358	104.56
320.587	93.56
320.816	93.56
321.046	101.56
321.275	110.56
321.504	83.56
321.733	106.56
321.962	94.56
322.191	106.56
322.42	107.56
322.649	122.56
322.878	127.56
323.108	123.56
323.337	134.56
323.566	146.56
323.795	148.56
324.024	214.56
324.253	438.56
324.482	922.56
324.71	1941.56
324.939	2536.56
325.168	900.56
325.397	254.56
325.626	156.56
325.855	138.56
326.084	130.56
326.313	128.56
326.542	173.56
326.77	252.56
326.999	496.56
327.228	1075.56
327.457	2002.56
327.686	1562.56
327.914	397.56
328.143	219.56
328.372	147.56
328.6	143.56
328.829	123.56
329.058	150.56
329.287	131.56
329.515	105.56
329.744	123.56
329.972	100.56
330.201	98.56
330.43	118.56
330.658	131.56
330.887	140.56
331.115	114.56
331.344	86.56
331.572	100.56
331.801	109.56
332.03	99.56
332.258	96.56
332.486	85.56
332.715	89.56
332.943	95.56
333.172	109.56
333.4	94.56
333.629	96.56
333.857	98.56
334.085	107.56
334.314	97.56
334.542	100.56
334.771	99.56
334.999	106.56
335.227	102.56
335.455	91.56
335.684	94.56
335.912	89.56
336.14	91.56
336.369	97.56
336.597	101.56
336.825	94.56
337.053	101.56
337.281	90.56
337.51	92.56
337.738	84.56
337.966	94.56
338.194	99.56
338.422	83.56
338.65	92.56
338.878	88.56
339.106	93.56
339.334	98.56
339.562	85.56
339.79	99.56
340.018	91.56
340.246	91.56
340.474	87.56
340.702	89.56
340.93	108.56
341.158	93.56
341.386	105.56
341.614	95.56
341.842	85.56
342.07	88.56
342.298	92.56
342.526	88.56
342.754	97.56
342.981	103.56
343.209	98.56
343.437	101.56
343.665	103.56
343.893	95.56
344.12	90.56
344.348	88.56
344.576	93.56
344.804	98.56
345.031	119.56
345.259	101.56
345.487	106.56
345.714	104.56
345.942	86.56
346.17	81.56
346.397	100.56
346.625	92.56
346.853	91.56
347.08	98.56
347.308	100.56
347.535	83.56
347.763	80.56
347.99	96.56
348.218	103.56
348.445	110.56
348.673	102.56
348.9	103.56
349.128	90.56
349.355	91.56
349.583	94.56
349.81	103.56
350.037	101.56
350.265	109.56
350.492	107.56
350.72	87.56
350.947	117.56
351.174	100.56
351.402	101.56
351.629	97.56
351.856	100.56
352.083	111.56
352.311	109.56
352.538	111.56
352.765	98.56
352.992	108.56
353.22	108.56
353.447	101.56
353.674	99.56
353.901	83.56
354.128	105.56
354.355	98.56
354.583	85.56
354.81	91.56
355.037	90.56
355.264	107.56
355.491	81.56
355.718	93.56
355.945	82.56
356.172	86.56
356.399	90.56
356.626	94.56
356.853	91.56
357.08	106.56
357.307	69.56
357.534	87.56
357.761	87.56
357.988	96.56
358.215	105.56
358.441	96.56
358.668	101.56
358.895	85.56
359.122	95.56
359.349	92.56
359.576	83.56
359.802	82.56
360.029	119.56
360.256	114.56
360.483	97.56
360.709	94.56
360.936	91.56
361.163	109.56
361.39	94.56
361.616	98.56
361.843	86.56
362.07	92.56
362.296	106.56
362.523	90.56
362.749	84.56
362.976	96.56
363.203	90.56
363.429	79.56
363.656	89.56
363.882	94.56
364.109	93.56
364.335	87.56
364.562	97.56
364.788	91.56
365.015	95.56
365.241	98.56
365.468	103.56
365.694	118.56
365.92	100.56
366.147	89.56
366.373	91.56
366.599	97.56
366.826	92.56
367.052	81.56
367.278	91.56
367.505	91.56
367.731	87.56
367.957	92.56
368.184	90.56
368.41	102.56
368.636	109.56
368.862	121.56
369.089	118.56
369.315	97.56
369.541	87.56
369.767	80.56
369.993	84.56
370.219	91.56
370.445	100.56
370.672	75.56
370.898	96.56
371.124	87.56
371.35	85.56
371.576	83.56
371.802	95.56
372.028	93.56
372.254	107.56
372.48	93.56
372.706	85.56
372.932	95.56
373.158	82.56
373.384	85.56
373.61	94.56
373.835	93.56
374.061	97.56
374.287	96.56
374.513	81.56
374.739	93.56
374.965	90.56
375.191	96.56
375.416	84.56
375.642	98.56
375.868	100.56
376.094	93.56
376.319	94.56
376.545	94.56
376.771	97.56
376.997	96.56
377.222	94.56
377.448	92.56
377.674	82.56
377.899	90.56
378.125	93.56
378.35	101.56
378.576	101.56
378.802	96.56
379.027	81.56
379.253	104.56
379.478	98.56
379.704	101.56
379.929	109.56
380.155	99.56
380.38	87.56
380.606	91.56
380.831	72.56
381.057	107.56
381.282	87.56
381.507	89.56
381.733	103.56
381.958	91.56
382.184	86.56
382.409	97.56
382.634	110.56
382.86	97.56
383.085	87.56
383.31	102.56
383.535	119.56
383.761	101.56
383.986	108.56
384.211	110.56
384.436	93.56
384.662	110.56
384.887	108.56
385.112	107.56
385.337	99.56
385.562	110.56
385.787	112.56
386.013	121.56
386.238	105.56
386.463	100.56
386.688	109.56
386.913	114.56
387.138	110.56
387.363	99.56
387.588	114.56
387.813	106.56
388.038	107.56
388.263	116.56
388.488	112.56
388.713	96.56
388.938	97.56
389.163	96.56
389.387	99.56
389.612	100.56
389.837	106.56
390.062	103.56
390.287	100.56
390.512	95.56
390.736	95.56
390.961	105.56
391.186	93.56
391.411	91.56
391.636	92.56
391.86	97.56
392.085	79.56
392.31	95.56
392.534	82.56
392.759	93.56
392.984	81.56
393.208	96.56
393.433	91.56
393.658	86.56
393.882	85.56
394.107	71.56
394.331	81.56
394.556	79.56
394.78	78.56
395.005	98.56
395.229	91.56
395.454	84.56
395.678	82.56
395.903	100.56
396.127	94.56
396.352	94.56
396.576	88.56
396.801	86.56
397.025	83.56
397.249	92.56
397.474	88.56
397.698	86.56
397.922	83.56
398.147	77.56
398.371	82.56
398.595	99.56
398.82	89.56
399.044	83.56
399.268	84.56
399.492	90.56
399.717	101.56
399.941	80.56
400.165	86.56
400.389	100.56
400.613	86.56
400.837	87.56
401.062	91.56
401.286	81.56
401.51	92.56
401.734	86.56
401.958	99.56
402.182	118.56
402.406	158.56
402.63	131.56
402.854	99.56
403.078	93.56
403.302	85.56
403.526	95.56
403.75	94.56
403.974	88.56
404.198	89.56
404.422	85.56
404.645	90.56
404.869	96.56
405.093	105.56
405.317	91.56
405.541	97.56
405.765	114.56
405.988	107.56
406.212	167.56
406.436	242.56
406.66	145.56
406.883	98.56
407.107	102.56
407.331	97.56
407.555	113.56
407.778	116.56
408.002	82.56
408.226	99.56
408.449	87.56
408.673	87.56
408.896	101.56
409.12	92.56
409.344	84.56
409.567	92.56
409.791	86.56
410.014	102.56
410.238	81.56
410.461	85.56
410.685	92.56
410.908	106.56
411.132	105.56
411.355	105.56
411.578	89.56
411.802	97.56
412.025	73.56
412.249	96.56
412.472	95.56
412.695	97.56
412.919	99.56
413.142	89.56
413.365	90.56
413.589	90.56
413.812	82.56
414.035	78.56
414.258	92.56
414.482	98.56
414.705	89.56
414.928	97.56
415.151	96.56
415.374	86.56
415.597	94.56
415.821	80.56
416.044	94.56
416.267	95.56
416.49	75.56
416.713	96.56
416.936	86.56
417.159	92.56
417.382	86.56
417.605	86.56
417.828	99.56
418.051	91.56
418.274	95.56
418.497	106.56
418.72	87.56
418.943	116.56
419.166	87.56
419.389	90.56
419.611	93.56
419.834	79.56
420.057	102.56
420.28	87.56
420.503	103.56
420.726	93.56
420.948	88.56
421.171	98.56
421.394	106.56
421.617	87.56
421.839	94.56
422.062	93.56
422.285	93.56
422.507	107.56
422.73	110.56
422.953	98.56
423.175	95.56
423.398	82.56
423.621	87.56
423.843	87.56
424.066	81.56
424.288	99.56
424.511	91.56
424.733	108.56
424.956	95.56
425.178	92.56
425.401	98.56
425.623	106.56
425.846	95.56
426.068	102.56
426.291	86.56
426.513	88.56
426.735	90.56
426.958	101.56
427.18	108.56
427.402	143.56
427.625	163.56
427.847	131.56
428.069	108.56
428.292	99.56
428.514	101.56
428.736	85.56
428.958	81.56
429.181	93.56
429.403	83.56
429.625	87.56
429.847	105.56
430.069	98.56
430.292	87.56
430.514	82.56
430.736	86.56
430.958	70.56
431.18	82.56
431.402	82.56
431.624	86.56
431.846	91.56
432.068	91.56
432.29	90.56
432.512	93.56
432.734	80.56
432.956	102.56
433.178	102.56
433.4	99.56
433.622	97.56
433.844	84.56
434.066	105.56
434.287	95.56
434.509	87.56
434.731	91.56
434.953	90.56
435.175	89.56
435.397	93.56
435.618	93.56
435.84	110.56
436.062	132.56
436.284	125.56
436.505	107.56
436.727	108.56
436.949	96.56
437.17	87.56
437.392	105.56
437.614	103.56
437.835	104.56
438.057	133.56
438.278	113.56
438.5	104.56
438.721	121.56
438.943	111.56
439.165	96.56
439.386	110.56
439.608	90.56
439.829	117.56
440.05	136.56
440.272	151.56
440.493	108.56
440.715	91.56
440.936	84.56
441.158	103.56
441.379	81.56
441.6	83.56
441.822	87.56
442.043	107.56
442.264	92.56
442.486	98.56
442.707	84.56
442.928	98.56
443.149	123.56
443.371	147.56
443.592	110.56
443.813	130.56
444.034	108.56
444.255	85.56
444.476	93.56
444.698	79.56
444.919	89.56
445.14	146.56
445.361	120.56
445.582	126.56
445.803	157.56
446.024	130.56
446.245	140.56
446.466	121.56
446.687	90.56
446.908	93.56
447.129	87.56
447.35	78.56
447.571	98.56
447.792	105.56
448.013	95.56
448.234	109.56
448.455	98.56
448.675	110.56
448.896	135.56
449.117	105.56
449.338	108.56
449.559	127.56
449.779	139.56
450	107.56
450.221	84.56
450.442	83.56
450.662	93.56
450.883	92.56
451.104	118.56
451.324	102.56
451.545	75.56
451.766	78.56
451.986	94.56
452.207	83.56
452.428	89.56
452.648	94.56
452.869	124.56
453.089	123.56
453.31	112.56
453.53	88.56
453.751	104.56
453.971	108.56
454.192	108.56
454.412	91.56
454.633	88.56
454.853	104.56
455.073	97.56
455.294	91.56
455.514	91.56
455.734	96.56
455.955	99.56
456.175	77.56
456.395	103.56
456.616	98.56
456.836	86.56
457.056	98.56
457.276	97.56
457.497	92.56
457.717	85.56
457.937	100.56
458.157	91.56
458.377	93.56
458.598	113.56
458.818	156.56
459.038	159.56
459.258	132.56
459.478	94.56
459.698	89.56
459.918	75.56
460.138	85.56
460.358	101.56
460.578	94.56
460.798	91.56
461.018	92.56
461.238	88.56
461.458	82.56
461.678	89.56
461.898	82.56
462.118	83.56
462.338	85.56
462.558	90.56
462.777	69.56
462.997	82.56
463.217	91.56
463.437	84.56
463.657	92.56
463.876	96.56
464.096	85.56
464.316	84.56
464.536	97.56
464.755	103.56
464.975	105.56
465.195	167.56
465.414	167.56
465.634	98.56
465.854	89.56
466.073	79.56
466.293	91.56
466.512	90.56
466.732	89.56
466.951	91.56
467.171	95.56
467.391	91.56
467.61	112.56
467.829	100.56
468.049	102.56
468.268	101.56
468.488	93.56
468.707	91.56
468.927	94.56
469.146	85.56
469.365	82.56
469.585	92.56
469.804	83.56
470.023	95.56
470.243	87.56
470.462	96.56
470.681	112.56
470.901	75.56
471.12	83.56
471.339	89.56
471.558	82.56
471.777	98.56
471.997	85.56
472.216	84.56
472.435	86.56
472.654	88.56
472.873	80.56
473.092	81.56
473.311	89.56
473.53	92.56
473.749	79.56
473.968	101.56
474.187	117.56
474.406	96.56
474.625	94.56
474.844	67.56
475.063	84.56
475.282	95.56
475.501	99.56
475.72	92.56
475.939	87.56
476.158	82.56
476.377	100.56
476.596	92.56
476.814	85.56
477.033	91.56
477.252	90.56
477.471	86.56
477.69	92.56
477.908	88.56
478.127	85.56
478.346	86.56
478.564	89.56
478.783	96.56
479.002	87.56
479.22	89.56
479.439	113.56
479.658	107.56
479.876	99.56
480.095	84.56
480.313	82.56
480.532	92.56
480.751	96.56
480.969	98.56
481.188	101.56
481.406	90.56
481.624	82.56
481.843	85.56
482.061	93.56
482.28	76.56
482.498	95.56
482.717	98.56
482.935	75.56
483.153	88.56
483.372	101.56
483.59	91.56
483.808	82.56
484.027	85.56
484.245	93.56
484.463	91.56
484.681	88.56
484.9	92.56
485.118	91.56
485.336	101.56
485.554	90.56
485.772	90.56
485.99	107.56
486.209	102.56
486.427	105.56
486.645	119.56
486.863	91.56
487.081	94.56
487.299	98.56
487.517	88.56
487.735	98.56
487.953	94.56
488.171	100.56
488.389	101.56
488.607	112.56
488.825	83.56
489.043	95.56
489.261	96.56
489.479	94.56
489.696	86.56
489.914	93.56
490.132	70.56
490.35	83.56
490.568	97.56
490.786	96.56
491.003	82.56
491.221	76.56
491.439	99.56
491.657	88.56
491.874	85.56
492.092	104.56
492.31	93.56
492.527	83.56
492.745	98.56
492.963	93.56
493.18	98.56
493.398	94.56
493.615	86.56
493.833	94.56
494.05	84.56
494.268	98.56
494.485	86.56
494.703	77.56
494.92	88.56
495.138	85.56
495.355	87.56
495.573	83.56
495.79	91.56
496.008	99.56
496.225	102.56
496.442	88.56
496.66	93.56
496.877	74.56
497.094	98.56
497.312	89.56
497.529	87.56
497.746	96.56
497.963	87.56
498.181	102.56
498.398	92.56
498.615	107.56
498.832	115.56
499.049	94.56
499.267	95.56
499.484	103.56
499.701	107.56
499.918	102.56
500.135	91.56
500.352	96.56
500.569	71.56
500.786	76.56
501.003	90.56
501.22	84.56
501.437	89.56
501.654	90.56
501.871	115.56
502.088	82.56
502.305	77.56
502.522	99.56
502.739	106.56
502.956	90.56
503.172	88.56
503.389	105.56
503.606	109.56
503.823	86.56
504.04	99.56
504.256	98.56
504.473	103.56
504.69	92.56
504.907	97.56
505.123	88.56
505.34	95.56
505.557	93.56
505.773	87.56
505.99	87.56
506.207	94.56
506.423	88.56
506.64	84.56
506.856	81.56
507.073	97.56
507.289	100.56
507.506	102.56
507.722	107.56
507.939	105.56
508.155	90.56
508.372	89.56
508.588	86.56
508.805	102.56
509.021	92.56
509.238	104.56
509.454	100.56
509.67	91.56
509.887	108.56
510.103	147.56
510.319	233.56
510.536	813.56
510.752	2561.56
510.968	737.56
511.184	155.56
511.401	102.56
511.617	107.56
511.833	88.56
512.049	83.56
512.265	91.56
512.481	101.56
512.698	88.56
512.914	107.56
513.13	94.56
513.346	99.56
513.562	89.56
513.778	91.56
513.994	96.56
514.21	93.56
514.426	128.56
514.642	143.56
514.858	139.56
515.074	184.56
515.29	482.56
