Data from Uncirc_2007_H10_HRD10591_00097.txt Node
Date: Wed Jan 03 10:21:02 EST 2024
User: Yrep
Spectrometer: HR+D1059
Trigger mode: 1
Integration Time (sec): 1.000000E-1
Scans to average: 1
Electric dark correction enabled: true
Nonlinearity correction enabled: false
Boxcar width: 0
XAxis mode: Wavelengths
Number of Pixels in Spectrum: 2048
>>>>>Begin Spectral Data<<<<<
223.165	-14.94
223.4	-14.94
223.635	-14.94
223.869	-24.94
224.104	-28.94
224.338	-25.94
224.573	-8.94
224.808	-13.94
225.042	-10.94
225.277	-10.94
225.511	-0.94
225.746	-0.94
225.98	18.06
226.215	13.06
226.449	9.06
226.683	33.06
226.918	35.06
227.152	33.06
227.387	38.06
227.621	35.06
227.856	29.06
228.09	53.06
228.324	64.06
228.559	55.06
228.793	55.06
229.027	73.06
229.262	73.06
229.496	67.06
229.73	86.06
229.964	75.06
230.199	80.06
230.433	52.06
230.667	83.06
230.901	85.06
231.136	89.06
231.37	79.06
231.604	85.06
231.838	69.06
232.072	90.06
232.306	82.06
232.541	75.06
232.775	76.06
233.009	80.06
233.243	75.06
233.477	84.06
233.711	91.06
233.945	85.06
234.179	85.06
234.413	90.06
234.647	93.06
234.881	85.06
235.115	84.06
235.349	83.06
235.583	65.06
235.817	74.06
236.051	82.06
236.285	75.06
236.519	73.06
236.753	68.06
236.987	90.06
237.221	88.06
237.455	75.06
237.689	72.06
237.922	84.06
238.156	83.06
238.39	81.06
238.624	65.06
238.858	79.06
239.091	82.06
239.325	88.06
239.559	95.06
239.793	71.06
240.027	75.06
240.26	65.06
240.494	83.06
240.728	71.06
240.961	78.06
241.195	67.06
241.429	62.06
241.662	74.06
241.896	75.06
242.13	83.06
242.363	67.06
242.597	69.06
242.83	70.06
243.064	86.06
243.298	77.06
243.531	54.06
243.765	77.06
243.998	77.06
244.232	72.06
244.465	72.06
244.699	92.06
244.932	69.06
245.166	92.06
245.399	83.06
245.633	67.06
245.866	75.06
246.099	73.06
246.333	92.06
246.566	72.06
246.8	62.06
247.033	74.06
247.266	64.06
247.5	69.06
247.733	76.06
247.966	86.06
248.2	73.06
248.433	77.06
248.666	73.06
248.899	94.06
249.133	100.06
249.366	98.06
249.599	94.06
249.832	84.06
250.066	79.06
250.299	81.06
250.532	76.06
250.765	68.06
250.998	85.06
251.231	77.06
251.465	75.06
251.698	77.06
251.931	72.06
252.164	76.06
252.397	79.06
252.63	70.06
252.863	79.06
253.096	90.06
253.329	78.06
253.562	89.06
253.795	90.06
254.028	80.06
254.261	80.06
254.494	77.06
254.727	84.06
254.96	81.06
255.193	77.06
255.426	79.06
255.659	82.06
255.892	88.06
256.124	83.06
256.357	89.06
256.59	74.06
256.823	79.06
257.056	73.06
257.289	77.06
257.521	97.06
257.754	80.06
257.987	87.06
258.22	87.06
258.452	74.06
258.685	77.06
258.918	90.06
259.151	79.06
259.383	87.06
259.616	79.06
259.849	94.06
260.081	85.06
260.314	85.06
260.547	83.06
260.779	71.06
261.012	82.06
261.244	68.06
261.477	83.06
261.71	95.06
261.942	112.06
262.175	138.06
262.407	75.06
262.64	81.06
262.872	80.06
263.105	73.06
263.337	91.06
263.57	73.06
263.802	81.06
264.035	83.06
264.267	85.06
264.499	77.06
264.732	82.06
264.964	88.06
265.197	86.06
265.429	76.06
265.661	89.06
265.894	89.06
266.126	79.06
266.358	81.06
266.591	84.06
266.823	85.06
267.055	69.06
267.287	78.06
267.52	77.06
267.752	80.06
267.984	71.06
268.216	74.06
268.448	99.06
268.681	85.06
268.913	100.06
269.145	75.06
269.377	82.06
269.609	88.06
269.841	81.06
270.073	111.06
270.306	98.06
270.538	89.06
270.77	71.06
271.002	93.06
271.234	82.06
271.466	81.06
271.698	72.06
271.93	84.06
272.162	97.06
272.394	82.06
272.626	84.06
272.858	79.06
273.09	85.06
273.322	93.06
273.553	91.06
273.785	93.06
274.017	102.06
274.249	86.06
274.481	76.06
274.713	74.06
274.945	90.06
275.176	93.06
275.408	92.06
275.64	85.06
275.872	84.06
276.104	75.06
276.335	86.06
276.567	100.06
276.799	112.06
277.031	115.06
277.262	94.06
277.494	89.06
277.726	87.06
277.957	105.06
278.189	98.06
278.421	84.06
278.652	90.06
278.884	89.06
279.115	92.06
279.347	89.06
279.579	91.06
279.81	82.06
280.042	84.06
280.273	87.06
280.505	82.06
280.736	79.06
280.968	92.06
281.199	82.06
281.431	91.06
281.662	88.06
281.894	97.06
282.125	104.06
282.356	115.06
282.588	141.06
282.819	123.06
283.051	103.06
283.282	92.06
283.513	91.06
283.745	79.06
283.976	81.06
284.207	91.06
284.439	79.06
284.67	92.06
284.901	86.06
285.132	85.06
285.364	83.06
285.595	92.06
285.826	84.06
286.057	85.06
286.288	92.06
286.52	90.06
286.751	86.06
286.982	89.06
287.213	83.06
287.444	95.06
287.675	83.06
287.906	91.06
288.138	94.06
288.369	99.06
288.6	87.06
288.831	94.06
289.062	83.06
289.293	86.06
289.524	82.06
289.755	88.06
289.986	89.06
290.217	78.06
290.448	77.06
290.679	96.06
290.91	95.06
291.141	79.06
291.371	95.06
291.602	91.06
291.833	81.06
292.064	90.06
292.295	93.06
292.526	78.06
292.757	100.06
292.987	91.06
293.218	90.06
293.449	84.06
293.68	90.06
293.91	92.06
294.141	92.06
294.372	91.06
294.603	90.06
294.833	83.06
295.064	94.06
295.295	89.06
295.525	88.06
295.756	91.06
295.987	128.06
296.217	140.06
296.448	128.06
296.679	84.06
296.909	106.06
297.14	84.06
297.37	91.06
297.601	98.06
297.831	89.06
298.062	91.06
298.292	80.06
298.523	81.06
298.753	89.06
298.984	85.06
299.214	71.06
299.445	91.06
299.675	105.06
299.905	88.06
300.136	100.06
300.366	82.06
300.597	93.06
300.827	97.06
301.057	102.06
301.288	104.06
301.518	80.06
301.748	86.06
301.979	101.06
302.209	96.06
302.439	85.06
302.669	89.06
302.9	83.06
303.13	79.06
303.36	95.06
303.59	82.06
303.82	91.06
304.051	103.06
304.281	65.06
304.511	79.06
304.741	84.06
304.971	92.06
305.201	103.06
305.431	87.06
305.661	97.06
305.891	83.06
306.121	89.06
306.352	99.06
306.582	108.06
306.812	74.06
307.042	90.06
307.272	97.06
307.502	93.06
307.731	96.06
307.961	94.06
308.191	98.06
308.421	87.06
308.651	95.06
308.881	84.06
309.111	89.06
309.341	85.06
309.571	87.06
309.8	96.06
310.03	96.06
310.26	90.06
310.49	84.06
310.72	103.06
310.949	107.06
311.179	93.06
311.409	83.06
311.639	100.06
311.868	97.06
312.098	97.06
312.328	100.06
312.557	93.06
312.787	106.06
313.017	103.06
313.246	79.06
313.476	79.06
313.706	82.06
313.935	91.06
314.165	99.06
314.394	106.06
314.624	95.06
314.853	94.06
315.083	98.06
315.312	90.06
315.542	91.06
315.771	96.06
316.001	80.06
316.23	80.06
316.46	96.06
316.689	90.06
316.919	82.06
317.148	85.06
317.377	96.06
317.607	96.06
317.836	103.06
318.065	94.06
318.295	84.06
318.524	92.06
318.753	83.06
318.983	77.06
319.212	93.06
319.441	104.06
319.67	107.06
319.9	96.06
320.129	97.06
320.358	91.06
320.587	90.06
320.816	114.06
321.046	107.06
321.275	111.06
321.504	81.06
321.733	99.06
321.962	97.06
322.191	104.06
322.42	96.06
322.649	113.06
322.878	123.06
323.108	119.06
323.337	121.06
323.566	147.06
323.795	155.06
324.024	233.06
324.253	453.06
324.482	942.06
324.71	1981.06
324.939	2601.06
325.168	927.06
325.397	260.06
325.626	139.06
325.855	137.06
326.084	128.06
326.313	143.06
326.542	152.06
326.77	247.06
326.999	508.06
327.228	1085.06
327.457	1968.06
327.686	1555.06
327.914	415.06
328.143	205.06
328.372	140.06
328.6	138.06
328.829	106.06
329.058	121.06
329.287	139.06
329.515	119.06
329.744	101.06
329.972	110.06
330.201	105.06
330.43	103.06
330.658	115.06
330.887	139.06
331.115	125.06
331.344	91.06
331.572	120.06
331.801	96.06
332.03	111.06
332.258	101.06
332.486	94.06
332.715	101.06
332.943	101.06
333.172	83.06
333.4	85.06
333.629	96.06
333.857	104.06
334.085	113.06
334.314	109.06
334.542	90.06
334.771	96.06
334.999	98.06
335.227	105.06
335.455	98.06
335.684	87.06
335.912	89.06
336.14	116.06
336.369	97.06
336.597	105.06
336.825	95.06
337.053	88.06
337.281	92.06
337.51	71.06
337.738	90.06
337.966	72.06
338.194	91.06
338.422	105.06
338.65	104.06
338.878	100.06
339.106	79.06
339.334	94.06
339.562	74.06
339.79	88.06
340.018	92.06
340.246	93.06
340.474	94.06
340.702	89.06
340.93	79.06
341.158	109.06
341.386	104.06
341.614	83.06
341.842	92.06
342.07	82.06
342.298	82.06
342.526	94.06
342.754	92.06
342.981	84.06
343.209	98.06
343.437	104.06
343.665	105.06
343.893	91.06
344.12	104.06
344.348	100.06
344.576	95.06
344.804	82.06
345.031	95.06
345.259	85.06
345.487	93.06
345.714	90.06
345.942	91.06
346.17	90.06
346.397	91.06
346.625	92.06
346.853	88.06
347.08	81.06
347.308	107.06
347.535	107.06
347.763	100.06
347.99	105.06
348.218	102.06
348.445	110.06
348.673	96.06
348.9	93.06
349.128	93.06
349.355	108.06
349.583	82.06
349.81	95.06
350.037	88.06
350.265	99.06
350.492	80.06
350.72	92.06
350.947	93.06
351.174	89.06
351.402	116.06
351.629	106.06
351.856	90.06
352.083	94.06
352.311	108.06
352.538	104.06
352.765	105.06
352.992	121.06
353.22	99.06
353.447	92.06
353.674	108.06
353.901	82.06
354.128	99.06
354.355	82.06
354.583	107.06
354.81	107.06
355.037	113.06
355.264	105.06
355.491	94.06
355.718	83.06
355.945	103.06
356.172	87.06
356.399	85.06
356.626	89.06
356.853	103.06
357.08	89.06
357.307	84.06
357.534	73.06
357.761	76.06
357.988	97.06
358.215	107.06
358.441	91.06
358.668	109.06
358.895	97.06
359.122	85.06
359.349	89.06
359.576	91.06
359.802	99.06
360.029	107.06
360.256	103.06
360.483	100.06
360.709	111.06
360.936	103.06
361.163	89.06
361.39	105.06
361.616	78.06
361.843	85.06
362.07	59.06
362.296	100.06
362.523	89.06
362.749	95.06
362.976	74.06
363.203	90.06
363.429	84.06
363.656	88.06
363.882	86.06
364.109	81.06
364.335	93.06
364.562	105.06
364.788	96.06
365.015	95.06
365.241	101.06
365.468	113.06
365.694	102.06
365.92	110.06
366.147	86.06
366.373	88.06
366.599	92.06
366.826	90.06
367.052	75.06
367.278	79.06
367.505	90.06
367.731	83.06
367.957	92.06
368.184	95.06
368.41	110.06
368.636	108.06
368.862	132.06
369.089	112.06
369.315	93.06
369.541	84.06
369.767	97.06
369.993	72.06
370.219	99.06
370.445	98.06
370.672	92.06
370.898	77.06
371.124	91.06
371.35	89.06
371.576	91.06
371.802	82.06
372.028	77.06
372.254	85.06
372.48	88.06
372.706	99.06
372.932	85.06
373.158	89.06
373.384	84.06
373.61	89.06
373.835	95.06
374.061	100.06
374.287	76.06
374.513	95.06
374.739	99.06
374.965	94.06
375.191	92.06
375.416	81.06
375.642	81.06
375.868	89.06
376.094	88.06
376.319	84.06
376.545	85.06
376.771	85.06
376.997	110.06
377.222	89.06
377.448	91.06
377.674	88.06
377.899	108.06
378.125	81.06
378.35	100.06
378.576	95.06
378.802	96.06
379.027	93.06
379.253	88.06
379.478	97.06
379.704	93.06
379.929	96.06
380.155	86.06
380.38	85.06
380.606	103.06
380.831	85.06
381.057	80.06
381.282	84.06
381.507	96.06
381.733	92.06
381.958	88.06
382.184	92.06
382.409	82.06
382.634	88.06
382.86	97.06
383.085	100.06
383.31	112.06
383.535	92.06
383.761	93.06
383.986	107.06
384.211	101.06
384.436	103.06
384.662	85.06
384.887	91.06
385.112	91.06
385.337	90.06
385.562	94.06
385.787	95.06
386.013	101.06
386.238	103.06
386.463	107.06
386.688	90.06
386.913	97.06
387.138	95.06
387.363	108.06
387.588	86.06
387.813	104.06
388.038	110.06
388.263	109.06
388.488	107.06
388.713	93.06
388.938	97.06
389.163	98.06
389.387	90.06
389.612	97.06
389.837	88.06
390.062	93.06
390.287	112.06
390.512	100.06
390.736	89.06
390.961	96.06
391.186	83.06
391.411	84.06
391.636	97.06
391.86	89.06
392.085	85.06
392.31	86.06
392.534	74.06
392.759	98.06
392.984	83.06
393.208	84.06
393.433	94.06
393.658	89.06
393.882	90.06
394.107	81.06
394.331	77.06
394.556	83.06
394.78	65.06
395.005	84.06
395.229	89.06
395.454	84.06
395.678	94.06
395.903	91.06
396.127	88.06
396.352	93.06
396.576	80.06
396.801	75.06
397.025	86.06
397.249	88.06
397.474	88.06
397.698	88.06
397.922	102.06
398.147	89.06
398.371	81.06
398.595	78.06
398.82	89.06
399.044	81.06
399.268	84.06
399.492	93.06
399.717	93.06
399.941	91.06
400.165	94.06
400.389	89.06
400.613	89.06
400.837	86.06
401.062	98.06
401.286	84.06
401.51	104.06
401.734	87.06
401.958	84.06
402.182	115.06
402.406	164.06
402.63	122.06
402.854	96.06
403.078	83.06
403.302	85.06
403.526	82.06
403.75	88.06
403.974	88.06
404.198	79.06
404.422	77.06
404.645	76.06
404.869	91.06
405.093	99.06
405.317	104.06
405.541	100.06
405.765	93.06
405.988	138.06
406.212	184.06
406.436	254.06
406.66	161.06
406.883	103.06
407.107	89.06
407.331	97.06
407.555	100.06
407.778	100.06
408.002	80.06
408.226	81.06
408.449	79.06
408.673	90.06
408.896	100.06
409.12	101.06
409.344	95.06
409.567	92.06
409.791	97.06
410.014	99.06
410.238	92.06
410.461	91.06
410.685	96.06
410.908	97.06
411.132	106.06
411.355	108.06
411.578	88.06
411.802	91.06
412.025	86.06
412.249	91.06
412.472	89.06
412.695	96.06
412.919	88.06
413.142	92.06
413.365	81.06
413.589	77.06
413.812	97.06
414.035	81.06
414.258	94.06
414.482	79.06
414.705	79.06
414.928	98.06
415.151	91.06
415.374	96.06
415.597	91.06
415.821	88.06
416.044	73.06
416.267	98.06
416.49	94.06
416.713	99.06
416.936	80.06
417.159	97.06
417.382	93.06
417.605	88.06
417.828	83.06
418.051	83.06
418.274	77.06
418.497	85.06
418.72	82.06
418.943	95.06
419.166	105.06
419.389	84.06
419.611	81.06
419.834	65.06
420.057	76.06
420.28	93.06
420.503	93.06
420.726	85.06
420.948	79.06
421.171	111.06
421.394	98.06
421.617	81.06
421.839	85.06
422.062	93.06
422.285	94.06
422.507	100.06
422.73	100.06
422.953	88.06
423.175	85.06
423.398	96.06
423.621	77.06
423.843	81.06
424.066	87.06
424.288	88.06
424.511	77.06
424.733	88.06
424.956	96.06
425.178	102.06
425.401	100.06
425.623	95.06
425.846	103.06
426.068	91.06
426.291	107.06
426.513	98.06
426.735	94.06
426.958	78.06
427.18	98.06
427.402	133.06
427.625	174.06
427.847	136.06
428.069	96.06
428.292	87.06
428.514	77.06
428.736	94.06
428.958	65.06
429.181	75.06
429.403	89.06
429.625	91.06
429.847	82.06
430.069	98.06
430.292	95.06
430.514	85.06
430.736	105.06
430.958	82.06
431.18	81.06
431.402	84.06
431.624	81.06
431.846	82.06
432.068	79.06
432.29	85.06
432.512	92.06
432.734	87.06
432.956	83.06
433.178	100.06
433.4	98.06
433.622	90.06
433.844	106.06
434.066	80.06
434.287	101.06
434.509	93.06
434.731	91.06
434.953	92.06
435.175	85.06
435.397	74.06
435.618	108.06
435.84	109.06
436.062	135.06
436.284	123.06
436.505	122.06
436.727	108.06
436.949	85.06
437.17	72.06
437.392	73.06
437.614	88.06
437.835	110.06
438.057	113.06
438.278	114.06
438.5	100.06
438.721	123.06
438.943	105.06
439.165	92.06
439.386	76.06
439.608	94.06
439.829	99.06
440.05	99.06
440.272	159.06
440.493	96.06
440.715	92.06
440.936	86.06
441.158	96.06
441.379	89.06
441.6	99.06
441.822	93.06
442.043	94.06
442.264	109.06
442.486	97.06
442.707	90.06
442.928	106.06
443.149	132.06
443.371	147.06
443.592	122.06
443.813	120.06
444.034	107.06
444.255	93.06
444.476	95.06
444.698	103.06
444.919	96.06
445.14	120.06
445.361	115.06
445.582	123.06
445.803	149.06
446.024	141.06
446.245	131.06
446.466	120.06
446.687	83.06
446.908	101.06
447.129	85.06
447.35	78.06
447.571	98.06
447.792	94.06
448.013	104.06
448.234	111.06
448.455	96.06
448.675	118.06
448.896	113.06
449.117	92.06
449.338	95.06
449.559	150.06
449.779	148.06
450	95.06
450.221	76.06
450.442	75.06
450.662	84.06
450.883	107.06
451.104	124.06
451.324	87.06
451.545	96.06
451.766	83.06
451.986	81.06
452.207	91.06
452.428	97.06
452.648	99.06
452.869	101.06
453.089	116.06
453.31	120.06
453.53	85.06
453.751	81.06
453.971	104.06
454.192	117.06
454.412	97.06
454.633	82.06
454.853	79.06
455.073	80.06
455.294	81.06
455.514	92.06
455.734	75.06
455.955	90.06
456.175	75.06
456.395	84.06
456.616	83.06
456.836	82.06
457.056	88.06
457.276	94.06
457.497	84.06
457.717	67.06
457.937	91.06
458.157	90.06
458.377	79.06
458.598	96.06
458.818	159.06
459.038	164.06
459.258	115.06
459.478	90.06
459.698	88.06
459.918	83.06
460.138	84.06
460.358	85.06
460.578	88.06
460.798	88.06
461.018	87.06
461.238	78.06
461.458	96.06
461.678	88.06
461.898	82.06
462.118	98.06
462.338	80.06
462.558	93.06
462.777	69.06
462.997	85.06
463.217	93.06
463.437	75.06
463.657	81.06
463.876	83.06
464.096	85.06
464.316	99.06
464.536	98.06
464.755	92.06
464.975	107.06
465.195	175.06
465.414	163.06
465.634	95.06
465.854	83.06
466.073	84.06
466.293	91.06
466.512	72.06
466.732	84.06
466.951	84.06
467.171	103.06
467.391	101.06
467.61	116.06
467.829	107.06
468.049	97.06
468.268	72.06
468.488	93.06
468.707	82.06
468.927	105.06
469.146	87.06
469.365	84.06
469.585	95.06
469.804	97.06
470.023	86.06
470.243	83.06
470.462	104.06
470.681	108.06
470.901	83.06
471.12	84.06
471.339	84.06
471.558	84.06
471.777	92.06
471.997	87.06
472.216	104.06
472.435	82.06
472.654	76.06
472.873	95.06
473.092	75.06
473.311	81.06
473.53	86.06
473.749	89.06
473.968	104.06
474.187	113.06
474.406	97.06
474.625	94.06
474.844	95.06
475.063	88.06
475.282	83.06
475.501	76.06
475.72	86.06
475.939	91.06
476.158	85.06
476.377	76.06
476.596	80.06
476.814	98.06
477.033	89.06
477.252	90.06
477.471	99.06
477.69	87.06
477.908	95.06
478.127	87.06
478.346	99.06
478.564	92.06
478.783	93.06
479.002	80.06
479.22	101.06
479.439	101.06
479.658	96.06
479.876	96.06
480.095	83.06
480.313	84.06
480.532	87.06
480.751	93.06
480.969	89.06
481.188	89.06
481.406	104.06
481.624	100.06
481.843	90.06
482.061	77.06
482.28	80.06
482.498	88.06
482.717	94.06
482.935	80.06
483.153	79.06
483.372	97.06
483.59	94.06
483.808	92.06
484.027	86.06
484.245	79.06
484.463	91.06
484.681	97.06
484.9	97.06
485.118	109.06
485.336	96.06
485.554	103.06
485.772	101.06
485.99	93.06
486.209	99.06
486.427	110.06
486.645	96.06
486.863	109.06
487.081	83.06
487.299	95.06
487.517	86.06
487.735	95.06
487.953	85.06
488.171	85.06
488.389	95.06
488.607	101.06
488.825	86.06
489.043	86.06
489.261	85.06
489.479	92.06
489.696	92.06
489.914	83.06
490.132	103.06
490.35	80.06
490.568	90.06
490.786	87.06
491.003	93.06
491.221	90.06
491.439	95.06
491.657	89.06
491.874	81.06
492.092	93.06
492.31	74.06
492.527	85.06
492.745	94.06
492.963	88.06
493.18	92.06
493.398	109.06
493.615	95.06
493.833	81.06
494.05	85.06
494.268	98.06
494.485	83.06
494.703	98.06
494.92	100.06
495.138	73.06
495.355	83.06
495.573	94.06
495.79	92.06
496.008	111.06
496.225	104.06
496.442	96.06
496.66	89.06
496.877	80.06
497.094	78.06
497.312	88.06
497.529	82.06
497.746	92.06
497.963	106.06
498.181	88.06
498.398	96.06
498.615	112.06
498.832	116.06
499.049	103.06
499.267	79.06
499.484	92.06
499.701	82.06
499.918	85.06
500.135	91.06
500.352	92.06
500.569	92.06
500.786	90.06
501.003	96.06
501.22	74.06
501.437	103.06
501.654	102.06
501.871	127.06
502.088	87.06
502.305	96.06
502.522	89.06
502.739	92.06
502.956	90.06
503.172	91.06
503.389	96.06
503.606	100.06
503.823	97.06
504.04	100.06
504.256	96.06
504.473	76.06
504.69	107.06
504.907	96.06
505.123	90.06
505.34	107.06
505.557	97.06
505.773	97.06
505.99	87.06
506.207	93.06
506.423	84.06
506.64	94.06
506.856	91.06
507.073	88.06
507.289	83.06
507.506	109.06
507.722	107.06
507.939	105.06
508.155	104.06
508.372	88.06
508.588	89.06
508.805	83.06
509.021	107.06
509.238	95.06
509.454	105.06
509.67	107.06
509.887	114.06
510.103	137.06
510.319	231.06
510.536	840.06
510.752	2770.06
510.968	754.06
511.184	184.06
511.401	105.06
511.617	97.06
511.833	109.06
512.049	87.06
512.265	91.06
512.481	90.06
512.698	98.06
512.914	94.06
513.13	95.06
513.346	91.06
513.562	96.06
513.778	85.06
513.994	95.06
514.21	101.06
514.426	110.06
514.642	149.06
514.858	124.06
515.074	168.06
515.29	514.06
515.506	1759.06
515.721	643.06
