Data from Uncirc_2007_H10_HRD10591_00008.txt Node
Date: Wed Jan 03 10:20:44 EST 2024
User: Yrep
Spectrometer: HR+D1059
Trigger mode: 1
Integration Time (sec): 1.000000E-1
Scans to average: 1
Electric dark correction enabled: true
Nonlinearity correction enabled: false
Boxcar width: 0
XAxis mode: Wavelengths
Number of Pixels in Spectrum: 2048
>>>>>Begin Spectral Data<<<<<
223.165	-14.62
223.4	-14.62
223.635	-14.62
223.869	-25.62
224.104	-21.62
224.338	-14.62
224.573	-27.62
224.808	-9.62
225.042	-10.62
225.277	2.38
225.511	0.38
225.746	-1.62
225.98	7.38
226.215	13.38
226.449	13.38
226.683	25.38
226.918	21.38
227.152	42.38
227.387	46.38
227.621	36.38
227.856	42.38
228.09	50.38
228.324	54.38
228.559	47.38
228.793	180.38
229.027	435.38
229.262	520.38
229.496	611.38
229.73	798.38
229.964	800.38
230.199	546.38
230.433	492.38
230.667	482.38
230.901	458.38
231.136	432.38
231.37	425.38
231.604	448.38
231.838	458.38
232.072	462.38
232.306	469.38
232.541	477.38
232.775	461.38
233.009	469.38
233.243	453.38
233.477	499.38
233.711	479.38
233.945	502.38
234.179	513.38
234.413	506.38
234.647	532.38
234.881	523.38
235.115	527.38
235.349	538.38
235.583	569.38
235.817	581.38
236.051	626.38
236.285	621.38
236.519	593.38
236.753	675.38
236.987	921.38
237.221	1380.38
237.455	1512.38
237.689	897.38
237.922	725.38
238.156	736.38
238.39	670.38
238.624	631.38
238.858	649.38
239.091	660.38
239.325	679.38
239.559	659.38
239.793	708.38
240.027	765.38
240.26	926.38
240.494	973.38
240.728	953.38
240.961	901.38
241.195	828.38
241.429	805.38
241.662	735.38
241.896	759.38
242.13	749.38
242.363	759.38
242.597	789.38
242.83	837.38
243.064	815.38
243.298	826.38
243.531	830.38
243.765	809.38
243.998	837.38
244.232	828.38
244.465	891.38
244.699	878.38
244.932	885.38
245.166	886.38
245.399	896.38
245.633	873.38
245.866	912.38
246.099	935.38
246.333	939.38
246.566	962.38
246.8	997.38
247.033	1019.38
247.266	1039.38
247.5	1126.38
247.733	1171.38
247.966	1151.38
248.2	1142.38
248.433	1148.38
248.666	1214.38
248.899	1294.38
249.133	1443.38
249.366	1433.38
249.599	1286.38
249.832	1205.38
250.066	1218.38
250.299	1231.38
250.532	1315.38
250.765	1491.38
250.998	1709.38
251.231	1666.38
251.465	1495.38
251.698	1416.38
251.931	1396.38
252.164	1385.38
252.397	1397.38
252.63	1457.38
252.863	1542.38
253.096	1693.38
253.329	1754.38
253.562	1661.38
253.795	1580.38
254.028	1573.38
254.261	1590.38
254.494	1800.38
254.727	2143.38
254.96	2282.38
255.193	1981.38
255.426	1758.38
255.659	1629.38
255.892	1573.38
256.124	1510.38
256.357	1522.38
256.59	1514.38
256.823	1504.38
257.056	1510.38
257.289	1530.38
257.521	1519.38
257.754	1526.38
257.987	1483.38
258.22	1530.38
258.452	1536.38
258.685	1555.38
258.918	1570.38
259.151	1609.38
259.383	1669.38
259.616	1721.38
259.849	1749.38
260.081	1917.38
260.314	2097.38
260.547	2052.38
260.779	1859.38
261.012	1798.38
261.244	1757.38
261.477	1705.38
261.71	1679.38
261.942	1715.38
262.175	1721.38
262.407	1723.38
262.64	1658.38
262.872	1659.38
263.105	1627.38
263.337	1650.38
263.57	1644.38
263.802	1668.38
264.035	1654.38
264.267	1679.38
264.499	1660.38
264.732	1671.38
264.964	1706.38
265.197	1670.38
265.429	1711.38
265.661	1745.38
265.894	1712.38
266.126	1729.38
266.358	1732.38
266.591	1787.38
266.823	1865.38
267.055	1833.38
267.287	1841.38
267.52	1790.38
267.752	1849.38
267.984	1863.38
268.216	1878.38
268.448	1938.38
268.681	1981.38
268.913	2150.38
269.145	2325.38
269.377	2409.38
269.609	2319.38
269.841	2291.38
270.073	2402.38
270.306	2631.38
270.538	2822.38
270.77	2710.38
271.002	2525.38
271.234	2513.38
271.466	2591.38
271.698	2740.38
271.93	2754.38
272.162	2738.38
272.394	2690.38
272.626	2517.38
272.858	2381.38
273.09	2305.38
273.322	2289.38
273.553	2245.38
273.785	2197.38
274.017	2229.38
274.249	2231.38
274.481	2259.38
274.713	2246.38
274.945	2284.38
275.176	2208.38
275.408	2218.38
275.64	2240.38
275.872	2242.38
276.104	2286.38
276.335	2297.38
276.567	2407.38
276.799	2562.38
277.031	2758.38
277.262	2828.38
277.494	2787.38
277.726	2584.38
277.957	2495.38
278.189	2415.38
278.421	2400.38
278.652	2374.38
278.884	2361.38
279.115	2390.38
279.347	2366.38
279.579	2357.38
279.81	2390.38
280.042	2339.38
280.273	2344.38
280.505	2389.38
280.736	2415.38
280.968	2362.38
281.199	2455.38
281.431	2435.38
281.662	2434.38
281.894	2487.38
282.125	2516.38
282.356	2687.38
282.588	2809.38
282.819	2707.38
283.051	2547.38
283.282	2534.38
283.513	2571.38
283.745	2625.38
283.976	2647.38
284.207	2605.38
284.439	2643.38
284.67	2659.38
284.901	2635.38
285.132	2646.38
285.364	2631.38
285.595	2662.38
285.826	2611.38
286.057	2668.38
286.288	2702.38
286.52	2686.38
286.751	2735.38
286.982	2673.38
287.213	2719.38
287.444	2762.38
287.675	2836.38
287.906	2841.38
288.138	2966.38
288.369	2917.38
288.6	2903.38
288.831	2857.38
289.062	2795.38
289.293	2850.38
289.524	2858.38
289.755	2762.38
289.986	2803.38
290.217	2767.38
290.448	2848.38
290.679	2811.38
290.91	2825.38
291.141	2793.38
291.371	2772.38
291.602	2847.38
291.833	2819.38
292.064	2813.38
292.295	2786.38
292.526	2809.38
292.757	2815.38
292.987	2862.38
293.218	2795.38
293.449	2827.38
293.68	2877.38
293.91	2851.38
294.141	2828.38
294.372	2805.38
294.603	2829.38
294.833	2873.38
295.064	2908.38
295.295	2893.38
295.525	2838.38
295.756	2972.38
295.987	3012.38
296.217	3190.38
296.448	3088.38
296.679	2975.38
296.909	2975.38
297.14	2929.38
297.37	3004.38
297.601	3060.38
297.831	3027.38
298.062	3043.38
298.292	3075.38
298.523	3133.38
298.753	3129.38
298.984	3071.38
299.214	3069.38
299.445	3120.38
299.675	3157.38
299.905	3118.38
300.136	3107.38
300.366	3126.38
300.597	3166.38
300.827	3294.38
301.057	3400.38
301.288	3347.38
301.518	3312.38
301.748	3329.38
301.979	3395.38
302.209	3429.38
302.439	3364.38
302.669	3317.38
302.9	3319.38
303.13	3294.38
303.36	3370.38
303.59	3354.38
303.82	3431.38
304.051	3387.38
304.281	3393.38
304.511	3298.38
304.741	3229.38
304.971	3305.38
305.201	3215.38
305.431	3256.38
305.661	3315.38
305.891	3281.38
306.121	3271.38
306.352	3291.38
306.582	3338.38
306.812	3259.38
307.042	3248.38
307.272	3247.38
307.502	3262.38
307.731	3246.38
307.961	3238.38
308.191	3288.38
308.421	3311.38
308.651	3325.38
308.881	3282.38
309.111	3305.38
309.341	3395.38
309.571	3446.38
309.8	3515.38
310.03	3569.38
310.26	3605.38
310.49	3568.38
310.72	3674.38
310.949	3753.38
311.179	3751.38
311.409	3623.38
311.639	3604.38
311.868	3643.38
312.098	3628.38
312.328	3765.38
312.557	3953.38
312.787	3949.38
313.017	3813.38
313.246	3850.38
313.476	3682.38
313.706	3776.38
313.935	3869.38
314.165	3966.38
314.394	3934.38
314.624	3896.38
314.853	3808.38
315.083	3750.38
315.312	3806.38
315.542	3662.38
315.771	3685.38
316.001	3668.38
316.23	3649.38
316.46	3709.38
316.689	3814.38
316.919	3743.38
317.148	3755.38
317.377	3700.38
317.607	3787.38
317.836	3706.38
318.065	3733.38
318.295	3606.38
318.524	3657.38
318.753	3608.38
318.983	3649.38
319.212	3728.38
319.441	3739.38
319.67	3713.38
319.9	3675.38
320.129	3691.38
320.358	3731.38
320.587	3769.38
320.816	3733.38
321.046	3798.38
321.275	3785.38
321.504	3783.38
321.733	3875.38
321.962	3877.38
322.191	4030.38
322.42	4090.38
322.649	4239.38
322.878	4198.38
323.108	4315.38
323.337	4465.38
323.566	4649.38
323.795	4971.38
324.024	5500.38
324.253	7150.38
324.482	10711.38
324.71	15094.38
324.939	15607.38
325.168	12882.38
325.397	6535.38
325.626	5263.38
325.855	4860.38
326.084	4639.38
326.313	4791.38
326.542	4877.38
326.77	5482.38
326.999	6883.38
327.228	10187.38
327.457	14212.38
327.686	13427.38
327.914	7220.38
328.143	5730.38
328.372	5331.38
328.6	5156.38
328.829	5194.38
329.058	5275.38
329.287	5274.38
329.515	4926.38
329.744	4770.38
329.972	4708.38
330.201	4750.38
330.43	4950.38
330.658	5311.38
330.887	5648.38
331.115	5297.38
331.344	4959.38
331.572	4869.38
331.801	4957.38
332.03	4942.38
332.258	4897.38
332.486	4885.38
332.715	5009.38
332.943	5155.38
333.172	5272.38
333.4	5458.38
333.629	5539.38
333.857	5643.38
334.085	5599.38
334.314	5376.38
334.542	5311.38
334.771	5294.38
334.999	5215.38
335.227	5195.38
335.455	5121.38
335.684	5044.38
335.912	4936.38
336.14	4923.38
336.369	4962.38
336.597	5007.38
336.825	4875.38
337.053	4959.38
337.281	4768.38
337.51	4742.38
337.738	4687.38
337.966	4647.38
338.194	4706.38
338.422	4621.38
338.65	4502.38
338.878	4607.38
339.106	4541.38
339.334	4555.38
339.562	4489.38
339.79	4473.38
340.018	4404.38
340.246	4430.38
340.474	4409.38
340.702	4395.38
340.93	4415.38
341.158	4424.38
341.386	4393.38
341.614	4419.38
341.842	4389.38
342.07	4302.38
342.298	4286.38
342.526	4335.38
342.754	4253.38
342.981	4292.38
343.209	4439.38
343.437	4649.38
343.665	4963.38
343.893	5190.38
344.12	5172.38
344.348	4951.38
344.576	4802.38
344.804	4689.38
345.031	4629.38
345.259	4558.38
345.487	4446.38
345.714	4340.38
345.942	4297.38
346.17	4255.38
346.397	4249.38
346.625	4226.38
346.853	4192.38
347.08	4179.38
347.308	4276.38
347.535	4326.38
347.763	4353.38
347.99	4257.38
348.218	4267.38
348.445	4363.38
348.673	4288.38
348.9	4169.38
349.128	4137.38
349.355	4057.38
349.583	4090.38
349.81	4089.38
350.037	4012.38
350.265	4018.38
350.492	4098.38
350.72	4113.38
350.947	4113.38
351.174	4182.38
351.402	4182.38
351.629	4189.38
351.856	4128.38
352.083	4255.38
352.311	4289.38
352.538	4280.38
352.765	4204.38
352.992	4146.38
353.22	4140.38
353.447	4068.38
353.674	3997.38
353.901	4013.38
354.128	4007.38
354.355	3987.38
354.583	4018.38
354.81	3984.38
355.037	3987.38
355.264	3946.38
355.491	3990.38
355.718	3940.38
355.945	3946.38
356.172	4008.38
356.399	3945.38
356.626	3942.38
356.853	3918.38
357.08	3934.38
357.307	3990.38
357.534	3943.38
357.761	3963.38
357.988	4075.38
358.215	3983.38
358.441	3970.38
358.668	4043.38
358.895	4046.38
359.122	4047.38
359.349	4164.38
359.576	4272.38
359.802	4442.38
360.029	4557.38
360.256	4553.38
360.483	4354.38
360.709	4237.38
360.936	4187.38
361.163	4187.38
361.39	4267.38
361.616	4221.38
361.843	4213.38
362.07	4159.38
362.296	4210.38
362.523	4178.38
362.749	4176.38
362.976	4124.38
363.203	4091.38
363.429	4091.38
363.656	4126.38
363.882	4099.38
364.109	4081.38
364.335	4058.38
364.562	4068.38
364.788	4051.38
365.015	4033.38
365.241	4085.38
365.468	4097.38
365.694	4109.38
365.92	4123.38
366.147	4041.38
366.373	4093.38
366.599	3991.38
366.826	4038.38
367.052	3997.38
367.278	4093.38
367.505	4103.38
367.731	4087.38
367.957	4113.38
368.184	4120.38
368.41	4203.38
368.636	4258.38
368.862	4302.38
369.089	4214.38
369.315	4181.38
369.541	4165.38
369.767	4159.38
369.993	4150.38
370.219	4217.38
370.445	4223.38
370.672	4268.38
370.898	4256.38
371.124	4275.38
371.35	4333.38
371.576	4357.38
371.802	4339.38
372.028	4281.38
372.254	4291.38
372.48	4369.38
372.706	4499.38
372.932	4521.38
373.158	4417.38
373.384	4398.38
373.61	4382.38
373.835	4409.38
374.061	4439.38
374.287	4487.38
374.513	4578.38
374.739	4672.38
374.965	4843.38
375.191	4723.38
375.416	4683.38
375.642	4530.38
375.868	4550.38
376.094	4435.38
376.319	4373.38
376.545	4371.38
376.771	4422.38
376.997	4329.38
377.222	4375.38
377.448	4323.38
377.674	4312.38
377.899	4242.38
378.125	4300.38
378.35	4251.38
378.576	4283.38
378.802	4255.38
379.027	4323.38
379.253	4339.38
379.478	4242.38
379.704	4236.38
379.929	4331.38
380.155	4348.38
380.38	4357.38
380.606	4366.38
380.831	4333.38
381.057	4379.38
381.282	4358.38
381.507	4410.38
381.733	4400.38
381.958	4444.38
382.184	4522.38
382.409	4475.38
382.634	4578.38
382.86	4585.38
383.085	4646.38
383.31	4661.38
383.535	4777.38
383.761	4828.38
383.986	4949.38
384.211	5019.38
384.436	5014.38
384.662	5154.38
384.887	5177.38
385.112	5169.38
385.337	5258.38
385.562	5281.38
385.787	5314.38
386.013	5328.38
386.238	5378.38
386.463	5335.38
386.688	5346.38
386.913	5219.38
387.138	5228.38
387.363	5187.38
387.588	5132.38
387.813	5180.38
388.038	5197.38
388.263	5178.38
388.488	5187.38
388.713	5173.38
388.938	5105.38
389.163	5138.38
389.387	5189.38
389.612	5078.38
389.837	5064.38
390.062	5051.38
390.287	5138.38
390.512	5097.38
390.736	5240.38
390.961	5293.38
391.186	5350.38
391.411	5530.38
391.636	5707.38
391.86	5719.38
392.085	5734.38
392.31	5733.38
392.534	5626.38
392.759	5519.38
392.984	5447.38
393.208	5374.38
393.433	5387.38
393.658	5403.38
393.882	5402.38
394.107	5390.38
394.331	5516.38
394.556	5435.38
394.78	5593.38
395.005	5559.38
395.229	5542.38
395.454	5754.38
395.678	5931.38
395.903	5867.38
396.127	5917.38
396.352	5680.38
396.576	5562.38
396.801	5501.38
397.025	5578.38
397.249	5705.38
397.474	5828.38
397.698	5890.38
397.922	6003.38
398.147	6099.38
398.371	6226.38
398.595	6298.38
398.82	6658.38
399.044	7233.38
399.268	7996.38
399.492	9125.38
399.717	9733.38
399.941	9480.38
400.165	8671.38
400.389	8151.38
400.613	7322.38
400.837	6879.38
401.062	6752.38
401.286	6589.38
401.51	6635.38
401.734	6548.38
401.958	6726.38
402.182	6702.38
402.406	6855.38
402.63	6908.38
402.854	7078.38
403.078	7126.38
403.302	7226.38
403.526	7401.38
403.75	7407.38
403.974	7485.38
404.198	7359.38
404.422	7496.38
404.645	7356.38
404.869	7318.38
405.093	7358.38
405.317	7543.38
405.541	7557.38
405.765	7223.38
405.988	7278.38
406.212	7457.38
406.436	7572.38
406.66	7773.38
406.883	7783.38
407.107	8308.38
407.331	8876.38
407.555	9420.38
407.778	9166.38
408.002	8355.38
408.226	7901.38
408.449	7878.38
408.673	7687.38
408.896	7890.38
409.12	7920.38
409.344	7533.38
409.567	7272.38
409.791	7229.38
410.014	7065.38
410.238	7042.38
410.461	7056.38
410.685	7056.38
410.908	7093.38
411.132	7397.38
411.355	7460.38
411.578	7056.38
411.802	6845.38
412.025	6813.38
412.249	6834.38
412.472	6822.38
412.695	6599.38
412.919	6412.38
413.142	6413.38
413.365	6362.38
413.589	6479.38
413.812	6440.38
414.035	6267.38
414.258	6354.38
414.482	6327.38
414.705	6521.38
414.928	6446.38
415.151	6457.38
415.374	6453.38
415.597	6426.38
415.821	6301.38
416.044	6337.38
416.267	6315.38
416.49	6259.38
416.713	6267.38
416.936	6329.38
417.159	6322.38
417.382	6421.38
417.605	6479.38
417.828	6521.38
418.051	6632.38
418.274	6552.38
418.497	6359.38
418.72	6577.38
418.943	6549.38
419.166	6935.38
419.389	7392.38
419.611	7217.38
419.834	6983.38
420.057	6795.38
420.28	6490.38
420.503	6428.38
420.726	6515.38
420.948	6715.38
421.171	7104.38
421.394	7101.38
421.617	6638.38
421.839	6507.38
422.062	6710.38
422.285	6806.38
422.507	7567.38
422.73	8027.38
422.953	7373.38
423.175	6949.38
423.398	7108.38
423.621	6951.38
423.843	7333.38
424.066	7392.38
424.288	7226.38
424.511	7429.38
424.733	7869.38
424.956	8296.38
425.178	7879.38
425.401	8049.38
425.623	7816.38
425.846	6851.38
426.068	6747.38
426.291	6629.38
426.513	6664.38
426.735	6806.38
426.958	7117.38
427.18	7941.38
427.402	9021.38
427.625	9092.38
427.847	7499.38
428.069	6741.38
428.292	6415.38
428.514	6119.38
428.736	5989.38
428.958	6140.38
429.181	5818.38
429.403	5884.38
429.625	6124.38
429.847	6325.38
430.069	6807.38
430.292	6494.38
430.514	5783.38
430.736	5789.38
430.958	5740.38
431.18	5715.38
431.402	5723.38
431.624	5655.38
431.846	5818.38
432.068	5728.38
432.29	5817.38
432.512	5745.38
432.734	5848.38
432.956	5798.38
433.178	5888.38
433.4	5923.38
433.622	5754.38
433.844	5841.38
434.066	5819.38
434.287	5906.38
434.509	6137.38
434.731	6360.38
434.953	6527.38
435.175	6653.38
435.397	6729.38
435.618	6670.38
435.84	6999.38
436.062	7881.38
436.284	7797.38
436.505	6565.38
436.727	6264.38
436.949	5993.38
437.17	5819.38
437.392	5905.38
437.614	6033.38
437.835	6386.38
438.057	7403.38
438.278	8049.38
438.5	7913.38
438.721	8740.38
438.943	7772.38
439.165	6510.38
439.386	6235.38
439.608	6380.38
439.829	6422.38
440.05	6797.38
440.272	7091.38
440.493	6567.38
440.715	6221.38
440.936	6206.38
441.158	6211.38
441.379	6268.38
441.6	6705.38
441.822	6942.38
442.043	7346.38
442.264	8099.38
442.486	7874.38
442.707	7086.38
442.928	6797.38
443.149	7045.38
443.371	7250.38
443.592	7791.38
443.813	8769.38
444.034	8797.38
444.255	7625.38
444.476	7375.38
444.698	7539.38
444.919	7696.38
445.14	7403.38
445.361	7270.38
445.582	7460.38
445.803	7988.38
446.024	8745.38
446.245	8327.38
446.466	7449.38
446.687	6539.38
446.908	6213.38
447.129	5951.38
447.35	5762.38
447.571	5709.38
447.792	5635.38
448.013	5702.38
448.234	5959.38
448.455	6550.38
448.675	7800.38
448.896	8321.38
449.117	6808.38
449.338	6978.38
449.559	8357.38
449.779	8555.38
450	6560.38
450.221	5857.38
450.442	5568.38
450.662	5478.38
450.883	5547.38
451.104	5667.38
451.324	5515.38
451.545	5315.38
451.766	5264.38
451.986	5129.38
452.207	5067.38
452.428	5077.38
452.648	5113.38
452.869	5106.38
453.089	5226.38
453.31	5258.38
453.53	5167.38
453.751	5039.38
453.971	5093.38
454.192	5206.38
454.412	4999.38
454.633	4989.38
454.853	4966.38
455.073	4976.38
455.294	5402.38
455.514	5957.38
455.734	5474.38
455.955	4879.38
456.175	4815.38
456.395	4697.38
456.616	4665.38
456.836	4709.38
457.056	4683.38
457.276	4639.38
457.497	4814.38
457.717	4780.38
457.937	4859.38
458.157	4898.38
458.377	5027.38
458.598	5349.38
458.818	5927.38
459.038	6778.38
459.258	6700.38
459.478	5987.38
459.698	5897.38
459.918	5926.38
460.138	6044.38
460.358	6307.38
460.578	6337.38
460.798	6431.38
461.018	6493.38
461.238	6336.38
461.458	6273.38
461.678	6274.38
461.898	6396.38
462.118	6473.38
462.338	6773.38
462.558	6945.38
462.777	7250.38
462.997	7761.38
463.217	8117.38
463.437	7877.38
463.657	7421.38
463.876	7142.38
464.096	7255.38
464.316	7200.38
464.536	7260.38
464.755	7006.38
464.975	6864.38
465.195	7075.38
465.414	7007.38
465.634	6298.38
465.854	6025.38
466.073	5645.38
466.293	5503.38
466.512	5341.38
466.732	5222.38
466.951	5249.38
467.171	5314.38
467.391	5387.38
467.61	5365.38
467.829	5327.38
468.049	5298.38
468.268	5058.38
468.488	4998.38
468.707	4959.38
468.927	4933.38
469.146	5057.38
469.365	5060.38
469.585	5065.38
469.804	5344.38
470.023	5460.38
470.243	5415.38
470.462	5559.38
470.681	5614.38
470.901	5577.38
471.12	5431.38
471.339	5326.38
471.558	5295.38
471.777	5183.38
471.997	5099.38
472.216	5041.38
472.435	5007.38
472.654	4988.38
472.873	4941.38
473.092	4969.38
473.311	5005.38
473.53	5013.38
473.749	5148.38
473.968	5759.38
474.187	6748.38
474.406	6279.38
474.625	5337.38
474.844	5115.38
475.063	5050.38
475.282	5089.38
475.501	5159.38
475.72	5178.38
475.939	5231.38
476.158	5239.38
476.377	5224.38
476.596	5222.38
476.814	5374.38
477.033	5364.38
477.252	5521.38
477.471	5617.38
477.69	5688.38
477.908	5849.38
478.127	5976.38
478.346	6076.38
478.564	6148.38
478.783	6164.38
479.002	6340.38
479.22	6393.38
479.439	6506.38
479.658	6490.38
479.876	6582.38
480.095	6821.38
480.313	7287.38
480.532	7086.38
480.751	6960.38
480.969	6807.38
481.188	6671.38
481.406	6418.38
481.624	6311.38
481.843	6089.38
482.061	6019.38
482.28	6011.38
482.498	5900.38
482.717	5853.38
482.935	5904.38
483.153	5861.38
483.372	5828.38
483.59	5922.38
483.808	5926.38
484.027	5844.38
484.245	5964.38
484.463	5986.38
484.681	6145.38
484.9	6134.38
485.118	6218.38
485.336	6235.38
485.554	6321.38
485.772	6263.38
485.99	6334.38
486.209	6339.38
486.427	6345.38
486.645	6467.38
486.863	6429.38
487.081	6447.38
487.299	6417.38
487.517	6441.38
487.735	6326.38
487.953	6342.38
