Data from Uncirc_2007_H10_HRD10591_00040.txt Node
Date: Wed Jan 03 10:20:50 EST 2024
User: Yrep
Spectrometer: HR+D1059
Trigger mode: 1
Integration Time (sec): 1.000000E-1
Scans to average: 1
Electric dark correction enabled: true
Nonlinearity correction enabled: false
Boxcar width: 0
XAxis mode: Wavelengths
Number of Pixels in Spectrum: 2048
>>>>>Begin Spectral Data<<<<<
223.165	-30.56
223.4	-30.56
223.635	-30.56
223.869	-27.56
224.104	-12.56
224.338	0.44
224.573	-9.56
224.808	-1.56
225.042	-7.56
225.277	-5.56
225.511	-11.56
225.746	12.44
225.98	-0.56
226.215	8.44
226.449	12.44
226.683	9.44
226.918	31.44
227.152	32.44
227.387	26.44
227.621	19.44
227.856	48.44
228.09	58.44
228.324	54.44
228.559	51.44
228.793	56.44
229.027	61.44
229.262	67.44
229.496	69.44
229.73	78.44
229.964	71.44
230.199	93.44
230.433	49.44
230.667	84.44
230.901	75.44
231.136	61.44
231.37	82.44
231.604	78.44
231.838	83.44
232.072	84.44
232.306	75.44
232.541	83.44
232.775	82.44
233.009	95.44
233.243	78.44
233.477	87.44
233.711	83.44
233.945	79.44
234.179	92.44
234.413	82.44
234.647	79.44
234.881	70.44
235.115	75.44
235.349	83.44
235.583	74.44
235.817	77.44
236.051	75.44
236.285	60.44
236.519	70.44
236.753	69.44
236.987	78.44
237.221	86.44
237.455	86.44
237.689	77.44
237.922	67.44
238.156	69.44
238.39	87.44
238.624	78.44
238.858	73.44
239.091	74.44
239.325	92.44
239.559	80.44
239.793	72.44
240.027	71.44
240.26	73.44
240.494	83.44
240.728	82.44
240.961	76.44
241.195	80.44
241.429	73.44
241.662	75.44
241.896	80.44
242.13	76.44
242.363	79.44
242.597	68.44
242.83	88.44
243.064	81.44
243.298	86.44
243.531	84.44
243.765	72.44
243.998	70.44
244.232	81.44
244.465	83.44
244.699	76.44
244.932	83.44
245.166	84.44
245.399	94.44
245.633	80.44
245.866	84.44
246.099	74.44
246.333	88.44
246.566	68.44
246.8	75.44
247.033	71.44
247.266	76.44
247.5	81.44
247.733	81.44
247.966	91.44
248.2	90.44
248.433	80.44
248.666	74.44
248.899	86.44
249.133	92.44
249.366	102.44
249.599	100.44
249.832	84.44
250.066	80.44
250.299	81.44
250.532	80.44
250.765	75.44
250.998	78.44
251.231	62.44
251.465	85.44
251.698	86.44
251.931	75.44
252.164	72.44
252.397	76.44
252.63	74.44
252.863	83.44
253.096	75.44
253.329	78.44
253.562	83.44
253.795	78.44
254.028	91.44
254.261	72.44
254.494	83.44
254.727	60.44
254.96	73.44
255.193	76.44
255.426	72.44
255.659	75.44
255.892	74.44
256.124	83.44
256.357	87.44
256.59	83.44
256.823	81.44
257.056	83.44
257.289	61.44
257.521	83.44
257.754	75.44
257.987	90.44
258.22	80.44
258.452	75.44
258.685	88.44
258.918	82.44
259.151	63.44
259.383	80.44
259.616	77.44
259.849	76.44
260.081	75.44
260.314	81.44
260.547	75.44
260.779	100.44
261.012	83.44
261.244	81.44
261.477	92.44
261.71	105.44
261.942	111.44
262.175	111.44
262.407	94.44
262.64	84.44
262.872	88.44
263.105	89.44
263.337	79.44
263.57	87.44
263.802	91.44
264.035	70.44
264.267	80.44
264.499	74.44
264.732	69.44
264.964	69.44
265.197	87.44
265.429	71.44
265.661	84.44
265.894	79.44
266.126	82.44
266.358	74.44
266.591	80.44
266.823	79.44
267.055	78.44
267.287	75.44
267.52	73.44
267.752	82.44
267.984	84.44
268.216	78.44
268.448	84.44
268.681	83.44
268.913	88.44
269.145	77.44
269.377	75.44
269.609	90.44
269.841	97.44
270.073	82.44
270.306	84.44
270.538	85.44
270.77	84.44
271.002	71.44
271.234	82.44
271.466	61.44
271.698	81.44
271.93	78.44
272.162	87.44
272.394	81.44
272.626	78.44
272.858	90.44
273.09	88.44
273.322	93.44
273.553	93.44
273.785	92.44
274.017	80.44
274.249	72.44
274.481	89.44
274.713	77.44
274.945	81.44
275.176	80.44
275.408	81.44
275.64	98.44
275.872	82.44
276.104	95.44
276.335	94.44
276.567	112.44
276.799	98.44
277.031	103.44
277.262	90.44
277.494	83.44
277.726	80.44
277.957	94.44
278.189	89.44
278.421	81.44
278.652	79.44
278.884	90.44
279.115	82.44
279.347	88.44
279.579	94.44
279.81	82.44
280.042	100.44
280.273	83.44
280.505	84.44
280.736	82.44
280.968	78.44
281.199	92.44
281.431	90.44
281.662	83.44
281.894	95.44
282.125	98.44
282.356	139.44
282.588	144.44
282.819	136.44
283.051	102.44
283.282	72.44
283.513	89.44
283.745	85.44
283.976	87.44
284.207	84.44
284.439	87.44
284.67	75.44
284.901	80.44
285.132	78.44
285.364	86.44
285.595	84.44
285.826	89.44
286.057	84.44
286.288	82.44
286.52	93.44
286.751	93.44
286.982	79.44
287.213	75.44
287.444	81.44
287.675	84.44
287.906	93.44
288.138	94.44
288.369	97.44
288.6	84.44
288.831	86.44
289.062	86.44
289.293	81.44
289.524	81.44
289.755	76.44
289.986	85.44
290.217	89.44
290.448	83.44
290.679	74.44
290.91	94.44
291.141	86.44
291.371	77.44
291.602	88.44
291.833	109.44
292.064	103.44
292.295	94.44
292.526	84.44
292.757	90.44
292.987	68.44
293.218	93.44
293.449	84.44
293.68	83.44
293.91	92.44
294.141	87.44
294.372	87.44
294.603	76.44
294.833	84.44
295.064	78.44
295.295	82.44
295.525	81.44
295.756	106.44
295.987	110.44
296.217	139.44
296.448	131.44
296.679	88.44
296.909	78.44
297.14	79.44
297.37	95.44
297.601	88.44
297.831	82.44
298.062	89.44
298.292	103.44
298.523	92.44
298.753	93.44
298.984	76.44
299.214	76.44
299.445	91.44
299.675	82.44
299.905	97.44
300.136	90.44
300.366	90.44
300.597	104.44
300.827	96.44
301.057	94.44
301.288	94.44
301.518	92.44
301.748	75.44
301.979	108.44
302.209	88.44
302.439	80.44
302.669	84.44
302.9	103.44
303.13	80.44
303.36	95.44
303.59	110.44
303.82	107.44
304.051	96.44
304.281	90.44
304.511	81.44
304.741	98.44
304.971	95.44
305.201	95.44
305.431	86.44
305.661	91.44
305.891	87.44
306.121	98.44
306.352	91.44
306.582	104.44
306.812	91.44
307.042	90.44
307.272	76.44
307.502	91.44
307.731	84.44
307.961	80.44
308.191	89.44
308.421	93.44
308.651	65.44
308.881	93.44
309.111	94.44
309.341	105.44
309.571	107.44
309.8	110.44
310.03	98.44
310.26	99.44
310.49	94.44
310.72	102.44
310.949	103.44
311.179	93.44
311.409	93.44
311.639	87.44
311.868	91.44
312.098	93.44
312.328	90.44
312.557	105.44
312.787	111.44
313.017	93.44
313.246	112.44
313.476	98.44
313.706	93.44
313.935	109.44
314.165	96.44
314.394	88.44
314.624	89.44
314.853	97.44
315.083	94.44
315.312	85.44
315.542	74.44
315.771	78.44
316.001	96.44
316.23	86.44
316.46	93.44
316.689	103.44
316.919	87.44
317.148	93.44
317.377	84.44
317.607	104.44
317.836	96.44
318.065	78.44
318.295	92.44
318.524	91.44
318.753	86.44
318.983	80.44
319.212	105.44
319.441	102.44
319.67	102.44
319.9	95.44
320.129	86.44
320.358	94.44
320.587	96.44
320.816	98.44
321.046	92.44
321.275	84.44
321.504	92.44
321.733	91.44
321.962	114.44
322.191	111.44
322.42	104.44
322.649	108.44
322.878	105.44
323.108	122.44
323.337	116.44
323.566	124.44
323.795	170.44
324.024	228.44
324.253	444.44
324.482	966.44
324.71	2003.44
324.939	2654.44
325.168	927.44
325.397	278.44
325.626	167.44
325.855	150.44
326.084	134.44
326.313	139.44
326.542	175.44
326.77	255.44
326.999	526.44
327.228	1089.44
327.457	2016.44
327.686	1558.44
327.914	404.44
328.143	187.44
328.372	132.44
328.6	101.44
328.829	113.44
329.058	134.44
329.287	134.44
329.515	108.44
329.744	89.44
329.972	110.44
330.201	105.44
330.43	90.44
330.658	130.44
330.887	129.44
331.115	130.44
331.344	97.44
331.572	103.44
331.801	103.44
332.03	106.44
332.258	110.44
332.486	88.44
332.715	86.44
332.943	94.44
333.172	93.44
333.4	79.44
333.629	94.44
333.857	113.44
334.085	103.44
334.314	87.44
334.542	103.44
334.771	98.44
334.999	104.44
335.227	97.44
335.455	94.44
335.684	88.44
335.912	95.44
336.14	102.44
336.369	92.44
336.597	102.44
336.825	93.44
337.053	102.44
337.281	75.44
337.51	83.44
337.738	81.44
337.966	90.44
338.194	85.44
338.422	81.44
338.65	89.44
338.878	95.44
339.106	100.44
339.334	84.44
339.562	94.44
339.79	76.44
340.018	88.44
340.246	82.44
340.474	108.44
340.702	103.44
340.93	104.44
341.158	73.44
341.386	96.44
341.614	103.44
341.842	83.44
342.07	79.44
342.298	98.44
342.526	87.44
342.754	96.44
342.981	103.44
343.209	86.44
343.437	91.44
343.665	95.44
343.893	103.44
344.12	96.44
344.348	79.44
344.576	96.44
344.804	106.44
345.031	93.44
345.259	84.44
345.487	99.44
345.714	90.44
345.942	91.44
346.17	92.44
346.397	92.44
346.625	81.44
346.853	86.44
347.08	96.44
347.308	92.44
347.535	100.44
347.763	93.44
347.99	95.44
348.218	92.44
348.445	101.44
348.673	106.44
348.9	102.44
349.128	92.44
349.355	96.44
349.583	92.44
349.81	92.44
350.037	92.44
350.265	89.44
350.492	92.44
350.72	105.44
350.947	96.44
351.174	113.44
351.402	111.44
351.629	97.44
351.856	108.44
352.083	106.44
352.311	104.44
352.538	99.44
352.765	90.44
352.992	116.44
353.22	113.44
353.447	99.44
353.674	91.44
353.901	89.44
354.128	104.44
354.355	98.44
354.583	94.44
354.81	107.44
355.037	79.44
355.264	110.44
355.491	102.44
355.718	98.44
355.945	102.44
356.172	89.44
356.399	87.44
356.626	78.44
356.853	99.44
357.08	82.44
357.307	93.44
357.534	81.44
357.761	92.44
357.988	90.44
358.215	93.44
358.441	83.44
358.668	78.44
358.895	93.44
359.122	86.44
359.349	74.44
359.576	103.44
359.802	97.44
360.029	98.44
360.256	114.44
360.483	96.44
360.709	84.44
360.936	86.44
361.163	98.44
361.39	93.44
361.616	92.44
361.843	76.44
362.07	92.44
362.296	94.44
362.523	79.44
362.749	101.44
362.976	96.44
363.203	110.44
363.429	86.44
363.656	80.44
363.882	88.44
364.109	98.44
364.335	86.44
364.562	91.44
364.788	87.44
365.015	92.44
365.241	96.44
365.468	93.44
365.694	106.44
365.92	98.44
366.147	78.44
366.373	93.44
366.599	84.44
366.826	92.44
367.052	96.44
367.278	84.44
367.505	94.44
367.731	72.44
367.957	88.44
368.184	96.44
368.41	106.44
368.636	101.44
368.862	113.44
369.089	112.44
369.315	84.44
369.541	90.44
369.767	83.44
369.993	92.44
370.219	87.44
370.445	91.44
370.672	95.44
370.898	106.44
371.124	92.44
371.35	93.44
371.576	84.44
371.802	97.44
372.028	95.44
372.254	95.44
372.48	89.44
372.706	84.44
372.932	90.44
373.158	93.44
373.384	96.44
373.61	96.44
373.835	76.44
374.061	83.44
374.287	90.44
374.513	92.44
374.739	89.44
374.965	85.44
375.191	82.44
375.416	78.44
375.642	88.44
375.868	91.44
376.094	89.44
376.319	88.44
376.545	76.44
376.771	85.44
376.997	88.44
377.222	81.44
377.448	87.44
377.674	88.44
377.899	90.44
378.125	110.44
378.35	84.44
378.576	82.44
378.802	83.44
379.027	74.44
379.253	72.44
379.478	97.44
379.704	82.44
379.929	87.44
380.155	90.44
380.38	97.44
380.606	82.44
380.831	83.44
381.057	92.44
381.282	88.44
381.507	97.44
381.733	79.44
381.958	86.44
382.184	88.44
382.409	90.44
382.634	100.44
382.86	93.44
383.085	118.44
383.31	97.44
383.535	91.44
383.761	100.44
383.986	95.44
384.211	91.44
384.436	92.44
384.662	88.44
384.887	100.44
385.112	111.44
385.337	93.44
385.562	84.44
385.787	90.44
386.013	92.44
386.238	115.44
386.463	104.44
386.688	99.44
386.913	89.44
387.138	106.44
387.363	107.44
387.588	89.44
387.813	100.44
388.038	86.44
388.263	120.44
388.488	102.44
388.713	89.44
388.938	90.44
389.163	99.44
389.387	94.44
389.612	79.44
389.837	93.44
390.062	97.44
390.287	89.44
390.512	90.44
390.736	83.44
390.961	67.44
391.186	99.44
391.411	92.44
391.636	95.44
391.86	81.44
392.085	74.44
392.31	67.44
392.534	97.44
392.759	82.44
392.984	96.44
393.208	65.44
393.433	82.44
393.658	79.44
393.882	78.44
394.107	86.44
394.331	85.44
394.556	86.44
394.78	79.44
395.005	85.44
395.229	86.44
395.454	81.44
395.678	76.44
395.903	91.44
396.127	90.44
396.352	81.44
396.576	87.44
396.801	77.44
397.025	81.44
397.249	87.44
397.474	89.44
397.698	89.44
397.922	89.44
398.147	90.44
398.371	90.44
398.595	89.44
398.82	84.44
399.044	88.44
399.268	80.44
399.492	92.44
399.717	74.44
399.941	81.44
400.165	103.44
400.389	101.44
400.613	95.44
400.837	84.44
401.062	82.44
401.286	73.44
401.51	87.44
401.734	81.44
401.958	86.44
402.182	133.44
402.406	171.44
402.63	126.44
402.854	84.44
403.078	73.44
403.302	77.44
403.526	88.44
403.75	88.44
403.974	86.44
404.198	90.44
404.422	91.44
404.645	74.44
404.869	94.44
405.093	79.44
405.317	87.44
405.541	110.44
405.765	97.44
405.988	126.44
406.212	187.44
406.436	232.44
406.66	156.44
406.883	95.44
407.107	90.44
407.331	84.44
407.555	101.44
407.778	89.44
408.002	93.44
408.226	81.44
408.449	94.44
408.673	92.44
408.896	83.44
409.12	92.44
409.344	83.44
409.567	97.44
409.791	86.44
410.014	88.44
410.238	81.44
410.461	81.44
410.685	91.44
410.908	101.44
411.132	90.44
411.355	95.44
411.578	87.44
411.802	80.44
412.025	80.44
412.249	90.44
412.472	96.44
412.695	93.44
412.919	94.44
413.142	90.44
413.365	81.44
413.589	91.44
413.812	80.44
414.035	78.44
414.258	80.44
414.482	82.44
414.705	84.44
414.928	86.44
415.151	102.44
415.374	103.44
415.597	82.44
415.821	71.44
416.044	91.44
416.267	92.44
416.49	77.44
416.713	81.44
416.936	104.44
417.159	88.44
417.382	90.44
417.605	98.44
417.828	81.44
418.051	91.44
418.274	98.44
418.497	83.44
418.72	89.44
418.943	81.44
419.166	93.44
419.389	71.44
419.611	78.44
419.834	88.44
420.057	74.44
420.28	84.44
420.503	83.44
420.726	95.44
420.948	102.44
421.171	96.44
421.394	92.44
421.617	79.44
421.839	86.44
422.062	88.44
422.285	90.44
422.507	100.44
422.73	108.44
422.953	97.44
423.175	83.44
423.398	95.44
423.621	86.44
423.843	83.44
424.066	80.44
424.288	82.44
424.511	94.44
424.733	107.44
424.956	98.44
425.178	108.44
425.401	112.44
425.623	108.44
425.846	91.44
426.068	104.44
426.291	105.44
426.513	101.44
426.735	90.44
426.958	105.44
427.18	121.44
427.402	142.44
427.625	180.44
427.847	122.44
428.069	107.44
428.292	86.44
428.514	89.44
428.736	83.44
428.958	96.44
429.181	91.44
429.403	78.44
429.625	94.44
429.847	86.44
430.069	97.44
430.292	82.44
430.514	85.44
430.736	88.44
430.958	91.44
431.18	83.44
431.402	88.44
431.624	83.44
431.846	74.44
432.068	73.44
432.29	85.44
432.512	78.44
432.734	80.44
432.956	83.44
433.178	99.44
433.4	89.44
433.622	95.44
433.844	89.44
434.066	83.44
434.287	90.44
434.509	94.44
434.731	81.44
434.953	84.44
435.175	100.44
435.397	102.44
435.618	97.44
435.84	98.44
436.062	128.44
436.284	110.44
436.505	111.44
436.727	69.44
436.949	98.44
437.17	108.44
437.392	91.44
437.614	89.44
437.835	104.44
438.057	123.44
438.278	121.44
438.5	95.44
438.721	103.44
438.943	104.44
439.165	83.44
439.386	94.44
439.608	95.44
439.829	94.44
440.05	134.44
440.272	143.44
440.493	97.44
440.715	98.44
440.936	86.44
441.158	79.44
441.379	95.44
441.6	99.44
441.822	97.44
442.043	91.44
442.264	101.44
442.486	99.44
442.707	98.44
442.928	90.44
443.149	137.44
443.371	148.44
443.592	106.44
443.813	124.44
444.034	96.44
444.255	93.44
444.476	89.44
444.698	90.44
444.919	91.44
445.14	129.44
445.361	128.44
445.582	118.44
445.803	143.44
446.024	146.44
446.245	128.44
446.466	99.44
446.687	85.44
446.908	67.44
447.129	84.44
447.35	79.44
447.571	91.44
447.792	102.44
448.013	93.44
448.234	91.44
448.455	96.44
448.675	133.44
448.896	138.44
449.117	95.44
449.338	102.44
449.559	111.44
449.779	127.44
450	97.44
450.221	65.44
450.442	106.44
450.662	106.44
450.883	123.44
451.104	95.44
451.324	91.44
451.545	91.44
451.766	89.44
451.986	89.44
452.207	98.44
452.428	88.44
452.648	95.44
452.869	96.44
453.089	114.44
453.31	123.44
453.53	91.44
453.751	89.44
453.971	102.44
454.192	103.44
454.412	111.44
454.633	93.44
454.853	102.44
455.073	82.44
455.294	79.44
455.514	92.44
455.734	106.44
455.955	85.44
456.175	78.44
456.395	77.44
456.616	91.44
456.836	86.44
457.056	102.44
457.276	80.44
457.497	83.44
457.717	84.44
457.937	91.44
458.157	96.44
458.377	93.44
458.598	88.44
458.818	143.44
459.038	161.44
459.258	122.44
459.478	84.44
459.698	86.44
459.918	86.44
460.138	76.44
460.358	87.44
460.578	71.44
460.798	97.44
461.018	99.44
461.238	91.44
461.458	93.44
461.678	81.44
461.898	85.44
462.118	84.44
462.338	89.44
462.558	96.44
462.777	81.44
462.997	90.44
463.217	79.44
463.437	82.44
463.657	69.44
463.876	80.44
464.096	86.44
464.316	95.44
464.536	90.44
464.755	99.44
464.975	109.44
465.195	170.44
465.414	165.44
465.634	81.44
465.854	82.44
466.073	84.44
466.293	100.44
466.512	69.44
466.732	86.44
466.951	76.44
467.171	88.44
467.391	90.44
467.61	103.44
467.829	84.44
468.049	76.44
468.268	64.44
468.488	90.44
468.707	83.44
468.927	90.44
469.146	83.44
469.365	88.44
469.585	79.44
469.804	93.44
470.023	79.44
470.243	94.44
470.462	105.44
470.681	115.44
470.901	98.44
471.12	66.44
471.339	84.44
471.558	89.44
471.777	85.44
471.997	80.44
472.216	93.44
472.435	93.44
472.654	85.44
472.873	89.44
473.092	82.44
473.311	87.44
473.53	99.44
473.749	77.44
473.968	110.44
474.187	100.44
474.406	100.44
474.625	92.44
474.844	94.44
475.063	93.44
475.282	74.44
475.501	94.44
475.72	88.44
475.939	78.44
476.158	78.44
476.377	90.44
476.596	84.44
476.814	88.44
477.033	91.44
477.252	92.44
477.471	87.44
477.69	95.44
477.908	92.44
478.127	88.44
478.346	88.44
478.564	93.44
478.783	85.44
479.002	91.44
479.22	84.44
479.439	99.44
479.658	110.44
479.876	100.44
480.095	89.44
480.313	84.44
480.532	73.44
480.751	90.44
480.969	80.44
481.188	95.44
481.406	86.44
481.624	99.44
481.843	83.44
482.061	94.44
482.28	98.44
482.498	85.44
482.717	81.44
482.935	87.44
483.153	82.44
483.372	86.44
483.59	93.44
483.808	85.44
484.027	92.44
484.245	85.44
484.463	100.44
484.681	79.44
484.9	95.44
485.118	89.44
485.336	99.44
485.554	90.44
485.772	100.44
485.99	97.44
486.209	95.44
486.427	99.44
486.645	106.44
486.863	111.44
487.081	108.44
487.299	103.44
487.517	82.44
487.735	88.44
487.953	74.44
488.171	98.44
488.389	102.44
488.607	82.44
488.825	68.44
489.043	83.44
489.261	92.44
489.479	101.44
489.696	99.44
489.914	88.44
490.132	82.44
490.35	100.44
490.568	72.44
490.786	80.44
491.003	81.44
491.221	78.44
491.439	92.44
491.657	88.44
491.874	97.44
492.092	86.44
492.31	90.44
492.527	90.44
492.745	98.44
492.963	91.44
493.18	95.44
493.398	103.44
493.615	111.44
493.833	95.44
494.05	90.44
494.268	80.44
494.485	85.44
494.703	80.44
494.92	79.44
495.138	95.44
495.355	82.44
495.573	89.44
495.79	93.44
496.008	83.44
496.225	99.44
496.442	92.44
496.66	83.44
496.877	87.44
497.094	107.44
497.312	103.44
497.529	88.44
497.746	90.44
497.963	76.44
498.181	95.44
498.398	102.44
498.615	105.44
498.832	101.44
499.049	86.44
499.267	82.44
499.484	93.44
499.701	92.44
499.918	88.44
500.135	80.44
500.352	83.44
500.569	87.44
500.786	86.44
501.003	89.44
501.22	83.44
501.437	97.44
501.654	89.44
501.871	110.44
502.088	94.44
502.305	73.44
502.522	86.44
502.739	96.44
502.956	89.44
503.172	87.44
503.389	82.44
503.606	105.44
503.823	96.44
504.04	87.44
504.256	93.44
504.473	93.44
504.69	89.44
504.907	94.44
505.123	100.44
505.34	100.44
505.557	90.44
505.773	87.44
505.99	90.44
506.207	81.44
506.423	102.44
506.64	92.44
506.856	84.44
507.073	107.44
507.289	86.44
507.506	84.44
507.722	113.44
507.939	105.44
508.155	97.44
508.372	84.44
508.588	90.44
508.805	102.44
509.021	83.44
509.238	84.44
509.454	90.44
509.67	110.44
509.887	112.44
510.103	136.44
510.319	225.44
510.536	859.44
510.752	2814.44
510.968	783.44
511.184	170.44
511.401	118.44
511.617	93.44
511.833	99.44
512.049	95.44
512.265	94.44
512.481	75.44
512.698	107.44
512.914	96.44
513.13	90.44
513.346	97.44
513.562	99.44
513.778	95.44
513.994	100.44
514.21	105.44
514.426	121.44
514.642	139.44
514.858	120.44
515.074	180.44
515.29	502.44
515.506	1772.44
515.721	654.44
515.937	170.44
516.153	128.44
