Data from Uncirc_2007_H10_HRD10591_00034.txt Node
Date: Wed Jan 03 10:20:49 EST 2024
User: Yrep
Spectrometer: HR+D1059
Trigger mode: 1
Integration Time (sec): 1.000000E-1
Scans to average: 1
Electric dark correction enabled: true
Nonlinearity correction enabled: false
Boxcar width: 0
XAxis mode: Wavelengths
Number of Pixels in Spectrum: 2048
>>>>>Begin Spectral Data<<<<<
223.165	-10.19
223.4	-10.19
223.635	-10.19
223.869	-10.19
224.104	-25.19
224.338	-18.19
224.573	-23.19
224.808	-12.19
225.042	-7.19
225.277	1.81
225.511	-7.19
225.746	4.81
225.98	2.81
226.215	8.81
226.449	8.81
226.683	17.81
226.918	39.81
227.152	28.81
227.387	32.81
227.621	37.81
227.856	50.81
228.09	50.81
228.324	57.81
228.559	53.81
228.793	44.81
229.027	49.81
229.262	73.81
229.496	73.81
229.73	79.81
229.964	72.81
230.199	82.81
230.433	70.81
230.667	93.81
230.901	87.81
231.136	71.81
231.37	71.81
231.604	87.81
231.838	81.81
232.072	73.81
232.306	82.81
232.541	76.81
232.775	78.81
233.009	68.81
233.243	82.81
233.477	87.81
233.711	88.81
233.945	74.81
234.179	80.81
234.413	78.81
234.647	76.81
234.881	79.81
235.115	72.81
235.349	67.81
235.583	77.81
235.817	79.81
236.051	77.81
236.285	79.81
236.519	82.81
236.753	77.81
236.987	72.81
237.221	76.81
237.455	60.81
237.689	79.81
237.922	67.81
238.156	75.81
238.39	80.81
238.624	72.81
238.858	54.81
239.091	80.81
239.325	80.81
239.559	71.81
239.793	79.81
240.027	80.81
240.26	71.81
240.494	76.81
240.728	76.81
240.961	71.81
241.195	68.81
241.429	69.81
241.662	72.81
241.896	72.81
242.13	69.81
242.363	81.81
242.597	79.81
242.83	77.81
243.064	67.81
243.298	65.81
243.531	85.81
243.765	79.81
243.998	76.81
244.232	85.81
244.465	65.81
244.699	80.81
244.932	71.81
245.166	80.81
245.399	73.81
245.633	69.81
245.866	76.81
246.099	65.81
246.333	72.81
246.566	76.81
246.8	75.81
247.033	72.81
247.266	76.81
247.5	72.81
247.733	80.81
247.966	92.81
248.2	78.81
248.433	95.81
248.666	72.81
248.899	88.81
249.133	91.81
249.366	88.81
249.599	98.81
249.832	81.81
250.066	67.81
250.299	85.81
250.532	71.81
250.765	87.81
250.998	81.81
251.231	71.81
251.465	86.81
251.698	84.81
251.931	77.81
252.164	82.81
252.397	74.81
252.63	69.81
252.863	77.81
253.096	80.81
253.329	80.81
253.562	78.81
253.795	68.81
254.028	78.81
254.261	84.81
254.494	80.81
254.727	79.81
254.96	78.81
255.193	83.81
255.426	85.81
255.659	67.81
255.892	66.81
256.124	82.81
256.357	88.81
256.59	81.81
256.823	81.81
257.056	80.81
257.289	74.81
257.521	68.81
257.754	65.81
257.987	87.81
258.22	90.81
258.452	93.81
258.685	81.81
258.918	80.81
259.151	77.81
259.383	82.81
259.616	65.81
259.849	90.81
260.081	83.81
260.314	84.81
260.547	77.81
260.779	81.81
261.012	81.81
261.244	79.81
261.477	79.81
261.71	77.81
261.942	120.81
262.175	124.81
262.407	88.81
262.64	88.81
262.872	79.81
263.105	92.81
263.337	90.81
263.57	64.81
263.802	85.81
264.035	89.81
264.267	64.81
264.499	86.81
264.732	89.81
264.964	83.81
265.197	81.81
265.429	83.81
265.661	80.81
265.894	78.81
266.126	58.81
266.358	79.81
266.591	75.81
266.823	80.81
267.055	80.81
267.287	82.81
267.52	77.81
267.752	70.81
267.984	79.81
268.216	80.81
268.448	79.81
268.681	77.81
268.913	79.81
269.145	74.81
269.377	86.81
269.609	80.81
269.841	73.81
270.073	89.81
270.306	68.81
270.538	73.81
270.77	65.81
271.002	89.81
271.234	91.81
271.466	77.81
271.698	89.81
271.93	75.81
272.162	81.81
272.394	83.81
272.626	99.81
272.858	62.81
273.09	78.81
273.322	76.81
273.553	87.81
273.785	90.81
274.017	107.81
274.249	79.81
274.481	79.81
274.713	87.81
274.945	86.81
275.176	89.81
275.408	90.81
275.64	76.81
275.872	75.81
276.104	83.81
276.335	110.81
276.567	104.81
276.799	93.81
277.031	90.81
277.262	78.81
277.494	96.81
277.726	82.81
277.957	79.81
278.189	82.81
278.421	74.81
278.652	70.81
278.884	72.81
279.115	80.81
279.347	75.81
279.579	78.81
279.81	65.81
280.042	82.81
280.273	83.81
280.505	100.81
280.736	94.81
280.968	79.81
281.199	85.81
281.431	77.81
281.662	84.81
281.894	89.81
282.125	84.81
282.356	111.81
282.588	142.81
282.819	102.81
283.051	61.81
283.282	88.81
283.513	79.81
283.745	74.81
283.976	76.81
284.207	88.81
284.439	81.81
284.67	97.81
284.901	81.81
285.132	77.81
285.364	89.81
285.595	101.81
285.826	69.81
286.057	76.81
286.288	81.81
286.52	91.81
286.751	80.81
286.982	84.81
287.213	74.81
287.444	79.81
287.675	82.81
287.906	93.81
288.138	89.81
288.369	74.81
288.6	88.81
288.831	80.81
289.062	96.81
289.293	86.81
289.524	74.81
289.755	79.81
289.986	82.81
290.217	81.81
290.448	87.81
290.679	84.81
290.91	99.81
291.141	84.81
291.371	80.81
291.602	84.81
291.833	86.81
292.064	80.81
292.295	92.81
292.526	111.81
292.757	89.81
292.987	92.81
293.218	76.81
293.449	79.81
293.68	92.81
293.91	78.81
294.141	91.81
294.372	84.81
294.603	75.81
294.833	75.81
295.064	89.81
295.295	88.81
295.525	83.81
295.756	90.81
295.987	110.81
296.217	134.81
296.448	109.81
296.679	90.81
296.909	88.81
297.14	86.81
297.37	87.81
297.601	76.81
297.831	82.81
298.062	79.81
298.292	89.81
298.523	90.81
298.753	93.81
298.984	72.81
299.214	82.81
299.445	93.81
299.675	90.81
299.905	108.81
300.136	88.81
300.366	80.81
300.597	88.81
300.827	83.81
301.057	101.81
301.288	99.81
301.518	87.81
301.748	78.81
301.979	83.81
302.209	89.81
302.439	89.81
302.669	88.81
302.9	93.81
303.13	88.81
303.36	82.81
303.59	88.81
303.82	92.81
304.051	90.81
304.281	82.81
304.511	86.81
304.741	86.81
304.971	87.81
305.201	93.81
305.431	90.81
305.661	90.81
305.891	94.81
306.121	87.81
306.352	112.81
306.582	96.81
306.812	90.81
307.042	74.81
307.272	87.81
307.502	88.81
307.731	97.81
307.961	84.81
308.191	80.81
308.421	90.81
308.651	102.81
308.881	95.81
309.111	79.81
309.341	91.81
309.571	98.81
309.8	99.81
310.03	90.81
310.26	86.81
310.49	87.81
310.72	92.81
310.949	93.81
311.179	83.81
311.409	89.81
311.639	96.81
311.868	101.81
312.098	86.81
312.328	88.81
312.557	111.81
312.787	96.81
313.017	93.81
313.246	89.81
313.476	78.81
313.706	94.81
313.935	99.81
314.165	84.81
314.394	99.81
314.624	95.81
314.853	98.81
315.083	99.81
315.312	92.81
315.542	101.81
315.771	91.81
316.001	88.81
316.23	94.81
316.46	83.81
316.689	85.81
316.919	89.81
317.148	92.81
317.377	82.81
317.607	90.81
317.836	98.81
318.065	97.81
318.295	91.81
318.524	89.81
318.753	99.81
318.983	94.81
319.212	84.81
319.441	112.81
319.67	111.81
319.9	92.81
320.129	98.81
320.358	80.81
320.587	86.81
320.816	104.81
321.046	86.81
321.275	89.81
321.504	85.81
321.733	92.81
321.962	88.81
322.191	105.81
322.42	97.81
322.649	107.81
322.878	102.81
323.108	104.81
323.337	122.81
323.566	120.81
323.795	160.81
324.024	200.81
324.253	401.81
324.482	906.81
324.71	1861.81
324.939	2438.81
325.168	869.81
325.397	248.81
325.626	157.81
325.855	122.81
326.084	129.81
326.313	137.81
326.542	158.81
326.77	237.81
326.999	503.81
327.228	1025.81
327.457	1894.81
327.686	1464.81
327.914	401.81
328.143	189.81
328.372	145.81
328.6	135.81
328.829	106.81
329.058	130.81
329.287	119.81
329.515	101.81
329.744	100.81
329.972	102.81
330.201	100.81
330.43	107.81
330.658	142.81
330.887	141.81
331.115	112.81
331.344	94.81
331.572	93.81
331.801	110.81
332.03	103.81
332.258	82.81
332.486	87.81
332.715	90.81
332.943	84.81
333.172	100.81
333.4	87.81
333.629	97.81
333.857	86.81
334.085	104.81
334.314	103.81
334.542	97.81
334.771	104.81
334.999	93.81
335.227	97.81
335.455	97.81
335.684	110.81
335.912	100.81
336.14	81.81
336.369	82.81
336.597	86.81
336.825	110.81
337.053	77.81
337.281	90.81
337.51	84.81
337.738	97.81
337.966	101.81
338.194	92.81
338.422	102.81
338.65	93.81
338.878	78.81
339.106	89.81
339.334	74.81
339.562	84.81
339.79	73.81
340.018	91.81
340.246	79.81
340.474	88.81
340.702	81.81
340.93	80.81
341.158	84.81
341.386	84.81
341.614	100.81
341.842	88.81
342.07	81.81
342.298	94.81
342.526	85.81
342.754	91.81
342.981	70.81
343.209	81.81
343.437	102.81
343.665	82.81
343.893	98.81
344.12	90.81
344.348	74.81
344.576	79.81
344.804	80.81
345.031	97.81
345.259	97.81
345.487	86.81
345.714	96.81
345.942	87.81
346.17	89.81
346.397	89.81
346.625	95.81
346.853	89.81
347.08	98.81
347.308	82.81
347.535	84.81
347.763	107.81
347.99	109.81
348.218	93.81
348.445	110.81
348.673	89.81
348.9	88.81
349.128	96.81
349.355	96.81
349.583	86.81
349.81	100.81
350.037	81.81
350.265	88.81
350.492	82.81
350.72	110.81
350.947	96.81
351.174	110.81
351.402	103.81
351.629	102.81
351.856	104.81
352.083	92.81
352.311	95.81
352.538	99.81
352.765	98.81
352.992	94.81
353.22	116.81
353.447	92.81
353.674	92.81
353.901	88.81
354.128	94.81
354.355	95.81
354.583	89.81
354.81	95.81
355.037	87.81
355.264	87.81
355.491	88.81
355.718	92.81
355.945	96.81
356.172	86.81
356.399	89.81
356.626	92.81
356.853	100.81
357.08	94.81
357.307	96.81
357.534	99.81
357.761	94.81
357.988	90.81
358.215	107.81
358.441	86.81
358.668	89.81
358.895	96.81
359.122	86.81
359.349	82.81
359.576	93.81
359.802	108.81
360.029	100.81
360.256	101.81
360.483	89.81
360.709	69.81
360.936	86.81
361.163	92.81
361.39	101.81
361.616	80.81
361.843	79.81
362.07	97.81
362.296	94.81
362.523	84.81
362.749	91.81
362.976	87.81
363.203	89.81
363.429	91.81
363.656	85.81
363.882	83.81
364.109	102.81
364.335	85.81
364.562	96.81
364.788	92.81
365.015	79.81
365.241	119.81
365.468	105.81
365.694	100.81
365.92	86.81
366.147	78.81
366.373	76.81
366.599	79.81
366.826	81.81
367.052	84.81
367.278	82.81
367.505	101.81
367.731	89.81
367.957	81.81
368.184	87.81
368.41	102.81
368.636	119.81
368.862	144.81
369.089	94.81
369.315	90.81
369.541	89.81
369.767	105.81
369.993	83.81
370.219	82.81
370.445	80.81
370.672	72.81
370.898	77.81
371.124	87.81
371.35	75.81
371.576	83.81
371.802	80.81
372.028	62.81
372.254	93.81
372.48	77.81
372.706	80.81
372.932	88.81
373.158	77.81
373.384	81.81
373.61	91.81
373.835	73.81
374.061	87.81
374.287	102.81
374.513	90.81
374.739	85.81
374.965	81.81
375.191	85.81
375.416	87.81
375.642	90.81
375.868	76.81
376.094	84.81
376.319	97.81
376.545	87.81
376.771	91.81
376.997	91.81
377.222	95.81
377.448	81.81
377.674	91.81
377.899	101.81
378.125	91.81
378.35	84.81
378.576	88.81
378.802	90.81
379.027	90.81
379.253	86.81
379.478	93.81
379.704	85.81
379.929	85.81
380.155	80.81
380.38	108.81
380.606	101.81
380.831	87.81
381.057	88.81
381.282	87.81
381.507	88.81
381.733	97.81
381.958	97.81
382.184	85.81
382.409	88.81
382.634	86.81
382.86	96.81
383.085	100.81
383.31	95.81
383.535	90.81
383.761	87.81
383.986	85.81
384.211	103.81
384.436	110.81
384.662	96.81
384.887	108.81
385.112	102.81
385.337	101.81
385.562	103.81
385.787	86.81
386.013	101.81
386.238	114.81
386.463	104.81
386.688	102.81
386.913	95.81
387.138	106.81
387.363	92.81
387.588	109.81
387.813	88.81
388.038	98.81
388.263	116.81
388.488	105.81
388.713	86.81
388.938	105.81
389.163	95.81
389.387	89.81
389.612	89.81
389.837	96.81
390.062	92.81
390.287	85.81
390.512	93.81
390.736	82.81
390.961	84.81
391.186	85.81
391.411	100.81
391.636	93.81
391.86	89.81
392.085	86.81
392.31	88.81
392.534	74.81
392.759	93.81
392.984	84.81
393.208	83.81
393.433	66.81
393.658	78.81
393.882	90.81
394.107	71.81
394.331	84.81
394.556	76.81
394.78	82.81
395.005	79.81
395.229	85.81
395.454	94.81
395.678	100.81
395.903	85.81
396.127	81.81
396.352	75.81
396.576	88.81
396.801	86.81
397.025	73.81
397.249	84.81
397.474	90.81
397.698	109.81
397.922	79.81
398.147	74.81
398.371	85.81
398.595	81.81
398.82	89.81
399.044	84.81
399.268	68.81
399.492	81.81
399.717	76.81
399.941	73.81
400.165	87.81
400.389	78.81
400.613	86.81
400.837	72.81
401.062	92.81
401.286	86.81
401.51	87.81
401.734	93.81
401.958	104.81
402.182	112.81
402.406	145.81
402.63	105.81
402.854	94.81
403.078	82.81
403.302	77.81
403.526	83.81
403.75	96.81
403.974	84.81
404.198	92.81
404.422	72.81
404.645	88.81
404.869	77.81
405.093	85.81
405.317	89.81
405.541	95.81
405.765	90.81
405.988	126.81
406.212	177.81
406.436	216.81
406.66	140.81
406.883	97.81
407.107	98.81
407.331	85.81
407.555	81.81
407.778	97.81
408.002	86.81
408.226	86.81
408.449	77.81
408.673	84.81
408.896	98.81
409.12	81.81
409.344	87.81
409.567	86.81
409.791	104.81
410.014	84.81
410.238	88.81
410.461	84.81
410.685	93.81
410.908	89.81
411.132	100.81
411.355	102.81
411.578	107.81
411.802	86.81
412.025	90.81
412.249	89.81
412.472	88.81
412.695	85.81
412.919	81.81
413.142	81.81
413.365	86.81
413.589	89.81
413.812	90.81
414.035	77.81
414.258	90.81
414.482	85.81
414.705	100.81
414.928	80.81
415.151	95.81
415.374	80.81
415.597	81.81
415.821	78.81
416.044	99.81
416.267	84.81
416.49	75.81
416.713	86.81
416.936	82.81
417.159	86.81
417.382	89.81
417.605	95.81
417.828	83.81
418.051	76.81
418.274	81.81
418.497	91.81
418.72	81.81
418.943	100.81
419.166	79.81
419.389	100.81
419.611	75.81
419.834	85.81
420.057	93.81
420.28	90.81
420.503	85.81
420.726	82.81
420.948	76.81
421.171	95.81
421.394	81.81
421.617	89.81
421.839	83.81
422.062	82.81
422.285	81.81
422.507	93.81
422.73	97.81
422.953	88.81
423.175	87.81
423.398	87.81
423.621	84.81
423.843	94.81
424.066	88.81
424.288	66.81
424.511	80.81
424.733	86.81
424.956	90.81
425.178	93.81
425.401	92.81
425.623	109.81
425.846	87.81
426.068	85.81
426.291	90.81
426.513	77.81
426.735	74.81
426.958	99.81
427.18	100.81
427.402	131.81
427.625	156.81
427.847	112.81
428.069	98.81
428.292	94.81
428.514	71.81
428.736	76.81
428.958	87.81
429.181	77.81
429.403	75.81
429.625	97.81
429.847	95.81
430.069	80.81
430.292	90.81
430.514	92.81
430.736	89.81
430.958	81.81
431.18	79.81
431.402	75.81
431.624	77.81
431.846	68.81
432.068	88.81
432.29	85.81
432.512	75.81
432.734	88.81
432.956	84.81
433.178	105.81
433.4	89.81
433.622	86.81
433.844	89.81
434.066	88.81
434.287	93.81
434.509	94.81
434.731	81.81
434.953	83.81
435.175	86.81
435.397	85.81
435.618	88.81
435.84	102.81
436.062	114.81
436.284	124.81
436.505	110.81
436.727	108.81
436.949	82.81
437.17	80.81
437.392	83.81
437.614	81.81
437.835	98.81
438.057	122.81
438.278	105.81
438.5	109.81
438.721	121.81
438.943	90.81
439.165	86.81
439.386	95.81
439.608	88.81
439.829	100.81
440.05	116.81
440.272	132.81
440.493	100.81
440.715	91.81
440.936	73.81
441.158	95.81
441.379	80.81
441.6	94.81
441.822	101.81
442.043	96.81
442.264	95.81
442.486	91.81
442.707	81.81
442.928	97.81
443.149	121.81
443.371	129.81
443.592	113.81
443.813	95.81
444.034	87.81
444.255	90.81
444.476	72.81
444.698	92.81
444.919	87.81
445.14	131.81
445.361	111.81
445.582	106.81
445.803	137.81
446.024	126.81
446.245	132.81
446.466	110.81
446.687	91.81
446.908	100.81
447.129	80.81
447.35	87.81
447.571	95.81
447.792	88.81
448.013	90.81
448.234	98.81
448.455	108.81
448.675	110.81
448.896	120.81
449.117	108.81
449.338	104.81
449.559	133.81
449.779	137.81
450	97.81
450.221	91.81
450.442	85.81
450.662	101.81
450.883	80.81
451.104	95.81
451.324	86.81
451.545	81.81
451.766	81.81
451.986	80.81
452.207	85.81
452.428	80.81
452.648	92.81
452.869	105.81
453.089	119.81
453.31	112.81
453.53	92.81
453.751	82.81
453.971	103.81
454.192	118.81
454.412	100.81
454.633	66.81
454.853	63.81
455.073	79.81
455.294	88.81
455.514	100.81
455.734	73.81
455.955	88.81
456.175	74.81
456.395	83.81
456.616	77.81
456.836	81.81
457.056	77.81
457.276	85.81
457.497	86.81
457.717	82.81
457.937	92.81
458.157	76.81
458.377	97.81
458.598	108.81
458.818	139.81
459.038	159.81
459.258	116.81
459.478	87.81
459.698	93.81
459.918	78.81
460.138	72.81
460.358	80.81
460.578	80.81
460.798	91.81
461.018	73.81
461.238	82.81
461.458	85.81
461.678	87.81
461.898	74.81
462.118	85.81
462.338	94.81
462.558	82.81
462.777	71.81
462.997	80.81
463.217	86.81
463.437	86.81
463.657	92.81
463.876	79.81
464.096	96.81
464.316	96.81
464.536	86.81
464.755	86.81
464.975	116.81
465.195	145.81
465.414	158.81
465.634	95.81
465.854	81.81
466.073	80.81
466.293	91.81
466.512	99.81
466.732	89.81
466.951	90.81
467.171	83.81
467.391	82.81
467.61	94.81
467.829	94.81
468.049	88.81
468.268	81.81
468.488	77.81
468.707	70.81
468.927	92.81
469.146	72.81
469.365	95.81
469.585	87.81
469.804	85.81
470.023	96.81
470.243	85.81
470.462	109.81
470.681	116.81
470.901	88.81
471.12	94.81
471.339	78.81
471.558	71.81
471.777	84.81
471.997	83.81
472.216	82.81
472.435	87.81
472.654	86.81
472.873	88.81
473.092	78.81
473.311	91.81
473.53	101.81
473.749	61.81
473.968	86.81
474.187	101.81
474.406	87.81
474.625	82.81
474.844	79.81
475.063	78.81
475.282	87.81
475.501	88.81
475.72	96.81
475.939	84.81
476.158	87.81
476.377	89.81
476.596	74.81
476.814	98.81
477.033	85.81
477.252	73.81
477.471	82.81
477.69	84.81
477.908	83.81
478.127	81.81
478.346	80.81
478.564	89.81
478.783	104.81
479.002	89.81
479.22	90.81
479.439	89.81
479.658	89.81
479.876	89.81
480.095	84.81
480.313	89.81
480.532	78.81
480.751	69.81
480.969	92.81
481.188	82.81
481.406	86.81
481.624	91.81
481.843	102.81
482.061	72.81
482.28	81.81
482.498	89.81
482.717	77.81
482.935	78.81
483.153	83.81
483.372	82.81
483.59	85.81
483.808	86.81
484.027	94.81
484.245	81.81
484.463	92.81
484.681	96.81
484.9	90.81
485.118	95.81
485.336	88.81
485.554	93.81
485.772	93.81
485.99	108.81
486.209	96.81
486.427	84.81
486.645	88.81
486.863	105.81
487.081	96.81
487.299	95.81
487.517	89.81
487.735	98.81
487.953	95.81
488.171	82.81
488.389	94.81
488.607	101.81
488.825	86.81
489.043	85.81
489.261	103.81
489.479	94.81
489.696	80.81
489.914	83.81
490.132	86.81
490.35	93.81
490.568	77.81
490.786	97.81
491.003	89.81
491.221	89.81
491.439	100.81
491.657	97.81
491.874	73.81
492.092	76.81
492.31	77.81
492.527	86.81
492.745	97.81
492.963	96.81
493.18	76.81
493.398	77.81
493.615	95.81
493.833	96.81
494.05	87.81
494.268	88.81
494.485	84.81
494.703	82.81
494.92	100.81
495.138	77.81
495.355	88.81
495.573	74.81
495.79	78.81
496.008	91.81
496.225	85.81
496.442	98.81
496.66	78.81
496.877	88.81
497.094	103.81
497.312	90.81
497.529	109.81
497.746	81.81
497.963	98.81
498.181	86.81
498.398	105.81
498.615	117.81
498.832	108.81
499.049	88.81
499.267	98.81
499.484	93.81
499.701	83.81
499.918	83.81
500.135	89.81
500.352	68.81
500.569	80.81
500.786	91.81
501.003	81.81
501.22	85.81
501.437	101.81
501.654	96.81
501.871	102.81
502.088	86.81
502.305	79.81
502.522	88.81
502.739	84.81
502.956	85.81
503.172	82.81
503.389	85.81
503.606	104.81
503.823	108.81
504.04	81.81
504.256	95.81
504.473	77.81
504.69	94.81
504.907	89.81
505.123	96.81
505.34	93.81
505.557	77.81
505.773	88.81
505.99	85.81
506.207	88.81
506.423	91.81
506.64	92.81
506.856	84.81
507.073	77.81
507.289	84.81
507.506	83.81
507.722	113.81
507.939	116.81
508.155	102.81
508.372	76.81
508.588	83.81
508.805	94.81
509.021	93.81
509.238	88.81
509.454	104.81
509.67	94.81
509.887	94.81
510.103	119.81
510.319	214.81
510.536	762.81
510.752	2531.81
510.968	705.81
511.184	148.81
511.401	101.81
511.617	89.81
511.833	98.81
512.049	93.81
512.265	92.81
512.481	89.81
512.698	91.81
512.914	91.81
513.13	93.81
513.346	102.81
513.562	101.81
513.778	94.81
513.994	101.81
514.21	89.81
514.426	113.81
514.642	144.81
514.858	117.81
515.074	152.81
515.29	465.81
515.506	1552.81
515.721	569.81
515.937	175.81
516.153	114.81
516.369	79.81
516.585	100.81
516.801	95.81
