Data from Uncirc_2007_H10_HRD10591_00059.txt Node
Date: Wed Jan 03 10:20:54 EST 2024
User: Yrep
Spectrometer: HR+D1059
Trigger mode: 1
Integration Time (sec): 1.000000E-1
Scans to average: 1
Electric dark correction enabled: true
Nonlinearity correction enabled: false
Boxcar width: 0
XAxis mode: Wavelengths
Number of Pixels in Spectrum: 2048
>>>>>Begin Spectral Data<<<<<
223.165	-20.38
223.4	-20.38
223.635	-20.38
223.869	-7.38
224.104	-19.38
224.338	-20.38
224.573	-23.38
224.808	-6.38
225.042	-7.38
225.277	1.62
225.511	-6.38
225.746	-2.38
225.98	4.62
226.215	16.62
226.449	18.62
226.683	16.62
226.918	19.62
227.152	35.62
227.387	33.62
227.621	34.62
227.856	44.62
228.09	44.62
228.324	39.62
228.559	54.62
228.793	41.62
229.027	64.62
229.262	57.62
229.496	74.62
229.73	75.62
229.964	76.62
230.199	69.62
230.433	67.62
230.667	62.62
230.901	80.62
231.136	78.62
231.37	77.62
231.604	80.62
231.838	70.62
232.072	68.62
232.306	69.62
232.541	77.62
232.775	75.62
233.009	75.62
233.243	72.62
233.477	73.62
233.711	75.62
233.945	71.62
234.179	72.62
234.413	79.62
234.647	79.62
234.881	65.62
235.115	74.62
235.349	71.62
235.583	79.62
235.817	71.62
236.051	76.62
236.285	66.62
236.519	74.62
236.753	63.62
236.987	72.62
237.221	71.62
237.455	83.62
237.689	71.62
237.922	59.62
238.156	67.62
238.39	65.62
238.624	62.62
238.858	72.62
239.091	66.62
239.325	68.62
239.559	76.62
239.793	75.62
240.027	80.62
240.26	85.62
240.494	72.62
240.728	69.62
240.961	69.62
241.195	61.62
241.429	78.62
241.662	70.62
241.896	74.62
242.13	62.62
242.363	75.62
242.597	68.62
242.83	67.62
243.064	74.62
243.298	77.62
243.531	59.62
243.765	61.62
243.998	58.62
244.232	75.62
244.465	90.62
244.699	84.62
244.932	63.62
245.166	71.62
245.399	77.62
245.633	60.62
245.866	86.62
246.099	71.62
246.333	68.62
246.566	84.62
246.8	80.62
247.033	66.62
247.266	63.62
247.5	68.62
247.733	71.62
247.966	75.62
248.2	76.62
248.433	76.62
248.666	73.62
248.899	76.62
249.133	77.62
249.366	88.62
249.599	83.62
249.832	83.62
250.066	88.62
250.299	58.62
250.532	74.62
250.765	60.62
250.998	72.62
251.231	63.62
251.465	77.62
251.698	83.62
251.931	71.62
252.164	81.62
252.397	70.62
252.63	73.62
252.863	65.62
253.096	80.62
253.329	73.62
253.562	70.62
253.795	72.62
254.028	76.62
254.261	63.62
254.494	67.62
254.727	75.62
254.96	80.62
255.193	74.62
255.426	83.62
255.659	82.62
255.892	79.62
256.124	78.62
256.357	65.62
256.59	79.62
256.823	82.62
257.056	70.62
257.289	77.62
257.521	83.62
257.754	63.62
257.987	65.62
258.22	74.62
258.452	82.62
258.685	81.62
258.918	82.62
259.151	75.62
259.383	75.62
259.616	66.62
259.849	78.62
260.081	76.62
260.314	80.62
260.547	79.62
260.779	75.62
261.012	83.62
261.244	70.62
261.477	89.62
261.71	87.62
261.942	113.62
262.175	97.62
262.407	85.62
262.64	62.62
262.872	86.62
263.105	88.62
263.337	80.62
263.57	94.62
263.802	73.62
264.035	70.62
264.267	73.62
264.499	84.62
264.732	77.62
264.964	71.62
265.197	85.62
265.429	76.62
265.661	83.62
265.894	78.62
266.126	100.62
266.358	79.62
266.591	76.62
266.823	85.62
267.055	85.62
267.287	85.62
267.52	74.62
267.752	82.62
267.984	71.62
268.216	81.62
268.448	78.62
268.681	76.62
268.913	85.62
269.145	77.62
269.377	70.62
269.609	72.62
269.841	90.62
270.073	74.62
270.306	73.62
270.538	77.62
270.77	73.62
271.002	72.62
271.234	86.62
271.466	87.62
271.698	79.62
271.93	77.62
272.162	90.62
272.394	68.62
272.626	67.62
272.858	92.62
273.09	69.62
273.322	87.62
273.553	65.62
273.785	73.62
274.017	78.62
274.249	84.62
274.481	74.62
274.713	71.62
274.945	84.62
275.176	84.62
275.408	89.62
275.64	71.62
275.872	82.62
276.104	96.62
276.335	83.62
276.567	86.62
276.799	100.62
277.031	92.62
277.262	78.62
277.494	84.62
277.726	79.62
277.957	80.62
278.189	69.62
278.421	77.62
278.652	73.62
278.884	70.62
279.115	103.62
279.347	85.62
279.579	78.62
279.81	89.62
280.042	73.62
280.273	79.62
280.505	86.62
280.736	87.62
280.968	91.62
281.199	68.62
281.431	76.62
281.662	92.62
281.894	89.62
282.125	115.62
282.356	135.62
282.588	127.62
282.819	100.62
283.051	93.62
283.282	73.62
283.513	83.62
283.745	81.62
283.976	94.62
284.207	72.62
284.439	88.62
284.67	96.62
284.901	68.62
285.132	89.62
285.364	77.62
285.595	93.62
285.826	73.62
286.057	73.62
286.288	83.62
286.52	79.62
286.751	82.62
286.982	71.62
287.213	74.62
287.444	91.62
287.675	71.62
287.906	78.62
288.138	82.62
288.369	91.62
288.6	75.62
288.831	88.62
289.062	81.62
289.293	78.62
289.524	87.62
289.755	84.62
289.986	81.62
290.217	75.62
290.448	76.62
290.679	84.62
290.91	85.62
291.141	87.62
291.371	78.62
291.602	78.62
291.833	86.62
292.064	95.62
292.295	87.62
292.526	94.62
292.757	69.62
292.987	86.62
293.218	79.62
293.449	107.62
293.68	78.62
293.91	82.62
294.141	90.62
294.372	80.62
294.603	84.62
294.833	77.62
295.064	92.62
295.295	79.62
295.525	82.62
295.756	109.62
295.987	111.62
296.217	135.62
296.448	128.62
296.679	92.62
296.909	82.62
297.14	71.62
297.37	77.62
297.601	90.62
297.831	85.62
298.062	80.62
298.292	85.62
298.523	78.62
298.753	79.62
298.984	86.62
299.214	75.62
299.445	90.62
299.675	79.62
299.905	88.62
300.136	96.62
300.366	65.62
300.597	97.62
300.827	82.62
301.057	101.62
301.288	95.62
301.518	89.62
301.748	76.62
301.979	97.62
302.209	87.62
302.439	95.62
302.669	96.62
302.9	73.62
303.13	71.62
303.36	86.62
303.59	100.62
303.82	108.62
304.051	91.62
304.281	82.62
304.511	84.62
304.741	93.62
304.971	87.62
305.201	99.62
305.431	84.62
305.661	74.62
305.891	76.62
306.121	86.62
306.352	98.62
306.582	99.62
306.812	64.62
307.042	100.62
307.272	71.62
307.502	82.62
307.731	87.62
307.961	88.62
308.191	87.62
308.421	79.62
308.651	84.62
308.881	85.62
309.111	90.62
309.341	86.62
309.571	82.62
309.8	92.62
310.03	96.62
310.26	89.62
310.49	109.62
310.72	92.62
310.949	87.62
311.179	103.62
311.409	78.62
311.639	93.62
311.868	93.62
312.098	77.62
312.328	89.62
312.557	103.62
312.787	113.62
313.017	88.62
313.246	78.62
313.476	82.62
313.706	85.62
313.935	87.62
314.165	100.62
314.394	87.62
314.624	81.62
314.853	83.62
315.083	99.62
315.312	82.62
315.542	73.62
315.771	83.62
316.001	61.62
316.23	79.62
316.46	91.62
316.689	90.62
316.919	91.62
317.148	89.62
317.377	92.62
317.607	81.62
317.836	76.62
318.065	90.62
318.295	99.62
318.524	96.62
318.753	82.62
318.983	94.62
319.212	82.62
319.441	100.62
319.67	110.62
319.9	81.62
320.129	85.62
320.358	95.62
320.587	103.62
320.816	113.62
321.046	100.62
321.275	107.62
321.504	89.62
321.733	99.62
321.962	84.62
322.191	101.62
322.42	92.62
322.649	112.62
322.878	94.62
323.108	107.62
323.337	106.62
323.566	139.62
323.795	153.62
324.024	223.62
324.253	441.62
324.482	917.62
324.71	1973.62
324.939	2595.62
325.168	942.62
325.397	257.62
325.626	155.62
325.855	143.62
326.084	119.62
326.313	155.62
326.542	148.62
326.77	243.62
326.999	510.62
327.228	1054.62
327.457	1979.62
327.686	1542.62
327.914	399.62
328.143	203.62
328.372	164.62
328.6	128.62
328.829	116.62
329.058	139.62
329.287	129.62
329.515	103.62
329.744	109.62
329.972	94.62
330.201	99.62
330.43	107.62
330.658	115.62
330.887	145.62
331.115	113.62
331.344	102.62
331.572	110.62
331.801	105.62
332.03	91.62
332.258	78.62
332.486	85.62
332.715	86.62
332.943	98.62
333.172	85.62
333.4	83.62
333.629	103.62
333.857	88.62
334.085	102.62
334.314	101.62
334.542	71.62
334.771	99.62
334.999	100.62
335.227	99.62
335.455	88.62
335.684	101.62
335.912	82.62
336.14	87.62
336.369	92.62
336.597	94.62
336.825	87.62
337.053	73.62
337.281	87.62
337.51	84.62
337.738	96.62
337.966	82.62
338.194	101.62
338.422	88.62
338.65	86.62
338.878	98.62
339.106	74.62
339.334	85.62
339.562	89.62
339.79	88.62
340.018	84.62
340.246	84.62
340.474	96.62
340.702	91.62
340.93	82.62
341.158	85.62
341.386	86.62
341.614	75.62
341.842	98.62
342.07	90.62
342.298	95.62
342.526	79.62
342.754	82.62
342.981	93.62
343.209	78.62
343.437	85.62
343.665	80.62
343.893	92.62
344.12	83.62
344.348	97.62
344.576	91.62
344.804	82.62
345.031	76.62
345.259	93.62
345.487	91.62
345.714	94.62
345.942	105.62
346.17	88.62
346.397	84.62
346.625	98.62
346.853	85.62
347.08	70.62
347.308	66.62
347.535	98.62
347.763	84.62
347.99	87.62
348.218	103.62
348.445	97.62
348.673	102.62
348.9	96.62
349.128	79.62
349.355	90.62
349.583	92.62
349.81	87.62
350.037	71.62
350.265	94.62
350.492	79.62
350.72	92.62
350.947	88.62
351.174	112.62
351.402	102.62
351.629	97.62
351.856	79.62
352.083	101.62
352.311	90.62
352.538	86.62
352.765	85.62
352.992	109.62
353.22	132.62
353.447	95.62
353.674	87.62
353.901	83.62
354.128	96.62
354.355	79.62
354.583	83.62
354.81	90.62
355.037	96.62
355.264	86.62
355.491	85.62
355.718	85.62
355.945	82.62
356.172	79.62
356.399	78.62
356.626	53.62
356.853	88.62
357.08	91.62
357.307	94.62
357.534	94.62
357.761	89.62
357.988	86.62
358.215	88.62
358.441	90.62
358.668	90.62
358.895	61.62
359.122	92.62
359.349	93.62
359.576	78.62
359.802	91.62
360.029	120.62
360.256	107.62
360.483	102.62
360.709	78.62
360.936	101.62
361.163	83.62
361.39	88.62
361.616	79.62
361.843	87.62
362.07	86.62
362.296	102.62
362.523	98.62
362.749	86.62
362.976	75.62
363.203	82.62
363.429	85.62
363.656	73.62
363.882	95.62
364.109	84.62
364.335	90.62
364.562	97.62
364.788	87.62
365.015	77.62
365.241	89.62
365.468	100.62
365.694	92.62
365.92	99.62
366.147	77.62
366.373	81.62
366.599	76.62
366.826	87.62
367.052	89.62
367.278	79.62
367.505	85.62
367.731	79.62
367.957	94.62
368.184	92.62
368.41	82.62
368.636	110.62
368.862	123.62
369.089	105.62
369.315	84.62
369.541	104.62
369.767	88.62
369.993	81.62
370.219	99.62
370.445	88.62
370.672	85.62
370.898	82.62
371.124	86.62
371.35	75.62
371.576	91.62
371.802	92.62
372.028	93.62
372.254	78.62
372.48	83.62
372.706	81.62
372.932	90.62
373.158	97.62
373.384	75.62
373.61	76.62
373.835	93.62
374.061	84.62
374.287	82.62
374.513	86.62
374.739	84.62
374.965	87.62
375.191	92.62
375.416	91.62
375.642	90.62
375.868	71.62
376.094	95.62
376.319	84.62
376.545	70.62
376.771	95.62
376.997	95.62
377.222	85.62
377.448	91.62
377.674	97.62
377.899	67.62
378.125	93.62
378.35	92.62
378.576	88.62
378.802	90.62
379.027	89.62
379.253	86.62
379.478	81.62
379.704	96.62
379.929	84.62
380.155	73.62
380.38	89.62
380.606	92.62
380.831	77.62
381.057	99.62
381.282	81.62
381.507	76.62
381.733	82.62
381.958	83.62
382.184	77.62
382.409	87.62
382.634	92.62
382.86	88.62
383.085	98.62
383.31	87.62
383.535	91.62
383.761	91.62
383.986	82.62
384.211	86.62
384.436	95.62
384.662	86.62
384.887	99.62
385.112	109.62
385.337	90.62
385.562	95.62
385.787	87.62
386.013	98.62
386.238	103.62
386.463	71.62
386.688	109.62
386.913	84.62
387.138	93.62
387.363	90.62
387.588	82.62
387.813	105.62
388.038	92.62
388.263	108.62
388.488	103.62
388.713	92.62
388.938	90.62
389.163	87.62
389.387	90.62
389.612	98.62
389.837	85.62
390.062	94.62
390.287	81.62
390.512	85.62
390.736	91.62
390.961	78.62
391.186	86.62
391.411	83.62
391.636	89.62
391.86	70.62
392.085	83.62
392.31	89.62
392.534	76.62
392.759	79.62
392.984	80.62
393.208	83.62
393.433	83.62
393.658	99.62
393.882	90.62
394.107	84.62
394.331	86.62
394.556	70.62
394.78	90.62
395.005	77.62
395.229	78.62
395.454	71.62
395.678	87.62
395.903	87.62
396.127	95.62
396.352	71.62
396.576	81.62
396.801	69.62
397.025	81.62
397.249	80.62
397.474	74.62
397.698	73.62
397.922	78.62
398.147	77.62
398.371	87.62
398.595	75.62
398.82	91.62
399.044	88.62
399.268	85.62
399.492	78.62
399.717	89.62
399.941	89.62
400.165	86.62
400.389	79.62
400.613	78.62
400.837	77.62
401.062	71.62
401.286	89.62
401.51	80.62
401.734	90.62
401.958	93.62
402.182	119.62
402.406	140.62
402.63	123.62
402.854	91.62
403.078	96.62
403.302	87.62
403.526	74.62
403.75	85.62
403.974	89.62
404.198	82.62
404.422	76.62
404.645	71.62
404.869	90.62
405.093	87.62
405.317	87.62
405.541	90.62
405.765	92.62
405.988	103.62
406.212	168.62
406.436	237.62
406.66	159.62
406.883	90.62
407.107	82.62
407.331	93.62
407.555	98.62
407.778	100.62
408.002	102.62
408.226	87.62
408.449	91.62
408.673	94.62
408.896	99.62
409.12	95.62
409.344	83.62
409.567	85.62
409.791	77.62
410.014	82.62
410.238	80.62
410.461	91.62
410.685	94.62
410.908	91.62
411.132	105.62
411.355	94.62
411.578	76.62
411.802	93.62
412.025	79.62
412.249	68.62
412.472	86.62
412.695	83.62
412.919	86.62
413.142	88.62
413.365	80.62
413.589	86.62
413.812	86.62
414.035	90.62
414.258	84.62
414.482	71.62
414.705	79.62
414.928	78.62
415.151	79.62
415.374	94.62
415.597	87.62
415.821	84.62
416.044	89.62
416.267	95.62
416.49	83.62
416.713	83.62
416.936	98.62
417.159	91.62
417.382	79.62
417.605	82.62
417.828	87.62
418.051	79.62
418.274	81.62
418.497	81.62
418.72	77.62
418.943	77.62
419.166	83.62
419.389	74.62
419.611	67.62
419.834	74.62
420.057	73.62
420.28	79.62
420.503	97.62
420.726	73.62
420.948	80.62
421.171	91.62
421.394	88.62
421.617	81.62
421.839	76.62
422.062	90.62
422.285	71.62
422.507	95.62
422.73	86.62
422.953	79.62
423.175	83.62
423.398	88.62
423.621	79.62
423.843	89.62
424.066	95.62
424.288	89.62
424.511	87.62
424.733	99.62
424.956	96.62
425.178	86.62
425.401	94.62
425.623	98.62
425.846	99.62
426.068	78.62
426.291	83.62
426.513	93.62
426.735	90.62
426.958	79.62
427.18	100.62
427.402	129.62
427.625	165.62
427.847	132.62
428.069	87.62
428.292	80.62
428.514	73.62
428.736	69.62
428.958	95.62
429.181	79.62
429.403	87.62
429.625	77.62
429.847	80.62
430.069	97.62
430.292	78.62
430.514	70.62
430.736	94.62
430.958	84.62
431.18	75.62
431.402	91.62
431.624	88.62
431.846	84.62
432.068	84.62
432.29	78.62
432.512	78.62
432.734	84.62
432.956	81.62
433.178	100.62
433.4	106.62
433.622	97.62
433.844	92.62
434.066	93.62
434.287	82.62
434.509	90.62
434.731	91.62
434.953	69.62
435.175	80.62
435.397	93.62
435.618	89.62
435.84	105.62
436.062	118.62
436.284	117.62
436.505	104.62
436.727	94.62
436.949	79.62
437.17	74.62
437.392	85.62
437.614	101.62
437.835	115.62
438.057	119.62
438.278	121.62
438.5	101.62
438.721	99.62
438.943	98.62
439.165	86.62
439.386	84.62
439.608	95.62
439.829	84.62
440.05	122.62
440.272	140.62
440.493	97.62
440.715	92.62
440.936	81.62
441.158	81.62
441.379	78.62
441.6	86.62
441.822	56.62
442.043	74.62
442.264	106.62
442.486	110.62
442.707	82.62
442.928	90.62
443.149	104.62
443.371	130.62
443.592	112.62
443.813	103.62
444.034	84.62
444.255	88.62
444.476	76.62
444.698	91.62
444.919	74.62
445.14	135.62
445.361	123.62
445.582	126.62
445.803	134.62
446.024	155.62
446.245	129.62
446.466	105.62
446.687	86.62
446.908	94.62
447.129	89.62
447.35	83.62
447.571	87.62
447.792	87.62
448.013	89.62
448.234	90.62
448.455	103.62
448.675	110.62
448.896	112.62
449.117	98.62
449.338	110.62
449.559	136.62
449.779	135.62
450	96.62
450.221	85.62
450.442	93.62
450.662	83.62
450.883	102.62
451.104	107.62
451.324	99.62
451.545	77.62
451.766	93.62
451.986	77.62
452.207	76.62
452.428	83.62
452.648	103.62
452.869	102.62
453.089	106.62
453.31	99.62
453.53	88.62
453.751	91.62
453.971	85.62
454.192	103.62
454.412	95.62
454.633	78.62
454.853	84.62
455.073	77.62
455.294	84.62
455.514	89.62
455.734	85.62
455.955	101.62
456.175	76.62
456.395	83.62
456.616	72.62
456.836	70.62
457.056	78.62
457.276	75.62
457.497	71.62
457.717	82.62
457.937	85.62
458.157	73.62
458.377	97.62
458.598	106.62
458.818	147.62
459.038	182.62
459.258	118.62
459.478	94.62
459.698	82.62
459.918	82.62
460.138	74.62
460.358	78.62
460.578	92.62
460.798	74.62
461.018	81.62
461.238	86.62
461.458	76.62
461.678	83.62
461.898	80.62
462.118	92.62
462.338	83.62
462.558	83.62
462.777	65.62
462.997	92.62
463.217	84.62
463.437	77.62
463.657	82.62
463.876	72.62
464.096	69.62
464.316	83.62
464.536	80.62
464.755	94.62
464.975	106.62
465.195	170.62
465.414	159.62
465.634	92.62
465.854	73.62
466.073	97.62
466.293	80.62
466.512	83.62
466.732	77.62
466.951	82.62
467.171	85.62
467.391	85.62
467.61	95.62
467.829	88.62
468.049	80.62
468.268	77.62
468.488	81.62
468.707	73.62
468.927	81.62
469.146	91.62
469.365	78.62
469.585	84.62
469.804	100.62
470.023	102.62
470.243	82.62
470.462	96.62
470.681	98.62
470.901	78.62
471.12	83.62
471.339	85.62
471.558	81.62
471.777	93.62
471.997	84.62
472.216	83.62
472.435	82.62
472.654	87.62
472.873	73.62
473.092	69.62
473.311	85.62
473.53	90.62
473.749	74.62
473.968	93.62
474.187	91.62
474.406	96.62
474.625	82.62
474.844	83.62
475.063	98.62
475.282	82.62
475.501	76.62
475.72	81.62
475.939	83.62
476.158	75.62
476.377	71.62
476.596	81.62
476.814	89.62
477.033	86.62
477.252	88.62
477.471	77.62
477.69	79.62
477.908	89.62
478.127	75.62
478.346	85.62
478.564	76.62
478.783	87.62
479.002	92.62
479.22	86.62
479.439	89.62
479.658	97.62
479.876	83.62
480.095	71.62
480.313	87.62
480.532	81.62
480.751	80.62
480.969	99.62
481.188	81.62
481.406	83.62
481.624	84.62
481.843	84.62
482.061	86.62
482.28	84.62
482.498	86.62
482.717	83.62
482.935	77.62
483.153	86.62
483.372	79.62
483.59	72.62
483.808	83.62
484.027	82.62
484.245	88.62
484.463	92.62
484.681	87.62
484.9	83.62
485.118	84.62
485.336	79.62
485.554	86.62
485.772	94.62
485.99	85.62
486.209	100.62
486.427	107.62
486.645	106.62
486.863	102.62
487.081	107.62
487.299	86.62
487.517	90.62
487.735	81.62
487.953	85.62
488.171	79.62
488.389	102.62
488.607	92.62
488.825	72.62
489.043	72.62
489.261	94.62
489.479	90.62
489.696	88.62
489.914	107.62
490.132	95.62
490.35	68.62
490.568	88.62
490.786	78.62
491.003	74.62
491.221	94.62
491.439	80.62
491.657	75.62
491.874	77.62
492.092	84.62
492.31	82.62
492.527	92.62
492.745	89.62
492.963	83.62
493.18	79.62
493.398	85.62
493.615	93.62
493.833	96.62
494.05	91.62
494.268	85.62
494.485	86.62
494.703	84.62
494.92	78.62
495.138	87.62
495.355	91.62
495.573	83.62
495.79	75.62
496.008	90.62
496.225	87.62
496.442	85.62
496.66	70.62
496.877	86.62
497.094	76.62
497.312	77.62
497.529	92.62
497.746	77.62
497.963	81.62
498.181	92.62
498.398	93.62
498.615	99.62
498.832	83.62
499.049	80.62
499.267	93.62
499.484	96.62
499.701	81.62
499.918	77.62
500.135	87.62
500.352	75.62
500.569	82.62
500.786	88.62
501.003	73.62
501.22	92.62
501.437	84.62
501.654	91.62
501.871	105.62
502.088	84.62
502.305	78.62
502.522	81.62
502.739	77.62
502.956	71.62
503.172	94.62
503.389	81.62
503.606	97.62
503.823	90.62
504.04	102.62
504.256	83.62
504.473	83.62
504.69	90.62
504.907	84.62
505.123	88.62
505.34	92.62
505.557	97.62
505.773	100.62
505.99	92.62
506.207	78.62
506.423	91.62
506.64	83.62
506.856	83.62
507.073	92.62
507.289	96.62
507.506	87.62
507.722	89.62
507.939	99.62
508.155	73.62
508.372	85.62
508.588	99.62
508.805	94.62
509.021	94.62
509.238	97.62
509.454	101.62
509.67	95.62
509.887	102.62
510.103	123.62
510.319	211.62
510.536	886.62
510.752	2783.62
510.968	755.62
511.184	167.62
511.401	108.62
511.617	79.62
511.833	89.62
512.049	79.62
512.265	89.62
512.481	84.62
512.698	98.62
512.914	77.62
513.13	71.62
513.346	83.62
513.562	89.62
513.778	91.62
513.994	93.62
514.21	100.62
514.426	118.62
514.642	136.62
514.858	126.62
515.074	169.62
515.29	518.62
515.506	1737.62
515.721	615.62
515.937	175.62
516.153	111.62
516.369	90.62
516.585	99.62
516.801	76.62
517.016	98.62
517.232	80.62
517.448	99.62
