Data from Uncirc_2007_H10_HRD10591_00019.txt Node
Date: Wed Jan 03 10:20:46 EST 2024
User: Yrep
Spectrometer: HR+D1059
Trigger mode: 1
Integration Time (sec): 1.000000E-1
Scans to average: 1
Electric dark correction enabled: true
Nonlinearity correction enabled: false
Boxcar width: 0
XAxis mode: Wavelengths
Number of Pixels in Spectrum: 2048
>>>>>Begin Spectral Data<<<<<
223.165	-34.75
223.4	-34.75
223.635	-34.75
223.869	-30.75
224.104	-24.75
224.338	-23.75
224.573	-10.75
224.808	-4.75
225.042	-7.75
225.277	-7.75
225.511	-0.75
225.746	3.25
225.98	16.25
226.215	25.25
226.449	18.25
226.683	28.25
226.918	27.25
227.152	27.25
227.387	28.25
227.621	33.25
227.856	49.25
228.09	49.25
228.324	56.25
228.559	60.25
228.793	66.25
229.027	68.25
229.262	57.25
229.496	62.25
229.73	73.25
229.964	73.25
230.199	72.25
230.433	91.25
230.667	85.25
230.901	66.25
231.136	78.25
231.37	83.25
231.604	70.25
231.838	86.25
232.072	89.25
232.306	82.25
232.541	78.25
232.775	74.25
233.009	72.25
233.243	67.25
233.477	80.25
233.711	65.25
233.945	84.25
234.179	83.25
234.413	70.25
234.647	99.25
234.881	83.25
235.115	73.25
235.349	64.25
235.583	65.25
235.817	74.25
236.051	74.25
236.285	76.25
236.519	89.25
236.753	77.25
236.987	85.25
237.221	90.25
237.455	96.25
237.689	70.25
237.922	78.25
238.156	65.25
238.39	91.25
238.624	70.25
238.858	91.25
239.091	72.25
239.325	80.25
239.559	85.25
239.793	76.25
240.027	69.25
240.26	76.25
240.494	77.25
240.728	70.25
240.961	72.25
241.195	69.25
241.429	82.25
241.662	70.25
241.896	76.25
242.13	76.25
242.363	83.25
242.597	82.25
242.83	78.25
243.064	84.25
243.298	67.25
243.531	64.25
243.765	94.25
243.998	78.25
244.232	71.25
244.465	89.25
244.699	84.25
244.932	89.25
245.166	70.25
245.399	79.25
245.633	79.25
245.866	102.25
246.099	86.25
246.333	86.25
246.566	73.25
246.8	75.25
247.033	93.25
247.266	72.25
247.5	80.25
247.733	81.25
247.966	80.25
248.2	94.25
248.433	80.25
248.666	82.25
248.899	82.25
249.133	87.25
249.366	92.25
249.599	89.25
249.832	76.25
250.066	72.25
250.299	77.25
250.532	77.25
250.765	86.25
250.998	79.25
251.231	84.25
251.465	72.25
251.698	82.25
251.931	91.25
252.164	72.25
252.397	78.25
252.63	75.25
252.863	83.25
253.096	65.25
253.329	70.25
253.562	75.25
253.795	82.25
254.028	84.25
254.261	89.25
254.494	77.25
254.727	85.25
254.96	75.25
255.193	73.25
255.426	77.25
255.659	84.25
255.892	80.25
256.124	95.25
256.357	75.25
256.59	82.25
256.823	86.25
257.056	83.25
257.289	92.25
257.521	93.25
257.754	83.25
257.987	76.25
258.22	79.25
258.452	69.25
258.685	68.25
258.918	104.25
259.151	84.25
259.383	86.25
259.616	84.25
259.849	88.25
260.081	88.25
260.314	85.25
260.547	74.25
260.779	93.25
261.012	88.25
261.244	74.25
261.477	83.25
261.71	88.25
261.942	94.25
262.175	123.25
262.407	100.25
262.64	91.25
262.872	84.25
263.105	88.25
263.337	88.25
263.57	80.25
263.802	90.25
264.035	94.25
264.267	73.25
264.499	75.25
264.732	84.25
264.964	85.25
265.197	84.25
265.429	84.25
265.661	95.25
265.894	76.25
266.126	81.25
266.358	80.25
266.591	99.25
266.823	89.25
267.055	71.25
267.287	83.25
267.52	84.25
267.752	92.25
267.984	85.25
268.216	91.25
268.448	92.25
268.681	86.25
268.913	83.25
269.145	78.25
269.377	95.25
269.609	82.25
269.841	89.25
270.073	77.25
270.306	84.25
270.538	78.25
270.77	84.25
271.002	87.25
271.234	77.25
271.466	95.25
271.698	87.25
271.93	78.25
272.162	74.25
272.394	76.25
272.626	82.25
272.858	84.25
273.09	77.25
273.322	91.25
273.553	97.25
273.785	92.25
274.017	89.25
274.249	77.25
274.481	88.25
274.713	90.25
274.945	86.25
275.176	76.25
275.408	78.25
275.64	97.25
275.872	86.25
276.104	96.25
276.335	77.25
276.567	102.25
276.799	89.25
277.031	100.25
277.262	100.25
277.494	90.25
277.726	83.25
277.957	79.25
278.189	76.25
278.421	92.25
278.652	73.25
278.884	94.25
279.115	80.25
279.347	85.25
279.579	75.25
279.81	81.25
280.042	79.25
280.273	88.25
280.505	84.25
280.736	89.25
280.968	75.25
281.199	84.25
281.431	79.25
281.662	91.25
281.894	89.25
282.125	105.25
282.356	114.25
282.588	139.25
282.819	100.25
283.051	82.25
283.282	86.25
283.513	98.25
283.745	83.25
283.976	83.25
284.207	89.25
284.439	93.25
284.67	91.25
284.901	99.25
285.132	84.25
285.364	72.25
285.595	76.25
285.826	90.25
286.057	96.25
286.288	91.25
286.52	83.25
286.751	74.25
286.982	106.25
287.213	84.25
287.444	94.25
287.675	91.25
287.906	77.25
288.138	89.25
288.369	96.25
288.6	86.25
288.831	102.25
289.062	85.25
289.293	82.25
289.524	82.25
289.755	94.25
289.986	87.25
290.217	82.25
290.448	84.25
290.679	83.25
290.91	91.25
291.141	86.25
291.371	86.25
291.602	91.25
291.833	80.25
292.064	79.25
292.295	82.25
292.526	81.25
292.757	99.25
292.987	92.25
293.218	81.25
293.449	91.25
293.68	91.25
293.91	84.25
294.141	100.25
294.372	95.25
294.603	71.25
294.833	93.25
295.064	99.25
295.295	92.25
295.525	91.25
295.756	90.25
295.987	115.25
296.217	134.25
296.448	132.25
296.679	95.25
296.909	92.25
297.14	81.25
297.37	74.25
297.601	92.25
297.831	96.25
298.062	94.25
298.292	104.25
298.523	100.25
298.753	87.25
298.984	108.25
299.214	103.25
299.445	93.25
299.675	100.25
299.905	88.25
300.136	82.25
300.366	89.25
300.597	81.25
300.827	89.25
301.057	92.25
301.288	97.25
301.518	94.25
301.748	93.25
301.979	105.25
302.209	101.25
302.439	96.25
302.669	91.25
302.9	85.25
303.13	90.25
303.36	98.25
303.59	94.25
303.82	107.25
304.051	102.25
304.281	103.25
304.511	92.25
304.741	91.25
304.971	90.25
305.201	87.25
305.431	87.25
305.661	90.25
305.891	86.25
306.121	106.25
306.352	89.25
306.582	82.25
306.812	92.25
307.042	67.25
307.272	87.25
307.502	102.25
307.731	92.25
307.961	97.25
308.191	86.25
308.421	83.25
308.651	85.25
308.881	98.25
309.111	84.25
309.341	83.25
309.571	103.25
309.8	85.25
310.03	89.25
310.26	93.25
310.49	81.25
310.72	94.25
310.949	96.25
311.179	105.25
311.409	107.25
311.639	99.25
311.868	96.25
312.098	91.25
312.328	97.25
312.557	105.25
312.787	97.25
313.017	98.25
313.246	100.25
313.476	84.25
313.706	98.25
313.935	92.25
314.165	92.25
314.394	100.25
314.624	103.25
314.853	99.25
315.083	88.25
315.312	93.25
315.542	102.25
315.771	87.25
316.001	79.25
316.23	94.25
316.46	88.25
316.689	109.25
316.919	94.25
317.148	99.25
317.377	86.25
317.607	88.25
317.836	90.25
318.065	84.25
318.295	83.25
318.524	93.25
318.753	102.25
318.983	94.25
319.212	105.25
319.441	105.25
319.67	104.25
319.9	92.25
320.129	95.25
320.358	86.25
320.587	96.25
320.816	102.25
321.046	98.25
321.275	101.25
321.504	94.25
321.733	114.25
321.962	102.25
322.191	90.25
322.42	101.25
322.649	101.25
322.878	112.25
323.108	102.25
323.337	128.25
323.566	138.25
323.795	147.25
324.024	201.25
324.253	403.25
324.482	853.25
324.71	1754.25
324.939	2320.25
325.168	833.25
325.397	260.25
325.626	162.25
325.855	130.25
326.084	130.25
326.313	146.25
326.542	150.25
326.77	238.25
326.999	474.25
327.228	990.25
327.457	1786.25
327.686	1381.25
327.914	366.25
328.143	192.25
328.372	156.25
328.6	136.25
328.829	101.25
329.058	130.25
329.287	120.25
329.515	117.25
329.744	98.25
329.972	105.25
330.201	100.25
330.43	129.25
330.658	125.25
330.887	133.25
331.115	133.25
331.344	107.25
331.572	102.25
331.801	104.25
332.03	104.25
332.258	100.25
332.486	96.25
332.715	95.25
332.943	91.25
333.172	97.25
333.4	94.25
333.629	99.25
333.857	113.25
334.085	124.25
334.314	103.25
334.542	100.25
334.771	112.25
334.999	96.25
335.227	80.25
335.455	104.25
335.684	95.25
335.912	90.25
336.14	86.25
336.369	83.25
336.597	87.25
336.825	73.25
337.053	92.25
337.281	85.25
337.51	85.25
337.738	89.25
337.966	93.25
338.194	103.25
338.422	101.25
338.65	105.25
338.878	95.25
339.106	89.25
339.334	90.25
339.562	98.25
339.79	90.25
340.018	108.25
340.246	94.25
340.474	101.25
340.702	94.25
340.93	110.25
341.158	97.25
341.386	86.25
341.614	95.25
341.842	101.25
342.07	100.25
342.298	99.25
342.526	96.25
342.754	98.25
342.981	90.25
343.209	81.25
343.437	97.25
343.665	84.25
343.893	79.25
344.12	96.25
344.348	85.25
344.576	90.25
344.804	96.25
345.031	97.25
345.259	98.25
345.487	100.25
345.714	97.25
345.942	91.25
346.17	80.25
346.397	98.25
346.625	107.25
346.853	88.25
347.08	83.25
347.308	99.25
347.535	92.25
347.763	104.25
347.99	91.25
348.218	97.25
348.445	96.25
348.673	106.25
348.9	96.25
349.128	98.25
349.355	91.25
349.583	86.25
349.81	81.25
350.037	91.25
350.265	99.25
350.492	95.25
350.72	89.25
350.947	104.25
351.174	114.25
351.402	109.25
351.629	112.25
351.856	95.25
352.083	108.25
352.311	102.25
352.538	109.25
352.765	101.25
352.992	118.25
353.22	110.25
353.447	101.25
353.674	95.25
353.901	104.25
354.128	110.25
354.355	101.25
354.583	93.25
354.81	104.25
355.037	95.25
355.264	93.25
355.491	107.25
355.718	97.25
355.945	97.25
356.172	110.25
356.399	85.25
356.626	89.25
356.853	80.25
357.08	99.25
357.307	74.25
357.534	80.25
357.761	84.25
357.988	104.25
358.215	94.25
358.441	85.25
358.668	91.25
358.895	85.25
359.122	92.25
359.349	93.25
359.576	88.25
359.802	114.25
360.029	126.25
360.256	109.25
360.483	98.25
360.709	91.25
360.936	76.25
361.163	104.25
361.39	93.25
361.616	97.25
361.843	99.25
362.07	107.25
362.296	96.25
362.523	99.25
362.749	75.25
362.976	91.25
363.203	86.25
363.429	80.25
363.656	95.25
363.882	92.25
364.109	96.25
364.335	90.25
364.562	91.25
364.788	95.25
365.015	84.25
365.241	106.25
365.468	110.25
365.694	99.25
365.92	94.25
366.147	99.25
366.373	99.25
366.599	82.25
366.826	76.25
367.052	86.25
367.278	90.25
367.505	90.25
367.731	93.25
367.957	78.25
368.184	106.25
368.41	113.25
368.636	95.25
368.862	123.25
369.089	101.25
369.315	85.25
369.541	110.25
369.767	84.25
369.993	99.25
370.219	80.25
370.445	85.25
370.672	94.25
370.898	90.25
371.124	83.25
371.35	77.25
371.576	95.25
371.802	88.25
372.028	93.25
372.254	80.25
372.48	81.25
372.706	88.25
372.932	97.25
373.158	90.25
373.384	104.25
373.61	90.25
373.835	102.25
374.061	95.25
374.287	96.25
374.513	95.25
374.739	88.25
374.965	91.25
375.191	111.25
375.416	99.25
375.642	102.25
375.868	96.25
376.094	102.25
376.319	78.25
376.545	92.25
376.771	89.25
376.997	98.25
377.222	96.25
377.448	84.25
377.674	88.25
377.899	90.25
378.125	86.25
378.35	75.25
378.576	94.25
378.802	74.25
379.027	92.25
379.253	89.25
379.478	98.25
379.704	94.25
379.929	84.25
380.155	99.25
380.38	92.25
380.606	102.25
380.831	94.25
381.057	98.25
381.282	92.25
381.507	86.25
381.733	92.25
381.958	85.25
382.184	85.25
382.409	97.25
382.634	103.25
382.86	106.25
383.085	111.25
383.31	97.25
383.535	89.25
383.761	95.25
383.986	96.25
384.211	84.25
384.436	87.25
384.662	84.25
384.887	97.25
385.112	111.25
385.337	105.25
385.562	105.25
385.787	106.25
386.013	105.25
386.238	123.25
386.463	112.25
386.688	104.25
386.913	86.25
387.138	108.25
387.363	97.25
387.588	100.25
387.813	104.25
388.038	107.25
388.263	127.25
388.488	106.25
388.713	100.25
388.938	103.25
389.163	95.25
389.387	100.25
389.612	84.25
389.837	99.25
390.062	89.25
390.287	87.25
390.512	89.25
390.736	100.25
390.961	107.25
391.186	94.25
391.411	94.25
391.636	85.25
391.86	78.25
392.085	96.25
392.31	81.25
392.534	84.25
392.759	97.25
392.984	92.25
393.208	97.25
393.433	89.25
393.658	81.25
393.882	97.25
394.107	84.25
394.331	94.25
394.556	97.25
394.78	101.25
395.005	99.25
395.229	90.25
395.454	84.25
395.678	76.25
395.903	82.25
396.127	99.25
396.352	94.25
396.576	83.25
396.801	91.25
397.025	69.25
397.249	75.25
397.474	80.25
397.698	85.25
397.922	95.25
398.147	84.25
398.371	67.25
398.595	83.25
398.82	92.25
399.044	78.25
399.268	84.25
399.492	96.25
399.717	82.25
399.941	100.25
400.165	92.25
400.389	85.25
400.613	84.25
400.837	86.25
401.062	89.25
401.286	88.25
401.51	90.25
401.734	95.25
401.958	83.25
402.182	113.25
402.406	170.25
402.63	116.25
402.854	99.25
403.078	92.25
403.302	73.25
403.526	80.25
403.75	87.25
403.974	91.25
404.198	91.25
404.422	84.25
404.645	84.25
404.869	96.25
405.093	84.25
405.317	99.25
405.541	99.25
405.765	104.25
405.988	124.25
406.212	181.25
406.436	234.25
406.66	120.25
406.883	95.25
407.107	96.25
407.331	99.25
407.555	97.25
407.778	112.25
408.002	83.25
408.226	97.25
408.449	100.25
408.673	109.25
408.896	101.25
409.12	81.25
409.344	89.25
409.567	79.25
409.791	87.25
410.014	96.25
410.238	91.25
410.461	92.25
410.685	85.25
410.908	94.25
411.132	112.25
411.355	99.25
411.578	99.25
411.802	84.25
412.025	81.25
412.249	92.25
412.472	77.25
412.695	68.25
412.919	84.25
413.142	101.25
413.365	84.25
413.589	91.25
413.812	83.25
414.035	85.25
414.258	94.25
414.482	86.25
414.705	91.25
414.928	77.25
415.151	101.25
415.374	102.25
415.597	91.25
415.821	90.25
416.044	95.25
416.267	90.25
416.49	93.25
416.713	85.25
416.936	84.25
417.159	92.25
417.382	92.25
417.605	105.25
417.828	102.25
418.051	101.25
418.274	87.25
418.497	88.25
418.72	92.25
418.943	72.25
419.166	84.25
419.389	91.25
419.611	93.25
419.834	103.25
420.057	89.25
420.28	88.25
420.503	88.25
420.726	94.25
420.948	93.25
421.171	101.25
421.394	99.25
421.617	79.25
421.839	82.25
422.062	86.25
422.285	91.25
422.507	91.25
422.73	86.25
422.953	73.25
423.175	95.25
423.398	83.25
423.621	82.25
423.843	84.25
424.066	92.25
424.288	95.25
424.511	93.25
424.733	82.25
424.956	102.25
425.178	96.25
425.401	106.25
425.623	108.25
425.846	96.25
426.068	101.25
426.291	105.25
426.513	87.25
426.735	82.25
426.958	105.25
427.18	101.25
427.402	149.25
427.625	165.25
427.847	116.25
428.069	101.25
428.292	91.25
428.514	94.25
428.736	79.25
428.958	74.25
429.181	90.25
429.403	87.25
429.625	81.25
429.847	76.25
430.069	94.25
430.292	108.25
430.514	88.25
430.736	83.25
430.958	92.25
431.18	94.25
431.402	77.25
431.624	95.25
431.846	90.25
432.068	91.25
432.29	89.25
432.512	92.25
432.734	95.25
432.956	101.25
433.178	96.25
433.4	109.25
433.622	88.25
433.844	86.25
434.066	86.25
434.287	96.25
434.509	95.25
434.731	89.25
434.953	81.25
435.175	93.25
435.397	105.25
435.618	88.25
435.84	96.25
436.062	112.25
436.284	107.25
436.505	92.25
436.727	110.25
436.949	97.25
437.17	89.25
437.392	94.25
437.614	99.25
437.835	104.25
438.057	117.25
438.278	110.25
438.5	105.25
438.721	124.25
438.943	88.25
439.165	79.25
439.386	92.25
439.608	87.25
439.829	105.25
440.05	104.25
440.272	152.25
440.493	100.25
440.715	82.25
440.936	81.25
441.158	94.25
441.379	86.25
441.6	77.25
441.822	92.25
442.043	86.25
442.264	104.25
442.486	108.25
442.707	111.25
442.928	114.25
443.149	138.25
443.371	138.25
443.592	113.25
443.813	113.25
444.034	101.25
444.255	88.25
444.476	96.25
444.698	73.25
444.919	95.25
445.14	132.25
445.361	127.25
445.582	120.25
445.803	136.25
446.024	143.25
446.245	138.25
446.466	112.25
446.687	84.25
446.908	97.25
447.129	104.25
447.35	76.25
447.571	80.25
447.792	85.25
448.013	96.25
448.234	104.25
448.455	105.25
448.675	112.25
448.896	115.25
449.117	106.25
449.338	114.25
449.559	111.25
449.779	123.25
450	99.25
450.221	108.25
450.442	89.25
450.662	97.25
450.883	97.25
451.104	92.25
451.324	100.25
451.545	86.25
451.766	84.25
451.986	77.25
452.207	86.25
452.428	91.25
452.648	104.25
452.869	101.25
453.089	110.25
453.31	126.25
453.53	90.25
453.751	92.25
453.971	97.25
454.192	104.25
454.412	96.25
454.633	87.25
454.853	94.25
455.073	83.25
455.294	94.25
455.514	91.25
455.734	97.25
455.955	91.25
456.175	90.25
456.395	88.25
456.616	93.25
456.836	82.25
457.056	78.25
457.276	95.25
457.497	93.25
457.717	85.25
457.937	80.25
458.157	89.25
458.377	80.25
458.598	99.25
458.818	167.25
459.038	158.25
459.258	110.25
459.478	107.25
459.698	80.25
459.918	81.25
460.138	95.25
460.358	89.25
460.578	85.25
460.798	73.25
461.018	74.25
461.238	89.25
461.458	82.25
461.678	90.25
461.898	95.25
462.118	75.25
462.338	82.25
462.558	84.25
462.777	107.25
462.997	83.25
463.217	72.25
463.437	84.25
463.657	90.25
463.876	93.25
464.096	81.25
464.316	96.25
464.536	91.25
464.755	92.25
464.975	98.25
465.195	158.25
465.414	170.25
465.634	94.25
465.854	81.25
466.073	79.25
466.293	87.25
466.512	92.25
466.732	84.25
466.951	80.25
467.171	85.25
467.391	91.25
467.61	93.25
467.829	91.25
468.049	83.25
468.268	84.25
468.488	74.25
468.707	75.25
468.927	92.25
469.146	88.25
469.365	92.25
469.585	86.25
469.804	92.25
470.023	97.25
470.243	97.25
470.462	91.25
470.681	101.25
470.901	90.25
471.12	91.25
471.339	94.25
471.558	96.25
471.777	82.25
471.997	90.25
472.216	99.25
472.435	80.25
472.654	89.25
472.873	76.25
473.092	91.25
473.311	75.25
473.53	95.25
473.749	101.25
473.968	105.25
474.187	102.25
474.406	101.25
474.625	89.25
474.844	94.25
475.063	81.25
475.282	75.25
475.501	105.25
475.72	86.25
475.939	87.25
476.158	90.25
476.377	101.25
476.596	101.25
476.814	93.25
477.033	92.25
477.252	98.25
477.471	104.25
477.69	77.25
477.908	99.25
478.127	84.25
478.346	88.25
478.564	89.25
478.783	107.25
479.002	97.25
479.22	97.25
479.439	105.25
479.658	96.25
479.876	105.25
480.095	90.25
480.313	76.25
480.532	84.25
480.751	82.25
480.969	85.25
481.188	79.25
481.406	88.25
481.624	75.25
481.843	88.25
482.061	84.25
482.28	106.25
482.498	84.25
482.717	93.25
482.935	102.25
483.153	106.25
483.372	87.25
483.59	95.25
483.808	85.25
484.027	90.25
484.245	92.25
484.463	107.25
484.681	90.25
484.9	94.25
485.118	97.25
485.336	96.25
485.554	100.25
485.772	90.25
485.99	96.25
486.209	105.25
486.427	117.25
486.645	112.25
486.863	97.25
487.081	104.25
487.299	96.25
487.517	106.25
487.735	102.25
487.953	90.25
488.171	101.25
488.389	86.25
488.607	105.25
488.825	97.25
489.043	100.25
489.261	93.25
489.479	88.25
489.696	95.25
489.914	99.25
490.132	100.25
490.35	86.25
490.568	73.25
490.786	93.25
491.003	87.25
491.221	94.25
491.439	92.25
491.657	83.25
491.874	90.25
492.092	104.25
492.31	91.25
492.527	96.25
492.745	96.25
492.963	91.25
493.18	92.25
493.398	93.25
493.615	103.25
493.833	87.25
494.05	106.25
494.268	80.25
494.485	92.25
494.703	100.25
494.92	88.25
495.138	92.25
495.355	94.25
495.573	115.25
495.79	86.25
496.008	86.25
496.225	99.25
496.442	100.25
496.66	82.25
496.877	94.25
497.094	85.25
497.312	94.25
497.529	84.25
497.746	78.25
497.963	91.25
498.181	105.25
498.398	97.25
498.615	115.25
498.832	108.25
499.049	84.25
499.267	93.25
499.484	102.25
499.701	99.25
499.918	91.25
500.135	100.25
500.352	102.25
500.569	95.25
500.786	82.25
501.003	94.25
501.22	94.25
501.437	89.25
501.654	98.25
501.871	115.25
502.088	84.25
502.305	81.25
502.522	89.25
502.739	100.25
502.956	87.25
503.172	99.25
503.389	96.25
503.606	110.25
503.823	111.25
504.04	102.25
504.256	89.25
504.473	93.25
504.69	92.25
504.907	101.25
505.123	87.25
505.34	84.25
505.557	96.25
505.773	91.25
505.99	89.25
506.207	91.25
506.423	99.25
506.64	79.25
506.856	85.25
507.073	93.25
507.289	102.25
507.506	92.25
507.722	105.25
507.939	122.25
508.155	111.25
508.372	89.25
508.588	103.25
508.805	106.25
509.021	86.25
509.238	102.25
509.454	93.25
509.67	102.25
509.887	99.25
510.103	127.25
510.319	224.25
510.536	781.25
510.752	2485.25
510.968	719.25
511.184	162.25
511.401	102.25
511.617	104.25
511.833	83.25
512.049	91.25
512.265	80.25
512.481	95.25
512.698	100.25
512.914	105.25
513.13	96.25
513.346	89.25
513.562	80.25
513.778	87.25
513.994	96.25
514.21	117.25
514.426	122.25
514.642	128.25
514.858	137.25
515.074	165.25
515.29	463.25
515.506	1544.25
