Data from Uncirc_2007_H10_HRD10591_00036.txt Node
Date: Wed Jan 03 10:20:49 EST 2024
User: Yrep
Spectrometer: HR+D1059
Trigger mode: 1
Integration Time (sec): 1.000000E-1
Scans to average: 1
Electric dark correction enabled: true
Nonlinearity correction enabled: false
Boxcar width: 0
XAxis mode: Wavelengths
Number of Pixels in Spectrum: 2048
>>>>>Begin Spectral Data<<<<<
223.165	-25.44
223.4	-25.44
223.635	-25.44
223.869	-10.44
224.104	-7.44
224.338	-18.44
224.573	-20.44
224.808	-21.44
225.042	-2.44
225.277	0.56
225.511	-5.44
225.746	-9.44
225.98	15.56
226.215	4.56
226.449	4.56
226.683	30.56
226.918	24.56
227.152	40.56
227.387	20.56
227.621	24.56
227.856	41.56
228.09	33.56
228.324	40.56
228.559	44.56
228.793	40.56
229.027	58.56
229.262	64.56
229.496	63.56
229.73	68.56
229.964	75.56
230.199	68.56
230.433	73.56
230.667	71.56
230.901	74.56
231.136	78.56
231.37	78.56
231.604	78.56
231.838	72.56
232.072	89.56
232.306	72.56
232.541	82.56
232.775	92.56
233.009	74.56
233.243	66.56
233.477	77.56
233.711	79.56
233.945	85.56
234.179	62.56
234.413	85.56
234.647	75.56
234.881	81.56
235.115	73.56
235.349	72.56
235.583	79.56
235.817	77.56
236.051	79.56
236.285	83.56
236.519	84.56
236.753	86.56
236.987	84.56
237.221	82.56
237.455	72.56
237.689	91.56
237.922	86.56
238.156	78.56
238.39	87.56
238.624	81.56
238.858	63.56
239.091	69.56
239.325	75.56
239.559	62.56
239.793	85.56
240.027	77.56
240.26	79.56
240.494	68.56
240.728	75.56
240.961	74.56
241.195	65.56
241.429	77.56
241.662	68.56
241.896	68.56
242.13	72.56
242.363	82.56
242.597	66.56
242.83	76.56
243.064	72.56
243.298	70.56
243.531	74.56
243.765	75.56
243.998	73.56
244.232	81.56
244.465	80.56
244.699	84.56
244.932	66.56
245.166	91.56
245.399	67.56
245.633	81.56
245.866	68.56
246.099	79.56
246.333	79.56
246.566	80.56
246.8	75.56
247.033	69.56
247.266	83.56
247.5	88.56
247.733	73.56
247.966	66.56
248.2	83.56
248.433	78.56
248.666	70.56
248.899	68.56
249.133	69.56
249.366	86.56
249.599	92.56
249.832	89.56
250.066	77.56
250.299	73.56
250.532	74.56
250.765	84.56
250.998	97.56
251.231	77.56
251.465	70.56
251.698	86.56
251.931	60.56
252.164	65.56
252.397	77.56
252.63	80.56
252.863	80.56
253.096	84.56
253.329	81.56
253.562	71.56
253.795	78.56
254.028	80.56
254.261	76.56
254.494	77.56
254.727	74.56
254.96	77.56
255.193	76.56
255.426	73.56
255.659	90.56
255.892	78.56
256.124	64.56
256.357	74.56
256.59	74.56
256.823	68.56
257.056	91.56
257.289	86.56
257.521	70.56
257.754	81.56
257.987	80.56
258.22	82.56
258.452	76.56
258.685	76.56
258.918	74.56
259.151	66.56
259.383	94.56
259.616	95.56
259.849	83.56
260.081	69.56
260.314	82.56
260.547	82.56
260.779	80.56
261.012	85.56
261.244	74.56
261.477	100.56
261.71	87.56
261.942	102.56
262.175	100.56
262.407	94.56
262.64	81.56
262.872	82.56
263.105	88.56
263.337	79.56
263.57	74.56
263.802	77.56
264.035	82.56
264.267	85.56
264.499	73.56
264.732	66.56
264.964	72.56
265.197	87.56
265.429	84.56
265.661	99.56
265.894	70.56
266.126	78.56
266.358	89.56
266.591	83.56
266.823	79.56
267.055	77.56
267.287	87.56
267.52	64.56
267.752	91.56
267.984	72.56
268.216	75.56
268.448	84.56
268.681	98.56
268.913	71.56
269.145	79.56
269.377	87.56
269.609	81.56
269.841	84.56
270.073	94.56
270.306	90.56
270.538	92.56
270.77	84.56
271.002	84.56
271.234	89.56
271.466	87.56
271.698	87.56
271.93	94.56
272.162	91.56
272.394	95.56
272.626	81.56
272.858	84.56
273.09	86.56
273.322	64.56
273.553	73.56
273.785	87.56
274.017	92.56
274.249	102.56
274.481	73.56
274.713	89.56
274.945	87.56
275.176	91.56
275.408	95.56
275.64	82.56
275.872	83.56
276.104	71.56
276.335	85.56
276.567	88.56
276.799	97.56
277.031	81.56
277.262	86.56
277.494	92.56
277.726	76.56
277.957	78.56
278.189	77.56
278.421	86.56
278.652	71.56
278.884	80.56
279.115	80.56
279.347	60.56
279.579	81.56
279.81	79.56
280.042	75.56
280.273	89.56
280.505	86.56
280.736	79.56
280.968	66.56
281.199	83.56
281.431	77.56
281.662	82.56
281.894	83.56
282.125	109.56
282.356	110.56
282.588	150.56
282.819	118.56
283.051	96.56
283.282	75.56
283.513	97.56
283.745	77.56
283.976	77.56
284.207	91.56
284.439	92.56
284.67	87.56
284.901	93.56
285.132	87.56
285.364	80.56
285.595	90.56
285.826	95.56
286.057	96.56
286.288	74.56
286.52	78.56
286.751	84.56
286.982	65.56
287.213	88.56
287.444	73.56
287.675	78.56
287.906	83.56
288.138	92.56
288.369	74.56
288.6	95.56
288.831	74.56
289.062	85.56
289.293	84.56
289.524	78.56
289.755	81.56
289.986	84.56
290.217	90.56
290.448	91.56
290.679	87.56
290.91	94.56
291.141	83.56
291.371	98.56
291.602	89.56
291.833	89.56
292.064	89.56
292.295	89.56
292.526	83.56
292.757	89.56
292.987	86.56
293.218	99.56
293.449	87.56
293.68	96.56
293.91	88.56
294.141	84.56
294.372	95.56
294.603	87.56
294.833	92.56
295.064	90.56
295.295	94.56
295.525	85.56
295.756	104.56
295.987	127.56
296.217	135.56
296.448	116.56
296.679	84.56
296.909	95.56
297.14	75.56
297.37	81.56
297.601	90.56
297.831	85.56
298.062	81.56
298.292	83.56
298.523	84.56
298.753	67.56
298.984	80.56
299.214	89.56
299.445	94.56
299.675	102.56
299.905	104.56
300.136	102.56
300.366	92.56
300.597	102.56
300.827	98.56
301.057	88.56
301.288	105.56
301.518	97.56
301.748	91.56
301.979	92.56
302.209	89.56
302.439	85.56
302.669	88.56
302.9	90.56
303.13	97.56
303.36	100.56
303.59	112.56
303.82	106.56
304.051	102.56
304.281	89.56
304.511	84.56
304.741	83.56
304.971	74.56
305.201	83.56
305.431	104.56
305.661	85.56
305.891	89.56
306.121	91.56
306.352	111.56
306.582	104.56
306.812	109.56
307.042	69.56
307.272	96.56
307.502	93.56
307.731	85.56
307.961	97.56
308.191	83.56
308.421	99.56
308.651	92.56
308.881	85.56
309.111	74.56
309.341	96.56
309.571	104.56
309.8	89.56
310.03	93.56
310.26	112.56
310.49	92.56
310.72	95.56
310.949	103.56
311.179	78.56
311.409	82.56
311.639	112.56
311.868	96.56
312.098	101.56
312.328	102.56
312.557	105.56
312.787	106.56
313.017	99.56
313.246	100.56
313.476	99.56
313.706	80.56
313.935	96.56
314.165	91.56
314.394	100.56
314.624	91.56
314.853	96.56
315.083	74.56
315.312	82.56
315.542	92.56
315.771	89.56
316.001	85.56
316.23	84.56
316.46	103.56
316.689	88.56
316.919	82.56
317.148	89.56
317.377	91.56
317.607	84.56
317.836	84.56
318.065	74.56
318.295	87.56
318.524	88.56
318.753	101.56
318.983	101.56
319.212	71.56
319.441	101.56
319.67	103.56
319.9	106.56
320.129	88.56
320.358	95.56
320.587	97.56
320.816	85.56
321.046	102.56
321.275	87.56
321.504	89.56
321.733	90.56
321.962	104.56
322.191	94.56
322.42	93.56
322.649	106.56
322.878	102.56
323.108	101.56
323.337	120.56
323.566	153.56
323.795	150.56
324.024	217.56
324.253	410.56
324.482	882.56
324.71	1857.56
324.939	2490.56
325.168	904.56
325.397	244.56
325.626	149.56
325.855	123.56
326.084	135.56
326.313	130.56
326.542	144.56
326.77	221.56
326.999	493.56
327.228	986.56
327.457	1902.56
327.686	1488.56
327.914	386.56
328.143	191.56
328.372	140.56
328.6	127.56
328.829	104.56
329.058	116.56
329.287	124.56
329.515	103.56
329.744	97.56
329.972	101.56
330.201	101.56
330.43	108.56
330.658	122.56
330.887	142.56
331.115	107.56
331.344	105.56
331.572	92.56
331.801	92.56
332.03	98.56
332.258	88.56
332.486	92.56
332.715	102.56
332.943	103.56
333.172	80.56
333.4	89.56
333.629	99.56
333.857	109.56
334.085	98.56
334.314	102.56
334.542	93.56
334.771	93.56
334.999	87.56
335.227	96.56
335.455	94.56
335.684	94.56
335.912	95.56
336.14	107.56
336.369	109.56
336.597	89.56
336.825	97.56
337.053	74.56
337.281	84.56
337.51	82.56
337.738	94.56
337.966	94.56
338.194	93.56
338.422	83.56
338.65	90.56
338.878	89.56
339.106	92.56
339.334	85.56
339.562	92.56
339.79	90.56
340.018	88.56
340.246	96.56
340.474	87.56
340.702	90.56
340.93	89.56
341.158	98.56
341.386	93.56
341.614	102.56
341.842	82.56
342.07	86.56
342.298	87.56
342.526	90.56
342.754	87.56
342.981	87.56
343.209	85.56
343.437	86.56
343.665	86.56
343.893	81.56
344.12	97.56
344.348	80.56
344.576	96.56
344.804	92.56
345.031	88.56
345.259	90.56
345.487	97.56
345.714	95.56
345.942	103.56
346.17	97.56
346.397	88.56
346.625	97.56
346.853	95.56
347.08	96.56
347.308	94.56
347.535	86.56
347.763	100.56
347.99	90.56
348.218	87.56
348.445	112.56
348.673	99.56
348.9	91.56
349.128	93.56
349.355	84.56
349.583	96.56
349.81	109.56
350.037	97.56
350.265	92.56
350.492	97.56
350.72	109.56
350.947	107.56
351.174	110.56
351.402	109.56
351.629	100.56
351.856	98.56
352.083	76.56
352.311	103.56
352.538	105.56
352.765	117.56
352.992	117.56
353.22	114.56
353.447	90.56
353.674	99.56
353.901	98.56
354.128	91.56
354.355	84.56
354.583	94.56
354.81	96.56
355.037	96.56
355.264	98.56
355.491	95.56
355.718	106.56
355.945	96.56
356.172	93.56
356.399	91.56
356.626	101.56
356.853	95.56
357.08	86.56
357.307	105.56
357.534	94.56
357.761	98.56
357.988	83.56
358.215	89.56
358.441	93.56
358.668	94.56
358.895	103.56
359.122	94.56
359.349	68.56
359.576	78.56
359.802	96.56
360.029	111.56
360.256	106.56
360.483	91.56
360.709	84.56
360.936	101.56
361.163	84.56
361.39	93.56
361.616	91.56
361.843	87.56
362.07	93.56
362.296	109.56
362.523	95.56
362.749	95.56
362.976	87.56
363.203	85.56
363.429	81.56
363.656	80.56
363.882	82.56
364.109	81.56
364.335	94.56
364.562	60.56
364.788	98.56
365.015	91.56
365.241	82.56
365.468	105.56
365.694	101.56
365.92	93.56
366.147	104.56
366.373	94.56
366.599	85.56
366.826	69.56
367.052	100.56
367.278	104.56
367.505	86.56
367.731	82.56
367.957	83.56
368.184	82.56
368.41	90.56
368.636	106.56
368.862	107.56
369.089	100.56
369.315	97.56
369.541	83.56
369.767	89.56
369.993	89.56
370.219	94.56
370.445	77.56
370.672	95.56
370.898	88.56
371.124	87.56
371.35	76.56
371.576	81.56
371.802	82.56
372.028	90.56
372.254	94.56
372.48	87.56
372.706	84.56
372.932	92.56
373.158	89.56
373.384	88.56
373.61	77.56
373.835	81.56
374.061	93.56
374.287	86.56
374.513	82.56
374.739	81.56
374.965	80.56
375.191	98.56
375.416	82.56
375.642	81.56
375.868	85.56
376.094	85.56
376.319	73.56
376.545	89.56
376.771	84.56
376.997	88.56
377.222	89.56
377.448	75.56
377.674	96.56
377.899	95.56
378.125	94.56
378.35	89.56
378.576	93.56
378.802	96.56
379.027	86.56
379.253	95.56
379.478	85.56
379.704	85.56
379.929	102.56
380.155	88.56
380.38	89.56
380.606	95.56
380.831	93.56
381.057	74.56
381.282	95.56
381.507	98.56
381.733	101.56
381.958	95.56
382.184	97.56
382.409	95.56
382.634	93.56
382.86	102.56
383.085	93.56
383.31	89.56
383.535	97.56
383.761	108.56
383.986	102.56
384.211	101.56
384.436	86.56
384.662	102.56
384.887	102.56
385.112	112.56
385.337	91.56
385.562	101.56
385.787	95.56
386.013	93.56
386.238	98.56
386.463	107.56
386.688	96.56
386.913	99.56
387.138	81.56
387.363	90.56
387.588	82.56
387.813	103.56
388.038	83.56
388.263	99.56
388.488	99.56
388.713	84.56
388.938	82.56
389.163	86.56
389.387	92.56
389.612	77.56
389.837	72.56
390.062	90.56
390.287	99.56
390.512	87.56
390.736	75.56
390.961	95.56
391.186	92.56
391.411	86.56
391.636	89.56
391.86	80.56
392.085	76.56
392.31	87.56
392.534	84.56
392.759	100.56
392.984	95.56
393.208	98.56
393.433	81.56
393.658	76.56
393.882	81.56
394.107	72.56
394.331	75.56
394.556	78.56
394.78	88.56
395.005	88.56
395.229	92.56
395.454	97.56
395.678	82.56
395.903	83.56
396.127	92.56
396.352	87.56
396.576	90.56
396.801	80.56
397.025	84.56
397.249	86.56
397.474	82.56
397.698	70.56
397.922	97.56
398.147	90.56
398.371	92.56
398.595	89.56
398.82	80.56
399.044	89.56
399.268	76.56
399.492	86.56
399.717	81.56
399.941	80.56
400.165	77.56
400.389	85.56
400.613	102.56
400.837	95.56
401.062	82.56
401.286	83.56
401.51	80.56
401.734	88.56
401.958	101.56
402.182	132.56
402.406	154.56
402.63	115.56
402.854	92.56
403.078	65.56
403.302	82.56
403.526	90.56
403.75	85.56
403.974	84.56
404.198	83.56
404.422	81.56
404.645	69.56
404.869	89.56
405.093	86.56
405.317	81.56
405.541	89.56
405.765	107.56
405.988	108.56
406.212	157.56
406.436	214.56
406.66	128.56
406.883	111.56
407.107	96.56
407.331	83.56
407.555	92.56
407.778	103.56
408.002	86.56
408.226	86.56
408.449	76.56
408.673	97.56
408.896	89.56
409.12	96.56
409.344	81.56
409.567	86.56
409.791	82.56
410.014	95.56
410.238	76.56
410.461	94.56
410.685	93.56
410.908	100.56
411.132	103.56
411.355	89.56
411.578	87.56
411.802	71.56
412.025	77.56
412.249	92.56
412.472	95.56
412.695	91.56
412.919	79.56
413.142	94.56
413.365	81.56
413.589	86.56
413.812	96.56
414.035	99.56
414.258	89.56
414.482	89.56
414.705	85.56
414.928	83.56
415.151	88.56
415.374	78.56
415.597	74.56
415.821	84.56
416.044	76.56
416.267	93.56
416.49	86.56
416.713	87.56
416.936	71.56
417.159	86.56
417.382	93.56
417.605	89.56
417.828	97.56
418.051	103.56
418.274	91.56
418.497	88.56
418.72	75.56
418.943	81.56
419.166	91.56
419.389	86.56
419.611	86.56
419.834	90.56
420.057	94.56
420.28	89.56
420.503	68.56
420.726	77.56
420.948	69.56
421.171	88.56
421.394	79.56
421.617	82.56
421.839	96.56
422.062	93.56
422.285	91.56
422.507	91.56
422.73	94.56
422.953	78.56
423.175	79.56
423.398	77.56
423.621	80.56
423.843	86.56
424.066	87.56
424.288	100.56
424.511	82.56
424.733	89.56
424.956	108.56
425.178	89.56
425.401	95.56
425.623	95.56
425.846	94.56
426.068	92.56
426.291	98.56
426.513	81.56
426.735	86.56
426.958	91.56
427.18	100.56
427.402	131.56
427.625	181.56
427.847	129.56
428.069	100.56
428.292	80.56
428.514	87.56
428.736	83.56
428.958	85.56
429.181	81.56
429.403	86.56
429.625	91.56
429.847	83.56
430.069	97.56
430.292	86.56
430.514	86.56
430.736	77.56
430.958	82.56
431.18	85.56
431.402	91.56
431.624	85.56
431.846	79.56
432.068	76.56
432.29	88.56
432.512	83.56
432.734	69.56
432.956	81.56
433.178	86.56
433.4	103.56
433.622	100.56
433.844	76.56
434.066	93.56
434.287	83.56
434.509	90.56
434.731	94.56
434.953	80.56
435.175	76.56
435.397	89.56
435.618	94.56
435.84	90.56
436.062	132.56
436.284	132.56
436.505	106.56
436.727	97.56
436.949	92.56
437.17	78.56
437.392	80.56
437.614	81.56
437.835	106.56
438.057	127.56
438.278	108.56
438.5	88.56
438.721	113.56
438.943	92.56
439.165	88.56
439.386	93.56
439.608	91.56
439.829	94.56
440.05	110.56
440.272	137.56
440.493	100.56
440.715	83.56
440.936	82.56
441.158	77.56
441.379	73.56
441.6	91.56
441.822	88.56
442.043	84.56
442.264	100.56
442.486	94.56
442.707	97.56
442.928	98.56
443.149	122.56
443.371	127.56
443.592	103.56
443.813	112.56
444.034	118.56
444.255	82.56
444.476	88.56
444.698	86.56
444.919	80.56
445.14	128.56
445.361	133.56
445.582	99.56
445.803	141.56
446.024	132.56
446.245	144.56
446.466	110.56
446.687	89.56
446.908	94.56
447.129	94.56
447.35	102.56
447.571	80.56
447.792	105.56
448.013	88.56
448.234	100.56
448.455	95.56
448.675	100.56
448.896	119.56
449.117	100.56
449.338	87.56
449.559	120.56
449.779	130.56
450	87.56
450.221	79.56
450.442	86.56
450.662	85.56
450.883	100.56
451.104	113.56
451.324	101.56
451.545	82.56
451.766	80.56
451.986	93.56
452.207	73.56
452.428	86.56
452.648	103.56
452.869	102.56
453.089	93.56
453.31	93.56
453.53	89.56
453.751	81.56
453.971	84.56
454.192	116.56
454.412	96.56
454.633	93.56
454.853	78.56
455.073	81.56
455.294	91.56
455.514	98.56
455.734	101.56
455.955	73.56
456.175	79.56
456.395	82.56
456.616	95.56
456.836	95.56
457.056	75.56
457.276	79.56
457.497	82.56
457.717	66.56
457.937	82.56
458.157	80.56
458.377	88.56
458.598	116.56
458.818	132.56
459.038	146.56
459.258	100.56
459.478	98.56
459.698	79.56
459.918	91.56
460.138	68.56
460.358	85.56
460.578	81.56
460.798	91.56
461.018	72.56
461.238	75.56
461.458	98.56
461.678	90.56
461.898	78.56
462.118	82.56
462.338	77.56
462.558	90.56
462.777	72.56
462.997	73.56
463.217	66.56
463.437	77.56
463.657	81.56
463.876	89.56
464.096	76.56
464.316	85.56
464.536	85.56
464.755	86.56
464.975	109.56
465.195	154.56
465.414	147.56
465.634	84.56
465.854	79.56
466.073	73.56
466.293	80.56
466.512	74.56
466.732	80.56
466.951	98.56
467.171	92.56
467.391	104.56
467.61	117.56
467.829	88.56
468.049	95.56
468.268	93.56
468.488	69.56
468.707	85.56
468.927	73.56
469.146	73.56
469.365	80.56
469.585	84.56
469.804	93.56
470.023	91.56
470.243	90.56
470.462	86.56
470.681	104.56
470.901	100.56
471.12	88.56
471.339	90.56
471.558	92.56
471.777	69.56
471.997	107.56
472.216	78.56
472.435	96.56
472.654	81.56
472.873	75.56
473.092	86.56
473.311	85.56
473.53	71.56
473.749	94.56
473.968	87.56
474.187	98.56
474.406	91.56
474.625	78.56
474.844	84.56
475.063	97.56
475.282	91.56
475.501	76.56
475.72	88.56
475.939	87.56
476.158	84.56
476.377	90.56
476.596	81.56
476.814	79.56
477.033	98.56
477.252	90.56
477.471	88.56
477.69	81.56
477.908	72.56
478.127	88.56
478.346	74.56
478.564	88.56
478.783	69.56
479.002	79.56
479.22	86.56
479.439	104.56
479.658	91.56
479.876	91.56
480.095	84.56
480.313	85.56
480.532	78.56
480.751	98.56
480.969	99.56
481.188	90.56
481.406	90.56
481.624	93.56
481.843	85.56
482.061	86.56
482.28	92.56
482.498	87.56
482.717	97.56
482.935	91.56
483.153	87.56
483.372	81.56
483.59	80.56
483.808	77.56
484.027	94.56
484.245	78.56
484.463	98.56
484.681	103.56
484.9	83.56
485.118	96.56
485.336	105.56
485.554	91.56
485.772	88.56
485.99	107.56
486.209	110.56
486.427	97.56
486.645	99.56
486.863	103.56
487.081	80.56
487.299	102.56
487.517	96.56
487.735	75.56
487.953	91.56
488.171	95.56
488.389	94.56
488.607	101.56
488.825	101.56
489.043	81.56
489.261	80.56
489.479	75.56
489.696	93.56
489.914	87.56
490.132	92.56
490.35	88.56
490.568	93.56
490.786	89.56
491.003	73.56
491.221	86.56
491.439	90.56
491.657	92.56
491.874	90.56
492.092	84.56
492.31	76.56
492.527	91.56
492.745	71.56
492.963	72.56
493.18	92.56
493.398	95.56
493.615	95.56
493.833	82.56
494.05	99.56
494.268	101.56
494.485	79.56
494.703	78.56
494.92	94.56
495.138	87.56
495.355	96.56
495.573	73.56
495.79	85.56
496.008	93.56
496.225	93.56
496.442	82.56
496.66	86.56
496.877	95.56
497.094	76.56
497.312	90.56
497.529	80.56
497.746	94.56
497.963	66.56
498.181	85.56
498.398	90.56
498.615	105.56
498.832	108.56
499.049	90.56
499.267	87.56
499.484	90.56
499.701	108.56
499.918	65.56
500.135	99.56
500.352	85.56
500.569	75.56
500.786	79.56
501.003	89.56
501.22	105.56
501.437	85.56
501.654	95.56
501.871	86.56
502.088	97.56
502.305	97.56
502.522	86.56
502.739	107.56
502.956	97.56
503.172	93.56
503.389	82.56
503.606	103.56
503.823	89.56
504.04	78.56
504.256	82.56
504.473	81.56
504.69	90.56
504.907	85.56
505.123	90.56
505.34	96.56
505.557	84.56
505.773	85.56
505.99	88.56
506.207	85.56
506.423	84.56
506.64	81.56
506.856	91.56
507.073	94.56
507.289	86.56
507.506	109.56
507.722	108.56
507.939	95.56
508.155	84.56
508.372	93.56
508.588	94.56
508.805	104.56
509.021	96.56
509.238	112.56
509.454	76.56
509.67	101.56
509.887	106.56
510.103	125.56
510.319	222.56
510.536	743.56
510.752	2377.56
510.968	688.56
511.184	148.56
511.401	109.56
511.617	80.56
511.833	77.56
512.049	81.56
512.265	82.56
512.481	81.56
512.698	73.56
512.914	104.56
513.13	90.56
513.346	81.56
513.562	77.56
513.778	86.56
513.994	95.56
514.21	88.56
514.426	106.56
514.642	140.56
514.858	133.56
515.074	140.56
515.29	463.56
515.506	1462.56
515.721	569.56
515.937	151.56
516.153	95.56
516.369	91.56
516.585	85.56
