Data from Uncirc_2007_H10_HRD10591_00072.txt Node
Date: Wed Jan 03 10:20:57 EST 2024
User: Yrep
Spectrometer: HR+D1059
Trigger mode: 1
Integration Time (sec): 1.000000E-1
Scans to average: 1
Electric dark correction enabled: true
Nonlinearity correction enabled: false
Boxcar width: 0
XAxis mode: Wavelengths
Number of Pixels in Spectrum: 2048
>>>>>Begin Spectral Data<<<<<
223.165	-30.75
223.4	-30.75
223.635	-30.75
223.869	-14.75
224.104	-15.75
224.338	-18.75
224.573	-17.75
224.808	-8.75
225.042	-4.75
225.277	4.25
225.511	2.25
225.746	7.25
225.98	10.25
226.215	0.25
226.449	13.25
226.683	16.25
226.918	20.25
227.152	37.25
227.387	15.25
227.621	35.25
227.856	47.25
228.09	27.25
228.324	44.25
228.559	50.25
228.793	67.25
229.027	67.25
229.262	73.25
229.496	69.25
229.73	85.25
229.964	86.25
230.199	77.25
230.433	68.25
230.667	83.25
230.901	71.25
231.136	92.25
231.37	73.25
231.604	80.25
231.838	80.25
232.072	77.25
232.306	81.25
232.541	66.25
232.775	81.25
233.009	78.25
233.243	83.25
233.477	99.25
233.711	73.25
233.945	91.25
234.179	79.25
234.413	79.25
234.647	88.25
234.881	64.25
235.115	72.25
235.349	91.25
235.583	78.25
235.817	75.25
236.051	71.25
236.285	74.25
236.519	90.25
236.753	69.25
236.987	75.25
237.221	77.25
237.455	85.25
237.689	63.25
237.922	75.25
238.156	78.25
238.39	94.25
238.624	88.25
238.858	80.25
239.091	76.25
239.325	73.25
239.559	77.25
239.793	88.25
240.027	66.25
240.26	80.25
240.494	79.25
240.728	71.25
240.961	81.25
241.195	67.25
241.429	75.25
241.662	80.25
241.896	83.25
242.13	77.25
242.363	74.25
242.597	74.25
242.83	79.25
243.064	67.25
243.298	82.25
243.531	79.25
243.765	78.25
243.998	72.25
244.232	80.25
244.465	71.25
244.699	79.25
244.932	80.25
245.166	68.25
245.399	71.25
245.633	89.25
245.866	84.25
246.099	77.25
246.333	69.25
246.566	78.25
246.8	83.25
247.033	81.25
247.266	77.25
247.5	87.25
247.733	88.25
247.966	82.25
248.2	84.25
248.433	79.25
248.666	95.25
248.899	85.25
249.133	73.25
249.366	102.25
249.599	80.25
249.832	80.25
250.066	87.25
250.299	82.25
250.532	69.25
250.765	85.25
250.998	62.25
251.231	77.25
251.465	87.25
251.698	75.25
251.931	81.25
252.164	82.25
252.397	69.25
252.63	72.25
252.863	93.25
253.096	75.25
253.329	82.25
253.562	98.25
253.795	84.25
254.028	95.25
254.261	82.25
254.494	67.25
254.727	80.25
254.96	69.25
255.193	81.25
255.426	73.25
255.659	79.25
255.892	94.25
256.124	80.25
256.357	90.25
256.59	76.25
256.823	81.25
257.056	72.25
257.289	73.25
257.521	79.25
257.754	89.25
257.987	83.25
258.22	96.25
258.452	84.25
258.685	86.25
258.918	73.25
259.151	80.25
259.383	81.25
259.616	72.25
259.849	75.25
260.081	79.25
260.314	77.25
260.547	82.25
260.779	80.25
261.012	78.25
261.244	85.25
261.477	92.25
261.71	101.25
261.942	106.25
262.175	135.25
262.407	93.25
262.64	85.25
262.872	80.25
263.105	78.25
263.337	81.25
263.57	88.25
263.802	92.25
264.035	81.25
264.267	76.25
264.499	79.25
264.732	80.25
264.964	77.25
265.197	89.25
265.429	92.25
265.661	89.25
265.894	92.25
266.126	92.25
266.358	92.25
266.591	99.25
266.823	83.25
267.055	82.25
267.287	87.25
267.52	77.25
267.752	94.25
267.984	76.25
268.216	87.25
268.448	77.25
268.681	68.25
268.913	91.25
269.145	84.25
269.377	95.25
269.609	92.25
269.841	79.25
270.073	85.25
270.306	81.25
270.538	77.25
270.77	80.25
271.002	76.25
271.234	80.25
271.466	75.25
271.698	78.25
271.93	76.25
272.162	105.25
272.394	83.25
272.626	91.25
272.858	98.25
273.09	65.25
273.322	93.25
273.553	90.25
273.785	95.25
274.017	69.25
274.249	89.25
274.481	85.25
274.713	83.25
274.945	92.25
275.176	96.25
275.408	89.25
275.64	85.25
275.872	88.25
276.104	90.25
276.335	100.25
276.567	96.25
276.799	119.25
277.031	91.25
277.262	88.25
277.494	68.25
277.726	83.25
277.957	84.25
278.189	75.25
278.421	90.25
278.652	91.25
278.884	76.25
279.115	85.25
279.347	92.25
279.579	80.25
279.81	88.25
280.042	88.25
280.273	98.25
280.505	79.25
280.736	92.25
280.968	80.25
281.199	85.25
281.431	98.25
281.662	89.25
281.894	95.25
282.125	114.25
282.356	116.25
282.588	136.25
282.819	114.25
283.051	78.25
283.282	81.25
283.513	105.25
283.745	90.25
283.976	85.25
284.207	77.25
284.439	91.25
284.67	88.25
284.901	69.25
285.132	78.25
285.364	83.25
285.595	89.25
285.826	96.25
286.057	92.25
286.288	103.25
286.52	94.25
286.751	92.25
286.982	92.25
287.213	90.25
287.444	96.25
287.675	92.25
287.906	76.25
288.138	95.25
288.369	82.25
288.6	97.25
288.831	81.25
289.062	82.25
289.293	84.25
289.524	81.25
289.755	92.25
289.986	91.25
290.217	85.25
290.448	71.25
290.679	94.25
290.91	86.25
291.141	96.25
291.371	79.25
291.602	73.25
291.833	79.25
292.064	98.25
292.295	88.25
292.526	91.25
292.757	94.25
292.987	82.25
293.218	80.25
293.449	74.25
293.68	95.25
293.91	89.25
294.141	99.25
294.372	76.25
294.603	83.25
294.833	89.25
295.064	95.25
295.295	80.25
295.525	79.25
295.756	98.25
295.987	117.25
296.217	139.25
296.448	103.25
296.679	101.25
296.909	96.25
297.14	94.25
297.37	85.25
297.601	82.25
297.831	84.25
298.062	95.25
298.292	89.25
298.523	92.25
298.753	90.25
298.984	83.25
299.214	105.25
299.445	80.25
299.675	108.25
299.905	100.25
300.136	89.25
300.366	105.25
300.597	82.25
300.827	90.25
301.057	87.25
301.288	94.25
301.518	95.25
301.748	89.25
301.979	96.25
302.209	101.25
302.439	93.25
302.669	102.25
302.9	80.25
303.13	91.25
303.36	84.25
303.59	99.25
303.82	103.25
304.051	85.25
304.281	90.25
304.511	94.25
304.741	82.25
304.971	96.25
305.201	95.25
305.431	79.25
305.661	71.25
305.891	74.25
306.121	113.25
306.352	105.25
306.582	102.25
306.812	109.25
307.042	80.25
307.272	79.25
307.502	99.25
307.731	93.25
307.961	77.25
308.191	87.25
308.421	99.25
308.651	91.25
308.881	97.25
309.111	84.25
309.341	85.25
309.571	109.25
309.8	113.25
310.03	98.25
310.26	104.25
310.49	98.25
310.72	108.25
310.949	105.25
311.179	99.25
311.409	97.25
311.639	88.25
311.868	83.25
312.098	79.25
312.328	104.25
312.557	96.25
312.787	89.25
313.017	105.25
313.246	87.25
313.476	89.25
313.706	84.25
313.935	100.25
314.165	96.25
314.394	105.25
314.624	108.25
314.853	95.25
315.083	103.25
315.312	95.25
315.542	107.25
315.771	93.25
316.001	98.25
316.23	87.25
316.46	89.25
316.689	74.25
316.919	82.25
317.148	98.25
317.377	91.25
317.607	98.25
317.836	91.25
318.065	83.25
318.295	91.25
318.524	101.25
318.753	92.25
318.983	93.25
319.212	106.25
319.441	109.25
319.67	98.25
319.9	87.25
320.129	99.25
320.358	97.25
320.587	87.25
320.816	88.25
321.046	105.25
321.275	99.25
321.504	100.25
321.733	101.25
321.962	117.25
322.191	96.25
322.42	109.25
322.649	100.25
322.878	108.25
323.108	106.25
323.337	127.25
323.566	146.25
323.795	168.25
324.024	227.25
324.253	468.25
324.482	991.25
324.71	2001.25
324.939	2708.25
325.168	961.25
325.397	263.25
325.626	177.25
325.855	135.25
326.084	132.25
326.313	148.25
326.542	165.25
326.77	239.25
326.999	529.25
327.228	1126.25
327.457	2043.25
327.686	1579.25
327.914	416.25
328.143	203.25
328.372	158.25
328.6	123.25
328.829	123.25
329.058	120.25
329.287	128.25
329.515	103.25
329.744	106.25
329.972	93.25
330.201	100.25
330.43	99.25
330.658	115.25
330.887	147.25
331.115	127.25
331.344	103.25
331.572	106.25
331.801	92.25
332.03	106.25
332.258	94.25
332.486	97.25
332.715	91.25
332.943	78.25
333.172	89.25
333.4	96.25
333.629	98.25
333.857	124.25
334.085	104.25
334.314	115.25
334.542	93.25
334.771	103.25
334.999	88.25
335.227	86.25
335.455	85.25
335.684	99.25
335.912	93.25
336.14	87.25
336.369	93.25
336.597	102.25
336.825	91.25
337.053	86.25
337.281	95.25
337.51	96.25
337.738	94.25
337.966	96.25
338.194	84.25
338.422	98.25
338.65	89.25
338.878	91.25
339.106	78.25
339.334	92.25
339.562	85.25
339.79	89.25
340.018	83.25
340.246	87.25
340.474	79.25
340.702	98.25
340.93	78.25
341.158	87.25
341.386	96.25
341.614	91.25
341.842	99.25
342.07	75.25
342.298	93.25
342.526	98.25
342.754	93.25
342.981	91.25
343.209	94.25
343.437	94.25
343.665	89.25
343.893	83.25
344.12	82.25
344.348	92.25
344.576	92.25
344.804	91.25
345.031	87.25
345.259	100.25
345.487	82.25
345.714	100.25
345.942	91.25
346.17	87.25
346.397	75.25
346.625	88.25
346.853	93.25
347.08	92.25
347.308	101.25
347.535	92.25
347.763	93.25
347.99	88.25
348.218	105.25
348.445	113.25
348.673	92.25
348.9	89.25
349.128	93.25
349.355	87.25
349.583	105.25
349.81	98.25
350.037	91.25
350.265	95.25
350.492	88.25
350.72	99.25
350.947	110.25
351.174	115.25
351.402	117.25
351.629	96.25
351.856	103.25
352.083	100.25
352.311	103.25
352.538	104.25
352.765	106.25
352.992	129.25
353.22	126.25
353.447	96.25
353.674	94.25
353.901	105.25
354.128	115.25
354.355	92.25
354.583	93.25
354.81	98.25
355.037	95.25
355.264	84.25
355.491	88.25
355.718	87.25
355.945	79.25
356.172	89.25
356.399	86.25
356.626	99.25
356.853	97.25
357.08	84.25
357.307	90.25
357.534	93.25
357.761	97.25
357.988	91.25
358.215	90.25
358.441	88.25
358.668	83.25
358.895	83.25
359.122	81.25
359.349	93.25
359.576	72.25
359.802	109.25
360.029	119.25
360.256	109.25
360.483	80.25
360.709	94.25
360.936	97.25
361.163	98.25
361.39	81.25
361.616	95.25
361.843	79.25
362.07	92.25
362.296	101.25
362.523	89.25
362.749	96.25
362.976	90.25
363.203	96.25
363.429	104.25
363.656	82.25
363.882	87.25
364.109	85.25
364.335	82.25
364.562	100.25
364.788	98.25
365.015	104.25
365.241	95.25
365.468	96.25
365.694	105.25
365.92	92.25
366.147	90.25
366.373	98.25
366.599	75.25
366.826	92.25
367.052	83.25
367.278	95.25
367.505	105.25
367.731	96.25
367.957	88.25
368.184	91.25
368.41	105.25
368.636	99.25
368.862	122.25
369.089	110.25
369.315	83.25
369.541	83.25
369.767	86.25
369.993	85.25
370.219	92.25
370.445	104.25
370.672	85.25
370.898	104.25
371.124	96.25
371.35	91.25
371.576	100.25
371.802	97.25
372.028	92.25
372.254	75.25
372.48	83.25
372.706	85.25
372.932	94.25
373.158	84.25
373.384	98.25
373.61	90.25
373.835	84.25
374.061	87.25
374.287	77.25
374.513	89.25
374.739	97.25
374.965	101.25
375.191	100.25
375.416	86.25
375.642	95.25
375.868	91.25
376.094	93.25
376.319	92.25
376.545	82.25
376.771	90.25
376.997	87.25
377.222	86.25
377.448	84.25
377.674	90.25
377.899	93.25
378.125	91.25
378.35	99.25
378.576	95.25
378.802	77.25
379.027	97.25
379.253	101.25
379.478	87.25
379.704	83.25
379.929	88.25
380.155	95.25
380.38	82.25
380.606	89.25
380.831	105.25
381.057	101.25
381.282	97.25
381.507	85.25
381.733	84.25
381.958	91.25
382.184	97.25
382.409	91.25
382.634	100.25
382.86	99.25
383.085	98.25
383.31	91.25
383.535	87.25
383.761	85.25
383.986	90.25
384.211	92.25
384.436	92.25
384.662	98.25
384.887	97.25
385.112	87.25
385.337	108.25
385.562	95.25
385.787	101.25
386.013	98.25
386.238	115.25
386.463	96.25
386.688	103.25
386.913	97.25
387.138	96.25
387.363	106.25
387.588	104.25
387.813	99.25
388.038	103.25
388.263	104.25
388.488	102.25
388.713	92.25
388.938	93.25
389.163	100.25
389.387	110.25
389.612	76.25
389.837	81.25
390.062	79.25
390.287	89.25
390.512	101.25
390.736	95.25
390.961	79.25
391.186	92.25
391.411	108.25
391.636	98.25
391.86	93.25
392.085	98.25
392.31	77.25
392.534	79.25
392.759	77.25
392.984	76.25
393.208	82.25
393.433	84.25
393.658	68.25
393.882	80.25
394.107	80.25
394.331	76.25
394.556	88.25
394.78	91.25
395.005	82.25
395.229	100.25
395.454	79.25
395.678	77.25
395.903	84.25
396.127	90.25
396.352	93.25
396.576	90.25
396.801	94.25
397.025	84.25
397.249	88.25
397.474	104.25
397.698	84.25
397.922	90.25
398.147	82.25
398.371	80.25
398.595	97.25
398.82	83.25
399.044	95.25
399.268	90.25
399.492	85.25
399.717	95.25
399.941	96.25
400.165	89.25
400.389	83.25
400.613	99.25
400.837	87.25
401.062	91.25
401.286	85.25
401.51	88.25
401.734	94.25
401.958	121.25
402.182	152.25
402.406	170.25
402.63	126.25
402.854	91.25
403.078	82.25
403.302	106.25
403.526	96.25
403.75	95.25
403.974	83.25
404.198	88.25
404.422	71.25
404.645	83.25
404.869	82.25
405.093	89.25
405.317	100.25
405.541	105.25
405.765	88.25
405.988	116.25
406.212	179.25
406.436	248.25
406.66	145.25
406.883	101.25
407.107	108.25
407.331	88.25
407.555	78.25
407.778	95.25
408.002	98.25
408.226	89.25
408.449	88.25
408.673	90.25
408.896	97.25
409.12	85.25
409.344	80.25
409.567	76.25
409.791	89.25
410.014	89.25
410.238	80.25
410.461	107.25
410.685	96.25
410.908	101.25
411.132	102.25
411.355	103.25
411.578	101.25
411.802	104.25
412.025	91.25
412.249	86.25
412.472	102.25
412.695	82.25
412.919	81.25
413.142	77.25
413.365	73.25
413.589	72.25
413.812	91.25
414.035	85.25
414.258	95.25
414.482	82.25
414.705	75.25
414.928	82.25
415.151	98.25
415.374	93.25
415.597	84.25
415.821	84.25
416.044	96.25
416.267	89.25
416.49	93.25
416.713	96.25
416.936	88.25
417.159	86.25
417.382	77.25
417.605	76.25
417.828	94.25
418.051	102.25
418.274	84.25
418.497	85.25
418.72	79.25
418.943	78.25
419.166	87.25
419.389	89.25
419.611	91.25
419.834	94.25
420.057	103.25
420.28	89.25
420.503	85.25
420.726	76.25
420.948	89.25
421.171	91.25
421.394	92.25
421.617	91.25
421.839	87.25
422.062	87.25
422.285	81.25
422.507	90.25
422.73	89.25
422.953	86.25
423.175	95.25
423.398	84.25
423.621	84.25
423.843	99.25
424.066	89.25
424.288	92.25
424.511	86.25
424.733	106.25
424.956	106.25
425.178	100.25
425.401	104.25
425.623	86.25
425.846	95.25
426.068	78.25
426.291	92.25
426.513	75.25
426.735	94.25
426.958	89.25
427.18	120.25
427.402	142.25
427.625	163.25
427.847	133.25
428.069	103.25
428.292	78.25
428.514	95.25
428.736	77.25
428.958	73.25
429.181	88.25
429.403	95.25
429.625	94.25
429.847	93.25
430.069	107.25
430.292	89.25
430.514	89.25
430.736	84.25
430.958	87.25
431.18	87.25
431.402	93.25
431.624	100.25
431.846	76.25
432.068	92.25
432.29	79.25
432.512	85.25
432.734	82.25
432.956	91.25
433.178	94.25
433.4	99.25
433.622	89.25
433.844	79.25
434.066	96.25
434.287	80.25
434.509	91.25
434.731	81.25
434.953	93.25
435.175	78.25
435.397	93.25
435.618	93.25
435.84	93.25
436.062	117.25
436.284	119.25
436.505	105.25
436.727	100.25
436.949	93.25
437.17	88.25
437.392	91.25
437.614	80.25
437.835	104.25
438.057	119.25
438.278	111.25
438.5	123.25
438.721	125.25
438.943	106.25
439.165	86.25
439.386	98.25
439.608	103.25
439.829	93.25
440.05	124.25
440.272	147.25
440.493	108.25
440.715	93.25
440.936	91.25
441.158	99.25
441.379	84.25
441.6	96.25
441.822	98.25
442.043	91.25
442.264	81.25
442.486	104.25
442.707	89.25
442.928	111.25
443.149	132.25
443.371	133.25
443.592	116.25
443.813	108.25
444.034	105.25
444.255	94.25
444.476	94.25
444.698	90.25
444.919	76.25
445.14	137.25
445.361	123.25
445.582	118.25
445.803	134.25
446.024	138.25
446.245	142.25
446.466	107.25
446.687	82.25
446.908	84.25
447.129	92.25
447.35	95.25
447.571	100.25
447.792	86.25
448.013	87.25
448.234	102.25
448.455	100.25
448.675	112.25
448.896	128.25
449.117	106.25
449.338	108.25
449.559	128.25
449.779	126.25
450	99.25
450.221	96.25
450.442	95.25
450.662	84.25
450.883	109.25
451.104	111.25
451.324	89.25
451.545	99.25
451.766	90.25
451.986	79.25
452.207	91.25
452.428	95.25
452.648	106.25
452.869	127.25
453.089	121.25
453.31	116.25
453.53	92.25
453.751	100.25
453.971	115.25
454.192	113.25
454.412	84.25
454.633	93.25
454.853	92.25
455.073	91.25
455.294	101.25
455.514	102.25
455.734	99.25
455.955	76.25
456.175	87.25
456.395	75.25
456.616	69.25
456.836	79.25
457.056	71.25
457.276	69.25
457.497	83.25
457.717	72.25
457.937	79.25
458.157	106.25
458.377	82.25
458.598	115.25
458.818	165.25
459.038	173.25
459.258	112.25
459.478	79.25
459.698	78.25
459.918	71.25
460.138	93.25
460.358	97.25
460.578	99.25
460.798	99.25
461.018	89.25
461.238	99.25
461.458	92.25
461.678	91.25
461.898	91.25
462.118	92.25
462.338	77.25
462.558	68.25
462.777	99.25
462.997	83.25
463.217	87.25
463.437	84.25
463.657	88.25
463.876	92.25
464.096	91.25
464.316	103.25
464.536	79.25
464.755	89.25
464.975	104.25
465.195	180.25
465.414	173.25
465.634	105.25
465.854	98.25
466.073	100.25
466.293	84.25
466.512	79.25
466.732	84.25
466.951	97.25
467.171	82.25
467.391	87.25
467.61	107.25
467.829	98.25
468.049	93.25
468.268	95.25
468.488	74.25
468.707	92.25
468.927	85.25
469.146	76.25
469.365	84.25
469.585	91.25
469.804	103.25
470.023	91.25
470.243	91.25
470.462	104.25
470.681	112.25
470.901	88.25
471.12	73.25
471.339	94.25
471.558	97.25
471.777	80.25
471.997	78.25
472.216	89.25
472.435	80.25
472.654	78.25
472.873	72.25
473.092	93.25
473.311	96.25
473.53	96.25
473.749	73.25
473.968	89.25
474.187	105.25
474.406	91.25
474.625	96.25
474.844	79.25
475.063	71.25
475.282	71.25
475.501	84.25
475.72	90.25
475.939	66.25
476.158	92.25
476.377	92.25
476.596	83.25
476.814	94.25
477.033	91.25
477.252	94.25
477.471	88.25
477.69	100.25
477.908	97.25
478.127	87.25
478.346	92.25
478.564	97.25
478.783	98.25
479.002	93.25
479.22	88.25
479.439	102.25
479.658	117.25
479.876	89.25
480.095	84.25
480.313	83.25
480.532	89.25
480.751	84.25
480.969	88.25
481.188	87.25
481.406	98.25
481.624	80.25
481.843	88.25
482.061	81.25
482.28	100.25
482.498	104.25
482.717	98.25
482.935	100.25
483.153	74.25
483.372	79.25
483.59	89.25
483.808	76.25
484.027	91.25
484.245	83.25
484.463	94.25
484.681	91.25
484.9	94.25
485.118	116.25
485.336	93.25
485.554	98.25
485.772	92.25
485.99	97.25
486.209	112.25
486.427	104.25
486.645	109.25
486.863	125.25
487.081	100.25
487.299	84.25
487.517	89.25
487.735	92.25
487.953	99.25
488.171	98.25
488.389	94.25
488.607	101.25
488.825	90.25
489.043	107.25
489.261	87.25
489.479	84.25
489.696	86.25
489.914	84.25
490.132	86.25
490.35	106.25
490.568	91.25
490.786	83.25
491.003	94.25
491.221	80.25
491.439	84.25
491.657	89.25
491.874	88.25
492.092	93.25
492.31	89.25
492.527	81.25
492.745	78.25
492.963	96.25
493.18	95.25
493.398	98.25
493.615	96.25
493.833	77.25
494.05	71.25
494.268	91.25
494.485	81.25
494.703	82.25
494.92	101.25
495.138	92.25
495.355	88.25
495.573	87.25
495.79	95.25
496.008	92.25
496.225	85.25
496.442	95.25
496.66	99.25
496.877	88.25
497.094	81.25
497.312	92.25
497.529	105.25
497.746	92.25
497.963	94.25
498.181	100.25
498.398	95.25
498.615	100.25
498.832	102.25
499.049	92.25
499.267	102.25
499.484	96.25
499.701	85.25
499.918	87.25
500.135	88.25
500.352	96.25
500.569	90.25
500.786	79.25
501.003	87.25
501.22	90.25
501.437	95.25
501.654	94.25
501.871	120.25
502.088	114.25
502.305	96.25
502.522	82.25
502.739	89.25
502.956	91.25
503.172	83.25
503.389	87.25
503.606	97.25
503.823	97.25
504.04	92.25
504.256	91.25
504.473	93.25
504.69	91.25
504.907	112.25
505.123	98.25
505.34	76.25
505.557	97.25
505.773	107.25
505.99	90.25
506.207	88.25
506.423	86.25
506.64	84.25
506.856	93.25
507.073	96.25
507.289	88.25
507.506	91.25
507.722	115.25
507.939	105.25
508.155	98.25
508.372	96.25
508.588	83.25
508.805	94.25
509.021	91.25
509.238	88.25
509.454	105.25
509.67	100.25
509.887	107.25
510.103	140.25
510.319	244.25
510.536	883.25
510.752	2927.25
510.968	796.25
511.184	170.25
511.401	120.25
511.617	92.25
511.833	98.25
512.049	87.25
512.265	82.25
512.481	90.25
512.698	89.25
512.914	102.25
513.13	106.25
513.346	96.25
513.562	96.25
513.778	91.25
513.994	101.25
514.21	108.25
514.426	127.25
514.642	156.25
514.858	128.25
515.074	199.25
515.29	531.25
515.506	1787.25
515.721	651.25
515.937	173.25
