Data from Uncirc_2007_H10_HRD10591_00007.txt Node
Date: Wed Jan 03 10:20:43 EST 2024
User: Yrep
Spectrometer: HR+D1059
Trigger mode: 1
Integration Time (sec): 1.000000E-1
Scans to average: 1
Electric dark correction enabled: true
Nonlinearity correction enabled: false
Boxcar width: 0
XAxis mode: Wavelengths
Number of Pixels in Spectrum: 2048
>>>>>Begin Spectral Data<<<<<
223.165	-19.25
223.4	-19.25
223.635	-19.25
223.869	-22.25
224.104	-27.25
224.338	-5.25
224.573	-13.25
224.808	-10.25
225.042	-2.25
225.277	-2.25
225.511	3.75
225.746	-3.25
225.98	3.75
226.215	1.75
226.449	7.75
226.683	22.75
226.918	28.75
227.152	36.75
227.387	51.75
227.621	35.75
227.856	33.75
228.09	35.75
228.324	51.75
228.559	43.75
228.793	164.75
229.027	435.75
229.262	517.75
229.496	601.75
229.73	796.75
229.964	802.75
230.199	562.75
230.433	480.75
230.667	454.75
230.901	456.75
231.136	446.75
231.37	450.75
231.604	433.75
231.838	448.75
232.072	437.75
232.306	444.75
232.541	450.75
232.775	468.75
233.009	478.75
233.243	491.75
233.477	456.75
233.711	479.75
233.945	497.75
234.179	511.75
234.413	495.75
234.647	484.75
234.881	523.75
235.115	509.75
235.349	527.75
235.583	549.75
235.817	601.75
236.051	618.75
236.285	575.75
236.519	592.75
236.753	716.75
236.987	925.75
237.221	1386.75
237.455	1553.75
237.689	928.75
237.922	763.75
238.156	720.75
238.39	667.75
238.624	659.75
238.858	622.75
239.091	643.75
239.325	645.75
239.559	679.75
239.793	695.75
240.027	742.75
240.26	914.75
240.494	965.75
240.728	967.75
240.961	912.75
241.195	848.75
241.429	797.75
241.662	762.75
241.896	734.75
242.13	785.75
242.363	758.75
242.597	762.75
242.83	810.75
243.064	807.75
243.298	806.75
243.531	805.75
243.765	826.75
243.998	810.75
244.232	839.75
244.465	875.75
244.699	903.75
244.932	883.75
245.166	876.75
245.399	873.75
245.633	895.75
245.866	905.75
246.099	941.75
246.333	949.75
246.566	934.75
246.8	962.75
247.033	1006.75
247.266	1061.75
247.5	1081.75
247.733	1143.75
247.966	1154.75
248.2	1118.75
248.433	1142.75
248.666	1194.75
248.899	1329.75
249.133	1441.75
249.366	1434.75
249.599	1295.75
249.832	1243.75
250.066	1196.75
250.299	1249.75
250.532	1326.75
250.765	1503.75
250.998	1707.75
251.231	1676.75
251.465	1491.75
251.698	1417.75
251.931	1417.75
252.164	1364.75
252.397	1392.75
252.63	1468.75
252.863	1563.75
253.096	1729.75
253.329	1744.75
253.562	1680.75
253.795	1586.75
254.028	1538.75
254.261	1605.75
254.494	1805.75
254.727	2206.75
254.96	2275.75
255.193	1955.75
255.426	1735.75
255.659	1603.75
255.892	1578.75
256.124	1517.75
256.357	1529.75
256.59	1487.75
256.823	1463.75
257.056	1514.75
257.289	1498.75
257.521	1527.75
257.754	1547.75
257.987	1491.75
258.22	1491.75
258.452	1518.75
258.685	1542.75
258.918	1565.75
259.151	1619.75
259.383	1671.75
259.616	1717.75
259.849	1763.75
260.081	1927.75
260.314	2197.75
260.547	2015.75
260.779	1905.75
261.012	1757.75
261.244	1708.75
261.477	1686.75
261.71	1692.75
261.942	1762.75
262.175	1782.75
262.407	1701.75
262.64	1641.75
262.872	1659.75
263.105	1642.75
263.337	1642.75
263.57	1660.75
263.802	1674.75
264.035	1689.75
264.267	1670.75
264.499	1641.75
264.732	1661.75
264.964	1709.75
265.197	1698.75
265.429	1681.75
265.661	1714.75
265.894	1713.75
266.126	1713.75
266.358	1752.75
266.591	1782.75
266.823	1830.75
267.055	1865.75
267.287	1903.75
267.52	1821.75
267.752	1871.75
267.984	1882.75
268.216	1864.75
268.448	1912.75
268.681	2000.75
268.913	2117.75
269.145	2341.75
269.377	2385.75
269.609	2272.75
269.841	2261.75
270.073	2385.75
270.306	2671.75
270.538	2849.75
270.77	2665.75
271.002	2530.75
271.234	2498.75
271.466	2630.75
271.698	2803.75
271.93	2810.75
272.162	2736.75
272.394	2698.75
272.626	2515.75
272.858	2353.75
273.09	2301.75
273.322	2286.75
273.553	2233.75
273.785	2220.75
274.017	2194.75
274.249	2217.75
274.481	2265.75
274.713	2250.75
274.945	2284.75
275.176	2269.75
275.408	2214.75
275.64	2288.75
275.872	2265.75
276.104	2283.75
276.335	2298.75
276.567	2397.75
276.799	2552.75
277.031	2778.75
277.262	2931.75
277.494	2771.75
277.726	2583.75
277.957	2497.75
278.189	2412.75
278.421	2333.75
278.652	2363.75
278.884	2354.75
279.115	2345.75
279.347	2328.75
279.579	2350.75
279.81	2366.75
280.042	2349.75
280.273	2369.75
280.505	2342.75
280.736	2368.75
280.968	2391.75
281.199	2386.75
281.431	2425.75
281.662	2425.75
281.894	2499.75
282.125	2509.75
282.356	2655.75
282.588	2806.75
282.819	2666.75
283.051	2512.75
283.282	2500.75
283.513	2551.75
283.745	2601.75
283.976	2661.75
284.207	2634.75
284.439	2578.75
284.67	2611.75
284.901	2629.75
285.132	2588.75
285.364	2599.75
285.595	2569.75
285.826	2634.75
286.057	2613.75
286.288	2641.75
286.52	2622.75
286.751	2695.75
286.982	2683.75
287.213	2718.75
287.444	2728.75
287.675	2792.75
287.906	2891.75
288.138	2957.75
288.369	2897.75
288.6	2867.75
288.831	2850.75
289.062	2831.75
289.293	2817.75
289.524	2823.75
289.755	2800.75
289.986	2810.75
290.217	2792.75
290.448	2800.75
290.679	2791.75
290.91	2790.75
291.141	2825.75
291.371	2782.75
291.602	2811.75
291.833	2770.75
292.064	2802.75
292.295	2785.75
292.526	2825.75
292.757	2758.75
292.987	2760.75
293.218	2769.75
293.449	2827.75
293.68	2829.75
293.91	2813.75
294.141	2821.75
294.372	2812.75
294.603	2813.75
294.833	2862.75
295.064	2882.75
295.295	2857.75
295.525	2841.75
295.756	2898.75
295.987	3024.75
296.217	3162.75
296.448	3101.75
296.679	2927.75
296.909	2922.75
297.14	2960.75
297.37	3024.75
297.601	3022.75
297.831	3047.75
298.062	3038.75
298.292	3024.75
298.523	3084.75
298.753	3115.75
298.984	3114.75
299.214	3083.75
299.445	3092.75
299.675	3040.75
299.905	3078.75
300.136	3106.75
300.366	3173.75
300.597	3200.75
300.827	3255.75
301.057	3293.75
301.288	3374.75
301.518	3313.75
301.748	3320.75
301.979	3399.75
302.209	3373.75
302.439	3337.75
302.669	3351.75
302.9	3310.75
303.13	3267.75
303.36	3305.75
303.59	3373.75
303.82	3370.75
304.051	3411.75
304.281	3282.75
304.511	3245.75
304.741	3342.75
304.971	3233.75
305.201	3237.75
305.431	3254.75
305.661	3306.75
305.891	3238.75
306.121	3254.75
306.352	3320.75
306.582	3347.75
306.812	3238.75
307.042	3224.75
307.272	3248.75
307.502	3262.75
307.731	3205.75
307.961	3289.75
308.191	3271.75
308.421	3215.75
308.651	3253.75
308.881	3289.75
309.111	3325.75
309.341	3297.75
309.571	3448.75
309.8	3471.75
310.03	3571.75
310.26	3607.75
310.49	3598.75
310.72	3672.75
310.949	3744.75
311.179	3720.75
311.409	3604.75
311.639	3651.75
311.868	3661.75
312.098	3633.75
312.328	3751.75
312.557	3963.75
312.787	4005.75
313.017	3936.75
313.246	3760.75
313.476	3685.75
313.706	3715.75
313.935	3901.75
314.165	3903.75
314.394	3939.75
314.624	3902.75
314.853	3838.75
315.083	3761.75
315.312	3820.75
315.542	3742.75
315.771	3681.75
316.001	3670.75
316.23	3614.75
316.46	3685.75
316.689	3688.75
316.919	3725.75
317.148	3767.75
317.377	3783.75
317.607	3757.75
317.836	3678.75
318.065	3653.75
318.295	3627.75
318.524	3663.75
318.753	3604.75
318.983	3691.75
319.212	3610.75
319.441	3732.75
319.67	3761.75
319.9	3678.75
320.129	3624.75
320.358	3672.75
320.587	3688.75
320.816	3782.75
321.046	3820.75
321.275	3736.75
321.504	3807.75
321.733	3853.75
321.962	3888.75
322.191	3969.75
322.42	4098.75
322.649	4162.75
322.878	4200.75
323.108	4298.75
323.337	4478.75
323.566	4607.75
323.795	5057.75
324.024	5490.75
324.253	7251.75
324.482	10973.75
324.71	15304.75
324.939	15603.75
325.168	13263.75
325.397	6533.75
325.626	5212.75
325.855	4853.75
326.084	4741.75
326.313	4710.75
326.542	4926.75
326.77	5529.75
326.999	7001.75
327.228	10384.75
327.457	14555.75
327.686	13820.75
327.914	7302.75
328.143	5820.75
328.372	5474.75
328.6	5150.75
328.829	5161.75
329.058	5410.75
329.287	5258.75
329.515	4951.75
329.744	4700.75
329.972	4749.75
330.201	4750.75
330.43	5017.75
330.658	5333.75
330.887	5733.75
331.115	5407.75
331.344	4970.75
331.572	4889.75
331.801	4977.75
332.03	5016.75
332.258	4900.75
332.486	4946.75
332.715	4991.75
332.943	5142.75
333.172	5233.75
333.4	5416.75
333.629	5486.75
333.857	5527.75
334.085	5387.75
334.314	5387.75
334.542	5354.75
334.771	5253.75
334.999	5156.75
335.227	5211.75
335.455	5054.75
335.684	5040.75
335.912	4970.75
336.14	4911.75
336.369	4899.75
336.597	4982.75
336.825	4882.75
337.053	4833.75
337.281	4745.75
337.51	4713.75
337.738	4699.75
337.966	4610.75
338.194	4721.75
338.422	4645.75
338.65	4509.75
338.878	4509.75
339.106	4586.75
339.334	4454.75
339.562	4460.75
339.79	4393.75
340.018	4365.75
340.246	4403.75
340.474	4459.75
340.702	4402.75
340.93	4404.75
341.158	4433.75
341.386	4364.75
341.614	4381.75
341.842	4304.75
342.07	4293.75
342.298	4264.75
342.526	4255.75
342.754	4301.75
342.981	4263.75
343.209	4386.75
343.437	4597.75
343.665	4833.75
343.893	5110.75
344.12	5195.75
344.348	4928.75
344.576	4743.75
344.804	4775.75
345.031	4625.75
345.259	4525.75
345.487	4379.75
345.714	4353.75
345.942	4177.75
346.17	4173.75
346.397	4219.75
346.625	4201.75
346.853	4184.75
347.08	4159.75
347.308	4218.75
347.535	4268.75
347.763	4271.75
347.99	4217.75
348.218	4264.75
348.445	4335.75
348.673	4252.75
348.9	4157.75
349.128	4086.75
349.355	4063.75
349.583	4076.75
349.81	4114.75
350.037	4063.75
350.265	4034.75
350.492	4072.75
350.72	4102.75
350.947	4074.75
351.174	4141.75
351.402	4208.75
351.629	4191.75
351.856	4223.75
352.083	4205.75
352.311	4240.75
352.538	4293.75
352.765	4259.75
352.992	4129.75
353.22	4124.75
353.447	4071.75
353.674	4025.75
353.901	3946.75
354.128	3881.75
354.355	3989.75
354.583	3982.75
354.81	3986.75
355.037	4029.75
355.264	3926.75
355.491	3993.75
355.718	3924.75
355.945	3993.75
356.172	3969.75
356.399	3972.75
356.626	3982.75
356.853	3973.75
357.08	3924.75
357.307	3927.75
357.534	3878.75
357.761	3934.75
357.988	3948.75
358.215	3961.75
358.441	3982.75
358.668	3967.75
358.895	4037.75
359.122	4047.75
359.349	4127.75
359.576	4266.75
359.802	4483.75
360.029	4528.75
360.256	4556.75
360.483	4369.75
360.709	4189.75
360.936	4191.75
361.163	4201.75
361.39	4249.75
361.616	4206.75
361.843	4169.75
362.07	4238.75
362.296	4215.75
362.523	4192.75
362.749	4195.75
362.976	4190.75
363.203	4039.75
363.429	4057.75
363.656	4066.75
363.882	4028.75
364.109	4017.75
364.335	4000.75
364.562	4061.75
364.788	4019.75
365.015	4025.75
365.241	4094.75
365.468	4040.75
365.694	4017.75
365.92	4099.75
366.147	4069.75
366.373	4066.75
366.599	4030.75
366.826	3985.75
367.052	4009.75
367.278	3998.75
367.505	4060.75
367.731	4098.75
367.957	4078.75
368.184	4118.75
368.41	4136.75
368.636	4340.75
368.862	4318.75
369.089	4184.75
369.315	4138.75
369.541	4123.75
369.767	4146.75
369.993	4182.75
370.219	4225.75
370.445	4209.75
370.672	4249.75
370.898	4243.75
371.124	4295.75
371.35	4288.75
371.576	4286.75
371.802	4290.75
372.028	4305.75
372.254	4275.75
372.48	4381.75
372.706	4454.75
372.932	4505.75
373.158	4378.75
373.384	4413.75
373.61	4330.75
373.835	4349.75
374.061	4348.75
374.287	4495.75
374.513	4541.75
374.739	4581.75
374.965	4765.75
375.191	4704.75
375.416	4653.75
375.642	4528.75
375.868	4535.75
376.094	4457.75
376.319	4409.75
376.545	4353.75
376.771	4337.75
376.997	4304.75
377.222	4295.75
377.448	4315.75
377.674	4261.75
377.899	4250.75
378.125	4296.75
378.35	4246.75
378.576	4206.75
378.802	4264.75
379.027	4252.75
379.253	4258.75
379.478	4233.75
379.704	4272.75
379.929	4371.75
380.155	4368.75
380.38	4299.75
380.606	4334.75
380.831	4309.75
381.057	4393.75
381.282	4321.75
381.507	4351.75
381.733	4427.75
381.958	4390.75
382.184	4480.75
382.409	4550.75
382.634	4564.75
382.86	4548.75
383.085	4617.75
383.31	4714.75
383.535	4748.75
383.761	4869.75
383.986	4898.75
384.211	4969.75
384.436	5041.75
384.662	5105.75
384.887	5149.75
385.112	5146.75
385.337	5304.75
385.562	5205.75
385.787	5273.75
386.013	5278.75
386.238	5375.75
386.463	5293.75
386.688	5301.75
386.913	5128.75
387.138	5193.75
387.363	5243.75
387.588	5144.75
387.813	5160.75
388.038	5173.75
388.263	5174.75
388.488	5224.75
388.713	5133.75
388.938	5149.75
389.163	5151.75
389.387	5076.75
389.612	5022.75
389.837	5042.75
390.062	5073.75
390.287	5046.75
390.512	5083.75
390.736	5129.75
390.961	5258.75
391.186	5313.75
391.411	5507.75
391.636	5647.75
391.86	5787.75
392.085	5835.75
392.31	5650.75
392.534	5597.75
392.759	5499.75
392.984	5375.75
393.208	5314.75
393.433	5338.75
393.658	5338.75
393.882	5350.75
394.107	5331.75
394.331	5426.75
394.556	5399.75
394.78	5471.75
395.005	5501.75
395.229	5601.75
395.454	5774.75
395.678	5804.75
395.903	5810.75
396.127	5912.75
396.352	5663.75
396.576	5417.75
396.801	5442.75
397.025	5636.75
397.249	5600.75
397.474	5777.75
397.698	5896.75
397.922	5978.75
398.147	6059.75
398.371	6168.75
398.595	6293.75
398.82	6584.75
399.044	7129.75
399.268	7882.75
399.492	9028.75
399.717	9647.75
399.941	9362.75
400.165	8802.75
400.389	8083.75
400.613	7416.75
400.837	6838.75
401.062	6569.75
401.286	6571.75
401.51	6578.75
401.734	6516.75
401.958	6701.75
402.182	6729.75
402.406	6764.75
402.63	6976.75
402.854	6975.75
403.078	7083.75
403.302	7258.75
403.526	7307.75
403.75	7352.75
403.974	7402.75
404.198	7413.75
404.422	7446.75
404.645	7417.75
404.869	7244.75
405.093	7405.75
405.317	7496.75
405.541	7471.75
405.765	7276.75
405.988	7241.75
406.212	7434.75
406.436	7643.75
406.66	7791.75
406.883	7757.75
407.107	8347.75
407.331	8948.75
407.555	9408.75
407.778	9090.75
408.002	8348.75
408.226	7881.75
408.449	7837.75
408.673	7649.75
408.896	7879.75
409.12	7898.75
409.344	7515.75
409.567	7199.75
409.791	7175.75
410.014	7084.75
410.238	6984.75
410.461	7050.75
410.685	7038.75
410.908	7220.75
411.132	7375.75
411.355	7431.75
411.578	7029.75
411.802	6671.75
412.025	6694.75
412.249	6809.75
412.472	6696.75
412.695	6579.75
412.919	6432.75
413.142	6453.75
413.365	6389.75
413.589	6495.75
413.812	6376.75
414.035	6183.75
414.258	6297.75
414.482	6415.75
414.705	6403.75
414.928	6372.75
415.151	6418.75
415.374	6376.75
415.597	6295.75
415.821	6209.75
416.044	6311.75
416.267	6259.75
416.49	6171.75
416.713	6222.75
416.936	6341.75
417.159	6300.75
417.382	6409.75
417.605	6370.75
417.828	6455.75
418.051	6669.75
418.274	6575.75
418.497	6465.75
418.72	6543.75
418.943	6530.75
419.166	6950.75
419.389	7270.75
419.611	7108.75
419.834	6973.75
420.057	6781.75
420.28	6661.75
420.503	6339.75
420.726	6445.75
420.948	6666.75
421.171	7063.75
421.394	7072.75
421.617	6561.75
421.839	6551.75
422.062	6649.75
422.285	6795.75
422.507	7497.75
422.73	8071.75
422.953	7384.75
423.175	7068.75
423.398	7043.75
423.621	7016.75
423.843	7361.75
424.066	7265.75
424.288	7151.75
424.511	7373.75
424.733	7850.75
424.956	8287.75
425.178	7804.75
425.401	8070.75
425.623	7845.75
425.846	6858.75
426.068	6623.75
426.291	6593.75
426.513	6674.75
426.735	6720.75
426.958	7211.75
427.18	7981.75
427.402	9073.75
427.625	9195.75
427.847	7699.75
428.069	6761.75
428.292	6412.75
428.514	6104.75
428.736	5981.75
428.958	6090.75
429.181	5844.75
429.403	5866.75
429.625	6039.75
429.847	6435.75
430.069	6922.75
430.292	6438.75
430.514	5835.75
430.736	5909.75
430.958	5795.75
431.18	5626.75
431.402	5706.75
431.624	5630.75
431.846	5766.75
432.068	5719.75
432.29	5950.75
432.512	5778.75
432.734	5890.75
432.956	5790.75
433.178	5833.75
433.4	5927.75
433.622	5758.75
433.844	5724.75
434.066	5813.75
434.287	5892.75
434.509	6138.75
434.731	6338.75
434.953	6456.75
435.175	6667.75
435.397	6698.75
435.618	6653.75
435.84	7049.75
436.062	7879.75
436.284	7863.75
436.505	6550.75
436.727	6333.75
436.949	5979.75
437.17	5879.75
437.392	5839.75
437.614	6027.75
437.835	6415.75
438.057	7477.75
438.278	8093.75
438.5	8010.75
438.721	8861.75
438.943	7735.75
439.165	6463.75
439.386	6299.75
439.608	6372.75
439.829	6471.75
440.05	6796.75
440.272	7239.75
440.493	6539.75
440.715	6292.75
440.936	6129.75
441.158	6173.75
441.379	6323.75
441.6	6617.75
441.822	6874.75
442.043	7288.75
442.264	8202.75
442.486	7855.75
442.707	6993.75
442.928	6823.75
443.149	7066.75
443.371	7253.75
443.592	7726.75
443.813	8819.75
444.034	8697.75
444.255	7589.75
444.476	7362.75
444.698	7597.75
444.919	7567.75
445.14	7506.75
445.361	7263.75
445.582	7487.75
445.803	8125.75
446.024	8768.75
446.245	8474.75
446.466	7616.75
446.687	6574.75
446.908	6153.75
447.129	5851.75
447.35	5795.75
447.571	5691.75
447.792	5552.75
448.013	5717.75
448.234	5942.75
448.455	6585.75
448.675	7836.75
448.896	8343.75
449.117	6810.75
449.338	7114.75
449.559	8284.75
449.779	8565.75
450	6524.75
450.221	5806.75
450.442	5515.75
450.662	5485.75
450.883	5585.75
451.104	5725.75
451.324	5479.75
451.545	5341.75
451.766	5186.75
451.986	5115.75
452.207	5009.75
452.428	5121.75
452.648	5094.75
452.869	5113.75
453.089	5259.75
453.31	5282.75
453.53	5130.75
453.751	5079.75
453.971	5151.75
454.192	5219.75
454.412	5001.75
454.633	4923.75
454.853	4906.75
455.073	4938.75
455.294	5348.75
455.514	5973.75
455.734	5475.75
455.955	4895.75
456.175	4745.75
456.395	4684.75
456.616	4703.75
456.836	4703.75
457.056	4695.75
457.276	4598.75
457.497	4815.75
457.717	4785.75
457.937	4888.75
458.157	4910.75
458.377	5007.75
458.598	5431.75
458.818	6073.75
459.038	6815.75
459.258	6765.75
459.478	5959.75
459.698	5877.75
459.918	5886.75
460.138	6068.75
460.358	6316.75
460.578	6294.75
460.798	6380.75
461.018	6367.75
461.238	6270.75
461.458	6282.75
461.678	6224.75
461.898	6333.75
462.118	6396.75
462.338	6773.75
462.558	6872.75
462.777	7213.75
462.997	7774.75
463.217	8109.75
463.437	7883.75
463.657	7342.75
463.876	7111.75
464.096	7178.75
464.316	7261.75
464.536	7264.75
464.755	6963.75
464.975	6925.75
465.195	7193.75
465.414	7091.75
465.634	6269.75
465.854	5975.75
466.073	5725.75
466.293	5471.75
466.512	5302.75
466.732	5263.75
466.951	5234.75
467.171	5239.75
467.391	5349.75
467.61	5385.75
467.829	5378.75
468.049	5230.75
468.268	5059.75
468.488	5002.75
468.707	5014.75
468.927	5027.75
469.146	4939.75
469.365	5091.75
469.585	5093.75
469.804	5259.75
470.023	5472.75
470.243	5436.75
470.462	5461.75
470.681	5670.75
470.901	5543.75
471.12	5377.75
471.339	5303.75
471.558	5251.75
471.777	5232.75
471.997	5066.75
472.216	5085.75
472.435	5003.75
472.654	5029.75
472.873	4930.75
473.092	4934.75
473.311	4915.75
473.53	4991.75
473.749	5151.75
473.968	5615.75
474.187	6704.75
474.406	6325.75
474.625	5362.75
474.844	5007.75
475.063	5098.75
475.282	5040.75
475.501	5134.75
475.72	5217.75
475.939	5206.75
476.158	5196.75
476.377	5201.75
476.596	5211.75
476.814	5359.75
477.033	5367.75
477.252	5557.75
477.471	5519.75
477.69	5742.75
477.908	5860.75
478.127	5984.75
478.346	5930.75
478.564	6089.75
478.783	6236.75
479.002	6266.75
479.22	6313.75
479.439	6458.75
479.658	6538.75
479.876	6646.75
480.095	6865.75
480.313	7178.75
480.532	7044.75
480.751	6946.75
480.969	6789.75
481.188	6670.75
481.406	6432.75
481.624	6245.75
481.843	6061.75
482.061	5953.75
482.28	5938.75
482.498	5909.75
482.717	5846.75
482.935	5938.75
483.153	5838.75
483.372	5896.75
483.59	5884.75
483.808	5890.75
484.027	5842.75
484.245	5957.75
484.463	5962.75
484.681	6097.75
484.9	6087.75
485.118	6201.75
485.336	6207.75
485.554	6250.75
485.772	6284.75
485.99	6281.75
486.209	6383.75
486.427	6358.75
486.645	6420.75
486.863	6426.75
487.081	6406.75
487.299	6294.75
487.517	6283.75
487.735	6286.75
487.953	6362.75
