Data from Uncirc_2007_H10_HRD10591_00073.txt Node
Date: Wed Jan 03 10:20:57 EST 2024
User: Yrep
Spectrometer: HR+D1059
Trigger mode: 1
Integration Time (sec): 1.000000E-1
Scans to average: 1
Electric dark correction enabled: true
Nonlinearity correction enabled: false
Boxcar width: 0
XAxis mode: Wavelengths
Number of Pixels in Spectrum: 2048
>>>>>Begin Spectral Data<<<<<
223.165	-25.19
223.4	-25.19
223.635	-25.19
223.869	-16.19
224.104	-7.19
224.338	-22.19
224.573	-15.19
224.808	-14.19
225.042	-19.19
225.277	-2.19
225.511	6.81
225.746	9.81
225.98	10.81
226.215	2.81
226.449	25.81
226.683	16.81
226.918	22.81
227.152	25.81
227.387	37.81
227.621	57.81
227.856	59.81
228.09	52.81
228.324	49.81
228.559	71.81
228.793	60.81
229.027	58.81
229.262	74.81
229.496	81.81
229.73	80.81
229.964	90.81
230.199	89.81
230.433	80.81
230.667	83.81
230.901	66.81
231.136	82.81
231.37	80.81
231.604	79.81
231.838	74.81
232.072	77.81
232.306	80.81
232.541	70.81
232.775	77.81
233.009	86.81
233.243	98.81
233.477	83.81
233.711	92.81
233.945	80.81
234.179	88.81
234.413	77.81
234.647	79.81
234.881	90.81
235.115	82.81
235.349	85.81
235.583	84.81
235.817	61.81
236.051	72.81
236.285	80.81
236.519	81.81
236.753	83.81
236.987	75.81
237.221	72.81
237.455	90.81
237.689	83.81
237.922	85.81
238.156	75.81
238.39	79.81
238.624	81.81
238.858	81.81
239.091	52.81
239.325	79.81
239.559	74.81
239.793	79.81
240.027	97.81
240.26	82.81
240.494	84.81
240.728	82.81
240.961	78.81
241.195	71.81
241.429	78.81
241.662	80.81
241.896	65.81
242.13	72.81
242.363	94.81
242.597	85.81
242.83	77.81
243.064	86.81
243.298	77.81
243.531	61.81
243.765	90.81
243.998	88.81
244.232	83.81
244.465	85.81
244.699	84.81
244.932	85.81
245.166	71.81
245.399	89.81
245.633	70.81
245.866	67.81
246.099	84.81
246.333	67.81
246.566	70.81
246.8	69.81
247.033	89.81
247.266	74.81
247.5	71.81
247.733	77.81
247.966	76.81
248.2	83.81
248.433	80.81
248.666	79.81
248.899	86.81
249.133	83.81
249.366	97.81
249.599	96.81
249.832	92.81
250.066	77.81
250.299	71.81
250.532	83.81
250.765	79.81
250.998	72.81
251.231	83.81
251.465	76.81
251.698	80.81
251.931	97.81
252.164	84.81
252.397	82.81
252.63	83.81
252.863	82.81
253.096	92.81
253.329	82.81
253.562	77.81
253.795	80.81
254.028	75.81
254.261	70.81
254.494	84.81
254.727	73.81
254.96	87.81
255.193	84.81
255.426	83.81
255.659	84.81
255.892	83.81
256.124	83.81
256.357	77.81
256.59	78.81
256.823	79.81
257.056	68.81
257.289	85.81
257.521	81.81
257.754	80.81
257.987	75.81
258.22	88.81
258.452	82.81
258.685	101.81
258.918	80.81
259.151	92.81
259.383	86.81
259.616	80.81
259.849	82.81
260.081	84.81
260.314	89.81
260.547	65.81
260.779	95.81
261.012	84.81
261.244	86.81
261.477	96.81
261.71	91.81
261.942	105.81
262.175	119.81
262.407	96.81
262.64	84.81
262.872	77.81
263.105	82.81
263.337	74.81
263.57	86.81
263.802	95.81
264.035	81.81
264.267	80.81
264.499	81.81
264.732	99.81
264.964	77.81
265.197	67.81
265.429	90.81
265.661	91.81
265.894	89.81
266.126	87.81
266.358	88.81
266.591	80.81
266.823	96.81
267.055	83.81
267.287	74.81
267.52	76.81
267.752	78.81
267.984	86.81
268.216	85.81
268.448	89.81
268.681	92.81
268.913	87.81
269.145	88.81
269.377	76.81
269.609	76.81
269.841	94.81
270.073	95.81
270.306	96.81
270.538	86.81
270.77	75.81
271.002	69.81
271.234	79.81
271.466	81.81
271.698	91.81
271.93	85.81
272.162	106.81
272.394	89.81
272.626	92.81
272.858	82.81
273.09	83.81
273.322	69.81
273.553	82.81
273.785	99.81
274.017	88.81
274.249	101.81
274.481	92.81
274.713	81.81
274.945	89.81
275.176	84.81
275.408	89.81
275.64	84.81
275.872	90.81
276.104	88.81
276.335	96.81
276.567	90.81
276.799	97.81
277.031	110.81
277.262	89.81
277.494	68.81
277.726	78.81
277.957	89.81
278.189	76.81
278.421	104.81
278.652	103.81
278.884	76.81
279.115	81.81
279.347	83.81
279.579	85.81
279.81	79.81
280.042	81.81
280.273	85.81
280.505	93.81
280.736	84.81
280.968	100.81
281.199	92.81
281.431	95.81
281.662	78.81
281.894	92.81
282.125	106.81
282.356	118.81
282.588	154.81
282.819	121.81
283.051	99.81
283.282	99.81
283.513	83.81
283.745	82.81
283.976	85.81
284.207	86.81
284.439	95.81
284.67	83.81
284.901	82.81
285.132	96.81
285.364	81.81
285.595	93.81
285.826	107.81
286.057	85.81
286.288	83.81
286.52	99.81
286.751	90.81
286.982	76.81
287.213	99.81
287.444	91.81
287.675	91.81
287.906	86.81
288.138	98.81
288.369	109.81
288.6	85.81
288.831	91.81
289.062	89.81
289.293	83.81
289.524	92.81
289.755	90.81
289.986	101.81
290.217	90.81
290.448	90.81
290.679	96.81
290.91	86.81
291.141	77.81
291.371	88.81
291.602	88.81
291.833	78.81
292.064	89.81
292.295	77.81
292.526	80.81
292.757	91.81
292.987	86.81
293.218	78.81
293.449	97.81
293.68	86.81
293.91	82.81
294.141	81.81
294.372	89.81
294.603	84.81
294.833	88.81
295.064	74.81
295.295	81.81
295.525	98.81
295.756	94.81
295.987	120.81
296.217	145.81
296.448	125.81
296.679	97.81
296.909	79.81
297.14	90.81
297.37	85.81
297.601	90.81
297.831	84.81
298.062	77.81
298.292	92.81
298.523	99.81
298.753	93.81
298.984	86.81
299.214	96.81
299.445	86.81
299.675	82.81
299.905	90.81
300.136	91.81
300.366	82.81
300.597	90.81
300.827	97.81
301.057	94.81
301.288	102.81
301.518	90.81
301.748	94.81
301.979	102.81
302.209	93.81
302.439	95.81
302.669	86.81
302.9	75.81
303.13	76.81
303.36	98.81
303.59	100.81
303.82	96.81
304.051	93.81
304.281	100.81
304.511	88.81
304.741	90.81
304.971	100.81
305.201	92.81
305.431	86.81
305.661	79.81
305.891	94.81
306.121	86.81
306.352	104.81
306.582	103.81
306.812	96.81
307.042	83.81
307.272	85.81
307.502	92.81
307.731	92.81
307.961	95.81
308.191	94.81
308.421	89.81
308.651	90.81
308.881	85.81
309.111	86.81
309.341	99.81
309.571	93.81
309.8	91.81
310.03	91.81
310.26	96.81
310.49	98.81
310.72	96.81
310.949	113.81
311.179	113.81
311.409	96.81
311.639	91.81
311.868	94.81
312.098	85.81
312.328	88.81
312.557	116.81
312.787	99.81
313.017	107.81
313.246	105.81
313.476	79.81
313.706	99.81
313.935	96.81
314.165	98.81
314.394	104.81
314.624	101.81
314.853	100.81
315.083	91.81
315.312	104.81
315.542	86.81
315.771	101.81
316.001	97.81
316.23	105.81
316.46	96.81
316.689	97.81
316.919	88.81
317.148	99.81
317.377	108.81
317.607	103.81
317.836	101.81
318.065	90.81
318.295	95.81
318.524	90.81
318.753	95.81
318.983	78.81
319.212	114.81
319.441	122.81
319.67	119.81
319.9	101.81
320.129	86.81
320.358	92.81
320.587	101.81
320.816	96.81
321.046	106.81
321.275	72.81
321.504	88.81
321.733	98.81
321.962	105.81
322.191	109.81
322.42	145.81
322.649	112.81
322.878	115.81
323.108	125.81
323.337	125.81
323.566	153.81
323.795	187.81
324.024	237.81
324.253	499.81
324.482	1031.81
324.71	2256.81
324.939	2947.81
325.168	1026.81
325.397	281.81
325.626	176.81
325.855	140.81
326.084	148.81
326.313	155.81
326.542	181.81
326.77	267.81
326.999	565.81
327.228	1231.81
327.457	2274.81
327.686	1763.81
327.914	451.81
328.143	220.81
328.372	145.81
328.6	126.81
328.829	114.81
329.058	128.81
329.287	124.81
329.515	113.81
329.744	104.81
329.972	89.81
330.201	109.81
330.43	97.81
330.658	113.81
330.887	159.81
331.115	124.81
331.344	92.81
331.572	113.81
331.801	107.81
332.03	105.81
332.258	107.81
332.486	97.81
332.715	94.81
332.943	92.81
333.172	92.81
333.4	101.81
333.629	112.81
333.857	118.81
334.085	110.81
334.314	100.81
334.542	101.81
334.771	98.81
334.999	90.81
335.227	97.81
335.455	108.81
335.684	112.81
335.912	104.81
336.14	98.81
336.369	102.81
336.597	85.81
336.825	108.81
337.053	113.81
337.281	91.81
337.51	92.81
337.738	102.81
337.966	93.81
338.194	102.81
338.422	99.81
338.65	108.81
338.878	86.81
339.106	88.81
339.334	85.81
339.562	81.81
339.79	85.81
340.018	87.81
340.246	102.81
340.474	106.81
340.702	86.81
340.93	103.81
341.158	98.81
341.386	98.81
341.614	95.81
341.842	91.81
342.07	93.81
342.298	98.81
342.526	85.81
342.754	92.81
342.981	85.81
343.209	84.81
343.437	96.81
343.665	88.81
343.893	92.81
344.12	85.81
344.348	104.81
344.576	96.81
344.804	90.81
345.031	97.81
345.259	98.81
345.487	101.81
345.714	101.81
345.942	100.81
346.17	88.81
346.397	86.81
346.625	85.81
346.853	100.81
347.08	97.81
347.308	85.81
347.535	94.81
347.763	115.81
347.99	106.81
348.218	95.81
348.445	109.81
348.673	103.81
348.9	96.81
349.128	102.81
349.355	85.81
349.583	90.81
349.81	99.81
350.037	97.81
350.265	91.81
350.492	91.81
350.72	87.81
350.947	105.81
351.174	93.81
351.402	114.81
351.629	109.81
351.856	105.81
352.083	92.81
352.311	99.81
352.538	110.81
352.765	123.81
352.992	125.81
353.22	108.81
353.447	95.81
353.674	110.81
353.901	109.81
354.128	95.81
354.355	92.81
354.583	93.81
354.81	88.81
355.037	88.81
355.264	84.81
355.491	91.81
355.718	92.81
355.945	87.81
356.172	101.81
356.399	85.81
356.626	88.81
356.853	104.81
357.08	95.81
357.307	87.81
357.534	93.81
357.761	91.81
357.988	97.81
358.215	89.81
358.441	90.81
358.668	96.81
358.895	92.81
359.122	93.81
359.349	94.81
359.576	93.81
359.802	109.81
360.029	121.81
360.256	113.81
360.483	93.81
360.709	94.81
360.936	82.81
361.163	97.81
361.39	89.81
361.616	104.81
361.843	92.81
362.07	94.81
362.296	112.81
362.523	95.81
362.749	99.81
362.976	107.81
363.203	85.81
363.429	98.81
363.656	98.81
363.882	95.81
364.109	89.81
364.335	93.81
364.562	78.81
364.788	89.81
365.015	92.81
365.241	93.81
365.468	110.81
365.694	117.81
365.92	94.81
366.147	90.81
366.373	87.81
366.599	86.81
366.826	85.81
367.052	96.81
367.278	94.81
367.505	90.81
367.731	95.81
367.957	91.81
368.184	82.81
368.41	95.81
368.636	124.81
368.862	121.81
369.089	99.81
369.315	98.81
369.541	90.81
369.767	94.81
369.993	86.81
370.219	65.81
370.445	94.81
370.672	80.81
370.898	86.81
371.124	82.81
371.35	89.81
371.576	94.81
371.802	91.81
372.028	86.81
372.254	104.81
372.48	97.81
372.706	99.81
372.932	89.81
373.158	100.81
373.384	106.81
373.61	88.81
373.835	88.81
374.061	84.81
374.287	82.81
374.513	85.81
374.739	88.81
374.965	90.81
375.191	101.81
375.416	93.81
375.642	83.81
375.868	92.81
376.094	100.81
376.319	91.81
376.545	92.81
376.771	89.81
376.997	82.81
377.222	94.81
377.448	89.81
377.674	93.81
377.899	91.81
378.125	86.81
378.35	87.81
378.576	85.81
378.802	102.81
379.027	82.81
379.253	90.81
379.478	104.81
379.704	90.81
379.929	80.81
380.155	93.81
380.38	93.81
380.606	97.81
380.831	103.81
381.057	100.81
381.282	92.81
381.507	84.81
381.733	86.81
381.958	97.81
382.184	94.81
382.409	83.81
382.634	92.81
382.86	104.81
383.085	104.81
383.31	89.81
383.535	106.81
383.761	83.81
383.986	105.81
384.211	96.81
384.436	85.81
384.662	108.81
384.887	98.81
385.112	100.81
385.337	94.81
385.562	96.81
385.787	117.81
386.013	96.81
386.238	117.81
386.463	104.81
386.688	112.81
386.913	93.81
387.138	97.81
387.363	108.81
387.588	89.81
387.813	92.81
388.038	110.81
388.263	98.81
388.488	97.81
388.713	116.81
388.938	91.81
389.163	92.81
389.387	96.81
389.612	94.81
389.837	94.81
390.062	99.81
390.287	98.81
390.512	89.81
390.736	107.81
390.961	103.81
391.186	90.81
391.411	97.81
391.636	80.81
391.86	72.81
392.085	95.81
392.31	77.81
392.534	85.81
392.759	82.81
392.984	79.81
393.208	97.81
393.433	74.81
393.658	87.81
393.882	69.81
394.107	70.81
394.331	83.81
394.556	94.81
394.78	85.81
395.005	90.81
395.229	83.81
395.454	80.81
395.678	86.81
395.903	93.81
396.127	100.81
396.352	97.81
396.576	83.81
396.801	97.81
397.025	79.81
397.249	95.81
397.474	91.81
397.698	83.81
397.922	102.81
398.147	82.81
398.371	92.81
398.595	98.81
398.82	84.81
399.044	84.81
399.268	79.81
399.492	94.81
399.717	74.81
399.941	80.81
400.165	100.81
400.389	94.81
400.613	86.81
400.837	95.81
401.062	91.81
401.286	74.81
401.51	97.81
401.734	92.81
401.958	106.81
402.182	120.81
402.406	169.81
402.63	129.81
402.854	104.81
403.078	88.81
403.302	81.81
403.526	89.81
403.75	98.81
403.974	89.81
404.198	82.81
404.422	87.81
404.645	84.81
404.869	102.81
405.093	87.81
405.317	103.81
405.541	98.81
405.765	101.81
405.988	111.81
406.212	200.81
406.436	285.81
406.66	165.81
406.883	123.81
407.107	95.81
407.331	92.81
407.555	93.81
407.778	102.81
408.002	92.81
408.226	98.81
408.449	105.81
408.673	100.81
408.896	91.81
409.12	109.81
409.344	98.81
409.567	102.81
409.791	85.81
410.014	92.81
410.238	80.81
410.461	103.81
410.685	87.81
410.908	92.81
411.132	110.81
411.355	105.81
411.578	89.81
411.802	91.81
412.025	92.81
412.249	77.81
412.472	85.81
412.695	91.81
412.919	92.81
413.142	83.81
413.365	91.81
413.589	90.81
413.812	91.81
414.035	84.81
414.258	80.81
414.482	79.81
414.705	90.81
414.928	94.81
415.151	106.81
415.374	101.81
415.597	84.81
415.821	77.81
416.044	90.81
416.267	89.81
416.49	86.81
416.713	86.81
416.936	80.81
417.159	96.81
417.382	78.81
417.605	85.81
417.828	100.81
418.051	95.81
418.274	79.81
418.497	83.81
418.72	97.81
418.943	96.81
419.166	79.81
419.389	98.81
419.611	96.81
419.834	94.81
420.057	94.81
420.28	82.81
420.503	101.81
420.726	82.81
420.948	87.81
421.171	86.81
421.394	89.81
421.617	97.81
421.839	97.81
422.062	96.81
422.285	91.81
422.507	104.81
422.73	106.81
422.953	90.81
423.175	91.81
423.398	82.81
423.621	87.81
423.843	78.81
424.066	78.81
424.288	98.81
424.511	103.81
424.733	105.81
424.956	108.81
425.178	103.81
425.401	110.81
425.623	105.81
425.846	91.81
426.068	93.81
426.291	88.81
426.513	90.81
426.735	94.81
426.958	95.81
427.18	102.81
427.402	161.81
427.625	188.81
427.847	136.81
428.069	109.81
428.292	86.81
428.514	84.81
428.736	85.81
428.958	91.81
429.181	83.81
429.403	86.81
429.625	85.81
429.847	95.81
430.069	98.81
430.292	94.81
430.514	89.81
430.736	91.81
430.958	97.81
431.18	88.81
431.402	90.81
431.624	91.81
431.846	93.81
432.068	101.81
432.29	98.81
432.512	84.81
432.734	96.81
432.956	86.81
433.178	82.81
433.4	110.81
433.622	95.81
433.844	83.81
434.066	83.81
434.287	95.81
434.509	90.81
434.731	84.81
434.953	78.81
435.175	98.81
435.397	93.81
435.618	90.81
435.84	101.81
436.062	132.81
436.284	102.81
436.505	94.81
436.727	111.81
436.949	83.81
437.17	95.81
437.392	87.81
437.614	104.81
437.835	103.81
438.057	117.81
438.278	136.81
438.5	115.81
438.721	131.81
438.943	110.81
439.165	95.81
439.386	93.81
439.608	84.81
439.829	98.81
440.05	128.81
440.272	156.81
440.493	84.81
440.715	92.81
440.936	84.81
441.158	78.81
441.379	85.81
441.6	83.81
441.822	98.81
442.043	85.81
442.264	93.81
442.486	103.81
442.707	103.81
442.928	109.81
443.149	131.81
443.371	136.81
443.592	115.81
443.813	123.81
444.034	128.81
444.255	84.81
444.476	101.81
444.698	92.81
444.919	75.81
445.14	140.81
445.361	130.81
445.582	121.81
445.803	153.81
446.024	140.81
446.245	147.81
446.466	120.81
446.687	83.81
446.908	86.81
447.129	96.81
447.35	86.81
447.571	94.81
447.792	106.81
448.013	107.81
448.234	110.81
448.455	108.81
448.675	141.81
448.896	114.81
449.117	109.81
449.338	113.81
449.559	121.81
449.779	130.81
450	83.81
450.221	103.81
450.442	96.81
450.662	99.81
450.883	114.81
451.104	120.81
451.324	90.81
451.545	95.81
451.766	80.81
451.986	85.81
452.207	86.81
452.428	97.81
452.648	99.81
452.869	127.81
453.089	118.81
453.31	138.81
453.53	98.81
453.751	96.81
453.971	89.81
454.192	107.81
454.412	94.81
454.633	82.81
454.853	92.81
455.073	81.81
455.294	81.81
455.514	105.81
455.734	103.81
455.955	83.81
456.175	79.81
456.395	74.81
456.616	83.81
456.836	78.81
457.056	90.81
457.276	80.81
457.497	81.81
457.717	93.81
457.937	92.81
458.157	101.81
458.377	84.81
458.598	102.81
458.818	155.81
459.038	184.81
459.258	128.81
459.478	93.81
459.698	84.81
459.918	94.81
460.138	101.81
460.358	78.81
460.578	76.81
460.798	88.81
461.018	79.81
461.238	93.81
461.458	80.81
461.678	93.81
461.898	95.81
462.118	79.81
462.338	83.81
462.558	95.81
462.777	96.81
462.997	106.81
463.217	73.81
463.437	93.81
463.657	88.81
463.876	83.81
464.096	99.81
464.316	77.81
464.536	99.81
464.755	96.81
464.975	112.81
465.195	184.81
465.414	172.81
465.634	87.81
465.854	109.81
466.073	90.81
466.293	88.81
466.512	96.81
466.732	87.81
466.951	83.81
467.171	91.81
467.391	95.81
467.61	109.81
467.829	116.81
468.049	102.81
468.268	85.81
468.488	78.81
468.707	79.81
468.927	92.81
469.146	85.81
469.365	86.81
469.585	88.81
469.804	90.81
470.023	98.81
470.243	98.81
470.462	98.81
470.681	109.81
470.901	90.81
471.12	87.81
471.339	101.81
471.558	94.81
471.777	90.81
471.997	93.81
472.216	86.81
472.435	83.81
472.654	93.81
472.873	90.81
473.092	97.81
473.311	88.81
473.53	85.81
473.749	94.81
473.968	91.81
474.187	112.81
474.406	100.81
474.625	92.81
474.844	85.81
475.063	85.81
475.282	91.81
475.501	96.81
475.72	92.81
475.939	74.81
476.158	82.81
476.377	93.81
476.596	92.81
476.814	97.81
477.033	88.81
477.252	85.81
477.471	99.81
477.69	93.81
477.908	88.81
478.127	91.81
478.346	93.81
478.564	87.81
478.783	84.81
479.002	105.81
479.22	82.81
479.439	100.81
479.658	104.81
479.876	103.81
480.095	92.81
480.313	102.81
480.532	74.81
480.751	104.81
480.969	93.81
481.188	104.81
481.406	94.81
481.624	94.81
481.843	82.81
482.061	92.81
482.28	90.81
482.498	85.81
482.717	101.81
482.935	84.81
483.153	94.81
483.372	86.81
483.59	108.81
483.808	84.81
484.027	81.81
484.245	92.81
484.463	96.81
484.681	99.81
484.9	89.81
485.118	107.81
485.336	85.81
485.554	98.81
485.772	107.81
485.99	110.81
486.209	99.81
486.427	108.81
486.645	111.81
486.863	110.81
487.081	117.81
487.299	86.81
487.517	102.81
487.735	85.81
487.953	106.81
488.171	101.81
488.389	103.81
488.607	106.81
488.825	88.81
489.043	85.81
489.261	83.81
489.479	80.81
489.696	87.81
489.914	79.81
490.132	84.81
490.35	88.81
490.568	90.81
490.786	87.81
491.003	80.81
491.221	93.81
491.439	113.81
491.657	95.81
491.874	98.81
492.092	100.81
492.31	88.81
492.527	82.81
492.745	100.81
492.963	104.81
493.18	96.81
493.398	80.81
493.615	98.81
493.833	96.81
494.05	82.81
494.268	90.81
494.485	89.81
494.703	82.81
494.92	85.81
495.138	99.81
495.355	104.81
495.573	78.81
495.79	88.81
496.008	103.81
496.225	89.81
496.442	91.81
496.66	77.81
496.877	96.81
497.094	88.81
497.312	94.81
497.529	94.81
497.746	88.81
497.963	96.81
498.181	101.81
498.398	85.81
498.615	125.81
498.832	102.81
499.049	89.81
499.267	83.81
499.484	81.81
499.701	98.81
499.918	102.81
500.135	83.81
500.352	98.81
500.569	85.81
500.786	98.81
501.003	97.81
501.22	86.81
501.437	93.81
501.654	101.81
501.871	115.81
502.088	83.81
502.305	93.81
502.522	95.81
502.739	89.81
502.956	96.81
503.172	94.81
503.389	97.81
503.606	132.81
503.823	95.81
504.04	84.81
504.256	93.81
504.473	98.81
504.69	93.81
504.907	97.81
505.123	94.81
505.34	92.81
505.557	104.81
505.773	105.81
505.99	85.81
506.207	94.81
506.423	85.81
506.64	96.81
506.856	84.81
507.073	91.81
507.289	80.81
507.506	88.81
507.722	122.81
507.939	122.81
508.155	86.81
508.372	104.81
508.588	81.81
508.805	96.81
509.021	105.81
509.238	101.81
509.454	101.81
509.67	98.81
509.887	117.81
510.103	129.81
510.319	266.81
510.536	954.81
510.752	3077.81
510.968	828.81
511.184	192.81
511.401	136.81
511.617	105.81
511.833	102.81
512.049	89.81
512.265	92.81
512.481	99.81
512.698	101.81
512.914	109.81
513.13	98.81
513.346	91.81
513.562	106.81
513.778	97.81
513.994	90.81
514.21	120.81
514.426	126.81
514.642	153.81
514.858	143.81
515.074	191.81
515.29	560.81
