Data from Uncirc_2007_H10_HRD10591_00066.txt Node
Date: Wed Jan 03 10:20:55 EST 2024
User: Yrep
Spectrometer: HR+D1059
Trigger mode: 1
Integration Time (sec): 1.000000E-1
Scans to average: 1
Electric dark correction enabled: true
Nonlinearity correction enabled: false
Boxcar width: 0
XAxis mode: Wavelengths
Number of Pixels in Spectrum: 2048
>>>>>Begin Spectral Data<<<<<
223.165	-26.38
223.4	-26.38
223.635	-26.38
223.869	-30.38
224.104	-21.38
224.338	-18.38
224.573	-26.38
224.808	-16.38
225.042	-16.38
225.277	-2.38
225.511	6.62
225.746	3.62
225.98	14.62
226.215	15.62
226.449	23.62
226.683	16.62
226.918	34.62
227.152	42.62
227.387	38.62
227.621	38.62
227.856	57.62
228.09	43.62
228.324	56.62
228.559	44.62
228.793	49.62
229.027	55.62
229.262	57.62
229.496	69.62
229.73	80.62
229.964	92.62
230.199	62.62
230.433	73.62
230.667	75.62
230.901	70.62
231.136	81.62
231.37	71.62
231.604	69.62
231.838	81.62
232.072	82.62
232.306	85.62
232.541	77.62
232.775	82.62
233.009	60.62
233.243	78.62
233.477	77.62
233.711	71.62
233.945	81.62
234.179	81.62
234.413	75.62
234.647	68.62
234.881	87.62
235.115	70.62
235.349	72.62
235.583	77.62
235.817	66.62
236.051	59.62
236.285	76.62
236.519	60.62
236.753	66.62
236.987	84.62
237.221	89.62
237.455	96.62
237.689	76.62
237.922	82.62
238.156	77.62
238.39	68.62
238.624	80.62
238.858	79.62
239.091	69.62
239.325	77.62
239.559	86.62
239.793	79.62
240.027	66.62
240.26	78.62
240.494	80.62
240.728	79.62
240.961	77.62
241.195	73.62
241.429	71.62
241.662	69.62
241.896	88.62
242.13	59.62
242.363	73.62
242.597	69.62
242.83	75.62
243.064	54.62
243.298	79.62
243.531	76.62
243.765	83.62
243.998	72.62
244.232	79.62
244.465	69.62
244.699	79.62
244.932	82.62
245.166	61.62
245.399	72.62
245.633	74.62
245.866	79.62
246.099	68.62
246.333	70.62
246.566	65.62
246.8	80.62
247.033	82.62
247.266	88.62
247.5	71.62
247.733	79.62
247.966	65.62
248.2	80.62
248.433	86.62
248.666	60.62
248.899	71.62
249.133	82.62
249.366	82.62
249.599	94.62
249.832	85.62
250.066	81.62
250.299	77.62
250.532	63.62
250.765	71.62
250.998	67.62
251.231	82.62
251.465	81.62
251.698	79.62
251.931	79.62
252.164	71.62
252.397	77.62
252.63	77.62
252.863	80.62
253.096	64.62
253.329	60.62
253.562	78.62
253.795	74.62
254.028	87.62
254.261	80.62
254.494	93.62
254.727	80.62
254.96	65.62
255.193	74.62
255.426	72.62
255.659	67.62
255.892	90.62
256.124	89.62
256.357	93.62
256.59	80.62
256.823	80.62
257.056	82.62
257.289	80.62
257.521	74.62
257.754	75.62
257.987	82.62
258.22	82.62
258.452	97.62
258.685	75.62
258.918	72.62
259.151	73.62
259.383	72.62
259.616	78.62
259.849	90.62
260.081	72.62
260.314	85.62
260.547	84.62
260.779	75.62
261.012	77.62
261.244	86.62
261.477	95.62
261.71	89.62
261.942	101.62
262.175	107.62
262.407	85.62
262.64	76.62
262.872	85.62
263.105	83.62
263.337	87.62
263.57	77.62
263.802	88.62
264.035	96.62
264.267	78.62
264.499	73.62
264.732	82.62
264.964	75.62
265.197	74.62
265.429	73.62
265.661	77.62
265.894	88.62
266.126	69.62
266.358	87.62
266.591	66.62
266.823	83.62
267.055	87.62
267.287	82.62
267.52	75.62
267.752	91.62
267.984	79.62
268.216	72.62
268.448	67.62
268.681	88.62
268.913	70.62
269.145	84.62
269.377	88.62
269.609	84.62
269.841	80.62
270.073	69.62
270.306	86.62
270.538	100.62
270.77	85.62
271.002	81.62
271.234	81.62
271.466	70.62
271.698	88.62
271.93	96.62
272.162	95.62
272.394	86.62
272.626	89.62
272.858	79.62
273.09	83.62
273.322	80.62
273.553	90.62
273.785	76.62
274.017	71.62
274.249	81.62
274.481	77.62
274.713	87.62
274.945	86.62
275.176	79.62
275.408	78.62
275.64	94.62
275.872	77.62
276.104	86.62
276.335	89.62
276.567	102.62
276.799	105.62
277.031	85.62
277.262	96.62
277.494	68.62
277.726	79.62
277.957	86.62
278.189	83.62
278.421	83.62
278.652	73.62
278.884	71.62
279.115	81.62
279.347	91.62
279.579	90.62
279.81	80.62
280.042	85.62
280.273	80.62
280.505	89.62
280.736	75.62
280.968	79.62
281.199	87.62
281.431	83.62
281.662	79.62
281.894	101.62
282.125	104.62
282.356	124.62
282.588	165.62
282.819	113.62
283.051	97.62
283.282	70.62
283.513	92.62
283.745	91.62
283.976	84.62
284.207	77.62
284.439	89.62
284.67	80.62
284.901	88.62
285.132	78.62
285.364	84.62
285.595	90.62
285.826	88.62
286.057	86.62
286.288	68.62
286.52	87.62
286.751	81.62
286.982	96.62
287.213	96.62
287.444	80.62
287.675	78.62
287.906	94.62
288.138	87.62
288.369	77.62
288.6	93.62
288.831	74.62
289.062	93.62
289.293	76.62
289.524	76.62
289.755	73.62
289.986	97.62
290.217	67.62
290.448	72.62
290.679	105.62
290.91	95.62
291.141	83.62
291.371	82.62
291.602	80.62
291.833	90.62
292.064	95.62
292.295	84.62
292.526	92.62
292.757	82.62
292.987	86.62
293.218	81.62
293.449	73.62
293.68	92.62
293.91	89.62
294.141	67.62
294.372	81.62
294.603	75.62
294.833	81.62
295.064	85.62
295.295	93.62
295.525	93.62
295.756	69.62
295.987	118.62
296.217	139.62
296.448	120.62
296.679	84.62
296.909	86.62
297.14	92.62
297.37	87.62
297.601	75.62
297.831	79.62
298.062	80.62
298.292	89.62
298.523	94.62
298.753	85.62
298.984	89.62
299.214	83.62
299.445	82.62
299.675	90.62
299.905	91.62
300.136	68.62
300.366	88.62
300.597	86.62
300.827	91.62
301.057	93.62
301.288	105.62
301.518	79.62
301.748	87.62
301.979	97.62
302.209	83.62
302.439	88.62
302.669	91.62
302.9	81.62
303.13	67.62
303.36	77.62
303.59	102.62
303.82	117.62
304.051	89.62
304.281	90.62
304.511	98.62
304.741	83.62
304.971	85.62
305.201	86.62
305.431	83.62
305.661	77.62
305.891	105.62
306.121	86.62
306.352	84.62
306.582	105.62
306.812	89.62
307.042	82.62
307.272	88.62
307.502	90.62
307.731	78.62
307.961	93.62
308.191	71.62
308.421	87.62
308.651	100.62
308.881	91.62
309.111	92.62
309.341	81.62
309.571	93.62
309.8	77.62
310.03	89.62
310.26	94.62
310.49	97.62
310.72	93.62
310.949	105.62
311.179	95.62
311.409	91.62
311.639	82.62
311.868	68.62
312.098	93.62
312.328	77.62
312.557	94.62
312.787	90.62
313.017	87.62
313.246	77.62
313.476	91.62
313.706	90.62
313.935	94.62
314.165	96.62
314.394	100.62
314.624	98.62
314.853	106.62
315.083	96.62
315.312	85.62
315.542	86.62
315.771	86.62
316.001	80.62
316.23	94.62
316.46	99.62
316.689	95.62
316.919	88.62
317.148	89.62
317.377	79.62
317.607	87.62
317.836	79.62
318.065	79.62
318.295	74.62
318.524	88.62
318.753	93.62
318.983	97.62
319.212	91.62
319.441	104.62
319.67	85.62
319.9	93.62
320.129	90.62
320.358	81.62
320.587	97.62
320.816	92.62
321.046	90.62
321.275	96.62
321.504	91.62
321.733	100.62
321.962	95.62
322.191	93.62
322.42	99.62
322.649	96.62
322.878	101.62
323.108	111.62
323.337	119.62
323.566	140.62
323.795	167.62
324.024	223.62
324.253	463.62
324.482	1014.62
324.71	2118.62
324.939	2770.62
325.168	972.62
325.397	285.62
325.626	160.62
325.855	132.62
326.084	127.62
326.313	135.62
326.542	159.62
326.77	268.62
326.999	536.62
327.228	1142.62
327.457	2185.62
327.686	1654.62
327.914	422.62
328.143	205.62
328.372	141.62
328.6	119.62
328.829	125.62
329.058	134.62
329.287	124.62
329.515	109.62
329.744	99.62
329.972	90.62
330.201	105.62
330.43	116.62
330.658	128.62
330.887	130.62
331.115	124.62
331.344	98.62
331.572	105.62
331.801	103.62
332.03	99.62
332.258	90.62
332.486	96.62
332.715	87.62
332.943	87.62
333.172	94.62
333.4	93.62
333.629	100.62
333.857	121.62
334.085	94.62
334.314	96.62
334.542	107.62
334.771	89.62
334.999	81.62
335.227	100.62
335.455	85.62
335.684	91.62
335.912	93.62
336.14	103.62
336.369	101.62
336.597	86.62
336.825	92.62
337.053	77.62
337.281	103.62
337.51	81.62
337.738	97.62
337.966	88.62
338.194	95.62
338.422	91.62
338.65	96.62
338.878	90.62
339.106	88.62
339.334	90.62
339.562	79.62
339.79	80.62
340.018	90.62
340.246	86.62
340.474	93.62
340.702	78.62
340.93	72.62
341.158	89.62
341.386	104.62
341.614	93.62
341.842	89.62
342.07	91.62
342.298	80.62
342.526	80.62
342.754	86.62
342.981	94.62
343.209	83.62
343.437	87.62
343.665	82.62
343.893	81.62
344.12	88.62
344.348	97.62
344.576	103.62
344.804	91.62
345.031	91.62
345.259	87.62
345.487	90.62
345.714	85.62
345.942	100.62
346.17	91.62
346.397	93.62
346.625	89.62
346.853	94.62
347.08	91.62
347.308	103.62
347.535	96.62
347.763	85.62
347.99	92.62
348.218	105.62
348.445	104.62
348.673	81.62
348.9	86.62
349.128	103.62
349.355	97.62
349.583	90.62
349.81	98.62
350.037	97.62
350.265	90.62
350.492	79.62
350.72	87.62
350.947	87.62
351.174	108.62
351.402	98.62
351.629	104.62
351.856	109.62
352.083	104.62
352.311	106.62
352.538	92.62
352.765	93.62
352.992	113.62
353.22	105.62
353.447	103.62
353.674	103.62
353.901	102.62
354.128	96.62
354.355	94.62
354.583	93.62
354.81	84.62
355.037	82.62
355.264	89.62
355.491	85.62
355.718	89.62
355.945	95.62
356.172	94.62
356.399	82.62
356.626	97.62
356.853	93.62
357.08	95.62
357.307	97.62
357.534	89.62
357.761	106.62
357.988	94.62
358.215	87.62
358.441	108.62
358.668	81.62
358.895	91.62
359.122	91.62
359.349	73.62
359.576	94.62
359.802	104.62
360.029	109.62
360.256	108.62
360.483	101.62
360.709	82.62
360.936	97.62
361.163	85.62
361.39	82.62
361.616	90.62
361.843	105.62
362.07	98.62
362.296	101.62
362.523	76.62
362.749	75.62
362.976	96.62
363.203	94.62
363.429	82.62
363.656	100.62
363.882	73.62
364.109	93.62
364.335	86.62
364.562	76.62
364.788	96.62
365.015	86.62
365.241	85.62
365.468	94.62
365.694	107.62
365.92	98.62
366.147	98.62
366.373	79.62
366.599	92.62
366.826	76.62
367.052	95.62
367.278	93.62
367.505	94.62
367.731	97.62
367.957	88.62
368.184	93.62
368.41	91.62
368.636	106.62
368.862	108.62
369.089	120.62
369.315	86.62
369.541	101.62
369.767	78.62
369.993	73.62
370.219	78.62
370.445	81.62
370.672	64.62
370.898	86.62
371.124	92.62
371.35	78.62
371.576	82.62
371.802	89.62
372.028	74.62
372.254	92.62
372.48	73.62
372.706	82.62
372.932	92.62
373.158	80.62
373.384	72.62
373.61	92.62
373.835	84.62
374.061	86.62
374.287	81.62
374.513	92.62
374.739	89.62
374.965	80.62
375.191	88.62
375.416	101.62
375.642	82.62
375.868	93.62
376.094	90.62
376.319	84.62
376.545	95.62
376.771	78.62
376.997	98.62
377.222	96.62
377.448	95.62
377.674	86.62
377.899	90.62
378.125	95.62
378.35	89.62
378.576	81.62
378.802	99.62
379.027	79.62
379.253	94.62
379.478	93.62
379.704	70.62
379.929	87.62
380.155	84.62
380.38	84.62
380.606	76.62
380.831	96.62
381.057	90.62
381.282	88.62
381.507	93.62
381.733	98.62
381.958	100.62
382.184	77.62
382.409	99.62
382.634	104.62
382.86	96.62
383.085	96.62
383.31	101.62
383.535	97.62
383.761	92.62
383.986	93.62
384.211	88.62
384.436	90.62
384.662	88.62
384.887	103.62
385.112	101.62
385.337	106.62
385.562	109.62
385.787	101.62
386.013	92.62
386.238	100.62
386.463	98.62
386.688	90.62
386.913	88.62
387.138	97.62
387.363	96.62
387.588	101.62
387.813	103.62
388.038	102.62
388.263	95.62
388.488	109.62
388.713	95.62
388.938	91.62
389.163	85.62
389.387	96.62
389.612	100.62
389.837	85.62
390.062	92.62
390.287	82.62
390.512	80.62
390.736	86.62
390.961	94.62
391.186	80.62
391.411	86.62
391.636	98.62
391.86	88.62
392.085	85.62
392.31	83.62
392.534	101.62
392.759	92.62
392.984	78.62
393.208	81.62
393.433	95.62
393.658	61.62
393.882	76.62
394.107	74.62
394.331	89.62
394.556	85.62
394.78	77.62
395.005	62.62
395.229	87.62
395.454	93.62
395.678	84.62
395.903	90.62
396.127	80.62
396.352	94.62
396.576	86.62
396.801	80.62
397.025	86.62
397.249	81.62
397.474	84.62
397.698	88.62
397.922	88.62
398.147	92.62
398.371	82.62
398.595	93.62
398.82	85.62
399.044	79.62
399.268	86.62
399.492	90.62
399.717	87.62
399.941	75.62
400.165	90.62
400.389	81.62
400.613	77.62
400.837	88.62
401.062	78.62
401.286	95.62
401.51	74.62
401.734	87.62
401.958	101.62
402.182	135.62
402.406	164.62
402.63	110.62
402.854	86.62
403.078	83.62
403.302	86.62
403.526	72.62
403.75	90.62
403.974	88.62
404.198	78.62
404.422	78.62
404.645	80.62
404.869	77.62
405.093	86.62
405.317	87.62
405.541	97.62
405.765	86.62
405.988	116.62
406.212	203.62
406.436	256.62
406.66	133.62
406.883	102.62
407.107	96.62
407.331	93.62
407.555	73.62
407.778	93.62
408.002	85.62
408.226	92.62
408.449	90.62
408.673	91.62
408.896	89.62
409.12	83.62
409.344	89.62
409.567	82.62
409.791	77.62
410.014	79.62
410.238	93.62
410.461	79.62
410.685	100.62
410.908	92.62
411.132	108.62
411.355	105.62
411.578	108.62
411.802	98.62
412.025	94.62
412.249	88.62
412.472	87.62
412.695	59.62
412.919	74.62
413.142	68.62
413.365	74.62
413.589	85.62
413.812	84.62
414.035	92.62
414.258	89.62
414.482	70.62
414.705	86.62
414.928	89.62
415.151	82.62
415.374	95.62
415.597	92.62
415.821	103.62
416.044	81.62
416.267	79.62
416.49	82.62
416.713	90.62
416.936	91.62
417.159	89.62
417.382	85.62
417.605	92.62
417.828	86.62
418.051	87.62
418.274	79.62
418.497	88.62
418.72	98.62
418.943	77.62
419.166	76.62
419.389	87.62
419.611	70.62
419.834	90.62
420.057	81.62
420.28	80.62
420.503	74.62
420.726	77.62
420.948	84.62
421.171	95.62
421.394	93.62
421.617	95.62
421.839	93.62
422.062	77.62
422.285	72.62
422.507	90.62
422.73	108.62
422.953	97.62
423.175	71.62
423.398	93.62
423.621	80.62
423.843	72.62
424.066	77.62
424.288	69.62
424.511	89.62
424.733	99.62
424.956	111.62
425.178	101.62
425.401	121.62
425.623	107.62
425.846	78.62
426.068	88.62
426.291	82.62
426.513	88.62
426.735	84.62
426.958	93.62
427.18	115.62
427.402	152.62
427.625	169.62
427.847	127.62
428.069	107.62
428.292	81.62
428.514	71.62
428.736	72.62
428.958	92.62
429.181	87.62
429.403	74.62
429.625	93.62
429.847	90.62
430.069	102.62
430.292	90.62
430.514	88.62
430.736	88.62
430.958	80.62
431.18	85.62
431.402	85.62
431.624	82.62
431.846	78.62
432.068	79.62
432.29	88.62
432.512	104.62
432.734	89.62
432.956	79.62
433.178	89.62
433.4	108.62
433.622	100.62
433.844	88.62
434.066	95.62
434.287	93.62
434.509	88.62
434.731	88.62
434.953	78.62
435.175	89.62
435.397	83.62
435.618	92.62
435.84	98.62
436.062	129.62
436.284	109.62
436.505	102.62
436.727	107.62
436.949	94.62
437.17	82.62
437.392	79.62
437.614	90.62
437.835	106.62
438.057	127.62
438.278	120.62
438.5	104.62
438.721	119.62
438.943	98.62
439.165	85.62
439.386	93.62
439.608	92.62
439.829	86.62
440.05	109.62
440.272	157.62
440.493	112.62
440.715	91.62
440.936	87.62
441.158	78.62
441.379	80.62
441.6	99.62
441.822	86.62
442.043	85.62
442.264	112.62
442.486	99.62
442.707	85.62
442.928	102.62
443.149	145.62
443.371	116.62
443.592	110.62
443.813	111.62
444.034	90.62
444.255	87.62
444.476	87.62
444.698	88.62
444.919	85.62
445.14	116.62
445.361	106.62
445.582	120.62
445.803	157.62
446.024	144.62
446.245	152.62
446.466	111.62
446.687	79.62
446.908	77.62
447.129	88.62
447.35	88.62
447.571	101.62
447.792	81.62
448.013	94.62
448.234	91.62
448.455	82.62
448.675	116.62
448.896	109.62
449.117	107.62
449.338	97.62
449.559	138.62
449.779	137.62
450	93.62
450.221	77.62
450.442	90.62
450.662	92.62
450.883	80.62
451.104	109.62
451.324	91.62
451.545	88.62
451.766	77.62
451.986	76.62
452.207	81.62
452.428	90.62
452.648	106.62
452.869	94.62
453.089	113.62
453.31	113.62
453.53	86.62
453.751	99.62
453.971	107.62
454.192	121.62
454.412	91.62
454.633	81.62
454.853	82.62
455.073	82.62
455.294	76.62
455.514	91.62
455.734	87.62
455.955	93.62
456.175	81.62
456.395	81.62
456.616	88.62
456.836	86.62
457.056	76.62
457.276	87.62
457.497	99.62
457.717	77.62
457.937	88.62
458.157	85.62
458.377	80.62
458.598	102.62
458.818	160.62
459.038	167.62
459.258	113.62
459.478	89.62
459.698	88.62
459.918	84.62
460.138	89.62
460.358	76.62
460.578	84.62
460.798	79.62
461.018	82.62
461.238	91.62
461.458	80.62
461.678	82.62
461.898	79.62
462.118	95.62
462.338	76.62
462.558	74.62
462.777	64.62
462.997	79.62
463.217	82.62
463.437	91.62
463.657	102.62
463.876	76.62
464.096	76.62
464.316	81.62
464.536	93.62
464.755	91.62
464.975	103.62
465.195	192.62
465.414	172.62
465.634	87.62
465.854	78.62
466.073	89.62
466.293	68.62
466.512	92.62
466.732	84.62
466.951	78.62
467.171	80.62
467.391	84.62
467.61	97.62
467.829	102.62
468.049	82.62
468.268	82.62
468.488	81.62
468.707	70.62
468.927	76.62
469.146	80.62
469.365	80.62
469.585	89.62
469.804	99.62
470.023	90.62
470.243	102.62
470.462	95.62
470.681	122.62
470.901	86.62
471.12	76.62
471.339	84.62
471.558	86.62
471.777	81.62
471.997	69.62
472.216	94.62
472.435	91.62
472.654	89.62
472.873	93.62
473.092	87.62
473.311	90.62
473.53	87.62
473.749	76.62
473.968	88.62
474.187	101.62
474.406	114.62
474.625	86.62
474.844	95.62
475.063	89.62
475.282	78.62
475.501	81.62
475.72	85.62
475.939	88.62
476.158	81.62
476.377	78.62
476.596	80.62
476.814	78.62
477.033	92.62
477.252	75.62
477.471	74.62
477.69	83.62
477.908	69.62
478.127	84.62
478.346	84.62
478.564	87.62
478.783	92.62
479.002	102.62
479.22	81.62
479.439	95.62
479.658	106.62
479.876	98.62
480.095	93.62
480.313	93.62
480.532	89.62
480.751	92.62
480.969	93.62
481.188	95.62
481.406	86.62
481.624	92.62
481.843	81.62
482.061	96.62
482.28	84.62
482.498	83.62
482.717	88.62
482.935	94.62
483.153	79.62
483.372	62.62
483.59	58.62
483.808	80.62
484.027	77.62
484.245	81.62
484.463	92.62
484.681	81.62
484.9	92.62
485.118	89.62
485.336	80.62
485.554	87.62
485.772	108.62
485.99	86.62
486.209	95.62
486.427	104.62
486.645	106.62
486.863	117.62
487.081	80.62
487.299	88.62
487.517	101.62
487.735	88.62
487.953	81.62
488.171	93.62
488.389	92.62
488.607	100.62
488.825	85.62
489.043	103.62
489.261	91.62
489.479	93.62
489.696	78.62
489.914	79.62
490.132	87.62
490.35	80.62
490.568	85.62
490.786	88.62
491.003	79.62
491.221	93.62
491.439	98.62
491.657	89.62
491.874	104.62
492.092	94.62
492.31	82.62
492.527	75.62
492.745	94.62
492.963	80.62
493.18	85.62
493.398	91.62
493.615	98.62
493.833	90.62
494.05	91.62
494.268	90.62
494.485	92.62
494.703	93.62
494.92	87.62
495.138	74.62
495.355	78.62
495.573	76.62
495.79	96.62
496.008	93.62
496.225	86.62
496.442	83.62
496.66	99.62
496.877	78.62
497.094	78.62
497.312	85.62
497.529	85.62
497.746	73.62
497.963	84.62
498.181	93.62
498.398	88.62
498.615	105.62
498.832	110.62
499.049	79.62
499.267	76.62
499.484	84.62
499.701	75.62
499.918	90.62
500.135	88.62
500.352	79.62
500.569	90.62
500.786	80.62
501.003	95.62
501.22	81.62
501.437	97.62
501.654	86.62
501.871	90.62
502.088	82.62
502.305	81.62
502.522	88.62
502.739	109.62
502.956	91.62
503.172	67.62
503.389	89.62
503.606	93.62
503.823	70.62
504.04	75.62
504.256	96.62
504.473	87.62
504.69	83.62
504.907	89.62
505.123	105.62
505.34	87.62
505.557	96.62
505.773	94.62
505.99	99.62
506.207	79.62
506.423	81.62
506.64	91.62
506.856	74.62
507.073	65.62
507.289	93.62
507.506	101.62
507.722	103.62
507.939	132.62
508.155	93.62
508.372	88.62
508.588	92.62
508.805	94.62
509.021	76.62
509.238	104.62
509.454	95.62
509.67	107.62
509.887	107.62
510.103	134.62
510.319	232.62
510.536	860.62
510.752	2836.62
510.968	794.62
511.184	150.62
511.401	106.62
511.617	100.62
511.833	87.62
512.049	80.62
512.265	92.62
512.481	82.62
512.698	88.62
512.914	94.62
513.13	94.62
513.346	88.62
513.562	81.62
513.778	88.62
513.994	108.62
514.21	102.62
514.426	127.62
514.642	133.62
514.858	131.62
515.074	157.62
515.29	530.62
515.506	1711.62
515.721	602.62
515.937	174.62
516.153	110.62
516.369	101.62
516.585	102.62
