Data from Uncirc_2007_H10_HRD10591_00079.txt Node
Date: Wed Jan 03 10:20:58 EST 2024
User: Yrep
Spectrometer: HR+D1059
Trigger mode: 1
Integration Time (sec): 1.000000E-1
Scans to average: 1
Electric dark correction enabled: true
Nonlinearity correction enabled: false
Boxcar width: 0
XAxis mode: Wavelengths
Number of Pixels in Spectrum: 2048
>>>>>Begin Spectral Data<<<<<
223.165	-17.25
223.4	-17.25
223.635	-17.25
223.869	-6.25
224.104	-21.25
224.338	-3.25
224.573	-11.25
224.808	-21.25
225.042	0.75
225.277	-3.25
225.511	-18.25
225.746	-5.25
225.98	0.75
226.215	-1.25
226.449	20.75
226.683	33.75
226.918	17.75
227.152	34.75
227.387	36.75
227.621	40.75
227.856	60.75
228.09	46.75
228.324	63.75
228.559	50.75
228.793	63.75
229.027	59.75
229.262	63.75
229.496	85.75
229.73	87.75
229.964	95.75
230.199	69.75
230.433	74.75
230.667	78.75
230.901	82.75
231.136	82.75
231.37	98.75
231.604	88.75
231.838	69.75
232.072	81.75
232.306	66.75
232.541	91.75
232.775	90.75
233.009	75.75
233.243	80.75
233.477	67.75
233.711	88.75
233.945	93.75
234.179	68.75
234.413	83.75
234.647	88.75
234.881	75.75
235.115	87.75
235.349	95.75
235.583	86.75
235.817	82.75
236.051	80.75
236.285	63.75
236.519	81.75
236.753	86.75
236.987	85.75
237.221	108.75
237.455	88.75
237.689	84.75
237.922	75.75
238.156	74.75
238.39	69.75
238.624	74.75
238.858	85.75
239.091	99.75
239.325	78.75
239.559	67.75
239.793	79.75
240.027	82.75
240.26	71.75
240.494	79.75
240.728	77.75
240.961	74.75
241.195	83.75
241.429	82.75
241.662	81.75
241.896	81.75
242.13	80.75
242.363	96.75
242.597	79.75
242.83	89.75
243.064	67.75
243.298	75.75
243.531	82.75
243.765	85.75
243.998	84.75
244.232	81.75
244.465	88.75
244.699	73.75
244.932	75.75
245.166	78.75
245.399	79.75
245.633	78.75
245.866	93.75
246.099	81.75
246.333	85.75
246.566	80.75
246.8	72.75
247.033	72.75
247.266	90.75
247.5	76.75
247.733	86.75
247.966	77.75
248.2	84.75
248.433	79.75
248.666	86.75
248.899	78.75
249.133	97.75
249.366	94.75
249.599	100.75
249.832	82.75
250.066	94.75
250.299	81.75
250.532	82.75
250.765	78.75
250.998	67.75
251.231	100.75
251.465	83.75
251.698	92.75
251.931	89.75
252.164	85.75
252.397	95.75
252.63	94.75
252.863	83.75
253.096	89.75
253.329	93.75
253.562	73.75
253.795	87.75
254.028	71.75
254.261	91.75
254.494	68.75
254.727	78.75
254.96	73.75
255.193	95.75
255.426	68.75
255.659	91.75
255.892	84.75
256.124	94.75
256.357	84.75
256.59	83.75
256.823	68.75
257.056	90.75
257.289	78.75
257.521	76.75
257.754	99.75
257.987	90.75
258.22	94.75
258.452	77.75
258.685	89.75
258.918	74.75
259.151	86.75
259.383	88.75
259.616	90.75
259.849	93.75
260.081	93.75
260.314	91.75
260.547	78.75
260.779	90.75
261.012	62.75
261.244	86.75
261.477	79.75
261.71	95.75
261.942	118.75
262.175	107.75
262.407	78.75
262.64	78.75
262.872	82.75
263.105	93.75
263.337	85.75
263.57	81.75
263.802	81.75
264.035	97.75
264.267	83.75
264.499	68.75
264.732	88.75
264.964	91.75
265.197	87.75
265.429	96.75
265.661	94.75
265.894	86.75
266.126	78.75
266.358	79.75
266.591	89.75
266.823	93.75
267.055	96.75
267.287	86.75
267.52	88.75
267.752	85.75
267.984	93.75
268.216	74.75
268.448	83.75
268.681	60.75
268.913	82.75
269.145	84.75
269.377	88.75
269.609	92.75
269.841	84.75
270.073	88.75
270.306	87.75
270.538	78.75
270.77	87.75
271.002	86.75
271.234	87.75
271.466	86.75
271.698	73.75
271.93	85.75
272.162	105.75
272.394	84.75
272.626	82.75
272.858	80.75
273.09	90.75
273.322	84.75
273.553	89.75
273.785	88.75
274.017	82.75
274.249	81.75
274.481	84.75
274.713	79.75
274.945	94.75
275.176	88.75
275.408	106.75
275.64	101.75
275.872	90.75
276.104	97.75
276.335	113.75
276.567	108.75
276.799	112.75
277.031	109.75
277.262	86.75
277.494	96.75
277.726	87.75
277.957	83.75
278.189	89.75
278.421	98.75
278.652	80.75
278.884	85.75
279.115	89.75
279.347	85.75
279.579	93.75
279.81	79.75
280.042	77.75
280.273	80.75
280.505	79.75
280.736	90.75
280.968	85.75
281.199	87.75
281.431	87.75
281.662	77.75
281.894	99.75
282.125	94.75
282.356	111.75
282.588	146.75
282.819	125.75
283.051	92.75
283.282	92.75
283.513	91.75
283.745	94.75
283.976	90.75
284.207	85.75
284.439	90.75
284.67	92.75
284.901	95.75
285.132	75.75
285.364	100.75
285.595	92.75
285.826	86.75
286.057	94.75
286.288	98.75
286.52	92.75
286.751	81.75
286.982	99.75
287.213	78.75
287.444	98.75
287.675	79.75
287.906	82.75
288.138	88.75
288.369	89.75
288.6	109.75
288.831	81.75
289.062	94.75
289.293	99.75
289.524	79.75
289.755	83.75
289.986	90.75
290.217	87.75
290.448	85.75
290.679	98.75
290.91	85.75
291.141	87.75
291.371	81.75
291.602	95.75
291.833	93.75
292.064	93.75
292.295	106.75
292.526	99.75
292.757	88.75
292.987	102.75
293.218	93.75
293.449	91.75
293.68	85.75
293.91	82.75
294.141	87.75
294.372	102.75
294.603	90.75
294.833	93.75
295.064	100.75
295.295	99.75
295.525	93.75
295.756	105.75
295.987	123.75
296.217	151.75
296.448	112.75
296.679	98.75
296.909	93.75
297.14	98.75
297.37	85.75
297.601	105.75
297.831	94.75
298.062	98.75
298.292	98.75
298.523	91.75
298.753	100.75
298.984	108.75
299.214	85.75
299.445	89.75
299.675	81.75
299.905	106.75
300.136	87.75
300.366	92.75
300.597	87.75
300.827	99.75
301.057	91.75
301.288	107.75
301.518	104.75
301.748	91.75
301.979	104.75
302.209	113.75
302.439	92.75
302.669	92.75
302.9	89.75
303.13	98.75
303.36	97.75
303.59	96.75
303.82	111.75
304.051	92.75
304.281	99.75
304.511	97.75
304.741	91.75
304.971	82.75
305.201	79.75
305.431	85.75
305.661	86.75
305.891	96.75
306.121	110.75
306.352	88.75
306.582	99.75
306.812	100.75
307.042	82.75
307.272	93.75
307.502	91.75
307.731	92.75
307.961	91.75
308.191	99.75
308.421	94.75
308.651	86.75
308.881	100.75
309.111	105.75
309.341	91.75
309.571	108.75
309.8	111.75
310.03	111.75
310.26	99.75
310.49	109.75
310.72	102.75
310.949	103.75
311.179	102.75
311.409	107.75
311.639	88.75
311.868	99.75
312.098	96.75
312.328	98.75
312.557	102.75
312.787	113.75
313.017	105.75
313.246	98.75
313.476	88.75
313.706	106.75
313.935	100.75
314.165	100.75
314.394	114.75
314.624	103.75
314.853	92.75
315.083	90.75
315.312	101.75
315.542	104.75
315.771	111.75
316.001	105.75
316.23	94.75
316.46	88.75
316.689	99.75
316.919	90.75
317.148	103.75
317.377	92.75
317.607	90.75
317.836	96.75
318.065	92.75
318.295	114.75
318.524	95.75
318.753	92.75
318.983	98.75
319.212	96.75
319.441	114.75
319.67	106.75
319.9	94.75
320.129	107.75
320.358	103.75
320.587	94.75
320.816	103.75
321.046	111.75
321.275	111.75
321.504	103.75
321.733	94.75
321.962	104.75
322.191	101.75
322.42	105.75
322.649	121.75
322.878	129.75
323.108	146.75
323.337	116.75
323.566	132.75
323.795	172.75
324.024	235.75
324.253	438.75
324.482	966.75
324.71	1979.75
324.939	2565.75
325.168	932.75
325.397	278.75
325.626	175.75
325.855	145.75
326.084	140.75
326.313	139.75
326.542	166.75
326.77	268.75
326.999	526.75
327.228	1115.75
327.457	2032.75
327.686	1583.75
327.914	420.75
328.143	207.75
328.372	153.75
328.6	129.75
328.829	123.75
329.058	124.75
329.287	129.75
329.515	115.75
329.744	96.75
329.972	107.75
330.201	93.75
330.43	95.75
330.658	127.75
330.887	141.75
331.115	120.75
331.344	105.75
331.572	111.75
331.801	101.75
332.03	105.75
332.258	95.75
332.486	93.75
332.715	96.75
332.943	106.75
333.172	106.75
333.4	102.75
333.629	109.75
333.857	115.75
334.085	115.75
334.314	96.75
334.542	86.75
334.771	106.75
334.999	102.75
335.227	99.75
335.455	107.75
335.684	91.75
335.912	107.75
336.14	80.75
336.369	100.75
336.597	104.75
336.825	98.75
337.053	94.75
337.281	91.75
337.51	95.75
337.738	94.75
337.966	93.75
338.194	104.75
338.422	83.75
338.65	86.75
338.878	99.75
339.106	101.75
339.334	96.75
339.562	79.75
339.79	97.75
340.018	86.75
340.246	89.75
340.474	98.75
340.702	105.75
340.93	104.75
341.158	93.75
341.386	108.75
341.614	110.75
341.842	107.75
342.07	105.75
342.298	99.75
342.526	93.75
342.754	92.75
342.981	107.75
343.209	103.75
343.437	110.75
343.665	109.75
343.893	103.75
344.12	103.75
344.348	82.75
344.576	101.75
344.804	83.75
345.031	92.75
345.259	103.75
345.487	114.75
345.714	90.75
345.942	86.75
346.17	75.75
346.397	78.75
346.625	107.75
346.853	110.75
347.08	98.75
347.308	99.75
347.535	98.75
347.763	107.75
347.99	105.75
348.218	106.75
348.445	94.75
348.673	94.75
348.9	93.75
349.128	99.75
349.355	109.75
349.583	99.75
349.81	105.75
350.037	102.75
350.265	99.75
350.492	97.75
350.72	99.75
350.947	98.75
351.174	126.75
351.402	116.75
351.629	105.75
351.856	119.75
352.083	89.75
352.311	118.75
352.538	119.75
352.765	121.75
352.992	122.75
353.22	112.75
353.447	107.75
353.674	115.75
353.901	96.75
354.128	92.75
354.355	103.75
354.583	96.75
354.81	102.75
355.037	87.75
355.264	108.75
355.491	106.75
355.718	106.75
355.945	95.75
356.172	90.75
356.399	102.75
356.626	99.75
356.853	99.75
357.08	81.75
357.307	105.75
357.534	80.75
357.761	99.75
357.988	95.75
358.215	87.75
358.441	101.75
358.668	92.75
358.895	107.75
359.122	82.75
359.349	93.75
359.576	97.75
359.802	96.75
360.029	107.75
360.256	115.75
360.483	106.75
360.709	88.75
360.936	101.75
361.163	92.75
361.39	107.75
361.616	86.75
361.843	99.75
362.07	105.75
362.296	95.75
362.523	98.75
362.749	90.75
362.976	93.75
363.203	87.75
363.429	101.75
363.656	87.75
363.882	93.75
364.109	96.75
364.335	94.75
364.562	84.75
364.788	86.75
365.015	98.75
365.241	103.75
365.468	83.75
365.694	109.75
365.92	98.75
366.147	95.75
366.373	98.75
366.599	79.75
366.826	95.75
367.052	91.75
367.278	90.75
367.505	93.75
367.731	106.75
367.957	92.75
368.184	79.75
368.41	90.75
368.636	112.75
368.862	133.75
369.089	125.75
369.315	111.75
369.541	95.75
369.767	97.75
369.993	89.75
370.219	95.75
370.445	94.75
370.672	89.75
370.898	101.75
371.124	91.75
371.35	80.75
371.576	93.75
371.802	90.75
372.028	85.75
372.254	93.75
372.48	99.75
372.706	89.75
372.932	93.75
373.158	101.75
373.384	96.75
373.61	103.75
373.835	93.75
374.061	91.75
374.287	95.75
374.513	110.75
374.739	93.75
374.965	87.75
375.191	89.75
375.416	94.75
375.642	91.75
375.868	79.75
376.094	94.75
376.319	94.75
376.545	85.75
376.771	111.75
376.997	100.75
377.222	84.75
377.448	91.75
377.674	95.75
377.899	107.75
378.125	86.75
378.35	94.75
378.576	96.75
378.802	99.75
379.027	107.75
379.253	102.75
379.478	98.75
379.704	100.75
379.929	86.75
380.155	86.75
380.38	96.75
380.606	96.75
380.831	104.75
381.057	97.75
381.282	82.75
381.507	101.75
381.733	93.75
381.958	89.75
382.184	95.75
382.409	117.75
382.634	104.75
382.86	91.75
383.085	98.75
383.31	92.75
383.535	103.75
383.761	99.75
383.986	97.75
384.211	100.75
384.436	101.75
384.662	95.75
384.887	94.75
385.112	105.75
385.337	108.75
385.562	108.75
385.787	96.75
386.013	125.75
386.238	105.75
386.463	109.75
386.688	112.75
386.913	99.75
387.138	101.75
387.363	101.75
387.588	95.75
387.813	101.75
388.038	108.75
388.263	95.75
388.488	114.75
388.713	101.75
388.938	89.75
389.163	98.75
389.387	95.75
389.612	102.75
389.837	97.75
390.062	94.75
390.287	96.75
390.512	101.75
390.736	99.75
390.961	107.75
391.186	108.75
391.411	98.75
391.636	85.75
391.86	82.75
392.085	87.75
392.31	85.75
392.534	94.75
392.759	90.75
392.984	94.75
393.208	91.75
393.433	81.75
393.658	90.75
393.882	85.75
394.107	87.75
394.331	96.75
394.556	92.75
394.78	95.75
395.005	96.75
395.229	94.75
395.454	89.75
395.678	92.75
395.903	106.75
396.127	96.75
396.352	106.75
396.576	86.75
396.801	100.75
397.025	84.75
397.249	82.75
397.474	105.75
397.698	102.75
397.922	107.75
398.147	99.75
398.371	79.75
398.595	81.75
398.82	101.75
399.044	95.75
399.268	100.75
399.492	81.75
399.717	106.75
399.941	98.75
400.165	110.75
400.389	100.75
400.613	93.75
400.837	81.75
401.062	84.75
401.286	95.75
401.51	81.75
401.734	94.75
401.958	112.75
402.182	121.75
402.406	161.75
402.63	107.75
402.854	83.75
403.078	88.75
403.302	98.75
403.526	104.75
403.75	94.75
403.974	78.75
404.198	90.75
404.422	84.75
404.645	101.75
404.869	85.75
405.093	99.75
405.317	88.75
405.541	104.75
405.765	104.75
405.988	119.75
406.212	182.75
406.436	247.75
406.66	156.75
406.883	102.75
407.107	104.75
407.331	99.75
407.555	103.75
407.778	93.75
408.002	98.75
408.226	89.75
408.449	96.75
408.673	88.75
408.896	117.75
409.12	97.75
409.344	90.75
409.567	102.75
409.791	97.75
410.014	101.75
410.238	93.75
410.461	93.75
410.685	91.75
410.908	101.75
411.132	104.75
411.355	86.75
411.578	97.75
411.802	96.75
412.025	81.75
412.249	88.75
412.472	95.75
412.695	75.75
412.919	84.75
413.142	93.75
413.365	84.75
413.589	87.75
413.812	91.75
414.035	94.75
414.258	80.75
414.482	106.75
414.705	99.75
414.928	88.75
415.151	110.75
415.374	97.75
415.597	98.75
415.821	92.75
416.044	87.75
416.267	96.75
416.49	86.75
416.713	93.75
416.936	75.75
417.159	94.75
417.382	95.75
417.605	98.75
417.828	100.75
418.051	79.75
418.274	87.75
418.497	79.75
418.72	97.75
418.943	85.75
419.166	90.75
419.389	95.75
419.611	101.75
419.834	87.75
420.057	87.75
420.28	78.75
420.503	84.75
420.726	93.75
420.948	75.75
421.171	98.75
421.394	84.75
421.617	85.75
421.839	92.75
422.062	88.75
422.285	87.75
422.507	114.75
422.73	108.75
422.953	105.75
423.175	93.75
423.398	100.75
423.621	87.75
423.843	87.75
424.066	87.75
424.288	93.75
424.511	95.75
424.733	98.75
424.956	113.75
425.178	108.75
425.401	104.75
425.623	86.75
425.846	83.75
426.068	105.75
426.291	86.75
426.513	97.75
426.735	96.75
426.958	96.75
427.18	87.75
427.402	153.75
427.625	167.75
427.847	116.75
428.069	94.75
428.292	96.75
428.514	80.75
428.736	87.75
428.958	101.75
429.181	93.75
429.403	103.75
429.625	94.75
429.847	98.75
430.069	99.75
430.292	100.75
430.514	99.75
430.736	85.75
430.958	85.75
431.18	70.75
431.402	93.75
431.624	98.75
431.846	85.75
432.068	99.75
432.29	92.75
432.512	86.75
432.734	98.75
432.956	111.75
433.178	103.75
433.4	111.75
433.622	83.75
433.844	101.75
434.066	82.75
434.287	100.75
434.509	90.75
434.731	97.75
434.953	86.75
435.175	89.75
435.397	86.75
435.618	93.75
435.84	103.75
436.062	123.75
436.284	139.75
436.505	107.75
436.727	104.75
436.949	87.75
437.17	103.75
437.392	87.75
437.614	99.75
437.835	105.75
438.057	134.75
438.278	106.75
438.5	111.75
438.721	130.75
438.943	99.75
439.165	95.75
439.386	74.75
439.608	112.75
439.829	98.75
440.05	131.75
440.272	132.75
440.493	95.75
440.715	104.75
440.936	95.75
441.158	83.75
441.379	93.75
441.6	84.75
441.822	103.75
442.043	92.75
442.264	99.75
442.486	101.75
442.707	93.75
442.928	99.75
443.149	132.75
443.371	141.75
443.592	110.75
443.813	111.75
444.034	112.75
444.255	100.75
444.476	97.75
444.698	84.75
444.919	94.75
445.14	134.75
445.361	136.75
445.582	127.75
445.803	135.75
446.024	142.75
446.245	140.75
446.466	118.75
446.687	108.75
446.908	86.75
447.129	91.75
447.35	95.75
447.571	99.75
447.792	99.75
448.013	94.75
448.234	115.75
448.455	108.75
448.675	117.75
448.896	122.75
449.117	85.75
449.338	95.75
449.559	145.75
449.779	162.75
450	88.75
450.221	92.75
450.442	98.75
450.662	87.75
450.883	109.75
451.104	111.75
451.324	98.75
451.545	88.75
451.766	87.75
451.986	83.75
452.207	90.75
452.428	105.75
452.648	111.75
452.869	122.75
453.089	132.75
453.31	131.75
453.53	97.75
453.751	99.75
453.971	118.75
454.192	111.75
454.412	90.75
454.633	94.75
454.853	80.75
455.073	87.75
455.294	94.75
455.514	110.75
455.734	91.75
455.955	95.75
456.175	97.75
456.395	87.75
456.616	98.75
456.836	93.75
457.056	75.75
457.276	86.75
457.497	94.75
457.717	76.75
457.937	91.75
458.157	96.75
458.377	84.75
458.598	110.75
458.818	155.75
459.038	178.75
459.258	136.75
459.478	92.75
459.698	94.75
459.918	88.75
460.138	91.75
460.358	85.75
460.578	89.75
460.798	89.75
461.018	92.75
461.238	86.75
461.458	101.75
461.678	86.75
461.898	94.75
462.118	100.75
462.338	92.75
462.558	94.75
462.777	87.75
462.997	85.75
463.217	80.75
463.437	91.75
463.657	94.75
463.876	82.75
464.096	99.75
464.316	95.75
464.536	116.75
464.755	85.75
464.975	110.75
465.195	188.75
465.414	153.75
465.634	98.75
465.854	75.75
466.073	94.75
466.293	90.75
466.512	76.75
466.732	100.75
466.951	88.75
467.171	102.75
467.391	102.75
467.61	94.75
467.829	94.75
468.049	91.75
468.268	62.75
468.488	102.75
468.707	84.75
468.927	87.75
469.146	96.75
469.365	102.75
469.585	91.75
469.804	95.75
470.023	106.75
470.243	93.75
470.462	97.75
470.681	107.75
470.901	95.75
471.12	85.75
471.339	89.75
471.558	109.75
471.777	92.75
471.997	78.75
472.216	83.75
472.435	89.75
472.654	92.75
472.873	104.75
473.092	93.75
473.311	86.75
473.53	95.75
473.749	93.75
473.968	95.75
474.187	103.75
474.406	98.75
474.625	87.75
474.844	93.75
475.063	84.75
475.282	92.75
475.501	87.75
475.72	90.75
475.939	76.75
476.158	89.75
476.377	99.75
476.596	97.75
476.814	101.75
477.033	101.75
477.252	107.75
477.471	96.75
477.69	81.75
477.908	94.75
478.127	99.75
478.346	93.75
478.564	86.75
478.783	90.75
479.002	94.75
479.22	97.75
479.439	100.75
479.658	100.75
479.876	104.75
480.095	86.75
480.313	105.75
480.532	94.75
480.751	77.75
480.969	85.75
481.188	88.75
481.406	104.75
481.624	84.75
481.843	87.75
482.061	95.75
482.28	96.75
482.498	88.75
482.717	91.75
482.935	88.75
483.153	94.75
483.372	91.75
483.59	82.75
483.808	86.75
484.027	95.75
484.245	92.75
484.463	100.75
484.681	102.75
484.9	96.75
485.118	86.75
485.336	92.75
485.554	95.75
485.772	95.75
485.99	100.75
486.209	102.75
486.427	101.75
486.645	111.75
486.863	119.75
487.081	102.75
487.299	93.75
487.517	97.75
487.735	100.75
487.953	87.75
488.171	94.75
488.389	98.75
488.607	99.75
488.825	88.75
489.043	95.75
489.261	107.75
489.479	97.75
489.696	97.75
489.914	91.75
490.132	94.75
490.35	76.75
490.568	85.75
490.786	86.75
491.003	82.75
491.221	83.75
491.439	97.75
491.657	86.75
491.874	121.75
492.092	92.75
492.31	88.75
492.527	94.75
492.745	87.75
492.963	94.75
493.18	96.75
493.398	92.75
493.615	91.75
493.833	93.75
494.05	95.75
494.268	83.75
494.485	86.75
494.703	86.75
494.92	89.75
495.138	108.75
495.355	96.75
495.573	110.75
495.79	101.75
496.008	86.75
496.225	105.75
496.442	95.75
496.66	82.75
496.877	83.75
497.094	92.75
497.312	87.75
497.529	104.75
497.746	97.75
497.963	85.75
498.181	81.75
498.398	101.75
498.615	111.75
498.832	99.75
499.049	100.75
499.267	92.75
499.484	93.75
499.701	95.75
499.918	85.75
500.135	95.75
500.352	86.75
500.569	98.75
500.786	88.75
501.003	99.75
501.22	99.75
501.437	88.75
501.654	93.75
501.871	114.75
502.088	102.75
502.305	82.75
502.522	88.75
502.739	87.75
502.956	104.75
503.172	98.75
503.389	99.75
503.606	106.75
503.823	94.75
504.04	92.75
504.256	86.75
504.473	84.75
504.69	85.75
504.907	107.75
505.123	85.75
505.34	90.75
505.557	83.75
505.773	81.75
505.99	95.75
506.207	99.75
506.423	100.75
506.64	95.75
506.856	87.75
507.073	92.75
507.289	90.75
507.506	101.75
507.722	102.75
507.939	122.75
508.155	101.75
508.372	99.75
508.588	106.75
508.805	98.75
509.021	91.75
509.238	88.75
509.454	103.75
509.67	117.75
509.887	113.75
510.103	151.75
510.319	225.75
510.536	811.75
510.752	2679.75
510.968	735.75
511.184	168.75
511.401	108.75
511.617	89.75
511.833	93.75
512.049	92.75
512.265	83.75
512.481	106.75
512.698	87.75
512.914	89.75
513.13	96.75
513.346	81.75
513.562	97.75
513.778	97.75
513.994	110.75
514.21	120.75
514.426	123.75
