Data from 237_3_HRD10591_00003.txt Node
Date: Mon Jan 19 14:12:56 EST 2026
User: Yrep
Spectrometer: HR+D1059
Trigger mode: 1
Integration Time (sec): 1.000000E-1
Scans to average: 1
Electric dark correction enabled: true
Nonlinearity correction enabled: false
Boxcar width: 0
XAxis mode: Wavelengths
Number of Pixels in Spectrum: 2048
>>>>>Begin Spectral Data<<<<<
223.165	-21.12
223.4	-21.12
223.635	-21.12
223.869	-26.12
224.104	-27.12
224.338	-17.12
224.573	-12.12
224.808	-29.12
225.042	-0.12
225.277	-0.12
225.511	-11.12
225.746	6.88
225.98	13.88
226.215	14.88
226.449	13.88
226.683	17.88
226.918	30.88
227.152	45.88
227.387	29.88
227.621	36.88
227.856	31.88
228.09	53.88
228.324	63.88
228.559	49.88
228.793	66.88
229.027	65.88
229.262	60.88
229.496	59.88
229.73	66.88
229.964	54.88
230.199	71.88
230.433	69.88
230.667	58.88
230.901	69.88
231.136	81.88
231.37	73.88
231.604	81.88
231.838	88.88
232.072	68.88
232.306	81.88
232.541	79.88
232.775	85.88
233.009	85.88
233.243	94.88
233.477	78.88
233.711	82.88
233.945	74.88
234.179	85.88
234.413	67.88
234.647	74.88
234.881	78.88
235.115	86.88
235.349	80.88
235.583	62.88
235.817	90.88
236.051	78.88
236.285	85.88
236.519	68.88
236.753	62.88
236.987	70.88
237.221	77.88
237.455	67.88
237.689	69.88
237.922	70.88
238.156	73.88
238.39	79.88
238.624	76.88
238.858	87.88
239.091	64.88
239.325	77.88
239.559	72.88
239.793	83.88
240.027	83.88
240.26	85.88
240.494	71.88
240.728	64.88
240.961	69.88
241.195	75.88
241.429	66.88
241.662	80.88
241.896	71.88
242.13	79.88
242.363	65.88
242.597	69.88
242.83	68.88
243.064	75.88
243.298	90.88
243.531	67.88
243.765	79.88
243.998	60.88
244.232	89.88
244.465	79.88
244.699	64.88
244.932	75.88
245.166	71.88
245.399	72.88
245.633	82.88
245.866	62.88
246.099	65.88
246.333	74.88
246.566	63.88
246.8	63.88
247.033	80.88
247.266	68.88
247.5	97.88
247.733	67.88
247.966	81.88
248.2	73.88
248.433	87.88
248.666	90.88
248.899	81.88
249.133	69.88
249.366	87.88
249.599	84.88
249.832	68.88
250.066	84.88
250.299	79.88
250.532	67.88
250.765	88.88
250.998	66.88
251.231	75.88
251.465	78.88
251.698	85.88
251.931	79.88
252.164	80.88
252.397	83.88
252.63	81.88
252.863	80.88
253.096	71.88
253.329	87.88
253.562	85.88
253.795	65.88
254.028	91.88
254.261	77.88
254.494	78.88
254.727	74.88
254.96	70.88
255.193	65.88
255.426	75.88
255.659	74.88
255.892	80.88
256.124	81.88
256.357	72.88
256.59	74.88
256.823	81.88
257.056	77.88
257.289	66.88
257.521	79.88
257.754	82.88
257.987	82.88
258.22	74.88
258.452	85.88
258.685	85.88
258.918	69.88
259.151	69.88
259.383	83.88
259.616	86.88
259.849	71.88
260.081	78.88
260.314	79.88
260.547	74.88
260.779	68.88
261.012	86.88
261.244	67.88
261.477	72.88
261.71	92.88
261.942	86.88
262.175	72.88
262.407	89.88
262.64	79.88
262.872	72.88
263.105	73.88
263.337	66.88
263.57	66.88
263.802	75.88
264.035	80.88
264.267	74.88
264.499	78.88
264.732	87.88
264.964	81.88
265.197	87.88
265.429	82.88
265.661	89.88
265.894	75.88
266.126	82.88
266.358	81.88
266.591	79.88
266.823	80.88
267.055	82.88
267.287	74.88
267.52	65.88
267.752	77.88
267.984	75.88
268.216	80.88
268.448	79.88
268.681	81.88
268.913	79.88
269.145	82.88
269.377	79.88
269.609	86.88
269.841	67.88
270.073	72.88
270.306	75.88
270.538	87.88
270.77	55.88
271.002	77.88
271.234	86.88
271.466	89.88
271.698	69.88
271.93	94.88
272.162	75.88
272.394	82.88
272.626	78.88
272.858	77.88
273.09	82.88
273.322	75.88
273.553	81.88
273.785	68.88
274.017	88.88
274.249	90.88
274.481	70.88
274.713	80.88
274.945	72.88
275.176	94.88
275.408	84.88
275.64	81.88
275.872	90.88
276.104	92.88
276.335	86.88
276.567	83.88
276.799	80.88
277.031	71.88
277.262	83.88
277.494	73.88
277.726	85.88
277.957	92.88
278.189	89.88
278.421	98.88
278.652	78.88
278.884	76.88
279.115	75.88
279.347	85.88
279.579	80.88
279.81	86.88
280.042	63.88
280.273	81.88
280.505	81.88
280.736	86.88
280.968	87.88
281.199	71.88
281.431	96.88
281.662	81.88
281.894	88.88
282.125	84.88
282.356	76.88
282.588	78.88
282.819	69.88
283.051	88.88
283.282	89.88
283.513	95.88
283.745	93.88
283.976	85.88
284.207	86.88
284.439	93.88
284.67	86.88
284.901	82.88
285.132	91.88
285.364	84.88
285.595	99.88
285.826	92.88
286.057	82.88
286.288	82.88
286.52	93.88
286.751	89.88
286.982	75.88
287.213	74.88
287.444	75.88
287.675	88.88
287.906	93.88
288.138	91.88
288.369	90.88
288.6	85.88
288.831	89.88
289.062	89.88
289.293	80.88
289.524	86.88
289.755	82.88
289.986	87.88
290.217	89.88
290.448	81.88
290.679	89.88
290.91	83.88
291.141	84.88
291.371	76.88
291.602	80.88
291.833	91.88
292.064	86.88
292.295	83.88
292.526	85.88
292.757	80.88
292.987	86.88
293.218	71.88
293.449	94.88
293.68	82.88
293.91	88.88
294.141	96.88
294.372	95.88
294.603	81.88
294.833	97.88
295.064	85.88
295.295	79.88
295.525	85.88
295.756	89.88
295.987	93.88
296.217	92.88
296.448	96.88
296.679	74.88
296.909	82.88
297.14	83.88
297.37	95.88
297.601	95.88
297.831	78.88
298.062	94.88
298.292	80.88
298.523	88.88
298.753	86.88
298.984	84.88
299.214	97.88
299.445	89.88
299.675	92.88
299.905	95.88
300.136	96.88
300.366	96.88
300.597	104.88
300.827	98.88
301.057	85.88
301.288	86.88
301.518	86.88
301.748	69.88
301.979	83.88
302.209	103.88
302.439	88.88
302.669	83.88
302.9	93.88
303.13	99.88
303.36	79.88
303.59	74.88
303.82	86.88
304.051	70.88
304.281	89.88
304.511	97.88
304.741	75.88
304.971	80.88
305.201	89.88
305.431	109.88
305.661	88.88
305.891	92.88
306.121	89.88
306.352	90.88
306.582	87.88
306.812	94.88
307.042	99.88
307.272	72.88
307.502	96.88
307.731	90.88
307.961	82.88
308.191	93.88
308.421	96.88
308.651	100.88
308.881	87.88
309.111	94.88
309.341	105.88
309.571	109.88
309.8	91.88
310.03	91.88
310.26	75.88
310.49	93.88
310.72	77.88
310.949	81.88
311.179	81.88
311.409	88.88
311.639	74.88
311.868	79.88
312.098	85.88
312.328	86.88
312.557	78.88
312.787	82.88
313.017	84.88
313.246	84.88
313.476	87.88
313.706	98.88
313.935	79.88
314.165	90.88
314.394	86.88
314.624	81.88
314.853	81.88
315.083	89.88
315.312	97.88
315.542	99.88
315.771	99.88
316.001	105.88
316.23	84.88
316.46	85.88
316.689	85.88
316.919	86.88
317.148	95.88
317.377	102.88
317.607	97.88
317.836	83.88
318.065	101.88
318.295	101.88
318.524	92.88
318.753	89.88
318.983	91.88
319.212	93.88
319.441	89.88
319.67	97.88
319.9	100.88
320.129	110.88
320.358	112.88
320.587	102.88
320.816	83.88
321.046	105.88
321.275	80.88
321.504	92.88
321.733	102.88
321.962	100.88
322.191	93.88
322.42	89.88
322.649	75.88
322.878	101.88
323.108	79.88
323.337	81.88
323.566	103.88
323.795	102.88
324.024	91.88
324.253	97.88
324.482	91.88
324.71	87.88
324.939	101.88
325.168	87.88
325.397	82.88
325.626	85.88
325.855	79.88
326.084	101.88
326.313	98.88
326.542	83.88
326.77	88.88
326.999	95.88
327.228	77.88
327.457	100.88
327.686	100.88
327.914	103.88
328.143	95.88
328.372	82.88
328.6	93.88
328.829	96.88
329.058	96.88
329.287	91.88
329.515	83.88
329.744	90.88
329.972	84.88
330.201	97.88
330.43	97.88
330.658	84.88
330.887	81.88
331.115	81.88
331.344	80.88
331.572	81.88
331.801	80.88
332.03	95.88
332.258	89.88
332.486	79.88
332.715	87.88
332.943	82.88
333.172	87.88
333.4	89.88
333.629	105.88
333.857	95.88
334.085	103.88
334.314	105.88
334.542	121.88
334.771	123.88
334.999	107.88
335.227	113.88
335.455	109.88
335.684	106.88
335.912	116.88
336.14	105.88
336.369	114.88
336.597	102.88
336.825	100.88
337.053	107.88
337.281	111.88
337.51	98.88
337.738	88.88
337.966	94.88
338.194	85.88
338.422	82.88
338.65	92.88
338.878	73.88
339.106	82.88
339.334	71.88
339.562	78.88
339.79	81.88
340.018	89.88
340.246	95.88
340.474	87.88
340.702	77.88
340.93	84.88
341.158	85.88
341.386	98.88
341.614	85.88
341.842	95.88
342.07	88.88
342.298	82.88
342.526	87.88
342.754	89.88
342.981	91.88
343.209	87.88
343.437	92.88
343.665	96.88
343.893	82.88
344.12	102.88
344.348	103.88
344.576	83.88
344.804	95.88
345.031	89.88
345.259	94.88
345.487	96.88
345.714	83.88
345.942	92.88
346.17	83.88
346.397	101.88
346.625	91.88
346.853	97.88
347.08	91.88
347.308	104.88
347.535	94.88
347.763	85.88
347.99	86.88
348.218	95.88
348.445	80.88
348.673	86.88
348.9	98.88
349.128	90.88
349.355	84.88
349.583	90.88
349.81	81.88
350.037	85.88
350.265	94.88
350.492	97.88
350.72	79.88
350.947	81.88
351.174	99.88
351.402	98.88
351.629	94.88
351.856	102.88
352.083	80.88
352.311	98.88
352.538	90.88
352.765	97.88
352.992	94.88
353.22	100.88
353.447	102.88
353.674	84.88
353.901	82.88
354.128	97.88
354.355	95.88
354.583	76.88
354.81	85.88
355.037	87.88
355.264	80.88
355.491	89.88
355.718	90.88
355.945	84.88
356.172	93.88
356.399	88.88
356.626	90.88
356.853	92.88
357.08	113.88
357.307	95.88
357.534	93.88
357.761	97.88
357.988	90.88
358.215	125.88
358.441	106.88
358.668	104.88
358.895	101.88
359.122	97.88
359.349	82.88
359.576	91.88
359.802	89.88
360.029	77.88
360.256	104.88
360.483	94.88
360.709	99.88
360.936	109.88
361.163	101.88
361.39	117.88
361.616	103.88
361.843	104.88
362.07	100.88
362.296	134.88
362.523	130.88
362.749	136.88
362.976	169.88
363.203	181.88
363.429	139.88
363.656	124.88
363.882	130.88
364.109	148.88
364.335	200.88
364.562	199.88
364.788	139.88
365.015	126.88
365.241	111.88
365.468	113.88
365.694	96.88
365.92	95.88
366.147	95.88
366.373	105.88
366.599	81.88
366.826	83.88
367.052	97.88
367.278	103.88
367.505	98.88
367.731	105.88
367.957	81.88
368.184	98.88
368.41	98.88
368.636	106.88
368.862	105.88
369.089	87.88
369.315	81.88
369.541	94.88
369.767	109.88
369.993	93.88
370.219	99.88
370.445	97.88
370.672	114.88
370.898	101.88
371.124	97.88
371.35	88.88
371.576	93.88
371.802	101.88
372.028	106.88
372.254	106.88
372.48	103.88
372.706	81.88
372.932	105.88
373.158	106.88
373.384	130.88
373.61	141.88
373.835	136.88
374.061	104.88
374.287	121.88
374.513	130.88
374.739	124.88
374.965	114.88
375.191	123.88
375.416	134.88
375.642	114.88
375.868	111.88
376.094	114.88
376.319	105.88
376.545	96.88
376.771	91.88
376.997	97.88
377.222	96.88
377.448	95.88
377.674	88.88
377.899	102.88
378.125	86.88
378.35	99.88
378.576	90.88
378.802	89.88
379.027	88.88
379.253	86.88
379.478	107.88
379.704	85.88
379.929	89.88
380.155	107.88
380.38	94.88
380.606	97.88
380.831	98.88
381.057	119.88
381.282	90.88
381.507	98.88
381.733	115.88
381.958	105.88
382.184	101.88
382.409	126.88
382.634	121.88
382.86	127.88
383.085	134.88
383.31	123.88
383.535	122.88
383.761	130.88
383.986	143.88
384.211	124.88
384.436	106.88
384.662	92.88
384.887	94.88
385.112	104.88
385.337	117.88
385.562	105.88
385.787	95.88
386.013	106.88
386.238	115.88
386.463	112.88
386.688	120.88
386.913	105.88
387.138	101.88
387.363	97.88
387.588	113.88
387.813	127.88
388.038	119.88
388.263	104.88
388.488	117.88
388.713	112.88
388.938	95.88
389.163	104.88
389.387	101.88
389.612	95.88
389.837	104.88
390.062	101.88
390.287	102.88
390.512	111.88
390.736	118.88
390.961	125.88
391.186	121.88
391.411	98.88
391.636	97.88
391.86	111.88
392.085	120.88
392.31	117.88
392.534	145.88
392.759	173.88
392.984	247.88
393.208	423.88
393.433	585.88
393.658	471.88
393.882	204.88
394.107	154.88
394.331	159.88
394.556	172.88
394.78	136.88
395.005	122.88
395.229	127.88
395.454	129.88
395.678	149.88
395.903	180.88
396.127	197.88
396.352	233.88
396.576	274.88
396.801	431.88
397.025	497.88
397.249	269.88
397.474	192.88
397.698	149.88
397.922	104.88
398.147	114.88
398.371	102.88
398.595	119.88
398.82	103.88
399.044	106.88
399.268	102.88
399.492	88.88
399.717	98.88
399.941	119.88
400.165	112.88
400.389	90.88
400.613	104.88
400.837	103.88
401.062	101.88
401.286	87.88
401.51	85.88
401.734	100.88
401.958	105.88
402.182	97.88
402.406	85.88
402.63	97.88
402.854	88.88
403.078	103.88
403.302	111.88
403.526	109.88
403.75	104.88
403.974	93.88
404.198	115.88
404.422	145.88
404.645	192.88
404.869	128.88
405.093	109.88
405.317	99.88
405.541	85.88
405.765	91.88
405.988	99.88
406.212	110.88
406.436	101.88
406.66	119.88
406.883	101.88
407.107	82.88
407.331	93.88
407.555	105.88
407.778	138.88
408.002	141.88
408.226	105.88
408.449	103.88
408.673	100.88
408.896	96.88
409.12	125.88
409.344	119.88
409.567	125.88
409.791	121.88
410.014	140.88
410.238	128.88
410.461	113.88
410.685	98.88
410.908	99.88
411.132	102.88
411.355	105.88
411.578	88.88
411.802	94.88
412.025	98.88
412.249	105.88
412.472	86.88
412.695	83.88
412.919	94.88
413.142	81.88
413.365	87.88
413.589	98.88
413.812	106.88
414.035	93.88
414.258	102.88
414.482	103.88
414.705	112.88
414.928	109.88
415.151	93.88
415.374	94.88
415.597	95.88
415.821	91.88
416.044	86.88
416.267	88.88
416.49	89.88
416.713	96.88
416.936	94.88
417.159	86.88
417.382	103.88
417.605	95.88
417.828	97.88
418.051	99.88
418.274	87.88
418.497	95.88
418.72	96.88
418.943	81.88
419.166	99.88
419.389	84.88
419.611	93.88
419.834	103.88
420.057	91.88
420.28	106.88
420.503	100.88
420.726	105.88
420.948	121.88
421.171	126.88
421.394	129.88
421.617	167.88
421.839	184.88
422.062	215.88
422.285	322.88
422.507	514.88
422.73	689.88
422.953	628.88
423.175	405.88
423.398	259.88
423.621	173.88
423.843	143.88
424.066	135.88
424.288	121.88
424.511	128.88
424.733	119.88
424.956	106.88
425.178	119.88
425.401	107.88
425.623	97.88
425.846	109.88
426.068	94.88
426.291	103.88
426.513	96.88
426.735	104.88
426.958	99.88
427.18	95.88
427.402	106.88
427.625	117.88
427.847	114.88
428.069	133.88
428.292	188.88
428.514	237.88
428.736	161.88
428.958	216.88
429.181	217.88
429.403	137.88
429.625	143.88
429.847	197.88
430.069	301.88
430.292	325.88
430.514	289.88
430.736	221.88
430.958	248.88
431.18	140.88
431.402	102.88
431.624	125.88
431.846	177.88
432.068	204.88
432.29	123.88
432.512	104.88
432.734	89.88
432.956	95.88
433.178	90.88
433.4	95.88
433.622	99.88
433.844	99.88
434.066	91.88
434.287	105.88
434.509	90.88
434.731	97.88
434.953	97.88
435.175	106.88
435.397	104.88
435.618	113.88
435.84	121.88
436.062	102.88
436.284	112.88
436.505	93.88
436.727	90.88
436.949	78.88
437.17	89.88
437.392	75.88
437.614	100.88
437.835	94.88
438.057	85.88
438.278	88.88
438.5	107.88
438.721	101.88
438.943	91.88
439.165	102.88
439.386	104.88
439.608	80.88
439.829	101.88
440.05	81.88
440.272	102.88
440.493	101.88
440.715	109.88
440.936	106.88
441.158	83.88
441.379	99.88
441.6	95.88
441.822	97.88
442.043	95.88
442.264	133.88
442.486	221.88
442.707	323.88
442.928	214.88
443.149	170.88
443.371	276.88
443.592	479.88
443.813	413.88
444.034	166.88
444.255	130.88
444.476	104.88
444.698	106.88
444.919	131.88
445.14	263.88
445.361	370.88
445.582	593.88
445.803	507.88
446.024	209.88
446.245	131.88
446.466	97.88
446.687	93.88
446.908	93.88
447.129	97.88
447.35	108.88
447.571	85.88
447.792	83.88
448.013	85.88
448.234	97.88
448.455	94.88
448.675	99.88
448.896	91.88
449.117	94.88
449.338	97.88
449.559	101.88
449.779	93.88
450	89.88
450.221	100.88
450.442	91.88
450.662	86.88
450.883	90.88
451.104	97.88
451.324	92.88
451.545	104.88
451.766	99.88
451.986	92.88
452.207	111.88
452.428	104.88
452.648	120.88
452.869	149.88
453.089	143.88
453.31	106.88
453.53	163.88
453.751	131.88
453.971	98.88
454.192	101.88
454.412	99.88
454.633	87.88
454.853	92.88
455.073	106.88
455.294	91.88
455.514	110.88
455.734	89.88
455.955	95.88
456.175	90.88
456.395	85.88
456.616	93.88
456.836	80.88
457.056	93.88
457.276	95.88
457.497	103.88
457.717	127.88
457.937	154.88
458.157	203.88
458.377	218.88
458.598	202.88
458.818	215.88
459.038	143.88
459.258	100.88
459.478	88.88
459.698	93.88
459.918	86.88
460.138	87.88
460.358	96.88
460.578	106.88
460.798	160.88
461.018	158.88
461.238	112.88
461.458	99.88
461.678	97.88
461.898	107.88
462.118	84.88
462.338	85.88
462.558	100.88
462.777	100.88
462.997	88.88
463.217	89.88
463.437	104.88
463.657	96.88
463.876	76.88
464.096	93.88
464.316	87.88
464.536	98.88
464.755	89.88
464.975	85.88
465.195	87.88
465.414	99.88
465.634	100.88
465.854	93.88
466.073	82.88
466.293	72.88
466.512	84.88
466.732	91.88
466.951	82.88
467.171	95.88
467.391	84.88
467.61	76.88
467.829	93.88
468.049	93.88
468.268	99.88
468.488	109.88
468.707	107.88
468.927	102.88
469.146	89.88
469.365	85.88
469.585	93.88
469.804	75.88
470.023	88.88
470.243	111.88
470.462	88.88
470.681	91.88
470.901	78.88
471.12	70.88
471.339	89.88
471.558	83.88
471.777	89.88
471.997	89.88
472.216	81.88
472.435	89.88
472.654	86.88
472.873	75.88
473.092	89.88
473.311	95.88
473.53	94.88
473.749	113.88
473.968	99.88
474.187	100.88
474.406	89.88
474.625	83.88
474.844	91.88
475.063	98.88
475.282	101.88
475.501	95.88
475.72	116.88
475.939	95.88
476.158	81.88
476.377	105.88
476.596	89.88
476.814	87.88
477.033	89.88
477.252	91.88
477.471	93.88
477.69	91.88
477.908	99.88
478.127	93.88
478.346	95.88
478.564	94.88
478.783	96.88
479.002	87.88
479.22	92.88
479.439	97.88
479.658	104.88
479.876	105.88
480.095	88.88
480.313	82.88
480.532	97.88
480.751	110.88
480.969	97.88
481.188	89.88
481.406	114.88
481.624	95.88
481.843	103.88
482.061	89.88
482.28	87.88
482.498	93.88
482.717	99.88
482.935	107.88
483.153	95.88
483.372	99.88
483.59	105.88
483.808	81.88
484.027	89.88
484.245	102.88
484.463	106.88
484.681	115.88
484.9	103.88
485.118	102.88
485.336	107.88
485.554	111.88
485.772	105.88
485.99	103.88
486.209	94.88
486.427	94.88
486.645	95.88
486.863	94.88
487.081	98.88
487.299	123.88
487.517	119.88
487.735	197.88
487.953	343.88
488.171	275.88
488.389	143.88
488.607	96.88
488.825	95.88
489.043	106.88
489.261	102.88
489.479	103.88
489.696	89.88
489.914	93.88
490.132	120.88
490.35	111.88
490.568	100.88
490.786	89.88
491.003	101.88
491.221	99.88
491.439	106.88
491.657	91.88
491.874	99.88
492.092	109.88
492.31	99.88
492.527	94.88
492.745	107.88
492.963	98.88
493.18	97.88
493.398	112.88
493.615	121.88
493.833	102.88
494.05	99.88
494.268	94.88
494.485	115.88
494.703	111.88
494.92	92.88
495.138	103.88
495.355	97.88
495.573	106.88
495.79	102.88
496.008	97.88
496.225	94.88
496.442	109.88
496.66	110.88
496.877	99.88
497.094	106.88
497.312	107.88
497.529	98.88
497.746	107.88
497.963	110.88
498.181	111.88
498.398	168.88
498.615	109.88
498.832	79.88
499.049	106.88
499.267	157.88
499.484	127.88
499.701	97.88
499.918	132.88
500.135	142.88
500.352	110.88
500.569	92.88
500.786	119.88
501.003	135.88
501.22	115.88
501.437	121.88
501.654	133.88
501.871	119.88
502.088	87.88
502.305	125.88
502.522	117.88
502.739	103.88
502.956	102.88
503.172	99.88
503.389	104.88
503.606	122.88
503.823	127.88
504.04	154.88
504.256	249.88
504.473	249.88
504.69	133.88
504.907	106.88
505.123	111.88
505.34	100.88
505.557	109.88
505.773	89.88
505.99	91.88
506.207	94.88
506.423	102.88
506.64	113.88
506.856	106.88
507.073	103.88
507.289	98.88
507.506	106.88
507.722	107.88
507.939	94.88
508.155	90.88
508.372	91.88
508.588	106.88
508.805	103.88
509.021	96.88
509.238	99.88
509.454	103.88
509.67	98.88
509.887	93.88
510.103	101.88
510.319	97.88
510.536	104.88
510.752	95.88
510.968	90.88
511.184	97.88
511.401	117.88
511.617	115.88
511.833	99.88
512.049	91.88
512.265	97.88
512.481	103.88
512.698	109.88
512.914	108.88
513.13	97.88
513.346	109.88
513.562	79.88
513.778	96.88
513.994	91.88
