Data from 237_3_HRD10591_00048.txt Node
Date: Mon Jan 19 14:13:18 EST 2026
User: Yrep
Spectrometer: HR+D1059
Trigger mode: 1
Integration Time (sec): 1.000000E-1
Scans to average: 1
Electric dark correction enabled: true
Nonlinearity correction enabled: false
Boxcar width: 0
XAxis mode: Wavelengths
Number of Pixels in Spectrum: 2048
>>>>>Begin Spectral Data<<<<<
223.165	-29.56
223.4	-29.56
223.635	-29.56
223.869	-26.56
224.104	-17.56
224.338	-30.56
224.573	-28.56
224.808	1.44
225.042	-11.56
225.277	9.44
225.511	9.44
225.746	8.44
225.98	2.44
226.215	17.44
226.449	16.44
226.683	22.44
226.918	22.44
227.152	34.44
227.387	34.44
227.621	29.44
227.856	40.44
228.09	57.44
228.324	49.44
228.559	67.44
228.793	67.44
229.027	73.44
229.262	73.44
229.496	64.44
229.73	65.44
229.964	62.44
230.199	72.44
230.433	77.44
230.667	68.44
230.901	86.44
231.136	58.44
231.37	72.44
231.604	78.44
231.838	69.44
232.072	77.44
232.306	85.44
232.541	84.44
232.775	90.44
233.009	83.44
233.243	90.44
233.477	71.44
233.711	74.44
233.945	74.44
234.179	67.44
234.413	75.44
234.647	82.44
234.881	74.44
235.115	75.44
235.349	78.44
235.583	69.44
235.817	73.44
236.051	77.44
236.285	68.44
236.519	63.44
236.753	68.44
236.987	76.44
237.221	75.44
237.455	83.44
237.689	73.44
237.922	74.44
238.156	87.44
238.39	69.44
238.624	55.44
238.858	67.44
239.091	66.44
239.325	77.44
239.559	81.44
239.793	78.44
240.027	82.44
240.26	73.44
240.494	78.44
240.728	67.44
240.961	79.44
241.195	65.44
241.429	83.44
241.662	64.44
241.896	84.44
242.13	67.44
242.363	81.44
242.597	93.44
242.83	65.44
243.064	73.44
243.298	84.44
243.531	76.44
243.765	75.44
243.998	72.44
244.232	80.44
244.465	80.44
244.699	79.44
244.932	84.44
245.166	78.44
245.399	81.44
245.633	79.44
245.866	65.44
246.099	85.44
246.333	74.44
246.566	88.44
246.8	73.44
247.033	62.44
247.266	81.44
247.5	67.44
247.733	75.44
247.966	92.44
248.2	76.44
248.433	76.44
248.666	84.44
248.899	82.44
249.133	74.44
249.366	81.44
249.599	74.44
249.832	72.44
250.066	87.44
250.299	79.44
250.532	80.44
250.765	89.44
250.998	75.44
251.231	69.44
251.465	81.44
251.698	74.44
251.931	75.44
252.164	82.44
252.397	75.44
252.63	92.44
252.863	82.44
253.096	75.44
253.329	90.44
253.562	73.44
253.795	81.44
254.028	81.44
254.261	75.44
254.494	81.44
254.727	66.44
254.96	68.44
255.193	83.44
255.426	88.44
255.659	73.44
255.892	86.44
256.124	70.44
256.357	82.44
256.59	64.44
256.823	75.44
257.056	84.44
257.289	66.44
257.521	75.44
257.754	83.44
257.987	77.44
258.22	94.44
258.452	73.44
258.685	87.44
258.918	82.44
259.151	81.44
259.383	73.44
259.616	72.44
259.849	84.44
260.081	76.44
260.314	82.44
260.547	67.44
260.779	76.44
261.012	81.44
261.244	88.44
261.477	65.44
261.71	67.44
261.942	88.44
262.175	80.44
262.407	75.44
262.64	74.44
262.872	80.44
263.105	74.44
263.337	89.44
263.57	91.44
263.802	89.44
264.035	74.44
264.267	88.44
264.499	70.44
264.732	81.44
264.964	77.44
265.197	79.44
265.429	64.44
265.661	72.44
265.894	76.44
266.126	71.44
266.358	87.44
266.591	90.44
266.823	79.44
267.055	73.44
267.287	83.44
267.52	82.44
267.752	86.44
267.984	79.44
268.216	89.44
268.448	93.44
268.681	94.44
268.913	75.44
269.145	81.44
269.377	75.44
269.609	77.44
269.841	79.44
270.073	88.44
270.306	87.44
270.538	79.44
270.77	82.44
271.002	83.44
271.234	85.44
271.466	75.44
271.698	81.44
271.93	77.44
272.162	81.44
272.394	78.44
272.626	69.44
272.858	81.44
273.09	75.44
273.322	68.44
273.553	77.44
273.785	79.44
274.017	87.44
274.249	86.44
274.481	75.44
274.713	75.44
274.945	80.44
275.176	71.44
275.408	83.44
275.64	84.44
275.872	90.44
276.104	91.44
276.335	80.44
276.567	75.44
276.799	65.44
277.031	81.44
277.262	88.44
277.494	90.44
277.726	88.44
277.957	78.44
278.189	84.44
278.421	75.44
278.652	77.44
278.884	83.44
279.115	86.44
279.347	94.44
279.579	86.44
279.81	87.44
280.042	88.44
280.273	87.44
280.505	65.44
280.736	81.44
280.968	72.44
281.199	80.44
281.431	87.44
281.662	70.44
281.894	81.44
282.125	77.44
282.356	82.44
282.588	83.44
282.819	91.44
283.051	71.44
283.282	89.44
283.513	89.44
283.745	87.44
283.976	79.44
284.207	81.44
284.439	74.44
284.67	80.44
284.901	77.44
285.132	88.44
285.364	86.44
285.595	79.44
285.826	82.44
286.057	88.44
286.288	83.44
286.52	87.44
286.751	87.44
286.982	86.44
287.213	83.44
287.444	95.44
287.675	79.44
287.906	66.44
288.138	89.44
288.369	87.44
288.6	85.44
288.831	70.44
289.062	81.44
289.293	79.44
289.524	85.44
289.755	82.44
289.986	66.44
290.217	95.44
290.448	93.44
290.679	81.44
290.91	90.44
291.141	83.44
291.371	90.44
291.602	93.44
291.833	90.44
292.064	83.44
292.295	89.44
292.526	76.44
292.757	78.44
292.987	92.44
293.218	82.44
293.449	73.44
293.68	87.44
293.91	84.44
294.141	97.44
294.372	82.44
294.603	70.44
294.833	71.44
295.064	90.44
295.295	88.44
295.525	86.44
295.756	90.44
295.987	86.44
296.217	81.44
296.448	89.44
296.679	103.44
296.909	77.44
297.14	90.44
297.37	89.44
297.601	81.44
297.831	78.44
298.062	89.44
298.292	79.44
298.523	75.44
298.753	97.44
298.984	78.44
299.214	73.44
299.445	83.44
299.675	73.44
299.905	78.44
300.136	71.44
300.366	87.44
300.597	82.44
300.827	85.44
301.057	85.44
301.288	99.44
301.518	90.44
301.748	71.44
301.979	90.44
302.209	89.44
302.439	90.44
302.669	78.44
302.9	67.44
303.13	101.44
303.36	82.44
303.59	77.44
303.82	90.44
304.051	88.44
304.281	101.44
304.511	84.44
304.741	71.44
304.971	82.44
305.201	86.44
305.431	85.44
305.661	84.44
305.891	89.44
306.121	96.44
306.352	69.44
306.582	80.44
306.812	82.44
307.042	76.44
307.272	73.44
307.502	79.44
307.731	89.44
307.961	86.44
308.191	85.44
308.421	87.44
308.651	91.44
308.881	94.44
309.111	83.44
309.341	85.44
309.571	97.44
309.8	90.44
310.03	94.44
310.26	81.44
310.49	73.44
310.72	88.44
310.949	80.44
311.179	77.44
311.409	85.44
311.639	88.44
311.868	75.44
312.098	78.44
312.328	89.44
312.557	74.44
312.787	79.44
313.017	97.44
313.246	95.44
313.476	80.44
313.706	73.44
313.935	81.44
314.165	85.44
314.394	95.44
314.624	77.44
314.853	95.44
315.083	73.44
315.312	96.44
315.542	86.44
315.771	88.44
316.001	73.44
316.23	80.44
316.46	69.44
316.689	77.44
316.919	91.44
317.148	79.44
317.377	73.44
317.607	96.44
317.836	77.44
318.065	94.44
318.295	84.44
318.524	74.44
318.753	79.44
318.983	81.44
319.212	82.44
319.441	84.44
319.67	95.44
319.9	86.44
320.129	72.44
320.358	89.44
320.587	89.44
320.816	85.44
321.046	75.44
321.275	79.44
321.504	83.44
321.733	81.44
321.962	71.44
322.191	71.44
322.42	90.44
322.649	83.44
322.878	84.44
323.108	67.44
323.337	82.44
323.566	68.44
323.795	84.44
324.024	85.44
324.253	100.44
324.482	89.44
324.71	77.44
324.939	74.44
325.168	85.44
325.397	72.44
325.626	76.44
325.855	77.44
326.084	96.44
326.313	77.44
326.542	80.44
326.77	93.44
326.999	73.44
327.228	81.44
327.457	90.44
327.686	80.44
327.914	74.44
328.143	73.44
328.372	77.44
328.6	93.44
328.829	90.44
329.058	82.44
329.287	89.44
329.515	67.44
329.744	87.44
329.972	81.44
330.201	97.44
330.43	89.44
330.658	91.44
330.887	90.44
331.115	91.44
331.344	91.44
331.572	83.44
331.801	64.44
332.03	67.44
332.258	82.44
332.486	87.44
332.715	74.44
332.943	81.44
333.172	67.44
333.4	98.44
333.629	81.44
333.857	87.44
334.085	90.44
334.314	82.44
334.542	80.44
334.771	96.44
334.999	88.44
335.227	79.44
335.455	91.44
335.684	73.44
335.912	90.44
336.14	75.44
336.369	103.44
336.597	93.44
336.825	85.44
337.053	83.44
337.281	82.44
337.51	76.44
337.738	96.44
337.966	91.44
338.194	93.44
338.422	83.44
338.65	96.44
338.878	77.44
339.106	88.44
339.334	78.44
339.562	76.44
339.79	71.44
340.018	80.44
340.246	73.44
340.474	81.44
340.702	85.44
340.93	100.44
341.158	87.44
341.386	76.44
341.614	78.44
341.842	82.44
342.07	75.44
342.298	95.44
342.526	75.44
342.754	93.44
342.981	74.44
343.209	80.44
343.437	97.44
343.665	96.44
343.893	69.44
344.12	88.44
344.348	80.44
344.576	95.44
344.804	96.44
345.031	77.44
345.259	81.44
345.487	67.44
345.714	69.44
345.942	84.44
346.17	92.44
346.397	90.44
346.625	81.44
346.853	97.44
347.08	85.44
347.308	97.44
347.535	91.44
347.763	74.44
347.99	84.44
348.218	78.44
348.445	68.44
348.673	98.44
348.9	95.44
349.128	81.44
349.355	85.44
349.583	84.44
349.81	81.44
350.037	78.44
350.265	90.44
350.492	85.44
350.72	87.44
350.947	79.44
351.174	84.44
351.402	87.44
351.629	95.44
351.856	89.44
352.083	81.44
352.311	85.44
352.538	85.44
352.765	80.44
352.992	85.44
353.22	81.44
353.447	86.44
353.674	79.44
353.901	68.44
354.128	82.44
354.355	75.44
354.583	81.44
354.81	91.44
355.037	96.44
355.264	82.44
355.491	82.44
355.718	83.44
355.945	87.44
356.172	83.44
356.399	102.44
356.626	89.44
356.853	102.44
357.08	96.44
357.307	79.44
357.534	82.44
357.761	82.44
357.988	93.44
358.215	85.44
358.441	87.44
358.668	86.44
358.895	77.44
359.122	90.44
359.349	90.44
359.576	89.44
359.802	75.44
360.029	78.44
360.256	95.44
360.483	68.44
360.709	79.44
360.936	89.44
361.163	74.44
361.39	90.44
361.616	84.44
361.843	80.44
362.07	90.44
362.296	81.44
362.523	97.44
362.749	88.44
362.976	95.44
363.203	89.44
363.429	89.44
363.656	75.44
363.882	85.44
364.109	88.44
364.335	96.44
364.562	86.44
364.788	91.44
365.015	87.44
365.241	94.44
365.468	91.44
365.694	87.44
365.92	80.44
366.147	67.44
366.373	87.44
366.599	72.44
366.826	80.44
367.052	79.44
367.278	91.44
367.505	84.44
367.731	94.44
367.957	89.44
368.184	79.44
368.41	79.44
368.636	89.44
368.862	79.44
369.089	66.44
369.315	75.44
369.541	85.44
369.767	91.44
369.993	84.44
370.219	82.44
370.445	76.44
370.672	80.44
370.898	77.44
371.124	82.44
371.35	83.44
371.576	67.44
371.802	71.44
372.028	97.44
372.254	76.44
372.48	77.44
372.706	72.44
372.932	65.44
373.158	78.44
373.384	100.44
373.61	96.44
373.835	79.44
374.061	97.44
374.287	96.44
374.513	81.44
374.739	100.44
374.965	71.44
375.191	98.44
375.416	73.44
375.642	81.44
375.868	88.44
376.094	89.44
376.319	75.44
376.545	59.44
376.771	75.44
376.997	86.44
377.222	78.44
377.448	92.44
377.674	89.44
377.899	88.44
378.125	88.44
378.35	82.44
378.576	79.44
378.802	95.44
379.027	75.44
379.253	75.44
379.478	81.44
379.704	59.44
379.929	74.44
380.155	89.44
380.38	73.44
380.606	89.44
380.831	81.44
381.057	88.44
381.282	89.44
381.507	79.44
381.733	98.44
381.958	92.44
382.184	70.44
382.409	73.44
382.634	83.44
382.86	76.44
383.085	80.44
383.31	74.44
383.535	80.44
383.761	97.44
383.986	86.44
384.211	78.44
384.436	73.44
384.662	84.44
384.887	88.44
385.112	85.44
385.337	83.44
385.562	69.44
385.787	75.44
386.013	90.44
386.238	89.44
386.463	78.44
386.688	85.44
386.913	83.44
387.138	73.44
387.363	83.44
387.588	97.44
387.813	75.44
388.038	83.44
388.263	90.44
388.488	81.44
388.713	78.44
388.938	96.44
389.163	72.44
389.387	86.44
389.612	83.44
389.837	87.44
390.062	91.44
390.287	89.44
390.512	89.44
390.736	84.44
390.961	63.44
391.186	75.44
391.411	81.44
391.636	85.44
391.86	91.44
392.085	92.44
392.31	89.44
392.534	81.44
392.759	79.44
392.984	101.44
393.208	89.44
393.433	125.44
393.658	99.44
393.882	65.44
394.107	81.44
394.331	97.44
394.556	103.44
394.78	96.44
395.005	73.44
395.229	73.44
395.454	94.44
395.678	83.44
395.903	81.44
396.127	110.44
396.352	92.44
396.576	83.44
396.801	102.44
397.025	115.44
397.249	115.44
397.474	100.44
397.698	82.44
397.922	93.44
398.147	86.44
398.371	98.44
398.595	101.44
398.82	89.44
399.044	86.44
399.268	94.44
399.492	79.44
399.717	86.44
399.941	91.44
400.165	90.44
400.389	91.44
400.613	81.44
400.837	88.44
401.062	65.44
401.286	81.44
401.51	85.44
401.734	82.44
401.958	87.44
402.182	75.44
402.406	79.44
402.63	82.44
402.854	81.44
403.078	81.44
403.302	89.44
403.526	85.44
403.75	81.44
403.974	89.44
404.198	85.44
404.422	95.44
404.645	87.44
404.869	91.44
405.093	82.44
405.317	72.44
405.541	75.44
405.765	76.44
405.988	74.44
406.212	85.44
406.436	79.44
406.66	98.44
406.883	84.44
407.107	92.44
407.331	99.44
407.555	91.44
407.778	82.44
408.002	81.44
408.226	64.44
408.449	62.44
408.673	84.44
408.896	86.44
409.12	84.44
409.344	83.44
409.567	96.44
409.791	79.44
410.014	87.44
410.238	67.44
410.461	81.44
410.685	75.44
410.908	71.44
411.132	74.44
411.355	89.44
411.578	79.44
411.802	58.44
412.025	67.44
412.249	89.44
412.472	87.44
412.695	81.44
412.919	82.44
413.142	79.44
413.365	71.44
413.589	81.44
413.812	79.44
414.035	81.44
414.258	87.44
414.482	78.44
414.705	85.44
414.928	78.44
415.151	79.44
415.374	72.44
415.597	81.44
415.821	74.44
416.044	81.44
416.267	86.44
416.49	71.44
416.713	78.44
416.936	90.44
417.159	67.44
417.382	75.44
417.605	75.44
417.828	83.44
418.051	83.44
418.274	78.44
418.497	83.44
418.72	82.44
418.943	72.44
419.166	105.44
419.389	88.44
419.611	98.44
419.834	76.44
420.057	71.44
420.28	69.44
420.503	79.44
420.726	97.44
420.948	85.44
421.171	93.44
421.394	83.44
421.617	87.44
421.839	80.44
422.062	75.44
422.285	92.44
422.507	127.44
422.73	161.44
422.953	157.44
423.175	117.44
423.398	104.44
423.621	105.44
423.843	85.44
424.066	85.44
424.288	81.44
424.511	79.44
424.733	90.44
424.956	88.44
425.178	96.44
425.401	82.44
425.623	83.44
425.846	80.44
426.068	78.44
426.291	85.44
426.513	79.44
426.735	90.44
426.958	75.44
427.18	87.44
427.402	97.44
427.625	102.44
427.847	79.44
428.069	89.44
428.292	97.44
428.514	104.44
428.736	95.44
428.958	91.44
429.181	87.44
429.403	81.44
429.625	85.44
429.847	102.44
430.069	89.44
430.292	107.44
430.514	110.44
430.736	73.44
430.958	99.44
431.18	84.44
431.402	84.44
431.624	88.44
431.846	101.44
432.068	106.44
432.29	88.44
432.512	89.44
432.734	70.44
432.956	83.44
433.178	109.44
433.4	83.44
433.622	67.44
433.844	89.44
434.066	83.44
434.287	66.44
434.509	85.44
434.731	87.44
434.953	86.44
435.175	78.44
435.397	89.44
435.618	81.44
435.84	93.44
436.062	87.44
436.284	72.44
436.505	88.44
436.727	75.44
436.949	88.44
437.17	74.44
437.392	97.44
437.614	67.44
437.835	90.44
438.057	86.44
438.278	71.44
438.5	79.44
438.721	78.44
438.943	75.44
439.165	81.44
439.386	83.44
439.608	83.44
439.829	75.44
440.05	80.44
440.272	73.44
440.493	89.44
440.715	81.44
440.936	86.44
441.158	81.44
441.379	77.44
441.6	71.44
441.822	94.44
442.043	87.44
442.264	95.44
442.486	93.44
442.707	93.44
442.928	99.44
443.149	81.44
443.371	94.44
443.592	123.44
443.813	118.44
444.034	95.44
444.255	84.44
444.476	81.44
444.698	74.44
444.919	71.44
445.14	164.44
445.361	145.44
445.582	134.44
445.803	127.44
446.024	86.44
446.245	82.44
446.466	81.44
446.687	85.44
446.908	87.44
447.129	86.44
447.35	97.44
447.571	88.44
447.792	101.44
448.013	78.44
448.234	77.44
448.455	82.44
448.675	71.44
448.896	88.44
449.117	84.44
449.338	78.44
449.559	89.44
449.779	91.44
450	86.44
450.221	95.44
450.442	86.44
450.662	81.44
450.883	83.44
451.104	82.44
451.324	79.44
451.545	83.44
451.766	71.44
451.986	82.44
452.207	99.44
452.428	86.44
452.648	84.44
452.869	83.44
453.089	89.44
453.31	91.44
453.53	77.44
453.751	84.44
453.971	75.44
454.192	78.44
454.412	99.44
454.633	77.44
454.853	73.44
455.073	81.44
455.294	81.44
455.514	103.44
455.734	92.44
455.955	79.44
456.175	93.44
456.395	81.44
456.616	89.44
456.836	73.44
457.056	85.44
457.276	71.44
457.497	81.44
457.717	90.44
457.937	75.44
458.157	82.44
458.377	98.44
458.598	90.44
458.818	83.44
459.038	88.44
459.258	74.44
459.478	80.44
459.698	78.44
459.918	87.44
460.138	68.44
460.358	75.44
460.578	97.44
460.798	96.44
461.018	84.44
461.238	90.44
461.458	88.44
461.678	81.44
461.898	92.44
462.118	71.44
462.338	79.44
462.558	77.44
462.777	69.44
462.997	83.44
463.217	69.44
463.437	85.44
463.657	78.44
463.876	79.44
464.096	87.44
464.316	71.44
464.536	81.44
464.755	84.44
464.975	81.44
465.195	81.44
465.414	73.44
465.634	75.44
465.854	86.44
466.073	79.44
466.293	81.44
466.512	67.44
466.732	85.44
466.951	83.44
467.171	85.44
467.391	93.44
467.61	75.44
467.829	79.44
468.049	74.44
468.268	83.44
468.488	63.44
468.707	77.44
468.927	88.44
469.146	80.44
469.365	81.44
469.585	92.44
469.804	81.44
470.023	83.44
470.243	86.44
470.462	68.44
470.681	82.44
470.901	87.44
471.12	72.44
471.339	87.44
471.558	81.44
471.777	79.44
471.997	76.44
472.216	91.44
472.435	78.44
472.654	69.44
472.873	75.44
473.092	85.44
473.311	85.44
473.53	78.44
473.749	81.44
473.968	80.44
474.187	75.44
474.406	79.44
474.625	73.44
474.844	81.44
475.063	73.44
475.282	63.44
475.501	75.44
475.72	71.44
475.939	73.44
476.158	97.44
476.377	72.44
476.596	78.44
476.814	90.44
477.033	83.44
477.252	96.44
477.471	82.44
477.69	88.44
477.908	95.44
478.127	98.44
478.346	74.44
478.564	81.44
478.783	69.44
479.002	95.44
479.22	79.44
479.439	77.44
479.658	81.44
479.876	70.44
480.095	105.44
480.313	81.44
480.532	73.44
480.751	93.44
480.969	75.44
481.188	81.44
481.406	89.44
481.624	76.44
481.843	90.44
482.061	91.44
482.28	84.44
482.498	79.44
482.717	76.44
482.935	83.44
483.153	85.44
483.372	85.44
483.59	81.44
483.808	88.44
484.027	76.44
484.245	77.44
484.463	87.44
484.681	86.44
484.9	72.44
485.118	88.44
485.336	77.44
485.554	94.44
485.772	73.44
485.99	73.44
486.209	87.44
486.427	98.44
486.645	79.44
486.863	83.44
487.081	80.44
487.299	76.44
487.517	76.44
487.735	88.44
487.953	98.44
488.171	92.44
488.389	74.44
488.607	78.44
488.825	85.44
489.043	93.44
489.261	82.44
489.479	78.44
489.696	66.44
489.914	75.44
490.132	71.44
490.35	87.44
490.568	98.44
490.786	71.44
491.003	83.44
491.221	86.44
491.439	79.44
491.657	95.44
491.874	81.44
492.092	84.44
492.31	87.44
492.527	80.44
492.745	73.44
492.963	90.44
493.18	91.44
493.398	82.44
493.615	93.44
493.833	96.44
494.05	90.44
494.268	95.44
494.485	95.44
494.703	98.44
494.92	78.44
495.138	79.44
495.355	95.44
495.573	90.44
495.79	83.44
496.008	81.44
496.225	83.44
496.442	73.44
496.66	89.44
496.877	80.44
497.094	82.44
497.312	86.44
497.529	81.44
497.746	77.44
497.963	82.44
498.181	93.44
498.398	104.44
498.615	95.44
498.832	89.44
499.049	75.44
499.267	90.44
499.484	87.44
499.701	87.44
499.918	87.44
500.135	78.44
500.352	92.44
500.569	81.44
500.786	71.44
501.003	89.44
501.22	83.44
501.437	93.44
501.654	91.44
501.871	89.44
502.088	79.44
502.305	81.44
502.522	82.44
502.739	84.44
502.956	81.44
503.172	95.44
503.389	85.44
503.606	89.44
503.823	81.44
504.04	83.44
504.256	90.44
504.473	101.44
504.69	74.44
504.907	91.44
505.123	89.44
505.34	89.44
505.557	85.44
505.773	87.44
505.99	88.44
506.207	75.44
506.423	90.44
506.64	78.44
506.856	83.44
507.073	95.44
507.289	69.44
507.506	70.44
507.722	91.44
507.939	78.44
508.155	92.44
508.372	71.44
508.588	77.44
508.805	75.44
509.021	91.44
509.238	93.44
509.454	74.44
509.67	83.44
509.887	69.44
510.103	88.44
510.319	93.44
510.536	83.44
510.752	88.44
510.968	88.44
511.184	105.44
511.401	97.44
511.617	88.44
511.833	83.44
512.049	80.44
512.265	86.44
512.481	80.44
512.698	78.44
512.914	91.44
513.13	98.44
513.346	93.44
513.562	91.44
513.778	76.44
513.994	95.44
514.21	79.44
514.426	85.44
514.642	87.44
514.858	81.44
515.074	80.44
515.29	66.44
515.506	80.44
515.721	102.44
515.937	82.44
516.153	79.44
516.369	78.44
516.585	82.44
516.801	88.44
517.016	79.44
517.232	84.44
517.448	64.44
517.664	84.44
517.879	83.44
518.095	72.44
518.311	85.44
518.527	79.44
518.742	83.44
518.958	94.44
519.173	101.44
519.389	79.44
519.605	80.44
