Data from 237_3_HRD10591_00043.txt Node
Date: Mon Jan 19 14:13:16 EST 2026
User: Yrep
Spectrometer: HR+D1059
Trigger mode: 1
Integration Time (sec): 1.000000E-1
Scans to average: 1
Electric dark correction enabled: true
Nonlinearity correction enabled: false
Boxcar width: 0
XAxis mode: Wavelengths
Number of Pixels in Spectrum: 2048
>>>>>Begin Spectral Data<<<<<
223.165	-7.12
223.4	-7.12
223.635	-7.12
223.869	-21.12
224.104	-24.12
224.338	-15.12
224.573	-25.12
224.808	-27.12
225.042	-3.12
225.277	-3.12
225.511	-3.12
225.746	-3.12
225.98	2.88
226.215	11.88
226.449	24.88
226.683	37.88
226.918	20.88
227.152	33.88
227.387	34.88
227.621	32.88
227.856	45.88
228.09	47.88
228.324	56.88
228.559	58.88
228.793	48.88
229.027	57.88
229.262	70.88
229.496	67.88
229.73	65.88
229.964	72.88
230.199	71.88
230.433	75.88
230.667	68.88
230.901	78.88
231.136	79.88
231.37	83.88
231.604	95.88
231.838	91.88
232.072	81.88
232.306	76.88
232.541	72.88
232.775	79.88
233.009	72.88
233.243	81.88
233.477	84.88
233.711	80.88
233.945	90.88
234.179	85.88
234.413	69.88
234.647	87.88
234.881	63.88
235.115	77.88
235.349	73.88
235.583	70.88
235.817	81.88
236.051	82.88
236.285	60.88
236.519	71.88
236.753	78.88
236.987	83.88
237.221	72.88
237.455	73.88
237.689	64.88
237.922	68.88
238.156	78.88
238.39	93.88
238.624	71.88
238.858	81.88
239.091	66.88
239.325	83.88
239.559	73.88
239.793	80.88
240.027	83.88
240.26	88.88
240.494	81.88
240.728	74.88
240.961	91.88
241.195	79.88
241.429	70.88
241.662	70.88
241.896	72.88
242.13	84.88
242.363	66.88
242.597	74.88
242.83	91.88
243.064	89.88
243.298	85.88
243.531	78.88
243.765	79.88
243.998	71.88
244.232	76.88
244.465	74.88
244.699	78.88
244.932	85.88
245.166	80.88
245.399	87.88
245.633	69.88
245.866	77.88
246.099	80.88
246.333	80.88
246.566	61.88
246.8	69.88
247.033	84.88
247.266	77.88
247.5	84.88
247.733	73.88
247.966	85.88
248.2	69.88
248.433	76.88
248.666	89.88
248.899	81.88
249.133	81.88
249.366	81.88
249.599	81.88
249.832	72.88
250.066	81.88
250.299	93.88
250.532	83.88
250.765	78.88
250.998	55.88
251.231	77.88
251.465	70.88
251.698	71.88
251.931	58.88
252.164	74.88
252.397	82.88
252.63	84.88
252.863	77.88
253.096	72.88
253.329	80.88
253.562	76.88
253.795	77.88
254.028	83.88
254.261	89.88
254.494	68.88
254.727	79.88
254.96	92.88
255.193	80.88
255.426	79.88
255.659	77.88
255.892	83.88
256.124	80.88
256.357	92.88
256.59	76.88
256.823	85.88
257.056	82.88
257.289	76.88
257.521	81.88
257.754	87.88
257.987	85.88
258.22	92.88
258.452	75.88
258.685	75.88
258.918	70.88
259.151	81.88
259.383	73.88
259.616	66.88
259.849	77.88
260.081	77.88
260.314	81.88
260.547	74.88
260.779	78.88
261.012	71.88
261.244	88.88
261.477	94.88
261.71	69.88
261.942	67.88
262.175	73.88
262.407	105.88
262.64	92.88
262.872	92.88
263.105	90.88
263.337	86.88
263.57	91.88
263.802	94.88
264.035	87.88
264.267	81.88
264.499	82.88
264.732	85.88
264.964	81.88
265.197	91.88
265.429	91.88
265.661	81.88
265.894	76.88
266.126	85.88
266.358	71.88
266.591	69.88
266.823	87.88
267.055	76.88
267.287	93.88
267.52	75.88
267.752	82.88
267.984	77.88
268.216	87.88
268.448	81.88
268.681	86.88
268.913	81.88
269.145	77.88
269.377	78.88
269.609	76.88
269.841	92.88
270.073	88.88
270.306	73.88
270.538	85.88
270.77	89.88
271.002	87.88
271.234	68.88
271.466	81.88
271.698	89.88
271.93	56.88
272.162	84.88
272.394	82.88
272.626	74.88
272.858	97.88
273.09	100.88
273.322	85.88
273.553	88.88
273.785	93.88
274.017	92.88
274.249	77.88
274.481	81.88
274.713	78.88
274.945	76.88
275.176	79.88
275.408	68.88
275.64	89.88
275.872	96.88
276.104	89.88
276.335	79.88
276.567	84.88
276.799	86.88
277.031	73.88
277.262	65.88
277.494	88.88
277.726	77.88
277.957	94.88
278.189	83.88
278.421	90.88
278.652	78.88
278.884	73.88
279.115	76.88
279.347	84.88
279.579	85.88
279.81	78.88
280.042	83.88
280.273	88.88
280.505	84.88
280.736	94.88
280.968	84.88
281.199	77.88
281.431	90.88
281.662	78.88
281.894	84.88
282.125	90.88
282.356	78.88
282.588	84.88
282.819	87.88
283.051	72.88
283.282	84.88
283.513	81.88
283.745	92.88
283.976	89.88
284.207	97.88
284.439	84.88
284.67	103.88
284.901	96.88
285.132	84.88
285.364	71.88
285.595	84.88
285.826	86.88
286.057	87.88
286.288	78.88
286.52	88.88
286.751	82.88
286.982	75.88
287.213	87.88
287.444	84.88
287.675	79.88
287.906	89.88
288.138	69.88
288.369	76.88
288.6	88.88
288.831	83.88
289.062	91.88
289.293	76.88
289.524	89.88
289.755	84.88
289.986	78.88
290.217	104.88
290.448	83.88
290.679	92.88
290.91	99.88
291.141	79.88
291.371	86.88
291.602	87.88
291.833	86.88
292.064	85.88
292.295	92.88
292.526	64.88
292.757	74.88
292.987	87.88
293.218	76.88
293.449	87.88
293.68	68.88
293.91	82.88
294.141	81.88
294.372	77.88
294.603	89.88
294.833	85.88
295.064	88.88
295.295	93.88
295.525	75.88
295.756	88.88
295.987	91.88
296.217	77.88
296.448	83.88
296.679	75.88
296.909	73.88
297.14	77.88
297.37	101.88
297.601	88.88
297.831	95.88
298.062	77.88
298.292	92.88
298.523	81.88
298.753	97.88
298.984	84.88
299.214	93.88
299.445	73.88
299.675	86.88
299.905	94.88
300.136	84.88
300.366	72.88
300.597	94.88
300.827	88.88
301.057	98.88
301.288	81.88
301.518	84.88
301.748	69.88
301.979	104.88
302.209	88.88
302.439	94.88
302.669	84.88
302.9	93.88
303.13	103.88
303.36	96.88
303.59	82.88
303.82	96.88
304.051	80.88
304.281	77.88
304.511	88.88
304.741	91.88
304.971	82.88
305.201	93.88
305.431	73.88
305.661	88.88
305.891	76.88
306.121	79.88
306.352	76.88
306.582	86.88
306.812	76.88
307.042	89.88
307.272	73.88
307.502	77.88
307.731	86.88
307.961	90.88
308.191	90.88
308.421	95.88
308.651	95.88
308.881	93.88
309.111	91.88
309.341	75.88
309.571	86.88
309.8	99.88
310.03	89.88
310.26	99.88
310.49	81.88
310.72	78.88
310.949	75.88
311.179	97.88
311.409	85.88
311.639	72.88
311.868	81.88
312.098	87.88
312.328	80.88
312.557	82.88
312.787	90.88
313.017	98.88
313.246	94.88
313.476	86.88
313.706	80.88
313.935	92.88
314.165	96.88
314.394	73.88
314.624	81.88
314.853	93.88
315.083	98.88
315.312	83.88
315.542	91.88
315.771	90.88
316.001	91.88
316.23	89.88
316.46	84.88
316.689	79.88
316.919	88.88
317.148	89.88
317.377	81.88
317.607	80.88
317.836	91.88
318.065	82.88
318.295	87.88
318.524	84.88
318.753	72.88
318.983	82.88
319.212	89.88
319.441	83.88
319.67	89.88
319.9	95.88
320.129	91.88
320.358	75.88
320.587	77.88
320.816	71.88
321.046	102.88
321.275	90.88
321.504	71.88
321.733	96.88
321.962	84.88
322.191	92.88
322.42	82.88
322.649	88.88
322.878	84.88
323.108	86.88
323.337	83.88
323.566	94.88
323.795	74.88
324.024	88.88
324.253	90.88
324.482	86.88
324.71	72.88
324.939	92.88
325.168	99.88
325.397	96.88
325.626	87.88
325.855	75.88
326.084	78.88
326.313	91.88
326.542	87.88
326.77	89.88
326.999	82.88
327.228	83.88
327.457	81.88
327.686	101.88
327.914	90.88
328.143	97.88
328.372	88.88
328.6	96.88
328.829	97.88
329.058	90.88
329.287	86.88
329.515	69.88
329.744	81.88
329.972	90.88
330.201	91.88
330.43	86.88
330.658	86.88
330.887	82.88
331.115	81.88
331.344	103.88
331.572	91.88
331.801	80.88
332.03	89.88
332.258	86.88
332.486	81.88
332.715	86.88
332.943	84.88
333.172	75.88
333.4	82.88
333.629	71.88
333.857	75.88
334.085	100.88
334.314	96.88
334.542	83.88
334.771	92.88
334.999	84.88
335.227	88.88
335.455	82.88
335.684	78.88
335.912	75.88
336.14	98.88
336.369	89.88
336.597	83.88
336.825	78.88
337.053	66.88
337.281	89.88
337.51	88.88
337.738	93.88
337.966	85.88
338.194	82.88
338.422	86.88
338.65	86.88
338.878	74.88
339.106	68.88
339.334	89.88
339.562	95.88
339.79	73.88
340.018	102.88
340.246	82.88
340.474	75.88
340.702	92.88
340.93	80.88
341.158	87.88
341.386	89.88
341.614	75.88
341.842	80.88
342.07	102.88
342.298	77.88
342.526	81.88
342.754	83.88
342.981	76.88
343.209	77.88
343.437	98.88
343.665	95.88
343.893	84.88
344.12	81.88
344.348	67.88
344.576	92.88
344.804	84.88
345.031	74.88
345.259	82.88
345.487	90.88
345.714	80.88
345.942	78.88
346.17	75.88
346.397	87.88
346.625	67.88
346.853	101.88
347.08	95.88
347.308	82.88
347.535	91.88
347.763	81.88
347.99	83.88
348.218	93.88
348.445	88.88
348.673	100.88
348.9	78.88
349.128	85.88
349.355	89.88
349.583	85.88
349.81	83.88
350.037	80.88
350.265	91.88
350.492	77.88
350.72	92.88
350.947	92.88
351.174	85.88
351.402	76.88
351.629	96.88
351.856	85.88
352.083	87.88
352.311	85.88
352.538	81.88
352.765	90.88
352.992	91.88
353.22	72.88
353.447	78.88
353.674	87.88
353.901	77.88
354.128	88.88
354.355	90.88
354.583	88.88
354.81	91.88
355.037	87.88
355.264	78.88
355.491	78.88
355.718	87.88
355.945	98.88
356.172	91.88
356.399	84.88
356.626	89.88
356.853	102.88
357.08	88.88
357.307	91.88
357.534	79.88
357.761	82.88
357.988	97.88
358.215	91.88
358.441	83.88
358.668	91.88
358.895	79.88
359.122	82.88
359.349	77.88
359.576	99.88
359.802	76.88
360.029	84.88
360.256	96.88
360.483	85.88
360.709	80.88
360.936	78.88
361.163	95.88
361.39	84.88
361.616	82.88
361.843	99.88
362.07	96.88
362.296	105.88
362.523	88.88
362.749	105.88
362.976	95.88
363.203	118.88
363.429	89.88
363.656	84.88
363.882	102.88
364.109	106.88
364.335	103.88
364.562	98.88
364.788	106.88
365.015	99.88
365.241	77.88
365.468	87.88
365.694	95.88
365.92	85.88
366.147	88.88
366.373	83.88
366.599	95.88
366.826	74.88
367.052	84.88
367.278	71.88
367.505	87.88
367.731	91.88
367.957	70.88
368.184	78.88
368.41	88.88
368.636	102.88
368.862	89.88
369.089	98.88
369.315	87.88
369.541	92.88
369.767	89.88
369.993	79.88
370.219	79.88
370.445	90.88
370.672	95.88
370.898	73.88
371.124	90.88
371.35	86.88
371.576	78.88
371.802	60.88
372.028	82.88
372.254	104.88
372.48	88.88
372.706	89.88
372.932	84.88
373.158	90.88
373.384	83.88
373.61	93.88
373.835	100.88
374.061	87.88
374.287	86.88
374.513	117.88
374.739	91.88
374.965	105.88
375.191	100.88
375.416	84.88
375.642	92.88
375.868	99.88
376.094	98.88
376.319	96.88
376.545	86.88
376.771	82.88
376.997	76.88
377.222	84.88
377.448	88.88
377.674	80.88
377.899	92.88
378.125	82.88
378.35	83.88
378.576	85.88
378.802	99.88
379.027	81.88
379.253	76.88
379.478	71.88
379.704	95.88
379.929	93.88
380.155	91.88
380.38	95.88
380.606	88.88
380.831	73.88
381.057	99.88
381.282	91.88
381.507	103.88
381.733	80.88
381.958	95.88
382.184	85.88
382.409	83.88
382.634	98.88
382.86	86.88
383.085	97.88
383.31	90.88
383.535	91.88
383.761	90.88
383.986	87.88
384.211	77.88
384.436	87.88
384.662	79.88
384.887	78.88
385.112	94.88
385.337	82.88
385.562	90.88
385.787	107.88
386.013	90.88
386.238	94.88
386.463	92.88
386.688	89.88
386.913	91.88
387.138	92.88
387.363	94.88
387.588	77.88
387.813	101.88
388.038	99.88
388.263	91.88
388.488	81.88
388.713	85.88
388.938	83.88
389.163	97.88
389.387	80.88
389.612	85.88
389.837	91.88
390.062	88.88
390.287	80.88
390.512	88.88
390.736	77.88
390.961	104.88
391.186	88.88
391.411	84.88
391.636	73.88
391.86	67.88
392.085	99.88
392.31	101.88
392.534	88.88
392.759	109.88
392.984	117.88
393.208	155.88
393.433	209.88
393.658	175.88
393.882	116.88
394.107	90.88
394.331	121.88
394.556	115.88
394.78	89.88
395.005	90.88
395.229	85.88
395.454	92.88
395.678	80.88
395.903	107.88
396.127	115.88
396.352	128.88
396.576	124.88
396.801	177.88
397.025	156.88
397.249	135.88
397.474	101.88
397.698	88.88
397.922	87.88
398.147	75.88
398.371	81.88
398.595	83.88
398.82	93.88
399.044	92.88
399.268	87.88
399.492	96.88
399.717	94.88
399.941	95.88
400.165	93.88
400.389	85.88
400.613	88.88
400.837	95.88
401.062	78.88
401.286	88.88
401.51	81.88
401.734	98.88
401.958	86.88
402.182	84.88
402.406	75.88
402.63	76.88
402.854	71.88
403.078	81.88
403.302	88.88
403.526	90.88
403.75	73.88
403.974	93.88
404.198	100.88
404.422	119.88
404.645	101.88
404.869	115.88
405.093	80.88
405.317	101.88
405.541	96.88
405.765	93.88
405.988	85.88
406.212	89.88
406.436	84.88
406.66	90.88
406.883	88.88
407.107	93.88
407.331	89.88
407.555	96.88
407.778	103.88
408.002	90.88
408.226	82.88
408.449	76.88
408.673	87.88
408.896	89.88
409.12	81.88
409.344	95.88
409.567	91.88
409.791	101.88
410.014	80.88
410.238	80.88
410.461	91.88
410.685	90.88
410.908	85.88
411.132	91.88
411.355	88.88
411.578	88.88
411.802	93.88
412.025	90.88
412.249	87.88
412.472	93.88
412.695	95.88
412.919	81.88
413.142	101.88
413.365	97.88
413.589	109.88
413.812	98.88
414.035	93.88
414.258	98.88
414.482	74.88
414.705	84.88
414.928	77.88
415.151	71.88
415.374	81.88
415.597	71.88
415.821	83.88
416.044	79.88
416.267	77.88
416.49	97.88
416.713	89.88
416.936	89.88
417.159	81.88
417.382	89.88
417.605	85.88
417.828	98.88
418.051	83.88
418.274	91.88
418.497	86.88
418.72	85.88
418.943	81.88
419.166	85.88
419.389	93.88
419.611	95.88
419.834	85.88
420.057	84.88
420.28	93.88
420.503	81.88
420.726	94.88
420.948	89.88
421.171	88.88
421.394	83.88
421.617	103.88
421.839	116.88
422.062	121.88
422.285	136.88
422.507	200.88
422.73	301.88
422.953	279.88
423.175	164.88
423.398	108.88
423.621	104.88
423.843	78.88
424.066	98.88
424.288	97.88
424.511	100.88
424.733	82.88
424.956	79.88
425.178	87.88
425.401	77.88
425.623	90.88
425.846	81.88
426.068	97.88
426.291	95.88
426.513	87.88
426.735	94.88
426.958	80.88
427.18	81.88
427.402	71.88
427.625	87.88
427.847	90.88
428.069	106.88
428.292	119.88
428.514	97.88
428.736	100.88
428.958	99.88
429.181	97.88
429.403	96.88
429.625	106.88
429.847	86.88
430.069	131.88
430.292	151.88
430.514	139.88
430.736	100.88
430.958	119.88
431.18	92.88
431.402	101.88
431.624	87.88
431.846	102.88
432.068	116.88
432.29	92.88
432.512	89.88
432.734	76.88
432.956	91.88
433.178	97.88
433.4	93.88
433.622	82.88
433.844	85.88
434.066	101.88
434.287	95.88
434.509	80.88
434.731	84.88
434.953	75.88
435.175	84.88
435.397	87.88
435.618	77.88
435.84	125.88
436.062	91.88
436.284	101.88
436.505	95.88
436.727	80.88
436.949	86.88
437.17	80.88
437.392	61.88
437.614	87.88
437.835	84.88
438.057	87.88
438.278	86.88
438.5	96.88
438.721	103.88
438.943	87.88
439.165	77.88
439.386	92.88
439.608	94.88
439.829	88.88
440.05	89.88
440.272	95.88
440.493	88.88
440.715	87.88
440.936	95.88
441.158	74.88
441.379	85.88
441.6	91.88
441.822	84.88
442.043	89.88
442.264	98.88
442.486	106.88
442.707	138.88
442.928	114.88
443.149	97.88
443.371	122.88
443.592	175.88
443.813	161.88
444.034	107.88
444.255	98.88
444.476	93.88
444.698	89.88
444.919	102.88
445.14	208.88
445.361	182.88
445.582	215.88
445.803	185.88
446.024	106.88
446.245	88.88
446.466	90.88
446.687	84.88
446.908	83.88
447.129	88.88
447.35	78.88
447.571	87.88
447.792	75.88
448.013	82.88
448.234	81.88
448.455	75.88
448.675	75.88
448.896	77.88
449.117	97.88
449.338	90.88
449.559	85.88
449.779	92.88
450	89.88
450.221	83.88
450.442	92.88
450.662	80.88
450.883	75.88
451.104	87.88
451.324	83.88
451.545	91.88
451.766	83.88
451.986	96.88
452.207	89.88
452.428	72.88
452.648	80.88
452.869	103.88
453.089	89.88
453.31	88.88
453.53	102.88
453.751	113.88
453.971	84.88
454.192	83.88
454.412	87.88
454.633	86.88
454.853	85.88
455.073	86.88
455.294	85.88
455.514	85.88
455.734	86.88
455.955	73.88
456.175	95.88
456.395	79.88
456.616	92.88
456.836	92.88
457.056	95.88
457.276	89.88
457.497	76.88
457.717	106.88
457.937	104.88
458.157	107.88
458.377	104.88
458.598	90.88
458.818	103.88
459.038	102.88
459.258	79.88
459.478	63.88
459.698	86.88
459.918	95.88
460.138	84.88
460.358	90.88
460.578	83.88
460.798	105.88
461.018	107.88
461.238	92.88
461.458	93.88
461.678	95.88
461.898	84.88
462.118	82.88
462.338	99.88
462.558	87.88
462.777	87.88
462.997	89.88
463.217	85.88
463.437	78.88
463.657	91.88
463.876	82.88
464.096	94.88
464.316	88.88
464.536	84.88
464.755	93.88
464.975	86.88
465.195	92.88
465.414	87.88
465.634	85.88
465.854	77.88
466.073	87.88
466.293	85.88
466.512	95.88
466.732	79.88
466.951	81.88
467.171	77.88
467.391	84.88
467.61	82.88
467.829	83.88
468.049	75.88
468.268	80.88
468.488	82.88
468.707	84.88
468.927	77.88
469.146	77.88
469.365	82.88
469.585	81.88
469.804	81.88
470.023	87.88
470.243	92.88
470.462	91.88
470.681	85.88
470.901	74.88
471.12	95.88
471.339	98.88
471.558	83.88
471.777	77.88
471.997	102.88
472.216	84.88
472.435	92.88
472.654	92.88
472.873	84.88
473.092	90.88
473.311	85.88
473.53	71.88
473.749	78.88
473.968	85.88
474.187	90.88
474.406	95.88
474.625	82.88
474.844	92.88
475.063	77.88
475.282	77.88
475.501	84.88
475.72	85.88
475.939	85.88
476.158	90.88
476.377	79.88
476.596	84.88
476.814	87.88
477.033	77.88
477.252	94.88
477.471	102.88
477.69	90.88
477.908	77.88
478.127	83.88
478.346	91.88
478.564	82.88
478.783	79.88
479.002	90.88
479.22	88.88
479.439	78.88
479.658	79.88
479.876	91.88
480.095	76.88
480.313	87.88
480.532	69.88
480.751	89.88
480.969	78.88
481.188	81.88
481.406	76.88
481.624	81.88
481.843	84.88
482.061	83.88
482.28	82.88
482.498	82.88
482.717	77.88
482.935	90.88
483.153	85.88
483.372	100.88
483.59	84.88
483.808	81.88
484.027	87.88
484.245	74.88
484.463	87.88
484.681	95.88
484.9	99.88
485.118	98.88
485.336	76.88
485.554	74.88
485.772	86.88
485.99	87.88
486.209	90.88
486.427	92.88
486.645	96.88
486.863	93.88
487.081	93.88
487.299	84.88
487.517	95.88
487.735	106.88
487.953	119.88
488.171	115.88
488.389	97.88
488.607	82.88
488.825	83.88
489.043	77.88
489.261	96.88
489.479	95.88
489.696	78.88
489.914	83.88
490.132	92.88
490.35	76.88
490.568	87.88
490.786	82.88
491.003	85.88
491.221	67.88
491.439	85.88
491.657	86.88
491.874	97.88
492.092	113.88
492.31	105.88
492.527	90.88
492.745	90.88
492.963	81.88
493.18	89.88
493.398	88.88
493.615	106.88
493.833	95.88
494.05	91.88
494.268	81.88
494.485	84.88
494.703	89.88
494.92	94.88
495.138	83.88
495.355	86.88
495.573	87.88
495.79	92.88
496.008	106.88
496.225	85.88
496.442	91.88
496.66	91.88
496.877	86.88
497.094	84.88
497.312	86.88
497.529	77.88
497.746	85.88
497.963	83.88
498.181	103.88
498.398	88.88
498.615	104.88
498.832	89.88
499.049	82.88
499.267	89.88
499.484	88.88
499.701	98.88
499.918	100.88
500.135	97.88
500.352	90.88
500.569	87.88
500.786	81.88
501.003	83.88
501.22	83.88
501.437	82.88
501.654	102.88
501.871	82.88
502.088	82.88
502.305	101.88
502.522	96.88
502.739	89.88
502.956	88.88
503.172	87.88
503.389	95.88
503.606	101.88
503.823	103.88
504.04	95.88
504.256	127.88
504.473	113.88
504.69	70.88
504.907	88.88
505.123	98.88
505.34	85.88
505.557	100.88
505.773	96.88
505.99	81.88
506.207	98.88
506.423	87.88
506.64	97.88
506.856	96.88
507.073	92.88
507.289	98.88
507.506	90.88
507.722	100.88
507.939	77.88
508.155	96.88
508.372	99.88
508.588	85.88
508.805	87.88
509.021	84.88
509.238	73.88
509.454	87.88
509.67	82.88
509.887	88.88
510.103	83.88
510.319	93.88
510.536	99.88
510.752	87.88
510.968	98.88
511.184	87.88
511.401	88.88
511.617	95.88
511.833	89.88
512.049	78.88
512.265	82.88
512.481	103.88
512.698	114.88
512.914	91.88
513.13	96.88
513.346	95.88
513.562	90.88
513.778	81.88
513.994	92.88
514.21	69.88
514.426	93.88
514.642	85.88
514.858	88.88
515.074	72.88
515.29	92.88
515.506	79.88
515.721	81.88
515.937	96.88
516.153	88.88
516.369	89.88
516.585	85.88
516.801	77.88
517.016	87.88
517.232	83.88
517.448	100.88
517.664	93.88
517.879	87.88
518.095	94.88
518.311	111.88
