Data from 237_3_HRD10591_00029.txt Node
Date: Mon Jan 19 14:13:09 EST 2026
User: Yrep
Spectrometer: HR+D1059
Trigger mode: 1
Integration Time (sec): 1.000000E-1
Scans to average: 1
Electric dark correction enabled: true
Nonlinearity correction enabled: false
Boxcar width: 0
XAxis mode: Wavelengths
Number of Pixels in Spectrum: 2048
>>>>>Begin Spectral Data<<<<<
223.165	-13
223.4	-13
223.635	-13
223.869	-13
224.104	-7
224.338	-14
224.573	-22
224.808	-9
225.042	-21
225.277	-2
225.511	6
225.746	-1
225.98	-2
226.215	12
226.449	6
226.683	16
226.918	40
227.152	24
227.387	26
227.621	23
227.856	39
228.09	40
228.324	40
228.559	55
228.793	53
229.027	60
229.262	55
229.496	70
229.73	62
229.964	62
230.199	67
230.433	75
230.667	80
230.901	77
231.136	83
231.37	85
231.604	83
231.838	68
232.072	76
232.306	73
232.541	76
232.775	83
233.009	76
233.243	80
233.477	75
233.711	74
233.945	78
234.179	92
234.413	84
234.647	82
234.881	81
235.115	89
235.349	81
235.583	74
235.817	74
236.051	73
236.285	70
236.519	79
236.753	70
236.987	72
237.221	87
237.455	72
237.689	69
237.922	74
238.156	76
238.39	80
238.624	66
238.858	75
239.091	87
239.325	65
239.559	70
239.793	60
240.027	70
240.26	75
240.494	63
240.728	90
240.961	68
241.195	76
241.429	84
241.662	76
241.896	73
242.13	84
242.363	65
242.597	73
242.83	84
243.064	80
243.298	81
243.531	80
243.765	85
243.998	68
244.232	82
244.465	77
244.699	76
244.932	64
245.166	68
245.399	79
245.633	83
245.866	86
246.099	86
246.333	68
246.566	69
246.8	75
247.033	93
247.266	81
247.5	64
247.733	74
247.966	76
248.2	73
248.433	79
248.666	66
248.899	74
249.133	72
249.366	76
249.599	81
249.832	72
250.066	80
250.299	90
250.532	78
250.765	91
250.998	57
251.231	79
251.465	81
251.698	80
251.931	84
252.164	76
252.397	83
252.63	76
252.863	86
253.096	72
253.329	88
253.562	74
253.795	87
254.028	93
254.261	73
254.494	77
254.727	82
254.96	80
255.193	70
255.426	73
255.659	75
255.892	76
256.124	79
256.357	71
256.59	78
256.823	85
257.056	90
257.289	86
257.521	73
257.754	81
257.987	69
258.22	84
258.452	82
258.685	66
258.918	86
259.151	94
259.383	96
259.616	67
259.849	76
260.081	73
260.314	79
260.547	86
260.779	66
261.012	79
261.244	61
261.477	88
261.71	92
261.942	59
262.175	78
262.407	94
262.64	78
262.872	85
263.105	83
263.337	98
263.57	71
263.802	80
264.035	66
264.267	83
264.499	81
264.732	70
264.964	71
265.197	88
265.429	73
265.661	77
265.894	79
266.126	83
266.358	74
266.591	71
266.823	95
267.055	74
267.287	87
267.52	78
267.752	74
267.984	86
268.216	60
268.448	73
268.681	87
268.913	76
269.145	76
269.377	97
269.609	69
269.841	79
270.073	91
270.306	83
270.538	77
270.77	81
271.002	61
271.234	97
271.466	75
271.698	95
271.93	98
272.162	75
272.394	78
272.626	82
272.858	88
273.09	80
273.322	83
273.553	76
273.785	94
274.017	96
274.249	88
274.481	80
274.713	79
274.945	82
275.176	91
275.408	84
275.64	92
275.872	80
276.104	91
276.335	75
276.567	93
276.799	70
277.031	75
277.262	85
277.494	79
277.726	80
277.957	73
278.189	78
278.421	76
278.652	74
278.884	75
279.115	95
279.347	86
279.579	82
279.81	77
280.042	80
280.273	91
280.505	96
280.736	86
280.968	85
281.199	80
281.431	82
281.662	82
281.894	87
282.125	90
282.356	75
282.588	82
282.819	68
283.051	70
283.282	86
283.513	80
283.745	81
283.976	84
284.207	87
284.439	79
284.67	72
284.901	88
285.132	77
285.364	90
285.595	82
285.826	91
286.057	85
286.288	80
286.52	71
286.751	80
286.982	78
287.213	85
287.444	73
287.675	83
287.906	75
288.138	87
288.369	83
288.6	82
288.831	76
289.062	86
289.293	86
289.524	92
289.755	76
289.986	73
290.217	76
290.448	88
290.679	70
290.91	85
291.141	76
291.371	80
291.602	81
291.833	82
292.064	83
292.295	93
292.526	83
292.757	79
292.987	83
293.218	84
293.449	90
293.68	78
293.91	83
294.141	88
294.372	94
294.603	98
294.833	94
295.064	87
295.295	90
295.525	74
295.756	96
295.987	86
296.217	76
296.448	88
296.679	81
296.909	96
297.14	102
297.37	96
297.601	86
297.831	81
298.062	94
298.292	83
298.523	75
298.753	98
298.984	101
299.214	78
299.445	80
299.675	99
299.905	79
300.136	91
300.366	89
300.597	90
300.827	80
301.057	98
301.288	69
301.518	92
301.748	92
301.979	110
302.209	86
302.439	76
302.669	82
302.9	81
303.13	94
303.36	76
303.59	80
303.82	87
304.051	90
304.281	72
304.511	83
304.741	80
304.971	94
305.201	81
305.431	83
305.661	97
305.891	98
306.121	87
306.352	95
306.582	96
306.812	83
307.042	76
307.272	85
307.502	94
307.731	93
307.961	94
308.191	78
308.421	107
308.651	90
308.881	68
309.111	78
309.341	96
309.571	88
309.8	80
310.03	76
310.26	88
310.49	84
310.72	87
310.949	97
311.179	91
311.409	90
311.639	84
311.868	83
312.098	80
312.328	80
312.557	87
312.787	87
313.017	85
313.246	85
313.476	94
313.706	94
313.935	88
314.165	88
314.394	94
314.624	79
314.853	96
315.083	86
315.312	88
315.542	89
315.771	79
316.001	97
316.23	91
316.46	66
316.689	93
316.919	77
317.148	95
317.377	89
317.607	81
317.836	86
318.065	81
318.295	80
318.524	74
318.753	74
318.983	90
319.212	95
319.441	83
319.67	72
319.9	79
320.129	86
320.358	83
320.587	80
320.816	89
321.046	86
321.275	97
321.504	91
321.733	92
321.962	89
322.191	103
322.42	90
322.649	82
322.878	94
323.108	89
323.337	85
323.566	90
323.795	80
324.024	87
324.253	82
324.482	82
324.71	81
324.939	96
325.168	83
325.397	73
325.626	76
325.855	74
326.084	67
326.313	87
326.542	94
326.77	79
326.999	81
327.228	71
327.457	76
327.686	84
327.914	79
328.143	91
328.372	94
328.6	98
328.829	83
329.058	93
329.287	82
329.515	80
329.744	92
329.972	77
330.201	96
330.43	74
330.658	98
330.887	76
331.115	96
331.344	76
331.572	102
331.801	90
332.03	77
332.258	67
332.486	86
332.715	88
332.943	87
333.172	74
333.4	77
333.629	71
333.857	91
334.085	92
334.314	93
334.542	90
334.771	81
334.999	84
335.227	86
335.455	94
335.684	85
335.912	89
336.14	100
336.369	102
336.597	84
336.825	90
337.053	91
337.281	84
337.51	88
337.738	78
337.966	79
338.194	100
338.422	103
338.65	94
338.878	83
339.106	88
339.334	79
339.562	88
339.79	93
340.018	86
340.246	98
340.474	88
340.702	87
340.93	90
341.158	81
341.386	81
341.614	84
341.842	81
342.07	90
342.298	92
342.526	79
342.754	97
342.981	90
343.209	73
343.437	94
343.665	92
343.893	88
344.12	95
344.348	107
344.576	99
344.804	92
345.031	81
345.259	84
345.487	85
345.714	88
345.942	92
346.17	100
346.397	88
346.625	83
346.853	81
347.08	76
347.308	80
347.535	96
347.763	84
347.99	82
348.218	90
348.445	93
348.673	83
348.9	87
349.128	97
349.355	90
349.583	80
349.81	80
350.037	95
350.265	83
350.492	81
350.72	91
350.947	78
351.174	91
351.402	89
351.629	87
351.856	96
352.083	79
352.311	84
352.538	80
352.765	89
352.992	99
353.22	81
353.447	81
353.674	96
353.901	86
354.128	83
354.355	66
354.583	80
354.81	77
355.037	87
355.264	78
355.491	94
355.718	90
355.945	94
356.172	87
356.399	93
356.626	83
356.853	82
357.08	85
357.307	104
357.534	103
357.761	82
357.988	84
358.215	96
358.441	87
358.668	85
358.895	98
359.122	94
359.349	73
359.576	84
359.802	80
360.029	93
360.256	95
360.483	93
360.709	67
360.936	105
361.163	96
361.39	92
361.616	96
361.843	93
362.07	88
362.296	97
362.523	111
362.749	103
362.976	106
363.203	124
363.429	102
363.656	101
363.882	101
364.109	112
364.335	116
364.562	133
364.788	98
365.015	86
365.241	100
365.468	94
365.694	90
365.92	84
366.147	99
366.373	84
366.599	85
366.826	81
367.052	76
367.278	96
367.505	84
367.731	103
367.957	86
368.184	92
368.41	81
368.636	91
368.862	91
369.089	84
369.315	92
369.541	100
369.767	77
369.993	73
370.219	94
370.445	89
370.672	86
370.898	83
371.124	91
371.35	77
371.576	86
371.802	88
372.028	93
372.254	84
372.48	99
372.706	99
372.932	94
373.158	78
373.384	97
373.61	125
373.835	101
374.061	101
374.287	77
374.513	100
374.739	93
374.965	90
375.191	98
375.416	97
375.642	81
375.868	96
376.094	85
376.319	78
376.545	93
376.771	76
376.997	83
377.222	85
377.448	86
377.674	83
377.899	81
378.125	89
378.35	95
378.576	90
378.802	90
379.027	85
379.253	86
379.478	74
379.704	83
379.929	78
380.155	84
380.38	92
380.606	92
380.831	88
381.057	96
381.282	115
381.507	84
381.733	91
381.958	105
382.184	108
382.409	96
382.634	100
382.86	105
383.085	92
383.31	90
383.535	92
383.761	102
383.986	103
384.211	92
384.436	86
384.662	94
384.887	92
385.112	77
385.337	80
385.562	76
385.787	88
386.013	104
386.238	83
386.463	93
386.688	112
386.913	86
387.138	90
387.363	94
387.588	94
387.813	91
388.038	91
388.263	96
388.488	100
388.713	89
388.938	88
389.163	76
389.387	88
389.612	91
389.837	97
390.062	87
390.287	85
390.512	73
390.736	88
390.961	89
391.186	88
391.411	83
391.636	91
391.86	92
392.085	88
392.31	99
392.534	99
392.759	92
392.984	139
393.208	174
393.433	244
393.658	212
393.882	121
394.107	110
394.331	90
394.556	122
394.78	103
395.005	103
395.229	103
395.454	91
395.678	113
395.903	114
396.127	113
396.352	146
396.576	139
396.801	200
397.025	199
397.249	133
397.474	119
397.698	89
397.922	90
398.147	92
398.371	82
398.595	92
398.82	83
399.044	95
399.268	89
399.492	83
399.717	100
399.941	91
400.165	83
400.389	83
400.613	79
400.837	90
401.062	96
401.286	80
401.51	88
401.734	82
401.958	79
402.182	86
402.406	83
402.63	88
402.854	88
403.078	90
403.302	86
403.526	86
403.75	85
403.974	111
404.198	113
404.422	142
404.645	163
404.869	143
405.093	109
405.317	84
405.541	85
405.765	87
405.988	100
406.212	103
406.436	96
406.66	85
406.883	76
407.107	85
407.331	92
407.555	95
407.778	101
408.002	99
408.226	80
408.449	88
408.673	99
408.896	95
409.12	86
409.344	89
409.567	88
409.791	99
410.014	111
410.238	91
410.461	88
410.685	95
410.908	95
411.132	100
411.355	75
411.578	103
411.802	74
412.025	73
412.249	91
412.472	94
412.695	88
412.919	87
413.142	104
413.365	86
413.589	88
413.812	76
414.035	94
414.258	72
414.482	90
414.705	92
414.928	84
415.151	76
415.374	82
415.597	77
415.821	91
416.044	97
416.267	90
416.49	75
416.713	83
416.936	79
417.159	100
417.382	88
417.605	91
417.828	75
418.051	92
418.274	89
418.497	72
418.72	90
418.943	79
419.166	75
419.389	94
419.611	104
419.834	104
420.057	87
420.28	89
420.503	94
420.726	84
420.948	93
421.171	105
421.394	105
421.617	108
421.839	120
422.062	137
422.285	197
422.507	308
422.73	416
422.953	384
423.175	249
423.398	154
423.621	120
423.843	113
424.066	91
424.288	113
424.511	110
424.733	112
424.956	96
425.178	94
425.401	86
425.623	84
425.846	104
426.068	87
426.291	88
426.513	83
426.735	83
426.958	86
427.18	103
427.402	98
427.625	86
427.847	76
428.069	99
428.292	134
428.514	152
428.736	122
428.958	145
429.181	146
429.403	97
429.625	85
429.847	133
430.069	163
430.292	195
430.514	159
430.736	153
430.958	169
431.18	122
431.402	84
431.624	94
431.846	136
432.068	138
432.29	96
432.512	94
432.734	90
432.956	77
433.178	90
433.4	84
433.622	91
433.844	96
434.066	99
434.287	88
434.509	76
434.731	85
434.953	90
435.175	86
435.397	95
435.618	91
435.84	84
436.062	72
436.284	103
436.505	97
436.727	79
436.949	93
437.17	78
437.392	80
437.614	96
437.835	89
438.057	87
438.278	86
438.5	90
438.721	75
438.943	82
439.165	92
439.386	81
439.608	86
439.829	87
440.05	74
440.272	91
440.493	62
440.715	80
440.936	87
441.158	74
441.379	91
441.6	83
441.822	81
442.043	89
442.264	112
442.486	156
442.707	191
442.928	130
443.149	120
443.371	176
443.592	283
443.813	228
444.034	112
444.255	97
444.476	105
444.698	96
444.919	96
445.14	207
445.361	222
445.582	306
445.803	271
446.024	106
446.245	105
446.466	95
446.687	83
446.908	94
447.129	90
447.35	76
447.571	79
447.792	80
448.013	82
448.234	101
448.455	83
448.675	70
448.896	75
449.117	78
449.338	94
449.559	81
449.779	84
450	88
450.221	87
450.442	83
450.662	82
450.883	85
451.104	91
451.324	84
451.545	84
451.766	83
451.986	73
452.207	90
452.428	77
452.648	86
452.869	101
453.089	99
453.31	95
453.53	90
453.751	84
453.971	69
454.192	80
454.412	76
454.633	82
454.853	89
455.073	98
455.294	70
455.514	111
455.734	88
455.955	80
456.175	90
456.395	90
456.616	86
456.836	93
457.056	82
457.276	83
457.497	95
457.717	102
457.937	123
458.157	118
458.377	136
458.598	105
458.818	124
459.038	110
459.258	79
459.478	82
459.698	83
459.918	77
460.138	88
460.358	83
460.578	106
460.798	114
461.018	100
461.238	102
461.458	88
461.678	79
461.898	87
462.118	86
462.338	73
462.558	92
462.777	78
462.997	77
463.217	87
463.437	88
463.657	76
463.876	86
464.096	82
464.316	86
464.536	68
464.755	81
464.975	86
465.195	80
465.414	82
465.634	78
465.854	83
466.073	90
466.293	89
466.512	84
466.732	77
466.951	84
467.171	91
467.391	83
467.61	103
467.829	91
468.049	98
468.268	82
468.488	67
468.707	97
468.927	78
469.146	90
469.365	82
469.585	86
469.804	93
470.023	93
470.243	85
470.462	71
470.681	67
470.901	98
471.12	77
471.339	83
471.558	89
471.777	86
471.997	80
472.216	80
472.435	85
472.654	82
472.873	94
473.092	88
473.311	80
473.53	78
473.749	84
473.968	95
474.187	77
474.406	68
474.625	89
474.844	83
475.063	88
475.282	85
475.501	86
475.72	95
475.939	80
476.158	83
476.377	95
476.596	73
476.814	80
477.033	81
477.252	89
477.471	86
477.69	100
477.908	96
478.127	87
478.346	88
478.564	75
478.783	100
479.002	92
479.22	78
479.439	83
479.658	70
479.876	88
480.095	82
480.313	75
480.532	76
480.751	64
480.969	83
481.188	86
481.406	84
481.624	85
481.843	84
482.061	79
482.28	88
482.498	82
482.717	77
482.935	95
483.153	99
483.372	97
483.59	95
483.808	82
484.027	86
484.245	80
484.463	88
484.681	98
484.9	99
485.118	94
485.336	80
485.554	94
485.772	95
485.99	91
486.209	84
486.427	74
486.645	84
486.863	86
487.081	95
487.299	97
487.517	104
487.735	114
487.953	161
488.171	146
488.389	95
488.607	84
488.825	93
489.043	86
489.261	87
489.479	84
489.696	87
489.914	81
490.132	104
490.35	90
490.568	84
490.786	83
491.003	91
491.221	87
491.439	86
491.657	91
491.874	86
492.092	89
492.31	87
492.527	104
492.745	90
492.963	89
493.18	97
493.398	89
493.615	86
493.833	80
494.05	80
494.268	85
494.485	84
494.703	86
494.92	96
495.138	102
495.355	89
495.573	87
495.79	86
496.008	78
496.225	86
496.442	84
496.66	83
496.877	97
497.094	98
497.312	68
497.529	92
497.746	86
497.963	93
498.181	102
498.398	103
498.615	80
498.832	78
499.049	85
499.267	104
499.484	88
499.701	85
499.918	96
500.135	89
500.352	80
500.569	86
500.786	87
501.003	82
501.22	90
501.437	92
501.654	79
501.871	81
502.088	86
502.305	76
502.522	84
502.739	99
502.956	76
503.172	82
503.389	90
503.606	83
503.823	91
504.04	89
504.256	144
504.473	140
504.69	99
504.907	91
505.123	90
505.34	97
505.557	90
505.773	91
505.99	90
506.207	82
506.423	94
506.64	77
506.856	88
507.073	89
507.289	91
507.506	91
507.722	83
507.939	84
508.155	69
508.372	86
508.588	104
508.805	98
509.021	75
509.238	103
509.454	94
509.67	85
509.887	86
510.103	87
510.319	100
510.536	92
510.752	82
510.968	91
511.184	82
511.401	86
511.617	98
511.833	90
512.049	84
512.265	86
512.481	96
512.698	86
512.914	89
513.13	84
513.346	101
513.562	79
513.778	71
513.994	86
514.21	76
514.426	94
514.642	82
514.858	86
515.074	98
515.29	105
515.506	88
515.721	83
515.937	82
516.153	92
516.369	97
516.585	93
516.801	101
517.016	103
517.232	95
517.448	89
517.664	90
517.879	91
518.095	94
518.311	107
518.527	112
518.742	116
518.958	143
519.173	158
519.389	107
519.605	97
519.82	102
520.036	78
520.251	85
520.467	78
520.682	106
520.898	100
521.113	91
521.329	90
521.544	84
521.76	90
521.975	81
522.19	80
522.406	83
522.621	92
522.836	77
523.052	88
523.267	79
523.482	95
523.698	71
523.913	87
524.128	84
524.343	94
524.559	86
524.774	81
524.989	96
525.204	95
525.419	102
525.634	85
525.849	106
526.064	112
526.28	213
526.495	313
526.71	368
526.925	257
527.14	282
527.355	287
527.57	118
527.785	105
527.999	88
528.214	97
528.429	91
528.644	98
528.859	104
529.074	95
529.289	81
529.503	84
529.718	92
529.933	85
530.148	98
530.363	84
530.577	87
530.792	87
531.007	89
531.221	91
531.436	97
531.651	86
531.865	89
532.08	82
532.295	105
532.509	88
532.724	92
532.938	113
533.153	89
533.367	81
533.582	89
533.796	104
534.011	107
534.225	106
534.44	108
534.654	106
534.868	110
535.083	180
535.297	153
535.511	102
535.726	83
535.94	100
536.154	103
536.369	94
536.583	110
536.797	94
537.011	107
537.225	104
537.44	105
537.654	97
537.868	101
538.082	98
538.296	86
538.51	104
538.724	107
538.938	90
539.153	112
539.367	90
539.581	91
539.795	89
540.009	114
540.222	106
540.436	83
540.65	80
540.864	100
541.078	97
541.292	87
541.506	105
541.72	94
541.934	95
542.147	90
542.361	98
542.575	94
542.789	90
543.002	91
543.216	96
543.43	94
543.644	104
543.857	100
544.071	95
544.285	89
544.498	103
544.712	106
544.925	95
545.139	100
545.352	93
545.566	99
545.779	82
545.993	122
546.206	110
546.42	118
546.633	111
546.847	111
547.06	104
547.274	137
547.487	154
547.7	148
547.914	155
548.127	153
548.34	162
548.554	175
548.767	155
548.98	186
549.193	174
549.407	165
549.62	170
549.833	190
550.046	212
550.259	208
550.473	209
550.686	212
550.899	223
551.112	253
551.325	265
551.538	279
551.751	262
551.964	223
552.177	222
552.39	224
552.603	217
552.816	219
553.029	232
553.242	212
553.455	230
553.667	233
553.88	246
554.093	220
554.306	224
554.519	217
554.732	227
554.944	232
555.157	194
555.37	199
555.583	202
555.795	200
556.008	177
556.221	176
556.433	168
556.646	167
556.859	154
557.071	147
557.284	150
557.496	146
557.709	131
557.921	147
558.134	147
558.346	193
558.559	190
558.771	173
558.984	332
559.196	404
559.409	225
559.621	324
559.833	254
560.046	306
560.258	254
560.47	250
560.683	157
560.895	108
561.107	106
561.32	104
561.532	115
561.744	96
561.956	93
562.168	97
562.381	94
562.593	82
562.805	113
563.017	107
563.229	109
563.441	82
563.653	106
563.865	89
564.077	96
564.289	87
564.501	94
564.713	93
564.925	99
565.137	86
565.349	103
565.561	83
565.773	102
565.985	96
566.197	104
566.408	105
566.62	80
566.832	102
567.044	94
567.255	110
567.467	99
567.679	89
567.891	80
568.102	86
568.314	111
568.526	103
568.737	85
568.949	97
569.161	97
569.372	95
569.584	96
569.795	85
570.007	82
570.218	98
570.43	94
570.641	98
570.853	92
571.064	103
571.276	96
571.487	101
571.698	90
571.91	93
572.121	94
572.333	77
572.544	86
572.755	87
572.966	84
573.178	86
573.389	74
573.6	97
573.811	98
574.023	85
574.234	94
574.445	107
574.656	92
574.867	88
575.078	87
575.289	94
575.501	89
575.712	72
575.923	86
576.134	80
576.345	102
576.556	111
576.767	102
576.978	106
577.188	97
577.399	91
577.61	100
577.821	99
578.032	103
578.243	99
578.454	109
578.665	100
578.875	101
579.086	98
579.297	85
579.508	83
579.718	89
579.929	80
580.14	101
580.35	121
580.561	110
580.772	108
580.982	101
581.193	89
581.403	103
581.614	104
581.825	94
582.035	107
582.246	107
582.456	97
582.667	94
582.877	73
583.087	88
583.298	110
583.508	118
583.719	93
583.929	107
584.139	85
584.35	98
584.56	101
584.77	89
584.981	100
585.191	84
585.401	101
