Data from 237_3_HRD10591_00041.txt Node
Date: Mon Jan 19 14:13:15 EST 2026
User: Yrep
Spectrometer: HR+D1059
Trigger mode: 1
Integration Time (sec): 1.000000E-1
Scans to average: 1
Electric dark correction enabled: true
Nonlinearity correction enabled: false
Boxcar width: 0
XAxis mode: Wavelengths
Number of Pixels in Spectrum: 2048
>>>>>Begin Spectral Data<<<<<
223.165	-17.69
223.4	-17.69
223.635	-17.69
223.869	-21.69
224.104	-30.69
224.338	-3.69
224.573	-21.69
224.808	-17.69
225.042	-10.69
225.277	-2.69
225.511	-7.69
225.746	8.31
225.98	7.31
226.215	10.31
226.449	19.31
226.683	42.31
226.918	24.31
227.152	22.31
227.387	43.31
227.621	43.31
227.856	36.31
228.09	46.31
228.324	60.31
228.559	64.31
228.793	55.31
229.027	63.31
229.262	63.31
229.496	68.31
229.73	72.31
229.964	90.31
230.199	91.31
230.433	86.31
230.667	87.31
230.901	82.31
231.136	89.31
231.37	80.31
231.604	90.31
231.838	83.31
232.072	85.31
232.306	90.31
232.541	102.31
232.775	82.31
233.009	80.31
233.243	91.31
233.477	75.31
233.711	77.31
233.945	77.31
234.179	96.31
234.413	86.31
234.647	81.31
234.881	96.31
235.115	75.31
235.349	64.31
235.583	79.31
235.817	80.31
236.051	90.31
236.285	77.31
236.519	67.31
236.753	84.31
236.987	76.31
237.221	81.31
237.455	84.31
237.689	69.31
237.922	95.31
238.156	83.31
238.39	88.31
238.624	73.31
238.858	82.31
239.091	73.31
239.325	85.31
239.559	81.31
239.793	71.31
240.027	86.31
240.26	85.31
240.494	89.31
240.728	61.31
240.961	80.31
241.195	83.31
241.429	77.31
241.662	81.31
241.896	82.31
242.13	101.31
242.363	85.31
242.597	78.31
242.83	85.31
243.064	85.31
243.298	75.31
243.531	76.31
243.765	89.31
243.998	83.31
244.232	82.31
244.465	72.31
244.699	73.31
244.932	73.31
245.166	76.31
245.399	77.31
245.633	91.31
245.866	88.31
246.099	95.31
246.333	87.31
246.566	82.31
246.8	93.31
247.033	82.31
247.266	82.31
247.5	82.31
247.733	85.31
247.966	87.31
248.2	92.31
248.433	75.31
248.666	81.31
248.899	80.31
249.133	82.31
249.366	93.31
249.599	88.31
249.832	71.31
250.066	96.31
250.299	93.31
250.532	81.31
250.765	80.31
250.998	80.31
251.231	81.31
251.465	82.31
251.698	81.31
251.931	81.31
252.164	69.31
252.397	78.31
252.63	88.31
252.863	88.31
253.096	92.31
253.329	80.31
253.562	91.31
253.795	91.31
254.028	93.31
254.261	79.31
254.494	86.31
254.727	91.31
254.96	86.31
255.193	77.31
255.426	79.31
255.659	85.31
255.892	78.31
256.124	75.31
256.357	85.31
256.59	79.31
256.823	86.31
257.056	83.31
257.289	78.31
257.521	87.31
257.754	85.31
257.987	78.31
258.22	86.31
258.452	70.31
258.685	89.31
258.918	87.31
259.151	78.31
259.383	85.31
259.616	77.31
259.849	79.31
260.081	76.31
260.314	88.31
260.547	82.31
260.779	80.31
261.012	73.31
261.244	82.31
261.477	82.31
261.71	81.31
261.942	71.31
262.175	86.31
262.407	83.31
262.64	95.31
262.872	86.31
263.105	75.31
263.337	87.31
263.57	82.31
263.802	89.31
264.035	85.31
264.267	90.31
264.499	89.31
264.732	77.31
264.964	89.31
265.197	77.31
265.429	93.31
265.661	91.31
265.894	84.31
266.126	89.31
266.358	73.31
266.591	80.31
266.823	97.31
267.055	97.31
267.287	76.31
267.52	81.31
267.752	87.31
267.984	88.31
268.216	76.31
268.448	77.31
268.681	92.31
268.913	101.31
269.145	82.31
269.377	89.31
269.609	90.31
269.841	93.31
270.073	80.31
270.306	79.31
270.538	90.31
270.77	81.31
271.002	87.31
271.234	77.31
271.466	94.31
271.698	81.31
271.93	72.31
272.162	93.31
272.394	80.31
272.626	74.31
272.858	79.31
273.09	93.31
273.322	96.31
273.553	79.31
273.785	92.31
274.017	83.31
274.249	90.31
274.481	92.31
274.713	80.31
274.945	80.31
275.176	79.31
275.408	99.31
275.64	87.31
275.872	89.31
276.104	81.31
276.335	85.31
276.567	75.31
276.799	79.31
277.031	89.31
277.262	87.31
277.494	93.31
277.726	103.31
277.957	97.31
278.189	86.31
278.421	79.31
278.652	87.31
278.884	86.31
279.115	94.31
279.347	96.31
279.579	69.31
279.81	83.31
280.042	90.31
280.273	88.31
280.505	86.31
280.736	78.31
280.968	89.31
281.199	88.31
281.431	85.31
281.662	73.31
281.894	85.31
282.125	79.31
282.356	92.31
282.588	90.31
282.819	77.31
283.051	88.31
283.282	87.31
283.513	88.31
283.745	92.31
283.976	87.31
284.207	89.31
284.439	90.31
284.67	92.31
284.901	92.31
285.132	78.31
285.364	75.31
285.595	86.31
285.826	91.31
286.057	80.31
286.288	109.31
286.52	85.31
286.751	79.31
286.982	75.31
287.213	77.31
287.444	88.31
287.675	83.31
287.906	88.31
288.138	96.31
288.369	86.31
288.6	77.31
288.831	78.31
289.062	83.31
289.293	85.31
289.524	92.31
289.755	95.31
289.986	86.31
290.217	91.31
290.448	89.31
290.679	87.31
290.91	102.31
291.141	99.31
291.371	70.31
291.602	70.31
291.833	91.31
292.064	92.31
292.295	76.31
292.526	87.31
292.757	100.31
292.987	92.31
293.218	90.31
293.449	86.31
293.68	91.31
293.91	88.31
294.141	95.31
294.372	91.31
294.603	67.31
294.833	99.31
295.064	92.31
295.295	90.31
295.525	86.31
295.756	93.31
295.987	88.31
296.217	71.31
296.448	71.31
296.679	93.31
296.909	93.31
297.14	81.31
297.37	110.31
297.601	96.31
297.831	79.31
298.062	107.31
298.292	99.31
298.523	112.31
298.753	84.31
298.984	98.31
299.214	86.31
299.445	92.31
299.675	80.31
299.905	99.31
300.136	91.31
300.366	87.31
300.597	91.31
300.827	95.31
301.057	80.31
301.288	93.31
301.518	96.31
301.748	95.31
301.979	103.31
302.209	95.31
302.439	95.31
302.669	99.31
302.9	97.31
303.13	76.31
303.36	99.31
303.59	83.31
303.82	79.31
304.051	78.31
304.281	87.31
304.511	88.31
304.741	80.31
304.971	70.31
305.201	91.31
305.431	95.31
305.661	88.31
305.891	88.31
306.121	91.31
306.352	96.31
306.582	72.31
306.812	82.31
307.042	83.31
307.272	106.31
307.502	87.31
307.731	84.31
307.961	93.31
308.191	91.31
308.421	88.31
308.651	97.31
308.881	96.31
309.111	101.31
309.341	87.31
309.571	91.31
309.8	92.31
310.03	84.31
310.26	89.31
310.49	86.31
310.72	90.31
310.949	94.31
311.179	91.31
311.409	94.31
311.639	85.31
311.868	109.31
312.098	92.31
312.328	89.31
312.557	99.31
312.787	91.31
313.017	81.31
313.246	79.31
313.476	100.31
313.706	95.31
313.935	89.31
314.165	72.31
314.394	97.31
314.624	91.31
314.853	91.31
315.083	93.31
315.312	89.31
315.542	93.31
315.771	90.31
316.001	86.31
316.23	105.31
316.46	78.31
316.689	89.31
316.919	89.31
317.148	80.31
317.377	79.31
317.607	85.31
317.836	94.31
318.065	85.31
318.295	96.31
318.524	79.31
318.753	89.31
318.983	89.31
319.212	104.31
319.441	103.31
319.67	98.31
319.9	90.31
320.129	88.31
320.358	87.31
320.587	96.31
320.816	97.31
321.046	101.31
321.275	93.31
321.504	79.31
321.733	87.31
321.962	73.31
322.191	92.31
322.42	84.31
322.649	99.31
322.878	87.31
323.108	91.31
323.337	82.31
323.566	87.31
323.795	87.31
324.024	80.31
324.253	87.31
324.482	89.31
324.71	80.31
324.939	83.31
325.168	90.31
325.397	95.31
325.626	102.31
325.855	94.31
326.084	70.31
326.313	90.31
326.542	79.31
326.77	87.31
326.999	83.31
327.228	81.31
327.457	97.31
327.686	95.31
327.914	84.31
328.143	105.31
328.372	94.31
328.6	105.31
328.829	102.31
329.058	90.31
329.287	90.31
329.515	87.31
329.744	92.31
329.972	88.31
330.201	103.31
330.43	96.31
330.658	86.31
330.887	108.31
331.115	102.31
331.344	87.31
331.572	90.31
331.801	83.31
332.03	97.31
332.258	72.31
332.486	80.31
332.715	87.31
332.943	82.31
333.172	88.31
333.4	86.31
333.629	71.31
333.857	95.31
334.085	99.31
334.314	94.31
334.542	96.31
334.771	93.31
334.999	81.31
335.227	91.31
335.455	86.31
335.684	79.31
335.912	78.31
336.14	95.31
336.369	95.31
336.597	81.31
336.825	97.31
337.053	102.31
337.281	100.31
337.51	84.31
337.738	94.31
337.966	77.31
338.194	88.31
338.422	93.31
338.65	100.31
338.878	91.31
339.106	80.31
339.334	100.31
339.562	81.31
339.79	95.31
340.018	84.31
340.246	91.31
340.474	77.31
340.702	97.31
340.93	75.31
341.158	83.31
341.386	91.31
341.614	88.31
341.842	87.31
342.07	79.31
342.298	81.31
342.526	91.31
342.754	86.31
342.981	89.31
343.209	95.31
343.437	108.31
343.665	89.31
343.893	84.31
344.12	95.31
344.348	91.31
344.576	97.31
344.804	77.31
345.031	89.31
345.259	89.31
345.487	87.31
345.714	85.31
345.942	83.31
346.17	93.31
346.397	80.31
346.625	85.31
346.853	95.31
347.08	109.31
347.308	103.31
347.535	78.31
347.763	80.31
347.99	69.31
348.218	85.31
348.445	92.31
348.673	86.31
348.9	92.31
349.128	96.31
349.355	85.31
349.583	83.31
349.81	92.31
350.037	88.31
350.265	95.31
350.492	91.31
350.72	88.31
350.947	86.31
351.174	95.31
351.402	101.31
351.629	96.31
351.856	89.31
352.083	85.31
352.311	101.31
352.538	85.31
352.765	81.31
352.992	96.31
353.22	83.31
353.447	82.31
353.674	99.31
353.901	78.31
354.128	83.31
354.355	82.31
354.583	89.31
354.81	91.31
355.037	94.31
355.264	93.31
355.491	92.31
355.718	72.31
355.945	78.31
356.172	93.31
356.399	80.31
356.626	86.31
356.853	90.31
357.08	90.31
357.307	99.31
357.534	81.31
357.761	79.31
357.988	83.31
358.215	86.31
358.441	91.31
358.668	95.31
358.895	94.31
359.122	88.31
359.349	95.31
359.576	92.31
359.802	84.31
360.029	77.31
360.256	83.31
360.483	76.31
360.709	86.31
360.936	76.31
361.163	93.31
361.39	87.31
361.616	73.31
361.843	86.31
362.07	84.31
362.296	79.31
362.523	93.31
362.749	98.31
362.976	91.31
363.203	99.31
363.429	92.31
363.656	92.31
363.882	96.31
364.109	112.31
364.335	95.31
364.562	90.31
364.788	104.31
365.015	93.31
365.241	94.31
365.468	90.31
365.694	91.31
365.92	89.31
366.147	73.31
366.373	93.31
366.599	96.31
366.826	80.31
367.052	85.31
367.278	92.31
367.505	88.31
367.731	91.31
367.957	88.31
368.184	81.31
368.41	100.31
368.636	81.31
368.862	72.31
369.089	89.31
369.315	106.31
369.541	100.31
369.767	100.31
369.993	80.31
370.219	89.31
370.445	103.31
370.672	101.31
370.898	85.31
371.124	84.31
371.35	91.31
371.576	96.31
371.802	103.31
372.028	86.31
372.254	95.31
372.48	81.31
372.706	95.31
372.932	89.31
373.158	80.31
373.384	84.31
373.61	100.31
373.835	105.31
374.061	100.31
374.287	93.31
374.513	99.31
374.739	95.31
374.965	89.31
375.191	84.31
375.416	87.31
375.642	71.31
375.868	94.31
376.094	103.31
376.319	80.31
376.545	105.31
376.771	87.31
376.997	89.31
377.222	89.31
377.448	89.31
377.674	93.31
377.899	84.31
378.125	88.31
378.35	77.31
378.576	84.31
378.802	103.31
379.027	92.31
379.253	111.31
379.478	90.31
379.704	94.31
379.929	82.31
380.155	93.31
380.38	85.31
380.606	76.31
380.831	103.31
381.057	93.31
381.282	97.31
381.507	88.31
381.733	95.31
381.958	94.31
382.184	83.31
382.409	93.31
382.634	98.31
382.86	99.31
383.085	79.31
383.31	86.31
383.535	94.31
383.761	95.31
383.986	87.31
384.211	102.31
384.436	76.31
384.662	89.31
384.887	84.31
385.112	76.31
385.337	94.31
385.562	82.31
385.787	108.31
386.013	94.31
386.238	89.31
386.463	87.31
386.688	94.31
386.913	91.31
387.138	90.31
387.363	88.31
387.588	97.31
387.813	102.31
388.038	91.31
388.263	77.31
388.488	78.31
388.713	81.31
388.938	93.31
389.163	81.31
389.387	93.31
389.612	105.31
389.837	95.31
390.062	103.31
390.287	99.31
390.512	82.31
390.736	98.31
390.961	96.31
391.186	88.31
391.411	96.31
391.636	100.31
391.86	85.31
392.085	89.31
392.31	85.31
392.534	99.31
392.759	98.31
392.984	105.31
393.208	115.31
393.433	140.31
393.658	123.31
393.882	99.31
394.107	91.31
394.331	88.31
394.556	91.31
394.78	88.31
395.005	79.31
395.229	95.31
395.454	82.31
395.678	95.31
395.903	93.31
396.127	119.31
396.352	115.31
396.576	101.31
396.801	117.31
397.025	142.31
397.249	103.31
397.474	100.31
397.698	85.31
397.922	90.31
398.147	94.31
398.371	90.31
398.595	80.31
398.82	102.31
399.044	84.31
399.268	87.31
399.492	94.31
399.717	91.31
399.941	82.31
400.165	93.31
400.389	93.31
400.613	78.31
400.837	81.31
401.062	99.31
401.286	80.31
401.51	90.31
401.734	86.31
401.958	79.31
402.182	104.31
402.406	94.31
402.63	94.31
402.854	108.31
403.078	76.31
403.302	95.31
403.526	82.31
403.75	87.31
403.974	92.31
404.198	87.31
404.422	111.31
404.645	97.31
404.869	100.31
405.093	87.31
405.317	82.31
405.541	90.31
405.765	87.31
405.988	82.31
406.212	84.31
406.436	93.31
406.66	84.31
406.883	93.31
407.107	86.31
407.331	94.31
407.555	90.31
407.778	87.31
408.002	94.31
408.226	82.31
408.449	92.31
408.673	87.31
408.896	89.31
409.12	88.31
409.344	91.31
409.567	71.31
409.791	85.31
410.014	87.31
410.238	101.31
410.461	85.31
410.685	82.31
410.908	93.31
411.132	89.31
411.355	75.31
411.578	104.31
411.802	79.31
412.025	88.31
412.249	80.31
412.472	90.31
412.695	105.31
412.919	90.31
413.142	75.31
413.365	90.31
413.589	91.31
413.812	91.31
414.035	88.31
414.258	89.31
414.482	79.31
414.705	89.31
414.928	99.31
415.151	96.31
415.374	83.31
415.597	89.31
415.821	102.31
416.044	94.31
416.267	92.31
416.49	85.31
416.713	83.31
416.936	103.31
417.159	87.31
417.382	89.31
417.605	83.31
417.828	78.31
418.051	81.31
418.274	94.31
418.497	88.31
418.72	87.31
418.943	103.31
419.166	96.31
419.389	99.31
419.611	88.31
419.834	90.31
420.057	102.31
420.28	85.31
420.503	85.31
420.726	90.31
420.948	97.31
421.171	96.31
421.394	93.31
421.617	92.31
421.839	101.31
422.062	100.31
422.285	119.31
422.507	162.31
422.73	221.31
422.953	207.31
423.175	151.31
423.398	103.31
423.621	93.31
423.843	89.31
424.066	100.31
424.288	95.31
424.511	94.31
424.733	80.31
424.956	90.31
425.178	100.31
425.401	85.31
425.623	85.31
425.846	77.31
426.068	86.31
426.291	82.31
426.513	72.31
426.735	83.31
426.958	81.31
427.18	97.31
427.402	103.31
427.625	111.31
427.847	75.31
428.069	89.31
428.292	103.31
428.514	108.31
428.736	103.31
428.958	89.31
429.181	105.31
429.403	100.31
429.625	93.31
429.847	108.31
430.069	112.31
430.292	144.31
430.514	121.31
430.736	116.31
430.958	103.31
431.18	104.31
431.402	101.31
431.624	88.31
431.846	98.31
432.068	112.31
432.29	96.31
432.512	91.31
432.734	97.31
432.956	96.31
433.178	89.31
433.4	78.31
433.622	97.31
433.844	94.31
434.066	87.31
434.287	87.31
434.509	88.31
434.731	95.31
434.953	83.31
435.175	91.31
435.397	112.31
435.618	80.31
435.84	94.31
436.062	87.31
436.284	85.31
436.505	88.31
436.727	84.31
436.949	90.31
437.17	72.31
437.392	92.31
437.614	89.31
437.835	85.31
438.057	97.31
438.278	95.31
438.5	71.31
438.721	99.31
438.943	96.31
439.165	80.31
439.386	90.31
439.608	77.31
439.829	92.31
440.05	89.31
440.272	80.31
440.493	83.31
440.715	103.31
440.936	97.31
441.158	95.31
441.379	95.31
441.6	82.31
441.822	87.31
442.043	94.31
442.264	89.31
442.486	99.31
442.707	100.31
442.928	110.31
443.149	99.31
443.371	106.31
443.592	127.31
443.813	129.31
444.034	85.31
444.255	99.31
444.476	85.31
444.698	89.31
444.919	89.31
445.14	177.31
445.361	172.31
445.582	152.31
445.803	144.31
446.024	100.31
446.245	84.31
446.466	104.31
446.687	83.31
446.908	82.31
447.129	79.31
447.35	87.31
447.571	93.31
447.792	82.31
448.013	86.31
448.234	97.31
448.455	107.31
448.675	71.31
448.896	82.31
449.117	89.31
449.338	77.31
449.559	102.31
449.779	89.31
450	91.31
450.221	81.31
450.442	94.31
450.662	90.31
450.883	86.31
451.104	80.31
451.324	101.31
451.545	83.31
451.766	92.31
451.986	94.31
452.207	75.31
452.428	101.31
452.648	96.31
452.869	91.31
453.089	81.31
453.31	99.31
453.53	95.31
453.751	80.31
453.971	81.31
454.192	79.31
454.412	89.31
454.633	92.31
454.853	91.31
455.073	87.31
455.294	89.31
455.514	74.31
455.734	84.31
455.955	99.31
456.175	81.31
456.395	108.31
456.616	93.31
456.836	90.31
457.056	71.31
457.276	86.31
457.497	93.31
457.717	90.31
457.937	92.31
458.157	91.31
458.377	83.31
458.598	81.31
458.818	103.31
459.038	102.31
459.258	100.31
459.478	93.31
459.698	85.31
459.918	92.31
460.138	75.31
460.358	91.31
460.578	88.31
460.798	109.31
461.018	97.31
461.238	102.31
461.458	88.31
461.678	93.31
461.898	92.31
462.118	77.31
462.338	99.31
462.558	87.31
462.777	87.31
462.997	95.31
463.217	85.31
463.437	81.31
463.657	82.31
463.876	91.31
464.096	92.31
464.316	87.31
464.536	98.31
464.755	112.31
464.975	88.31
465.195	90.31
465.414	70.31
465.634	86.31
465.854	81.31
466.073	79.31
466.293	93.31
466.512	86.31
466.732	91.31
466.951	84.31
467.171	94.31
467.391	90.31
467.61	79.31
467.829	75.31
468.049	94.31
468.268	91.31
468.488	101.31
468.707	87.31
468.927	79.31
469.146	93.31
469.365	89.31
469.585	96.31
469.804	89.31
470.023	91.31
470.243	87.31
470.462	80.31
470.681	79.31
470.901	80.31
471.12	95.31
471.339	99.31
471.558	92.31
471.777	78.31
471.997	93.31
472.216	88.31
472.435	96.31
472.654	92.31
472.873	99.31
473.092	83.31
473.311	99.31
473.53	88.31
473.749	92.31
473.968	86.31
474.187	89.31
474.406	89.31
474.625	92.31
474.844	95.31
475.063	89.31
475.282	83.31
475.501	88.31
475.72	104.31
475.939	87.31
476.158	90.31
476.377	102.31
476.596	106.31
476.814	95.31
477.033	78.31
477.252	84.31
477.471	87.31
477.69	84.31
477.908	98.31
478.127	104.31
478.346	101.31
478.564	93.31
478.783	86.31
479.002	82.31
479.22	77.31
479.439	85.31
479.658	89.31
479.876	85.31
480.095	79.31
480.313	86.31
480.532	95.31
480.751	101.31
480.969	95.31
481.188	86.31
481.406	104.31
481.624	88.31
481.843	91.31
482.061	95.31
482.28	91.31
482.498	89.31
482.717	99.31
482.935	96.31
483.153	77.31
483.372	87.31
483.59	100.31
483.808	89.31
484.027	82.31
484.245	78.31
484.463	97.31
484.681	95.31
484.9	88.31
485.118	98.31
485.336	101.31
485.554	80.31
485.772	93.31
485.99	92.31
486.209	85.31
486.427	80.31
486.645	92.31
486.863	92.31
487.081	86.31
487.299	88.31
487.517	82.31
487.735	82.31
487.953	125.31
488.171	92.31
488.389	87.31
488.607	76.31
488.825	103.31
489.043	86.31
489.261	101.31
489.479	89.31
489.696	87.31
489.914	81.31
490.132	98.31
490.35	95.31
490.568	89.31
490.786	98.31
491.003	89.31
491.221	95.31
491.439	108.31
491.657	91.31
491.874	88.31
492.092	79.31
492.31	84.31
492.527	85.31
492.745	84.31
492.963	86.31
493.18	87.31
493.398	96.31
493.615	93.31
493.833	74.31
494.05	88.31
494.268	77.31
494.485	101.31
494.703	97.31
494.92	95.31
495.138	105.31
495.355	90.31
495.573	80.31
495.79	81.31
496.008	91.31
496.225	92.31
496.442	93.31
496.66	101.31
496.877	97.31
497.094	90.31
497.312	100.31
497.529	108.31
497.746	84.31
497.963	96.31
498.181	91.31
498.398	103.31
498.615	78.31
498.832	92.31
499.049	85.31
499.267	97.31
499.484	93.31
499.701	90.31
499.918	85.31
500.135	93.31
500.352	88.31
500.569	78.31
500.786	79.31
501.003	87.31
501.22	85.31
501.437	88.31
501.654	103.31
501.871	81.31
502.088	91.31
502.305	77.31
502.522	94.31
502.739	99.31
502.956	88.31
503.172	97.31
503.389	89.31
503.606	81.31
503.823	93.31
504.04	99.31
504.256	108.31
504.473	106.31
504.69	106.31
504.907	90.31
505.123	106.31
505.34	91.31
505.557	96.31
505.773	86.31
505.99	101.31
506.207	93.31
506.423	76.31
506.64	86.31
506.856	91.31
507.073	89.31
507.289	95.31
507.506	96.31
507.722	84.31
507.939	89.31
508.155	84.31
508.372	90.31
508.588	86.31
508.805	94.31
509.021	91.31
509.238	94.31
509.454	93.31
509.67	78.31
509.887	102.31
510.103	81.31
510.319	81.31
510.536	87.31
510.752	89.31
510.968	89.31
511.184	89.31
511.401	93.31
511.617	83.31
511.833	103.31
512.049	92.31
512.265	87.31
512.481	92.31
512.698	87.31
512.914	89.31
513.13	93.31
513.346	103.31
513.562	92.31
513.778	93.31
513.994	94.31
514.21	85.31
514.426	77.31
514.642	75.31
514.858	70.31
515.074	87.31
515.29	96.31
515.506	101.31
515.721	96.31
515.937	72.31
516.153	85.31
516.369	88.31
516.585	75.31
516.801	91.31
517.016	78.31
517.232	99.31
517.448	89.31
517.664	96.31
517.879	81.31
518.095	100.31
