Data from 237_3_HRD10591_00026.txt Node
Date: Mon Jan 19 14:13:07 EST 2026
User: Yrep
Spectrometer: HR+D1059
Trigger mode: 1
Integration Time (sec): 1.000000E-1
Scans to average: 1
Electric dark correction enabled: true
Nonlinearity correction enabled: false
Boxcar width: 0
XAxis mode: Wavelengths
Number of Pixels in Spectrum: 2048
>>>>>Begin Spectral Data<<<<<
223.165	-13.69
223.4	-13.69
223.635	-13.69
223.869	-25.69
224.104	-21.69
224.338	-24.69
224.573	-12.69
224.808	-23.69
225.042	-4.69
225.277	11.31
225.511	-13.69
225.746	7.31
225.98	9.31
226.215	17.31
226.449	20.31
226.683	29.31
226.918	21.31
227.152	24.31
227.387	30.31
227.621	25.31
227.856	41.31
228.09	41.31
228.324	66.31
228.559	61.31
228.793	53.31
229.027	61.31
229.262	66.31
229.496	73.31
229.73	77.31
229.964	53.31
230.199	71.31
230.433	85.31
230.667	86.31
230.901	81.31
231.136	79.31
231.37	83.31
231.604	62.31
231.838	71.31
232.072	82.31
232.306	79.31
232.541	78.31
232.775	85.31
233.009	98.31
233.243	82.31
233.477	81.31
233.711	74.31
233.945	73.31
234.179	75.31
234.413	80.31
234.647	85.31
234.881	75.31
235.115	51.31
235.349	86.31
235.583	57.31
235.817	77.31
236.051	80.31
236.285	81.31
236.519	66.31
236.753	81.31
236.987	61.31
237.221	75.31
237.455	57.31
237.689	65.31
237.922	64.31
238.156	74.31
238.39	83.31
238.624	78.31
238.858	73.31
239.091	64.31
239.325	81.31
239.559	75.31
239.793	62.31
240.027	72.31
240.26	70.31
240.494	82.31
240.728	67.31
240.961	81.31
241.195	68.31
241.429	77.31
241.662	92.31
241.896	75.31
242.13	71.31
242.363	71.31
242.597	67.31
242.83	80.31
243.064	85.31
243.298	87.31
243.531	84.31
243.765	71.31
243.998	61.31
244.232	68.31
244.465	83.31
244.699	69.31
244.932	79.31
245.166	76.31
245.399	75.31
245.633	73.31
245.866	81.31
246.099	84.31
246.333	88.31
246.566	78.31
246.8	58.31
247.033	81.31
247.266	71.31
247.5	86.31
247.733	81.31
247.966	82.31
248.2	76.31
248.433	79.31
248.666	75.31
248.899	85.31
249.133	81.31
249.366	85.31
249.599	79.31
249.832	85.31
250.066	88.31
250.299	70.31
250.532	81.31
250.765	71.31
250.998	69.31
251.231	74.31
251.465	73.31
251.698	83.31
251.931	75.31
252.164	67.31
252.397	69.31
252.63	67.31
252.863	87.31
253.096	77.31
253.329	74.31
253.562	76.31
253.795	65.31
254.028	79.31
254.261	80.31
254.494	76.31
254.727	90.31
254.96	70.31
255.193	78.31
255.426	87.31
255.659	90.31
255.892	85.31
256.124	95.31
256.357	78.31
256.59	76.31
256.823	73.31
257.056	79.31
257.289	68.31
257.521	73.31
257.754	87.31
257.987	73.31
258.22	86.31
258.452	77.31
258.685	95.31
258.918	103.31
259.151	77.31
259.383	83.31
259.616	68.31
259.849	71.31
260.081	83.31
260.314	83.31
260.547	76.31
260.779	78.31
261.012	91.31
261.244	76.31
261.477	93.31
261.71	82.31
261.942	67.31
262.175	83.31
262.407	74.31
262.64	76.31
262.872	75.31
263.105	77.31
263.337	73.31
263.57	76.31
263.802	75.31
264.035	74.31
264.267	82.31
264.499	82.31
264.732	84.31
264.964	96.31
265.197	78.31
265.429	80.31
265.661	89.31
265.894	80.31
266.126	75.31
266.358	77.31
266.591	96.31
266.823	83.31
267.055	69.31
267.287	76.31
267.52	69.31
267.752	78.31
267.984	79.31
268.216	94.31
268.448	85.31
268.681	70.31
268.913	90.31
269.145	81.31
269.377	76.31
269.609	91.31
269.841	92.31
270.073	78.31
270.306	70.31
270.538	81.31
270.77	75.31
271.002	74.31
271.234	98.31
271.466	71.31
271.698	73.31
271.93	82.31
272.162	78.31
272.394	88.31
272.626	77.31
272.858	75.31
273.09	82.31
273.322	87.31
273.553	75.31
273.785	86.31
274.017	78.31
274.249	81.31
274.481	85.31
274.713	90.31
274.945	75.31
275.176	97.31
275.408	92.31
275.64	93.31
275.872	81.31
276.104	74.31
276.335	79.31
276.567	76.31
276.799	79.31
277.031	83.31
277.262	78.31
277.494	85.31
277.726	87.31
277.957	95.31
278.189	69.31
278.421	80.31
278.652	70.31
278.884	86.31
279.115	81.31
279.347	89.31
279.579	93.31
279.81	85.31
280.042	76.31
280.273	69.31
280.505	77.31
280.736	88.31
280.968	103.31
281.199	89.31
281.431	82.31
281.662	89.31
281.894	93.31
282.125	81.31
282.356	91.31
282.588	93.31
282.819	75.31
283.051	91.31
283.282	87.31
283.513	83.31
283.745	76.31
283.976	74.31
284.207	85.31
284.439	81.31
284.67	85.31
284.901	97.31
285.132	87.31
285.364	105.31
285.595	88.31
285.826	89.31
286.057	93.31
286.288	79.31
286.52	86.31
286.751	80.31
286.982	86.31
287.213	75.31
287.444	77.31
287.675	72.31
287.906	83.31
288.138	76.31
288.369	78.31
288.6	79.31
288.831	81.31
289.062	91.31
289.293	90.31
289.524	85.31
289.755	75.31
289.986	78.31
290.217	80.31
290.448	83.31
290.679	90.31
290.91	71.31
291.141	70.31
291.371	84.31
291.602	91.31
291.833	81.31
292.064	80.31
292.295	87.31
292.526	82.31
292.757	87.31
292.987	78.31
293.218	73.31
293.449	94.31
293.68	76.31
293.91	95.31
294.141	94.31
294.372	75.31
294.603	85.31
294.833	85.31
295.064	73.31
295.295	90.31
295.525	99.31
295.756	89.31
295.987	101.31
296.217	75.31
296.448	88.31
296.679	81.31
296.909	96.31
297.14	93.31
297.37	86.31
297.601	88.31
297.831	87.31
298.062	74.31
298.292	93.31
298.523	94.31
298.753	85.31
298.984	81.31
299.214	100.31
299.445	83.31
299.675	86.31
299.905	84.31
300.136	88.31
300.366	87.31
300.597	78.31
300.827	97.31
301.057	90.31
301.288	75.31
301.518	76.31
301.748	83.31
301.979	111.31
302.209	80.31
302.439	83.31
302.669	72.31
302.9	87.31
303.13	78.31
303.36	79.31
303.59	78.31
303.82	89.31
304.051	92.31
304.281	84.31
304.511	85.31
304.741	87.31
304.971	77.31
305.201	77.31
305.431	93.31
305.661	89.31
305.891	70.31
306.121	83.31
306.352	87.31
306.582	96.31
306.812	79.31
307.042	69.31
307.272	68.31
307.502	78.31
307.731	85.31
307.961	70.31
308.191	87.31
308.421	85.31
308.651	91.31
308.881	87.31
309.111	94.31
309.341	97.31
309.571	81.31
309.8	86.31
310.03	70.31
310.26	72.31
310.49	69.31
310.72	101.31
310.949	96.31
311.179	98.31
311.409	93.31
311.639	74.31
311.868	75.31
312.098	83.31
312.328	80.31
312.557	88.31
312.787	86.31
313.017	74.31
313.246	92.31
313.476	102.31
313.706	84.31
313.935	81.31
314.165	94.31
314.394	90.31
314.624	92.31
314.853	93.31
315.083	101.31
315.312	81.31
315.542	74.31
315.771	85.31
316.001	91.31
316.23	81.31
316.46	82.31
316.689	93.31
316.919	85.31
317.148	88.31
317.377	96.31
317.607	85.31
317.836	77.31
318.065	83.31
318.295	90.31
318.524	89.31
318.753	81.31
318.983	68.31
319.212	83.31
319.441	85.31
319.67	83.31
319.9	89.31
320.129	93.31
320.358	72.31
320.587	83.31
320.816	86.31
321.046	81.31
321.275	90.31
321.504	89.31
321.733	87.31
321.962	81.31
322.191	85.31
322.42	79.31
322.649	98.31
322.878	89.31
323.108	89.31
323.337	85.31
323.566	81.31
323.795	81.31
324.024	78.31
324.253	84.31
324.482	91.31
324.71	98.31
324.939	82.31
325.168	82.31
325.397	81.31
325.626	84.31
325.855	79.31
326.084	90.31
326.313	90.31
326.542	88.31
326.77	86.31
326.999	89.31
327.228	85.31
327.457	90.31
327.686	85.31
327.914	81.31
328.143	103.31
328.372	83.31
328.6	91.31
328.829	80.31
329.058	90.31
329.287	90.31
329.515	79.31
329.744	84.31
329.972	89.31
330.201	83.31
330.43	95.31
330.658	76.31
330.887	72.31
331.115	81.31
331.344	68.31
331.572	78.31
331.801	97.31
332.03	85.31
332.258	71.31
332.486	81.31
332.715	89.31
332.943	84.31
333.172	90.31
333.4	80.31
333.629	96.31
333.857	78.31
334.085	92.31
334.314	76.31
334.542	95.31
334.771	83.31
334.999	90.31
335.227	94.31
335.455	72.31
335.684	90.31
335.912	93.31
336.14	81.31
336.369	93.31
336.597	86.31
336.825	88.31
337.053	97.31
337.281	82.31
337.51	72.31
337.738	87.31
337.966	81.31
338.194	89.31
338.422	76.31
338.65	87.31
338.878	79.31
339.106	88.31
339.334	84.31
339.562	89.31
339.79	100.31
340.018	78.31
340.246	89.31
340.474	89.31
340.702	78.31
340.93	79.31
341.158	90.31
341.386	86.31
341.614	90.31
341.842	100.31
342.07	83.31
342.298	90.31
342.526	96.31
342.754	78.31
342.981	82.31
343.209	97.31
343.437	98.31
343.665	87.31
343.893	94.31
344.12	95.31
344.348	89.31
344.576	91.31
344.804	94.31
345.031	89.31
345.259	77.31
345.487	99.31
345.714	85.31
345.942	82.31
346.17	83.31
346.397	98.31
346.625	81.31
346.853	87.31
347.08	86.31
347.308	101.31
347.535	85.31
347.763	105.31
347.99	78.31
348.218	84.31
348.445	81.31
348.673	90.31
348.9	81.31
349.128	105.31
349.355	85.31
349.583	89.31
349.81	91.31
350.037	101.31
350.265	91.31
350.492	96.31
350.72	85.31
350.947	89.31
351.174	81.31
351.402	94.31
351.629	85.31
351.856	81.31
352.083	79.31
352.311	88.31
352.538	96.31
352.765	90.31
352.992	97.31
353.22	95.31
353.447	87.31
353.674	98.31
353.901	90.31
354.128	89.31
354.355	77.31
354.583	84.31
354.81	91.31
355.037	88.31
355.264	85.31
355.491	93.31
355.718	81.31
355.945	83.31
356.172	90.31
356.399	94.31
356.626	89.31
356.853	81.31
357.08	94.31
357.307	93.31
357.534	83.31
357.761	72.31
357.988	95.31
358.215	94.31
358.441	96.31
358.668	91.31
358.895	73.31
359.122	86.31
359.349	96.31
359.576	101.31
359.802	81.31
360.029	100.31
360.256	95.31
360.483	89.31
360.709	93.31
360.936	88.31
361.163	90.31
361.39	95.31
361.616	109.31
361.843	86.31
362.07	87.31
362.296	80.31
362.523	85.31
362.749	104.31
362.976	101.31
363.203	100.31
363.429	102.31
363.656	102.31
363.882	91.31
364.109	106.31
364.335	128.31
364.562	117.31
364.788	114.31
365.015	102.31
365.241	89.31
365.468	83.31
365.694	81.31
365.92	87.31
366.147	90.31
366.373	85.31
366.599	84.31
366.826	89.31
367.052	91.31
367.278	80.31
367.505	83.31
367.731	98.31
367.957	79.31
368.184	102.31
368.41	100.31
368.636	82.31
368.862	88.31
369.089	79.31
369.315	88.31
369.541	83.31
369.767	76.31
369.993	70.31
370.219	83.31
370.445	77.31
370.672	83.31
370.898	85.31
371.124	83.31
371.35	87.31
371.576	89.31
371.802	87.31
372.028	85.31
372.254	90.31
372.48	98.31
372.706	88.31
372.932	83.31
373.158	89.31
373.384	102.31
373.61	91.31
373.835	105.31
374.061	78.31
374.287	76.31
374.513	100.31
374.739	93.31
374.965	118.31
375.191	91.31
375.416	93.31
375.642	109.31
375.868	77.31
376.094	83.31
376.319	86.31
376.545	89.31
376.771	93.31
376.997	111.31
377.222	89.31
377.448	99.31
377.674	88.31
377.899	75.31
378.125	81.31
378.35	95.31
378.576	76.31
378.802	89.31
379.027	93.31
379.253	98.31
379.478	78.31
379.704	89.31
379.929	91.31
380.155	80.31
380.38	81.31
380.606	70.31
380.831	85.31
381.057	88.31
381.282	101.31
381.507	99.31
381.733	89.31
381.958	87.31
382.184	94.31
382.409	89.31
382.634	100.31
382.86	101.31
383.085	86.31
383.31	87.31
383.535	95.31
383.761	91.31
383.986	89.31
384.211	95.31
384.436	106.31
384.662	81.31
384.887	86.31
385.112	75.31
385.337	95.31
385.562	76.31
385.787	89.31
386.013	89.31
386.238	93.31
386.463	78.31
386.688	95.31
386.913	95.31
387.138	83.31
387.363	90.31
387.588	100.31
387.813	98.31
388.038	99.31
388.263	87.31
388.488	93.31
388.713	90.31
388.938	87.31
389.163	85.31
389.387	86.31
389.612	81.31
389.837	98.31
390.062	96.31
390.287	88.31
390.512	87.31
390.736	93.31
390.961	95.31
391.186	103.31
391.411	113.31
391.636	96.31
391.86	91.31
392.085	93.31
392.31	85.31
392.534	99.31
392.759	104.31
392.984	126.31
393.208	177.31
393.433	246.31
393.658	189.31
393.882	111.31
394.107	107.31
394.331	106.31
394.556	115.31
394.78	102.31
395.005	81.31
395.229	100.31
395.454	82.31
395.678	102.31
395.903	116.31
396.127	119.31
396.352	144.31
396.576	125.31
396.801	185.31
397.025	202.31
397.249	135.31
397.474	117.31
397.698	85.31
397.922	99.31
398.147	81.31
398.371	83.31
398.595	79.31
398.82	81.31
399.044	90.31
399.268	99.31
399.492	95.31
399.717	89.31
399.941	92.31
400.165	92.31
400.389	88.31
400.613	80.31
400.837	81.31
401.062	76.31
401.286	83.31
401.51	92.31
401.734	82.31
401.958	95.31
402.182	93.31
402.406	85.31
402.63	76.31
402.854	80.31
403.078	95.31
403.302	87.31
403.526	97.31
403.75	70.31
403.974	98.31
404.198	123.31
404.422	174.31
404.645	171.31
404.869	150.31
405.093	102.31
405.317	94.31
405.541	95.31
405.765	89.31
405.988	87.31
406.212	91.31
406.436	75.31
406.66	99.31
406.883	101.31
407.107	96.31
407.331	101.31
407.555	90.31
407.778	104.31
408.002	89.31
408.226	75.31
408.449	82.31
408.673	82.31
408.896	70.31
409.12	81.31
409.344	92.31
409.567	67.31
409.791	96.31
410.014	83.31
410.238	105.31
410.461	91.31
410.685	82.31
410.908	89.31
411.132	111.31
411.355	85.31
411.578	103.31
411.802	93.31
412.025	88.31
412.249	83.31
412.472	89.31
412.695	80.31
412.919	81.31
413.142	85.31
413.365	86.31
413.589	83.31
413.812	90.31
414.035	96.31
414.258	97.31
414.482	80.31
414.705	82.31
414.928	86.31
415.151	95.31
415.374	75.31
415.597	81.31
415.821	78.31
416.044	77.31
416.267	84.31
416.49	94.31
416.713	76.31
416.936	84.31
417.159	83.31
417.382	75.31
417.605	73.31
417.828	65.31
418.051	98.31
418.274	76.31
418.497	76.31
418.72	90.31
418.943	85.31
419.166	84.31
419.389	94.31
419.611	98.31
419.834	92.31
420.057	91.31
420.28	82.31
420.503	91.31
420.726	85.31
420.948	95.31
421.171	92.31
421.394	84.31
421.617	120.31
421.839	103.31
422.062	120.31
422.285	174.31
422.507	280.31
422.73	382.31
422.953	341.31
423.175	213.31
423.398	130.31
423.621	116.31
423.843	113.31
424.066	102.31
424.288	95.31
424.511	101.31
424.733	91.31
424.956	88.31
425.178	81.31
425.401	80.31
425.623	75.31
425.846	77.31
426.068	96.31
426.291	78.31
426.513	111.31
426.735	93.31
426.958	104.31
427.18	99.31
427.402	90.31
427.625	88.31
427.847	96.31
428.069	91.31
428.292	125.31
428.514	129.31
428.736	96.31
428.958	136.31
429.181	129.31
429.403	109.31
429.625	103.31
429.847	128.31
430.069	168.31
430.292	174.31
430.514	173.31
430.736	128.31
430.958	141.31
431.18	93.31
431.402	73.31
431.624	106.31
431.846	129.31
432.068	138.31
432.29	90.31
432.512	91.31
432.734	89.31
432.956	99.31
433.178	92.31
433.4	101.31
433.622	76.31
433.844	82.31
434.066	73.31
434.287	90.31
434.509	89.31
434.731	101.31
434.953	80.31
435.175	79.31
435.397	89.31
435.618	68.31
435.84	70.31
436.062	96.31
436.284	77.31
436.505	81.31
436.727	75.31
436.949	66.31
437.17	82.31
437.392	81.31
437.614	70.31
437.835	75.31
438.057	84.31
438.278	98.31
438.5	85.31
438.721	95.31
438.943	90.31
439.165	89.31
439.386	91.31
439.608	79.31
439.829	67.31
440.05	70.31
440.272	86.31
440.493	86.31
440.715	75.31
440.936	91.31
441.158	99.31
441.379	86.31
441.6	83.31
441.822	91.31
442.043	87.31
442.264	103.31
442.486	137.31
442.707	171.31
442.928	138.31
443.149	114.31
443.371	149.31
443.592	230.31
443.813	213.31
444.034	115.31
444.255	101.31
444.476	91.31
444.698	86.31
444.919	87.31
445.14	203.31
445.361	222.31
445.582	310.31
445.803	261.31
446.024	133.31
446.245	96.31
446.466	87.31
446.687	93.31
446.908	93.31
447.129	91.31
447.35	90.31
447.571	87.31
447.792	80.31
448.013	74.31
448.234	73.31
448.455	81.31
448.675	85.31
448.896	82.31
449.117	83.31
449.338	74.31
449.559	83.31
449.779	69.31
450	71.31
450.221	91.31
450.442	87.31
450.662	88.31
450.883	77.31
451.104	75.31
451.324	66.31
451.545	79.31
451.766	89.31
451.986	81.31
452.207	95.31
452.428	80.31
452.648	90.31
452.869	109.31
453.089	87.31
453.31	95.31
453.53	74.31
453.751	90.31
453.971	74.31
454.192	80.31
454.412	87.31
454.633	84.31
454.853	81.31
455.073	75.31
455.294	83.31
455.514	78.31
455.734	81.31
455.955	71.31
456.175	77.31
456.395	93.31
456.616	74.31
456.836	92.31
457.056	73.31
457.276	73.31
457.497	90.31
457.717	77.31
457.937	87.31
458.157	113.31
458.377	109.31
458.598	121.31
458.818	113.31
459.038	95.31
459.258	89.31
459.478	88.31
459.698	82.31
459.918	80.31
460.138	84.31
460.358	82.31
460.578	93.31
460.798	102.31
461.018	126.31
461.238	90.31
461.458	93.31
461.678	81.31
461.898	78.31
462.118	79.31
462.338	79.31
462.558	73.31
462.777	83.31
462.997	79.31
463.217	72.31
463.437	81.31
463.657	81.31
463.876	81.31
464.096	79.31
464.316	77.31
464.536	76.31
464.755	87.31
464.975	89.31
465.195	81.31
465.414	78.31
465.634	89.31
465.854	77.31
466.073	72.31
466.293	80.31
466.512	91.31
466.732	97.31
466.951	85.31
467.171	80.31
467.391	73.31
467.61	87.31
467.829	81.31
468.049	79.31
468.268	81.31
468.488	102.31
468.707	75.31
468.927	75.31
469.146	94.31
469.365	89.31
469.585	79.31
469.804	81.31
470.023	91.31
470.243	82.31
470.462	89.31
470.681	80.31
470.901	93.31
471.12	89.31
471.339	86.31
471.558	76.31
471.777	81.31
471.997	86.31
472.216	83.31
472.435	81.31
472.654	93.31
472.873	87.31
473.092	84.31
473.311	75.31
473.53	93.31
473.749	99.31
473.968	74.31
474.187	69.31
474.406	71.31
474.625	81.31
474.844	84.31
475.063	85.31
475.282	95.31
475.501	84.31
475.72	103.31
475.939	81.31
476.158	89.31
476.377	93.31
476.596	77.31
476.814	91.31
477.033	91.31
477.252	89.31
477.471	81.31
477.69	86.31
477.908	83.31
478.127	86.31
478.346	95.31
478.564	87.31
478.783	87.31
479.002	88.31
479.22	89.31
479.439	68.31
479.658	73.31
479.876	94.31
480.095	82.31
480.313	87.31
480.532	90.31
480.751	94.31
480.969	82.31
481.188	70.31
481.406	88.31
481.624	80.31
481.843	80.31
482.061	95.31
482.28	89.31
482.498	82.31
482.717	84.31
482.935	89.31
483.153	100.31
483.372	84.31
483.59	91.31
483.808	82.31
484.027	90.31
484.245	73.31
484.463	86.31
484.681	91.31
484.9	98.31
485.118	90.31
485.336	82.31
485.554	89.31
485.772	87.31
485.99	95.31
486.209	92.31
486.427	79.31
486.645	74.31
486.863	90.31
487.081	97.31
487.299	87.31
487.517	102.31
487.735	111.31
487.953	130.31
488.171	134.31
488.389	97.31
488.607	97.31
488.825	95.31
489.043	86.31
489.261	89.31
489.479	79.31
489.696	96.31
489.914	91.31
490.132	87.31
490.35	86.31
490.568	75.31
490.786	85.31
491.003	94.31
491.221	82.31
491.439	93.31
491.657	83.31
491.874	99.31
492.092	86.31
492.31	93.31
492.527	91.31
492.745	85.31
492.963	80.31
493.18	91.31
493.398	82.31
493.615	71.31
493.833	90.31
494.05	83.31
494.268	101.31
494.485	90.31
494.703	97.31
494.92	89.31
495.138	86.31
495.355	92.31
495.573	85.31
495.79	85.31
496.008	94.31
496.225	90.31
496.442	102.31
496.66	107.31
496.877	84.31
497.094	82.31
497.312	82.31
497.529	97.31
497.746	87.31
497.963	79.31
498.181	88.31
498.398	95.31
498.615	95.31
498.832	90.31
499.049	86.31
499.267	97.31
499.484	90.31
499.701	95.31
499.918	90.31
500.135	81.31
500.352	84.31
500.569	89.31
500.786	83.31
501.003	93.31
501.22	90.31
501.437	95.31
501.654	83.31
501.871	77.31
502.088	75.31
502.305	109.31
502.522	81.31
502.739	81.31
502.956	90.31
503.172	81.31
503.389	81.31
503.606	85.31
503.823	96.31
504.04	115.31
504.256	114.31
504.473	125.31
504.69	111.31
504.907	93.31
505.123	90.31
505.34	80.31
505.557	85.31
505.773	84.31
505.99	84.31
506.207	97.31
506.423	92.31
506.64	81.31
506.856	88.31
507.073	97.31
507.289	75.31
507.506	105.31
507.722	85.31
507.939	83.31
508.155	89.31
508.372	87.31
508.588	82.31
508.805	101.31
509.021	81.31
509.238	87.31
509.454	85.31
509.67	86.31
509.887	86.31
510.103	88.31
510.319	90.31
510.536	88.31
510.752	95.31
510.968	77.31
511.184	86.31
511.401	82.31
511.617	86.31
511.833	78.31
512.049	95.31
512.265	81.31
512.481	87.31
512.698	83.31
512.914	81.31
513.13	93.31
513.346	97.31
513.562	87.31
513.778	85.31
513.994	88.31
514.21	103.31
514.426	91.31
514.642	83.31
514.858	67.31
515.074	74.31
515.29	84.31
515.506	77.31
515.721	89.31
515.937	97.31
516.153	97.31
516.369	100.31
516.585	84.31
516.801	92.31
517.016	99.31
517.232	80.31
517.448	93.31
517.664	75.31
517.879	89.31
518.095	106.31
