Data from 237_3_HRD10591_00046.txt Node
Date: Mon Jan 19 14:13:17 EST 2026
User: Yrep
Spectrometer: HR+D1059
Trigger mode: 1
Integration Time (sec): 1.000000E-1
Scans to average: 1
Electric dark correction enabled: true
Nonlinearity correction enabled: false
Boxcar width: 0
XAxis mode: Wavelengths
Number of Pixels in Spectrum: 2048
>>>>>Begin Spectral Data<<<<<
223.165	-10.75
223.4	-10.75
223.635	-10.75
223.869	-24.75
224.104	-13.75
224.338	2.25
224.573	-16.75
224.808	-19.75
225.042	-5.75
225.277	2.25
225.511	-0.75
225.746	0.25
225.98	13.25
226.215	8.25
226.449	10.25
226.683	9.25
226.918	24.25
227.152	22.25
227.387	43.25
227.621	47.25
227.856	50.25
228.09	37.25
228.324	46.25
228.559	56.25
228.793	64.25
229.027	62.25
229.262	59.25
229.496	74.25
229.73	59.25
229.964	62.25
230.199	65.25
230.433	90.25
230.667	92.25
230.901	88.25
231.136	71.25
231.37	84.25
231.604	84.25
231.838	88.25
232.072	85.25
232.306	94.25
232.541	76.25
232.775	74.25
233.009	77.25
233.243	67.25
233.477	76.25
233.711	97.25
233.945	88.25
234.179	83.25
234.413	88.25
234.647	84.25
234.881	86.25
235.115	82.25
235.349	75.25
235.583	90.25
235.817	63.25
236.051	73.25
236.285	89.25
236.519	92.25
236.753	77.25
236.987	74.25
237.221	71.25
237.455	73.25
237.689	85.25
237.922	62.25
238.156	90.25
238.39	85.25
238.624	80.25
238.858	85.25
239.091	75.25
239.325	62.25
239.559	80.25
239.793	74.25
240.027	84.25
240.26	76.25
240.494	79.25
240.728	70.25
240.961	68.25
241.195	73.25
241.429	75.25
241.662	79.25
241.896	83.25
242.13	72.25
242.363	82.25
242.597	76.25
242.83	79.25
243.064	66.25
243.298	66.25
243.531	90.25
243.765	80.25
243.998	66.25
244.232	83.25
244.465	96.25
244.699	85.25
244.932	76.25
245.166	70.25
245.399	66.25
245.633	71.25
245.866	80.25
246.099	68.25
246.333	76.25
246.566	87.25
246.8	79.25
247.033	71.25
247.266	70.25
247.5	75.25
247.733	82.25
247.966	70.25
248.2	88.25
248.433	84.25
248.666	66.25
248.899	74.25
249.133	74.25
249.366	92.25
249.599	81.25
249.832	90.25
250.066	83.25
250.299	67.25
250.532	84.25
250.765	81.25
250.998	84.25
251.231	81.25
251.465	76.25
251.698	68.25
251.931	59.25
252.164	70.25
252.397	74.25
252.63	80.25
252.863	66.25
253.096	73.25
253.329	60.25
253.562	96.25
253.795	73.25
254.028	78.25
254.261	70.25
254.494	73.25
254.727	92.25
254.96	84.25
255.193	75.25
255.426	84.25
255.659	85.25
255.892	72.25
256.124	85.25
256.357	67.25
256.59	85.25
256.823	82.25
257.056	92.25
257.289	82.25
257.521	85.25
257.754	89.25
257.987	82.25
258.22	78.25
258.452	83.25
258.685	78.25
258.918	91.25
259.151	86.25
259.383	70.25
259.616	70.25
259.849	73.25
260.081	73.25
260.314	80.25
260.547	88.25
260.779	88.25
261.012	69.25
261.244	70.25
261.477	72.25
261.71	75.25
261.942	76.25
262.175	83.25
262.407	78.25
262.64	87.25
262.872	97.25
263.105	82.25
263.337	89.25
263.57	68.25
263.802	82.25
264.035	94.25
264.267	79.25
264.499	79.25
264.732	83.25
264.964	80.25
265.197	76.25
265.429	96.25
265.661	77.25
265.894	73.25
266.126	88.25
266.358	91.25
266.591	93.25
266.823	70.25
267.055	89.25
267.287	95.25
267.52	86.25
267.752	70.25
267.984	84.25
268.216	86.25
268.448	69.25
268.681	85.25
268.913	76.25
269.145	88.25
269.377	85.25
269.609	76.25
269.841	101.25
270.073	87.25
270.306	79.25
270.538	91.25
270.77	83.25
271.002	92.25
271.234	88.25
271.466	97.25
271.698	85.25
271.93	89.25
272.162	83.25
272.394	83.25
272.626	83.25
272.858	81.25
273.09	85.25
273.322	87.25
273.553	100.25
273.785	94.25
274.017	78.25
274.249	95.25
274.481	85.25
274.713	80.25
274.945	104.25
275.176	63.25
275.408	76.25
275.64	97.25
275.872	96.25
276.104	95.25
276.335	77.25
276.567	90.25
276.799	94.25
277.031	93.25
277.262	82.25
277.494	85.25
277.726	92.25
277.957	86.25
278.189	85.25
278.421	85.25
278.652	92.25
278.884	71.25
279.115	98.25
279.347	87.25
279.579	82.25
279.81	93.25
280.042	87.25
280.273	104.25
280.505	93.25
280.736	73.25
280.968	87.25
281.199	89.25
281.431	76.25
281.662	74.25
281.894	87.25
282.125	94.25
282.356	79.25
282.588	100.25
282.819	91.25
283.051	83.25
283.282	96.25
283.513	83.25
283.745	86.25
283.976	82.25
284.207	69.25
284.439	84.25
284.67	94.25
284.901	91.25
285.132	72.25
285.364	89.25
285.595	82.25
285.826	72.25
286.057	91.25
286.288	100.25
286.52	77.25
286.751	66.25
286.982	83.25
287.213	82.25
287.444	81.25
287.675	88.25
287.906	88.25
288.138	81.25
288.369	90.25
288.6	80.25
288.831	99.25
289.062	90.25
289.293	90.25
289.524	76.25
289.755	89.25
289.986	68.25
290.217	87.25
290.448	89.25
290.679	90.25
290.91	87.25
291.141	67.25
291.371	89.25
291.602	90.25
291.833	90.25
292.064	80.25
292.295	77.25
292.526	81.25
292.757	78.25
292.987	98.25
293.218	85.25
293.449	102.25
293.68	87.25
293.91	75.25
294.141	86.25
294.372	77.25
294.603	91.25
294.833	102.25
295.064	77.25
295.295	88.25
295.525	88.25
295.756	95.25
295.987	71.25
296.217	85.25
296.448	83.25
296.679	86.25
296.909	86.25
297.14	83.25
297.37	97.25
297.601	95.25
297.831	70.25
298.062	75.25
298.292	72.25
298.523	83.25
298.753	82.25
298.984	73.25
299.214	84.25
299.445	86.25
299.675	92.25
299.905	87.25
300.136	96.25
300.366	74.25
300.597	81.25
300.827	86.25
301.057	82.25
301.288	83.25
301.518	83.25
301.748	92.25
301.979	86.25
302.209	86.25
302.439	92.25
302.669	89.25
302.9	89.25
303.13	83.25
303.36	82.25
303.59	79.25
303.82	82.25
304.051	74.25
304.281	96.25
304.511	96.25
304.741	89.25
304.971	82.25
305.201	90.25
305.431	75.25
305.661	79.25
305.891	84.25
306.121	89.25
306.352	87.25
306.582	83.25
306.812	70.25
307.042	77.25
307.272	89.25
307.502	95.25
307.731	94.25
307.961	78.25
308.191	86.25
308.421	81.25
308.651	77.25
308.881	76.25
309.111	89.25
309.341	99.25
309.571	88.25
309.8	87.25
310.03	87.25
310.26	89.25
310.49	83.25
310.72	98.25
310.949	98.25
311.179	86.25
311.409	88.25
311.639	71.25
311.868	77.25
312.098	72.25
312.328	69.25
312.557	85.25
312.787	92.25
313.017	87.25
313.246	97.25
313.476	74.25
313.706	91.25
313.935	84.25
314.165	94.25
314.394	65.25
314.624	90.25
314.853	83.25
315.083	89.25
315.312	87.25
315.542	78.25
315.771	81.25
316.001	102.25
316.23	84.25
316.46	93.25
316.689	72.25
316.919	90.25
317.148	74.25
317.377	70.25
317.607	84.25
317.836	86.25
318.065	87.25
318.295	76.25
318.524	76.25
318.753	82.25
318.983	84.25
319.212	71.25
319.441	94.25
319.67	86.25
319.9	74.25
320.129	77.25
320.358	85.25
320.587	81.25
320.816	85.25
321.046	89.25
321.275	96.25
321.504	88.25
321.733	94.25
321.962	77.25
322.191	80.25
322.42	76.25
322.649	88.25
322.878	94.25
323.108	75.25
323.337	85.25
323.566	96.25
323.795	86.25
324.024	83.25
324.253	81.25
324.482	89.25
324.71	83.25
324.939	94.25
325.168	82.25
325.397	94.25
325.626	90.25
325.855	81.25
326.084	70.25
326.313	90.25
326.542	85.25
326.77	79.25
326.999	93.25
327.228	93.25
327.457	93.25
327.686	90.25
327.914	86.25
328.143	94.25
328.372	96.25
328.6	105.25
328.829	72.25
329.058	89.25
329.287	73.25
329.515	86.25
329.744	82.25
329.972	90.25
330.201	89.25
330.43	80.25
330.658	91.25
330.887	86.25
331.115	78.25
331.344	89.25
331.572	80.25
331.801	82.25
332.03	86.25
332.258	85.25
332.486	91.25
332.715	92.25
332.943	90.25
333.172	92.25
333.4	78.25
333.629	95.25
333.857	79.25
334.085	91.25
334.314	87.25
334.542	83.25
334.771	78.25
334.999	80.25
335.227	75.25
335.455	71.25
335.684	94.25
335.912	89.25
336.14	74.25
336.369	81.25
336.597	100.25
336.825	92.25
337.053	82.25
337.281	87.25
337.51	75.25
337.738	96.25
337.966	92.25
338.194	72.25
338.422	95.25
338.65	101.25
338.878	88.25
339.106	94.25
339.334	86.25
339.562	92.25
339.79	91.25
340.018	82.25
340.246	92.25
340.474	85.25
340.702	79.25
340.93	91.25
341.158	85.25
341.386	84.25
341.614	81.25
341.842	94.25
342.07	87.25
342.298	73.25
342.526	78.25
342.754	87.25
342.981	75.25
343.209	93.25
343.437	107.25
343.665	97.25
343.893	93.25
344.12	96.25
344.348	87.25
344.576	95.25
344.804	76.25
345.031	79.25
345.259	94.25
345.487	94.25
345.714	86.25
345.942	95.25
346.17	86.25
346.397	95.25
346.625	82.25
346.853	80.25
347.08	86.25
347.308	92.25
347.535	92.25
347.763	95.25
347.99	92.25
348.218	74.25
348.445	74.25
348.673	96.25
348.9	92.25
349.128	84.25
349.355	88.25
349.583	94.25
349.81	81.25
350.037	82.25
350.265	78.25
350.492	80.25
350.72	79.25
350.947	89.25
351.174	90.25
351.402	83.25
351.629	93.25
351.856	86.25
352.083	83.25
352.311	89.25
352.538	79.25
352.765	86.25
352.992	96.25
353.22	80.25
353.447	91.25
353.674	81.25
353.901	95.25
354.128	87.25
354.355	90.25
354.583	76.25
354.81	87.25
355.037	82.25
355.264	76.25
355.491	82.25
355.718	90.25
355.945	90.25
356.172	82.25
356.399	100.25
356.626	86.25
356.853	87.25
357.08	75.25
357.307	89.25
357.534	90.25
357.761	72.25
357.988	100.25
358.215	102.25
358.441	97.25
358.668	93.25
358.895	88.25
359.122	81.25
359.349	84.25
359.576	66.25
359.802	85.25
360.029	96.25
360.256	99.25
360.483	83.25
360.709	92.25
360.936	93.25
361.163	84.25
361.39	94.25
361.616	94.25
361.843	101.25
362.07	89.25
362.296	92.25
362.523	106.25
362.749	92.25
362.976	99.25
363.203	93.25
363.429	78.25
363.656	92.25
363.882	98.25
364.109	102.25
364.335	106.25
364.562	104.25
364.788	94.25
365.015	87.25
365.241	89.25
365.468	90.25
365.694	97.25
365.92	86.25
366.147	98.25
366.373	73.25
366.599	82.25
366.826	79.25
367.052	82.25
367.278	66.25
367.505	85.25
367.731	84.25
367.957	86.25
368.184	76.25
368.41	75.25
368.636	70.25
368.862	78.25
369.089	93.25
369.315	86.25
369.541	101.25
369.767	82.25
369.993	72.25
370.219	90.25
370.445	90.25
370.672	79.25
370.898	103.25
371.124	87.25
371.35	85.25
371.576	71.25
371.802	91.25
372.028	80.25
372.254	102.25
372.48	99.25
372.706	86.25
372.932	86.25
373.158	93.25
373.384	83.25
373.61	91.25
373.835	97.25
374.061	94.25
374.287	106.25
374.513	91.25
374.739	95.25
374.965	80.25
375.191	84.25
375.416	84.25
375.642	87.25
375.868	84.25
376.094	103.25
376.319	97.25
376.545	82.25
376.771	88.25
376.997	95.25
377.222	80.25
377.448	81.25
377.674	88.25
377.899	82.25
378.125	81.25
378.35	78.25
378.576	82.25
378.802	97.25
379.027	94.25
379.253	65.25
379.478	92.25
379.704	93.25
379.929	81.25
380.155	94.25
380.38	96.25
380.606	93.25
380.831	76.25
381.057	75.25
381.282	84.25
381.507	82.25
381.733	102.25
381.958	83.25
382.184	96.25
382.409	100.25
382.634	104.25
382.86	86.25
383.085	91.25
383.31	95.25
383.535	91.25
383.761	104.25
383.986	77.25
384.211	80.25
384.436	98.25
384.662	94.25
384.887	89.25
385.112	88.25
385.337	96.25
385.562	84.25
385.787	81.25
386.013	98.25
386.238	90.25
386.463	84.25
386.688	95.25
386.913	76.25
387.138	91.25
387.363	84.25
387.588	108.25
387.813	89.25
388.038	98.25
388.263	93.25
388.488	90.25
388.713	80.25
388.938	93.25
389.163	89.25
389.387	90.25
389.612	89.25
389.837	86.25
390.062	76.25
390.287	84.25
390.512	79.25
390.736	86.25
390.961	91.25
391.186	86.25
391.411	92.25
391.636	92.25
391.86	95.25
392.085	91.25
392.31	100.25
392.534	108.25
392.759	105.25
392.984	120.25
393.208	146.25
393.433	202.25
393.658	164.25
393.882	104.25
394.107	82.25
394.331	102.25
394.556	106.25
394.78	98.25
395.005	78.25
395.229	87.25
395.454	91.25
395.678	69.25
395.903	99.25
396.127	106.25
396.352	119.25
396.576	120.25
396.801	158.25
397.025	164.25
397.249	126.25
397.474	104.25
397.698	99.25
397.922	90.25
398.147	78.25
398.371	71.25
398.595	93.25
398.82	78.25
399.044	82.25
399.268	86.25
399.492	83.25
399.717	94.25
399.941	96.25
400.165	87.25
400.389	86.25
400.613	98.25
400.837	80.25
401.062	80.25
401.286	87.25
401.51	87.25
401.734	104.25
401.958	79.25
402.182	75.25
402.406	77.25
402.63	84.25
402.854	92.25
403.078	94.25
403.302	79.25
403.526	70.25
403.75	94.25
403.974	86.25
404.198	92.25
404.422	111.25
404.645	115.25
404.869	95.25
405.093	94.25
405.317	89.25
405.541	76.25
405.765	87.25
405.988	84.25
406.212	89.25
406.436	80.25
406.66	86.25
406.883	109.25
407.107	98.25
407.331	86.25
407.555	88.25
407.778	96.25
408.002	90.25
408.226	94.25
408.449	95.25
408.673	86.25
408.896	95.25
409.12	78.25
409.344	89.25
409.567	99.25
409.791	91.25
410.014	95.25
410.238	72.25
410.461	98.25
410.685	90.25
410.908	84.25
411.132	83.25
411.355	71.25
411.578	86.25
411.802	82.25
412.025	87.25
412.249	101.25
412.472	94.25
412.695	91.25
412.919	80.25
413.142	73.25
413.365	75.25
413.589	88.25
413.812	86.25
414.035	87.25
414.258	82.25
414.482	78.25
414.705	83.25
414.928	79.25
415.151	77.25
415.374	87.25
415.597	86.25
415.821	98.25
416.044	82.25
416.267	76.25
416.49	82.25
416.713	82.25
416.936	79.25
417.159	87.25
417.382	90.25
417.605	94.25
417.828	98.25
418.051	85.25
418.274	76.25
418.497	81.25
418.72	97.25
418.943	92.25
419.166	96.25
419.389	74.25
419.611	76.25
419.834	86.25
420.057	97.25
420.28	85.25
420.503	105.25
420.726	80.25
420.948	90.25
421.171	84.25
421.394	88.25
421.617	96.25
421.839	105.25
422.062	107.25
422.285	121.25
422.507	195.25
422.73	264.25
422.953	263.25
423.175	146.25
423.398	114.25
423.621	98.25
423.843	80.25
424.066	88.25
424.288	96.25
424.511	104.25
424.733	84.25
424.956	90.25
425.178	87.25
425.401	93.25
425.623	96.25
425.846	96.25
426.068	96.25
426.291	70.25
426.513	76.25
426.735	86.25
426.958	88.25
427.18	94.25
427.402	83.25
427.625	86.25
427.847	94.25
428.069	90.25
428.292	101.25
428.514	121.25
428.736	100.25
428.958	96.25
429.181	97.25
429.403	82.25
429.625	82.25
429.847	104.25
430.069	140.25
430.292	135.25
430.514	123.25
430.736	103.25
430.958	105.25
431.18	97.25
431.402	91.25
431.624	92.25
431.846	114.25
432.068	114.25
432.29	91.25
432.512	85.25
432.734	76.25
432.956	93.25
433.178	86.25
433.4	89.25
433.622	98.25
433.844	82.25
434.066	87.25
434.287	80.25
434.509	79.25
434.731	95.25
434.953	86.25
435.175	97.25
435.397	82.25
435.618	101.25
435.84	80.25
436.062	90.25
436.284	91.25
436.505	79.25
436.727	82.25
436.949	70.25
437.17	88.25
437.392	70.25
437.614	88.25
437.835	83.25
438.057	95.25
438.278	93.25
438.5	92.25
438.721	96.25
438.943	102.25
439.165	90.25
439.386	98.25
439.608	80.25
439.829	82.25
440.05	78.25
440.272	92.25
440.493	91.25
440.715	84.25
440.936	85.25
441.158	93.25
441.379	98.25
441.6	88.25
441.822	77.25
442.043	91.25
442.264	105.25
442.486	121.25
442.707	140.25
442.928	112.25
443.149	93.25
443.371	115.25
443.592	163.25
443.813	155.25
444.034	100.25
444.255	89.25
444.476	81.25
444.698	97.25
444.919	92.25
445.14	193.25
445.361	168.25
445.582	208.25
445.803	174.25
446.024	86.25
446.245	88.25
446.466	89.25
446.687	74.25
446.908	79.25
447.129	97.25
447.35	82.25
447.571	87.25
447.792	86.25
448.013	88.25
448.234	83.25
448.455	72.25
448.675	88.25
448.896	80.25
449.117	91.25
449.338	82.25
449.559	95.25
449.779	94.25
450	83.25
450.221	87.25
450.442	90.25
450.662	78.25
450.883	86.25
451.104	92.25
451.324	82.25
451.545	83.25
451.766	81.25
451.986	89.25
452.207	91.25
452.428	86.25
452.648	90.25
452.869	90.25
453.089	87.25
453.31	92.25
453.53	102.25
453.751	95.25
453.971	86.25
454.192	104.25
454.412	82.25
454.633	99.25
454.853	90.25
455.073	82.25
455.294	90.25
455.514	86.25
455.734	87.25
455.955	83.25
456.175	82.25
456.395	83.25
456.616	93.25
456.836	92.25
457.056	96.25
457.276	79.25
457.497	88.25
457.717	77.25
457.937	90.25
458.157	110.25
458.377	112.25
458.598	114.25
458.818	95.25
459.038	83.25
459.258	82.25
459.478	86.25
459.698	74.25
459.918	96.25
460.138	85.25
460.358	72.25
460.578	94.25
460.798	99.25
461.018	98.25
461.238	84.25
461.458	103.25
461.678	79.25
461.898	93.25
462.118	98.25
462.338	83.25
462.558	87.25
462.777	80.25
462.997	84.25
463.217	88.25
463.437	82.25
463.657	92.25
463.876	92.25
464.096	83.25
464.316	74.25
464.536	88.25
464.755	92.25
464.975	88.25
465.195	83.25
465.414	85.25
465.634	80.25
465.854	91.25
466.073	98.25
466.293	80.25
466.512	94.25
466.732	76.25
466.951	69.25
467.171	96.25
467.391	86.25
467.61	90.25
467.829	87.25
468.049	86.25
468.268	79.25
468.488	86.25
468.707	107.25
468.927	91.25
469.146	89.25
469.365	88.25
469.585	94.25
469.804	92.25
470.023	73.25
470.243	86.25
470.462	90.25
470.681	86.25
470.901	89.25
471.12	83.25
471.339	90.25
471.558	91.25
471.777	76.25
471.997	79.25
472.216	102.25
472.435	87.25
472.654	88.25
472.873	89.25
473.092	74.25
473.311	82.25
473.53	71.25
473.749	81.25
473.968	78.25
474.187	96.25
474.406	92.25
474.625	95.25
474.844	84.25
475.063	90.25
475.282	76.25
475.501	86.25
475.72	83.25
475.939	75.25
476.158	84.25
476.377	89.25
476.596	86.25
476.814	93.25
477.033	77.25
477.252	84.25
477.471	92.25
477.69	85.25
477.908	95.25
478.127	93.25
478.346	77.25
478.564	67.25
478.783	82.25
479.002	82.25
479.22	72.25
479.439	85.25
479.658	77.25
479.876	82.25
480.095	78.25
480.313	82.25
480.532	85.25
480.751	88.25
480.969	93.25
481.188	71.25
481.406	86.25
481.624	84.25
481.843	73.25
482.061	88.25
482.28	86.25
482.498	92.25
482.717	81.25
482.935	88.25
483.153	90.25
483.372	89.25
483.59	104.25
483.808	87.25
484.027	99.25
484.245	90.25
484.463	73.25
484.681	86.25
484.9	83.25
485.118	75.25
485.336	78.25
485.554	86.25
485.772	92.25
485.99	75.25
486.209	87.25
486.427	87.25
486.645	75.25
486.863	91.25
487.081	87.25
487.299	100.25
487.517	98.25
487.735	104.25
487.953	138.25
488.171	136.25
488.389	96.25
488.607	103.25
488.825	76.25
489.043	67.25
489.261	90.25
489.479	71.25
489.696	92.25
489.914	90.25
490.132	77.25
490.35	86.25
490.568	93.25
490.786	100.25
491.003	90.25
491.221	82.25
491.439	83.25
491.657	76.25
491.874	74.25
492.092	76.25
492.31	96.25
492.527	86.25
492.745	75.25
492.963	83.25
493.18	86.25
493.398	81.25
493.615	87.25
493.833	80.25
494.05	82.25
494.268	84.25
494.485	88.25
494.703	92.25
494.92	93.25
495.138	100.25
495.355	99.25
495.573	86.25
495.79	96.25
496.008	91.25
496.225	98.25
496.442	99.25
496.66	73.25
496.877	80.25
497.094	88.25
497.312	82.25
497.529	86.25
497.746	94.25
497.963	96.25
498.181	86.25
498.398	98.25
498.615	88.25
498.832	88.25
499.049	94.25
499.267	101.25
499.484	102.25
499.701	86.25
499.918	97.25
500.135	98.25
500.352	92.25
500.569	74.25
500.786	92.25
501.003	90.25
501.22	76.25
501.437	96.25
501.654	90.25
501.871	84.25
502.088	96.25
502.305	99.25
502.522	84.25
502.739	95.25
502.956	74.25
503.172	102.25
503.389	96.25
503.606	89.25
503.823	97.25
504.04	103.25
504.256	110.25
504.473	110.25
504.69	91.25
504.907	74.25
505.123	88.25
505.34	79.25
505.557	73.25
505.773	80.25
505.99	78.25
506.207	87.25
506.423	82.25
506.64	85.25
506.856	85.25
507.073	81.25
507.289	92.25
507.506	94.25
507.722	86.25
507.939	93.25
508.155	101.25
508.372	83.25
508.588	76.25
508.805	90.25
509.021	85.25
509.238	92.25
509.454	77.25
509.67	98.25
509.887	80.25
510.103	86.25
510.319	84.25
510.536	94.25
510.752	78.25
510.968	66.25
511.184	90.25
511.401	81.25
511.617	89.25
511.833	88.25
512.049	103.25
512.265	96.25
512.481	82.25
512.698	101.25
512.914	88.25
513.13	90.25
513.346	84.25
513.562	97.25
513.778	90.25
513.994	97.25
514.21	76.25
514.426	90.25
514.642	79.25
514.858	94.25
515.074	94.25
515.29	88.25
515.506	96.25
515.721	106.25
515.937	88.25
516.153	75.25
516.369	80.25
516.585	82.25
516.801	85.25
517.016	98.25
517.232	95.25
517.448	105.25
517.664	95.25
517.879	82.25
518.095	83.25
518.311	85.25
518.527	104.25
518.742	92.25
