Data from 237_3_HRD10591_00047.txt Node
Date: Mon Jan 19 14:13:18 EST 2026
User: Yrep
Spectrometer: HR+D1059
Trigger mode: 1
Integration Time (sec): 1.000000E-1
Scans to average: 1
Electric dark correction enabled: true
Nonlinearity correction enabled: false
Boxcar width: 0
XAxis mode: Wavelengths
Number of Pixels in Spectrum: 2048
>>>>>Begin Spectral Data<<<<<
223.165	-28.12
223.4	-28.12
223.635	-28.12
223.869	-35.12
224.104	-34.12
224.338	-22.12
224.573	-14.12
224.808	1.88
225.042	-5.12
225.277	1.88
225.511	-2.12
225.746	5.88
225.98	11.88
226.215	14.88
226.449	19.88
226.683	26.88
226.918	24.88
227.152	32.88
227.387	39.88
227.621	27.88
227.856	52.88
228.09	33.88
228.324	45.88
228.559	57.88
228.793	53.88
229.027	63.88
229.262	57.88
229.496	59.88
229.73	66.88
229.964	73.88
230.199	73.88
230.433	86.88
230.667	79.88
230.901	68.88
231.136	95.88
231.37	95.88
231.604	94.88
231.838	74.88
232.072	65.88
232.306	83.88
232.541	65.88
232.775	81.88
233.009	75.88
233.243	71.88
233.477	82.88
233.711	89.88
233.945	73.88
234.179	73.88
234.413	76.88
234.647	77.88
234.881	82.88
235.115	94.88
235.349	81.88
235.583	83.88
235.817	83.88
236.051	78.88
236.285	62.88
236.519	70.88
236.753	75.88
236.987	77.88
237.221	58.88
237.455	72.88
237.689	67.88
237.922	75.88
238.156	70.88
238.39	73.88
238.624	74.88
238.858	81.88
239.091	80.88
239.325	59.88
239.559	80.88
239.793	63.88
240.027	69.88
240.26	70.88
240.494	71.88
240.728	58.88
240.961	90.88
241.195	72.88
241.429	78.88
241.662	73.88
241.896	85.88
242.13	88.88
242.363	75.88
242.597	83.88
242.83	61.88
243.064	57.88
243.298	71.88
243.531	73.88
243.765	81.88
243.998	77.88
244.232	66.88
244.465	78.88
244.699	90.88
244.932	71.88
245.166	90.88
245.399	74.88
245.633	72.88
245.866	73.88
246.099	85.88
246.333	72.88
246.566	76.88
246.8	75.88
247.033	59.88
247.266	68.88
247.5	86.88
247.733	89.88
247.966	65.88
248.2	65.88
248.433	85.88
248.666	63.88
248.899	71.88
249.133	75.88
249.366	81.88
249.599	71.88
249.832	76.88
250.066	98.88
250.299	83.88
250.532	87.88
250.765	85.88
250.998	78.88
251.231	67.88
251.465	71.88
251.698	59.88
251.931	73.88
252.164	79.88
252.397	90.88
252.63	73.88
252.863	87.88
253.096	90.88
253.329	83.88
253.562	79.88
253.795	75.88
254.028	75.88
254.261	94.88
254.494	85.88
254.727	81.88
254.96	87.88
255.193	85.88
255.426	81.88
255.659	73.88
255.892	93.88
256.124	86.88
256.357	82.88
256.59	63.88
256.823	81.88
257.056	72.88
257.289	91.88
257.521	91.88
257.754	70.88
257.987	75.88
258.22	81.88
258.452	73.88
258.685	81.88
258.918	69.88
259.151	77.88
259.383	83.88
259.616	65.88
259.849	75.88
260.081	73.88
260.314	82.88
260.547	74.88
260.779	78.88
261.012	77.88
261.244	88.88
261.477	82.88
261.71	86.88
261.942	83.88
262.175	77.88
262.407	82.88
262.64	79.88
262.872	68.88
263.105	94.88
263.337	75.88
263.57	89.88
263.802	92.88
264.035	85.88
264.267	82.88
264.499	81.88
264.732	73.88
264.964	73.88
265.197	75.88
265.429	77.88
265.661	85.88
265.894	78.88
266.126	78.88
266.358	78.88
266.591	84.88
266.823	83.88
267.055	79.88
267.287	76.88
267.52	94.88
267.752	86.88
267.984	88.88
268.216	77.88
268.448	78.88
268.681	70.88
268.913	77.88
269.145	86.88
269.377	76.88
269.609	79.88
269.841	76.88
270.073	79.88
270.306	79.88
270.538	76.88
270.77	100.88
271.002	73.88
271.234	82.88
271.466	84.88
271.698	74.88
271.93	65.88
272.162	70.88
272.394	85.88
272.626	79.88
272.858	67.88
273.09	83.88
273.322	86.88
273.553	67.88
273.785	93.88
274.017	84.88
274.249	85.88
274.481	91.88
274.713	78.88
274.945	79.88
275.176	90.88
275.408	89.88
275.64	80.88
275.872	83.88
276.104	69.88
276.335	72.88
276.567	78.88
276.799	84.88
277.031	81.88
277.262	84.88
277.494	94.88
277.726	72.88
277.957	81.88
278.189	73.88
278.421	85.88
278.652	83.88
278.884	81.88
279.115	85.88
279.347	89.88
279.579	67.88
279.81	87.88
280.042	93.88
280.273	78.88
280.505	73.88
280.736	74.88
280.968	76.88
281.199	81.88
281.431	85.88
281.662	81.88
281.894	105.88
282.125	75.88
282.356	83.88
282.588	94.88
282.819	81.88
283.051	74.88
283.282	97.88
283.513	93.88
283.745	89.88
283.976	70.88
284.207	80.88
284.439	77.88
284.67	98.88
284.901	79.88
285.132	72.88
285.364	97.88
285.595	93.88
285.826	70.88
286.057	83.88
286.288	79.88
286.52	82.88
286.751	78.88
286.982	82.88
287.213	86.88
287.444	96.88
287.675	73.88
287.906	90.88
288.138	91.88
288.369	82.88
288.6	90.88
288.831	79.88
289.062	77.88
289.293	81.88
289.524	78.88
289.755	82.88
289.986	78.88
290.217	89.88
290.448	75.88
290.679	81.88
290.91	87.88
291.141	78.88
291.371	72.88
291.602	81.88
291.833	77.88
292.064	82.88
292.295	82.88
292.526	76.88
292.757	87.88
292.987	80.88
293.218	81.88
293.449	79.88
293.68	87.88
293.91	87.88
294.141	82.88
294.372	85.88
294.603	81.88
294.833	69.88
295.064	92.88
295.295	80.88
295.525	77.88
295.756	92.88
295.987	75.88
296.217	86.88
296.448	85.88
296.679	85.88
296.909	80.88
297.14	90.88
297.37	76.88
297.601	86.88
297.831	81.88
298.062	95.88
298.292	88.88
298.523	86.88
298.753	91.88
298.984	86.88
299.214	79.88
299.445	86.88
299.675	73.88
299.905	81.88
300.136	85.88
300.366	86.88
300.597	93.88
300.827	78.88
301.057	67.88
301.288	87.88
301.518	72.88
301.748	82.88
301.979	99.88
302.209	75.88
302.439	91.88
302.669	88.88
302.9	64.88
303.13	76.88
303.36	83.88
303.59	70.88
303.82	89.88
304.051	92.88
304.281	87.88
304.511	75.88
304.741	88.88
304.971	85.88
305.201	91.88
305.431	81.88
305.661	88.88
305.891	82.88
306.121	77.88
306.352	77.88
306.582	86.88
306.812	71.88
307.042	71.88
307.272	74.88
307.502	93.88
307.731	86.88
307.961	90.88
308.191	89.88
308.421	79.88
308.651	82.88
308.881	94.88
309.111	75.88
309.341	79.88
309.571	86.88
309.8	72.88
310.03	89.88
310.26	93.88
310.49	74.88
310.72	70.88
310.949	75.88
311.179	77.88
311.409	81.88
311.639	79.88
311.868	85.88
312.098	93.88
312.328	71.88
312.557	93.88
312.787	91.88
313.017	80.88
313.246	86.88
313.476	91.88
313.706	79.88
313.935	71.88
314.165	78.88
314.394	83.88
314.624	73.88
314.853	98.88
315.083	97.88
315.312	90.88
315.542	84.88
315.771	73.88
316.001	89.88
316.23	69.88
316.46	93.88
316.689	96.88
316.919	76.88
317.148	91.88
317.377	87.88
317.607	90.88
317.836	86.88
318.065	80.88
318.295	97.88
318.524	79.88
318.753	81.88
318.983	98.88
319.212	81.88
319.441	84.88
319.67	81.88
319.9	69.88
320.129	93.88
320.358	96.88
320.587	106.88
320.816	74.88
321.046	74.88
321.275	80.88
321.504	85.88
321.733	71.88
321.962	79.88
322.191	75.88
322.42	92.88
322.649	71.88
322.878	79.88
323.108	91.88
323.337	80.88
323.566	88.88
323.795	74.88
324.024	74.88
324.253	80.88
324.482	81.88
324.71	86.88
324.939	98.88
325.168	83.88
325.397	80.88
325.626	93.88
325.855	77.88
326.084	78.88
326.313	96.88
326.542	79.88
326.77	76.88
326.999	71.88
327.228	97.88
327.457	89.88
327.686	94.88
327.914	89.88
328.143	101.88
328.372	73.88
328.6	72.88
328.829	74.88
329.058	82.88
329.287	69.88
329.515	81.88
329.744	77.88
329.972	82.88
330.201	88.88
330.43	83.88
330.658	71.88
330.887	59.88
331.115	94.88
331.344	90.88
331.572	84.88
331.801	69.88
332.03	90.88
332.258	96.88
332.486	81.88
332.715	90.88
332.943	91.88
333.172	88.88
333.4	80.88
333.629	80.88
333.857	78.88
334.085	75.88
334.314	77.88
334.542	85.88
334.771	90.88
334.999	83.88
335.227	88.88
335.455	88.88
335.684	82.88
335.912	87.88
336.14	78.88
336.369	89.88
336.597	83.88
336.825	82.88
337.053	81.88
337.281	98.88
337.51	78.88
337.738	82.88
337.966	87.88
338.194	81.88
338.422	83.88
338.65	87.88
338.878	94.88
339.106	86.88
339.334	83.88
339.562	79.88
339.79	78.88
340.018	80.88
340.246	80.88
340.474	89.88
340.702	78.88
340.93	83.88
341.158	93.88
341.386	76.88
341.614	77.88
341.842	77.88
342.07	90.88
342.298	70.88
342.526	83.88
342.754	88.88
342.981	89.88
343.209	71.88
343.437	81.88
343.665	90.88
343.893	80.88
344.12	87.88
344.348	89.88
344.576	70.88
344.804	85.88
345.031	73.88
345.259	72.88
345.487	89.88
345.714	69.88
345.942	73.88
346.17	100.88
346.397	83.88
346.625	98.88
346.853	86.88
347.08	84.88
347.308	81.88
347.535	76.88
347.763	84.88
347.99	73.88
348.218	90.88
348.445	70.88
348.673	91.88
348.9	93.88
349.128	85.88
349.355	79.88
349.583	90.88
349.81	76.88
350.037	81.88
350.265	90.88
350.492	79.88
350.72	83.88
350.947	97.88
351.174	79.88
351.402	81.88
351.629	86.88
351.856	79.88
352.083	81.88
352.311	84.88
352.538	87.88
352.765	70.88
352.992	85.88
353.22	79.88
353.447	81.88
353.674	82.88
353.901	95.88
354.128	89.88
354.355	87.88
354.583	79.88
354.81	94.88
355.037	74.88
355.264	74.88
355.491	81.88
355.718	78.88
355.945	102.88
356.172	86.88
356.399	89.88
356.626	87.88
356.853	91.88
357.08	89.88
357.307	90.88
357.534	98.88
357.761	90.88
357.988	82.88
358.215	80.88
358.441	86.88
358.668	67.88
358.895	95.88
359.122	90.88
359.349	89.88
359.576	90.88
359.802	90.88
360.029	76.88
360.256	85.88
360.483	81.88
360.709	73.88
360.936	97.88
361.163	72.88
361.39	83.88
361.616	87.88
361.843	68.88
362.07	89.88
362.296	66.88
362.523	85.88
362.749	81.88
362.976	90.88
363.203	85.88
363.429	92.88
363.656	86.88
363.882	87.88
364.109	80.88
364.335	92.88
364.562	90.88
364.788	79.88
365.015	74.88
365.241	82.88
365.468	81.88
365.694	70.88
365.92	87.88
366.147	79.88
366.373	90.88
366.599	74.88
366.826	73.88
367.052	82.88
367.278	83.88
367.505	77.88
367.731	93.88
367.957	93.88
368.184	81.88
368.41	68.88
368.636	90.88
368.862	75.88
369.089	94.88
369.315	70.88
369.541	80.88
369.767	96.88
369.993	67.88
370.219	79.88
370.445	94.88
370.672	88.88
370.898	71.88
371.124	80.88
371.35	84.88
371.576	72.88
371.802	65.88
372.028	77.88
372.254	78.88
372.48	70.88
372.706	78.88
372.932	71.88
373.158	94.88
373.384	87.88
373.61	88.88
373.835	90.88
374.061	80.88
374.287	83.88
374.513	95.88
374.739	84.88
374.965	91.88
375.191	86.88
375.416	86.88
375.642	85.88
375.868	78.88
376.094	72.88
376.319	91.88
376.545	81.88
376.771	73.88
376.997	87.88
377.222	67.88
377.448	79.88
377.674	90.88
377.899	73.88
378.125	72.88
378.35	86.88
378.576	81.88
378.802	73.88
379.027	75.88
379.253	83.88
379.478	73.88
379.704	82.88
379.929	78.88
380.155	85.88
380.38	73.88
380.606	83.88
380.831	83.88
381.057	88.88
381.282	73.88
381.507	91.88
381.733	85.88
381.958	91.88
382.184	89.88
382.409	73.88
382.634	95.88
382.86	89.88
383.085	79.88
383.31	84.88
383.535	93.88
383.761	99.88
383.986	91.88
384.211	87.88
384.436	83.88
384.662	84.88
384.887	84.88
385.112	96.88
385.337	86.88
385.562	79.88
385.787	77.88
386.013	91.88
386.238	81.88
386.463	92.88
386.688	88.88
386.913	93.88
387.138	81.88
387.363	84.88
387.588	75.88
387.813	79.88
388.038	94.88
388.263	75.88
388.488	72.88
388.713	87.88
388.938	82.88
389.163	90.88
389.387	89.88
389.612	82.88
389.837	83.88
390.062	79.88
390.287	84.88
390.512	83.88
390.736	93.88
390.961	93.88
391.186	76.88
391.411	89.88
391.636	71.88
391.86	81.88
392.085	83.88
392.31	85.88
392.534	81.88
392.759	89.88
392.984	98.88
393.208	111.88
393.433	122.88
393.658	122.88
393.882	97.88
394.107	74.88
394.331	99.88
394.556	86.88
394.78	92.88
395.005	77.88
395.229	70.88
395.454	77.88
395.678	85.88
395.903	91.88
396.127	102.88
396.352	107.88
396.576	87.88
396.801	112.88
397.025	119.88
397.249	94.88
397.474	91.88
397.698	69.88
397.922	82.88
398.147	86.88
398.371	78.88
398.595	89.88
398.82	79.88
399.044	85.88
399.268	78.88
399.492	77.88
399.717	81.88
399.941	79.88
400.165	85.88
400.389	70.88
400.613	89.88
400.837	77.88
401.062	88.88
401.286	86.88
401.51	77.88
401.734	76.88
401.958	80.88
402.182	76.88
402.406	81.88
402.63	74.88
402.854	87.88
403.078	83.88
403.302	99.88
403.526	82.88
403.75	82.88
403.974	90.88
404.198	90.88
404.422	101.88
404.645	103.88
404.869	96.88
405.093	87.88
405.317	87.88
405.541	95.88
405.765	88.88
405.988	97.88
406.212	86.88
406.436	81.88
406.66	81.88
406.883	89.88
407.107	93.88
407.331	78.88
407.555	76.88
407.778	66.88
408.002	80.88
408.226	83.88
408.449	89.88
408.673	87.88
408.896	103.88
409.12	87.88
409.344	85.88
409.567	97.88
409.791	95.88
410.014	95.88
410.238	81.88
410.461	83.88
410.685	82.88
410.908	84.88
411.132	94.88
411.355	90.88
411.578	79.88
411.802	75.88
412.025	87.88
412.249	76.88
412.472	81.88
412.695	77.88
412.919	78.88
413.142	67.88
413.365	81.88
413.589	74.88
413.812	87.88
414.035	85.88
414.258	80.88
414.482	86.88
414.705	89.88
414.928	83.88
415.151	76.88
415.374	87.88
415.597	81.88
415.821	80.88
416.044	79.88
416.267	90.88
416.49	85.88
416.713	71.88
416.936	91.88
417.159	78.88
417.382	65.88
417.605	79.88
417.828	67.88
418.051	88.88
418.274	81.88
418.497	79.88
418.72	84.88
418.943	100.88
419.166	94.88
419.389	76.88
419.611	73.88
419.834	71.88
420.057	87.88
420.28	89.88
420.503	86.88
420.726	82.88
420.948	79.88
421.171	72.88
421.394	81.88
421.617	94.88
421.839	80.88
422.062	104.88
422.285	100.88
422.507	144.88
422.73	179.88
422.953	168.88
423.175	113.88
423.398	95.88
423.621	89.88
423.843	87.88
424.066	87.88
424.288	78.88
424.511	90.88
424.733	83.88
424.956	82.88
425.178	73.88
425.401	73.88
425.623	83.88
425.846	71.88
426.068	92.88
426.291	77.88
426.513	91.88
426.735	86.88
426.958	89.88
427.18	84.88
427.402	84.88
427.625	73.88
427.847	67.88
428.069	92.88
428.292	98.88
428.514	101.88
428.736	93.88
428.958	89.88
429.181	90.88
429.403	90.88
429.625	86.88
429.847	102.88
430.069	100.88
430.292	107.88
430.514	90.88
430.736	85.88
430.958	100.88
431.18	87.88
431.402	77.88
431.624	75.88
431.846	87.88
432.068	95.88
432.29	79.88
432.512	74.88
432.734	83.88
432.956	87.88
433.178	88.88
433.4	75.88
433.622	77.88
433.844	63.88
434.066	79.88
434.287	72.88
434.509	83.88
434.731	77.88
434.953	79.88
435.175	86.88
435.397	93.88
435.618	83.88
435.84	89.88
436.062	95.88
436.284	73.88
436.505	75.88
436.727	79.88
436.949	61.88
437.17	84.88
437.392	91.88
437.614	87.88
437.835	89.88
438.057	74.88
438.278	65.88
438.5	70.88
438.721	78.88
438.943	74.88
439.165	84.88
439.386	69.88
439.608	72.88
439.829	86.88
440.05	75.88
440.272	77.88
440.493	90.88
440.715	73.88
440.936	83.88
441.158	89.88
441.379	87.88
441.6	85.88
441.822	86.88
442.043	81.88
442.264	74.88
442.486	93.88
442.707	94.88
442.928	82.88
443.149	88.88
443.371	96.88
443.592	117.88
443.813	111.88
444.034	82.88
444.255	87.88
444.476	86.88
444.698	73.88
444.919	78.88
445.14	175.88
445.361	137.88
445.582	150.88
445.803	119.88
446.024	95.88
446.245	74.88
446.466	70.88
446.687	76.88
446.908	85.88
447.129	83.88
447.35	72.88
447.571	80.88
447.792	87.88
448.013	79.88
448.234	87.88
448.455	81.88
448.675	83.88
448.896	87.88
449.117	79.88
449.338	75.88
449.559	84.88
449.779	81.88
450	69.88
450.221	69.88
450.442	89.88
450.662	73.88
450.883	74.88
451.104	84.88
451.324	69.88
451.545	69.88
451.766	78.88
451.986	74.88
452.207	76.88
452.428	78.88
452.648	89.88
452.869	82.88
453.089	79.88
453.31	70.88
453.53	83.88
453.751	95.88
453.971	81.88
454.192	79.88
454.412	84.88
454.633	90.88
454.853	98.88
455.073	80.88
455.294	76.88
455.514	80.88
455.734	74.88
455.955	74.88
456.175	85.88
456.395	77.88
456.616	78.88
456.836	83.88
457.056	100.88
457.276	89.88
457.497	82.88
457.717	72.88
457.937	82.88
458.157	95.88
458.377	85.88
458.598	90.88
458.818	104.88
459.038	94.88
459.258	86.88
459.478	70.88
459.698	84.88
459.918	80.88
460.138	83.88
460.358	81.88
460.578	70.88
460.798	91.88
461.018	96.88
461.238	84.88
461.458	95.88
461.678	82.88
461.898	75.88
462.118	86.88
462.338	75.88
462.558	93.88
462.777	89.88
462.997	71.88
463.217	81.88
463.437	62.88
463.657	73.88
463.876	80.88
464.096	87.88
464.316	76.88
464.536	67.88
464.755	65.88
464.975	66.88
465.195	91.88
465.414	91.88
465.634	82.88
465.854	87.88
466.073	94.88
466.293	85.88
466.512	67.88
466.732	65.88
466.951	94.88
467.171	81.88
467.391	83.88
467.61	88.88
467.829	85.88
468.049	88.88
468.268	85.88
468.488	78.88
468.707	74.88
468.927	90.88
469.146	91.88
469.365	87.88
469.585	89.88
469.804	72.88
470.023	82.88
470.243	88.88
470.462	88.88
470.681	78.88
470.901	72.88
471.12	70.88
471.339	96.88
471.558	94.88
471.777	76.88
471.997	74.88
472.216	83.88
472.435	69.88
472.654	79.88
472.873	76.88
473.092	89.88
473.311	97.88
473.53	99.88
473.749	92.88
473.968	87.88
474.187	89.88
474.406	83.88
474.625	96.88
474.844	77.88
475.063	74.88
475.282	78.88
475.501	95.88
475.72	85.88
475.939	87.88
476.158	69.88
476.377	56.88
476.596	76.88
476.814	79.88
477.033	80.88
477.252	85.88
477.471	90.88
477.69	84.88
477.908	91.88
478.127	79.88
478.346	93.88
478.564	69.88
478.783	80.88
479.002	75.88
479.22	77.88
479.439	71.88
479.658	79.88
479.876	101.88
480.095	73.88
480.313	73.88
480.532	70.88
480.751	79.88
480.969	83.88
481.188	73.88
481.406	98.88
481.624	76.88
481.843	82.88
482.061	71.88
482.28	86.88
482.498	93.88
482.717	85.88
482.935	63.88
483.153	73.88
483.372	94.88
483.59	81.88
483.808	81.88
484.027	72.88
484.245	105.88
484.463	87.88
484.681	85.88
484.9	91.88
485.118	87.88
485.336	89.88
485.554	79.88
485.772	71.88
485.99	84.88
486.209	83.88
486.427	75.88
486.645	78.88
486.863	87.88
487.081	77.88
487.299	76.88
487.517	82.88
487.735	86.88
487.953	93.88
488.171	86.88
488.389	84.88
488.607	99.88
488.825	80.88
489.043	81.88
489.261	74.88
489.479	86.88
489.696	94.88
489.914	83.88
490.132	100.88
490.35	84.88
490.568	75.88
490.786	87.88
491.003	79.88
491.221	89.88
491.439	73.88
491.657	79.88
491.874	81.88
492.092	87.88
492.31	78.88
492.527	89.88
492.745	85.88
492.963	94.88
493.18	88.88
493.398	72.88
493.615	83.88
493.833	85.88
494.05	88.88
494.268	79.88
494.485	79.88
494.703	85.88
494.92	73.88
495.138	91.88
495.355	86.88
495.573	90.88
495.79	82.88
496.008	87.88
496.225	89.88
496.442	74.88
496.66	74.88
496.877	69.88
497.094	80.88
497.312	83.88
497.529	83.88
497.746	98.88
497.963	68.88
498.181	93.88
498.398	89.88
498.615	90.88
498.832	84.88
499.049	85.88
499.267	89.88
499.484	84.88
499.701	97.88
499.918	88.88
500.135	84.88
500.352	86.88
500.569	76.88
500.786	90.88
501.003	88.88
501.22	76.88
501.437	74.88
501.654	85.88
501.871	75.88
502.088	77.88
502.305	82.88
502.522	85.88
502.739	82.88
502.956	85.88
503.172	80.88
503.389	88.88
503.606	76.88
503.823	85.88
504.04	91.88
504.256	111.88
504.473	93.88
504.69	73.88
504.907	85.88
505.123	86.88
505.34	102.88
505.557	77.88
505.773	73.88
505.99	83.88
506.207	94.88
506.423	94.88
506.64	86.88
506.856	75.88
507.073	78.88
507.289	80.88
507.506	90.88
507.722	109.88
507.939	83.88
508.155	88.88
508.372	86.88
508.588	83.88
508.805	83.88
509.021	86.88
509.238	87.88
509.454	89.88
509.67	79.88
509.887	74.88
510.103	87.88
510.319	83.88
510.536	77.88
510.752	77.88
510.968	76.88
511.184	85.88
511.401	79.88
511.617	85.88
511.833	103.88
512.049	90.88
512.265	85.88
512.481	86.88
512.698	81.88
512.914	83.88
513.13	86.88
513.346	97.88
513.562	79.88
513.778	95.88
513.994	84.88
514.21	75.88
514.426	95.88
514.642	83.88
514.858	73.88
515.074	69.88
515.29	74.88
515.506	88.88
515.721	91.88
515.937	96.88
516.153	96.88
516.369	89.88
516.585	82.88
516.801	82.88
517.016	96.88
517.232	78.88
517.448	93.88
517.664	75.88
517.879	65.88
518.095	84.88
518.311	81.88
518.527	82.88
518.742	89.88
518.958	93.88
519.173	94.88
519.389	93.88
519.605	80.88
519.82	76.88
