Data from 237_3_HRD10591_00049.txt Node
Date: Mon Jan 19 14:13:19 EST 2026
User: Yrep
Spectrometer: HR+D1059
Trigger mode: 1
Integration Time (sec): 1.000000E-1
Scans to average: 1
Electric dark correction enabled: true
Nonlinearity correction enabled: false
Boxcar width: 0
XAxis mode: Wavelengths
Number of Pixels in Spectrum: 2048
>>>>>Begin Spectral Data<<<<<
223.165	-12.5
223.4	-12.5
223.635	-12.5
223.869	-19.5
224.104	-18.5
224.338	-17.5
224.573	-7.5
224.808	-11.5
225.042	-18.5
225.277	1.5
225.511	-12.5
225.746	1.5
225.98	15.5
226.215	11.5
226.449	12.5
226.683	14.5
226.918	35.5
227.152	25.5
227.387	35.5
227.621	40.5
227.856	51.5
228.09	32.5
228.324	64.5
228.559	58.5
228.793	65.5
229.027	67.5
229.262	71.5
229.496	76.5
229.73	60.5
229.964	76.5
230.199	93.5
230.433	78.5
230.667	86.5
230.901	70.5
231.136	69.5
231.37	70.5
231.604	81.5
231.838	88.5
232.072	82.5
232.306	85.5
232.541	74.5
232.775	86.5
233.009	86.5
233.243	85.5
233.477	89.5
233.711	85.5
233.945	82.5
234.179	78.5
234.413	91.5
234.647	77.5
234.881	86.5
235.115	72.5
235.349	77.5
235.583	87.5
235.817	79.5
236.051	83.5
236.285	72.5
236.519	83.5
236.753	86.5
236.987	77.5
237.221	94.5
237.455	69.5
237.689	85.5
237.922	81.5
238.156	89.5
238.39	70.5
238.624	59.5
238.858	78.5
239.091	80.5
239.325	83.5
239.559	69.5
239.793	85.5
240.027	72.5
240.26	88.5
240.494	77.5
240.728	78.5
240.961	76.5
241.195	75.5
241.429	70.5
241.662	83.5
241.896	72.5
242.13	88.5
242.363	74.5
242.597	77.5
242.83	76.5
243.064	76.5
243.298	70.5
243.531	91.5
243.765	76.5
243.998	75.5
244.232	77.5
244.465	83.5
244.699	84.5
244.932	85.5
245.166	80.5
245.399	76.5
245.633	65.5
245.866	80.5
246.099	88.5
246.333	90.5
246.566	71.5
246.8	71.5
247.033	64.5
247.266	80.5
247.5	78.5
247.733	64.5
247.966	70.5
248.2	84.5
248.433	86.5
248.666	85.5
248.899	89.5
249.133	83.5
249.366	79.5
249.599	84.5
249.832	86.5
250.066	74.5
250.299	74.5
250.532	74.5
250.765	68.5
250.998	66.5
251.231	78.5
251.465	90.5
251.698	85.5
251.931	82.5
252.164	66.5
252.397	92.5
252.63	78.5
252.863	77.5
253.096	73.5
253.329	86.5
253.562	80.5
253.795	89.5
254.028	83.5
254.261	88.5
254.494	91.5
254.727	85.5
254.96	73.5
255.193	89.5
255.426	85.5
255.659	72.5
255.892	84.5
256.124	86.5
256.357	85.5
256.59	83.5
256.823	98.5
257.056	81.5
257.289	78.5
257.521	77.5
257.754	84.5
257.987	79.5
258.22	79.5
258.452	77.5
258.685	84.5
258.918	80.5
259.151	77.5
259.383	80.5
259.616	72.5
259.849	78.5
260.081	96.5
260.314	87.5
260.547	90.5
260.779	102.5
261.012	81.5
261.244	85.5
261.477	98.5
261.71	75.5
261.942	92.5
262.175	78.5
262.407	78.5
262.64	79.5
262.872	74.5
263.105	74.5
263.337	95.5
263.57	76.5
263.802	81.5
264.035	84.5
264.267	88.5
264.499	88.5
264.732	75.5
264.964	76.5
265.197	78.5
265.429	76.5
265.661	78.5
265.894	82.5
266.126	82.5
266.358	86.5
266.591	77.5
266.823	77.5
267.055	85.5
267.287	82.5
267.52	69.5
267.752	83.5
267.984	93.5
268.216	74.5
268.448	80.5
268.681	93.5
268.913	78.5
269.145	82.5
269.377	82.5
269.609	94.5
269.841	86.5
270.073	93.5
270.306	79.5
270.538	88.5
270.77	73.5
271.002	76.5
271.234	89.5
271.466	84.5
271.698	70.5
271.93	97.5
272.162	83.5
272.394	82.5
272.626	84.5
272.858	87.5
273.09	93.5
273.322	86.5
273.553	77.5
273.785	78.5
274.017	91.5
274.249	84.5
274.481	91.5
274.713	85.5
274.945	83.5
275.176	81.5
275.408	78.5
275.64	77.5
275.872	84.5
276.104	91.5
276.335	92.5
276.567	90.5
276.799	94.5
277.031	86.5
277.262	79.5
277.494	88.5
277.726	81.5
277.957	85.5
278.189	97.5
278.421	87.5
278.652	87.5
278.884	81.5
279.115	80.5
279.347	79.5
279.579	91.5
279.81	75.5
280.042	74.5
280.273	79.5
280.505	84.5
280.736	71.5
280.968	93.5
281.199	84.5
281.431	84.5
281.662	79.5
281.894	82.5
282.125	70.5
282.356	88.5
282.588	68.5
282.819	83.5
283.051	94.5
283.282	63.5
283.513	91.5
283.745	90.5
283.976	81.5
284.207	80.5
284.439	77.5
284.67	77.5
284.901	102.5
285.132	87.5
285.364	84.5
285.595	80.5
285.826	89.5
286.057	80.5
286.288	92.5
286.52	90.5
286.751	92.5
286.982	89.5
287.213	77.5
287.444	99.5
287.675	91.5
287.906	78.5
288.138	94.5
288.369	89.5
288.6	78.5
288.831	82.5
289.062	85.5
289.293	85.5
289.524	72.5
289.755	86.5
289.986	70.5
290.217	91.5
290.448	91.5
290.679	97.5
290.91	82.5
291.141	82.5
291.371	91.5
291.602	93.5
291.833	90.5
292.064	91.5
292.295	93.5
292.526	79.5
292.757	93.5
292.987	80.5
293.218	82.5
293.449	89.5
293.68	102.5
293.91	87.5
294.141	88.5
294.372	81.5
294.603	86.5
294.833	84.5
295.064	88.5
295.295	81.5
295.525	81.5
295.756	93.5
295.987	98.5
296.217	77.5
296.448	96.5
296.679	84.5
296.909	96.5
297.14	94.5
297.37	100.5
297.601	76.5
297.831	73.5
298.062	73.5
298.292	88.5
298.523	94.5
298.753	94.5
298.984	78.5
299.214	85.5
299.445	85.5
299.675	86.5
299.905	87.5
300.136	94.5
300.366	93.5
300.597	101.5
300.827	103.5
301.057	86.5
301.288	87.5
301.518	91.5
301.748	77.5
301.979	96.5
302.209	93.5
302.439	93.5
302.669	90.5
302.9	80.5
303.13	79.5
303.36	89.5
303.59	82.5
303.82	96.5
304.051	75.5
304.281	86.5
304.511	96.5
304.741	80.5
304.971	85.5
305.201	103.5
305.431	87.5
305.661	99.5
305.891	82.5
306.121	98.5
306.352	92.5
306.582	92.5
306.812	92.5
307.042	99.5
307.272	90.5
307.502	87.5
307.731	90.5
307.961	90.5
308.191	97.5
308.421	86.5
308.651	92.5
308.881	92.5
309.111	94.5
309.341	83.5
309.571	80.5
309.8	94.5
310.03	94.5
310.26	82.5
310.49	88.5
310.72	89.5
310.949	92.5
311.179	96.5
311.409	85.5
311.639	86.5
311.868	106.5
312.098	86.5
312.328	77.5
312.557	92.5
312.787	99.5
313.017	93.5
313.246	89.5
313.476	92.5
313.706	85.5
313.935	78.5
314.165	74.5
314.394	90.5
314.624	78.5
314.853	88.5
315.083	79.5
315.312	98.5
315.542	72.5
315.771	94.5
316.001	89.5
316.23	84.5
316.46	79.5
316.689	90.5
316.919	81.5
317.148	80.5
317.377	84.5
317.607	79.5
317.836	98.5
318.065	102.5
318.295	89.5
318.524	80.5
318.753	86.5
318.983	94.5
319.212	96.5
319.441	82.5
319.67	78.5
319.9	86.5
320.129	84.5
320.358	85.5
320.587	85.5
320.816	90.5
321.046	96.5
321.275	92.5
321.504	96.5
321.733	89.5
321.962	88.5
322.191	79.5
322.42	79.5
322.649	94.5
322.878	102.5
323.108	92.5
323.337	85.5
323.566	96.5
323.795	76.5
324.024	82.5
324.253	82.5
324.482	89.5
324.71	90.5
324.939	84.5
325.168	88.5
325.397	84.5
325.626	86.5
325.855	87.5
326.084	83.5
326.313	91.5
326.542	77.5
326.77	90.5
326.999	89.5
327.228	81.5
327.457	84.5
327.686	86.5
327.914	89.5
328.143	104.5
328.372	101.5
328.6	97.5
328.829	85.5
329.058	87.5
329.287	86.5
329.515	78.5
329.744	98.5
329.972	77.5
330.201	100.5
330.43	98.5
330.658	72.5
330.887	98.5
331.115	86.5
331.344	91.5
331.572	99.5
331.801	92.5
332.03	88.5
332.258	84.5
332.486	83.5
332.715	72.5
332.943	84.5
333.172	87.5
333.4	90.5
333.629	91.5
333.857	88.5
334.085	76.5
334.314	97.5
334.542	93.5
334.771	82.5
334.999	89.5
335.227	90.5
335.455	77.5
335.684	91.5
335.912	91.5
336.14	76.5
336.369	97.5
336.597	97.5
336.825	87.5
337.053	76.5
337.281	87.5
337.51	84.5
337.738	89.5
337.966	93.5
338.194	82.5
338.422	80.5
338.65	89.5
338.878	88.5
339.106	88.5
339.334	99.5
339.562	76.5
339.79	81.5
340.018	76.5
340.246	82.5
340.474	82.5
340.702	102.5
340.93	87.5
341.158	91.5
341.386	92.5
341.614	91.5
341.842	73.5
342.07	78.5
342.298	91.5
342.526	83.5
342.754	71.5
342.981	84.5
343.209	87.5
343.437	92.5
343.665	75.5
343.893	96.5
344.12	70.5
344.348	78.5
344.576	85.5
344.804	75.5
345.031	88.5
345.259	90.5
345.487	87.5
345.714	73.5
345.942	74.5
346.17	98.5
346.397	76.5
346.625	78.5
346.853	90.5
347.08	78.5
347.308	90.5
347.535	96.5
347.763	79.5
347.99	98.5
348.218	75.5
348.445	75.5
348.673	93.5
348.9	95.5
349.128	94.5
349.355	89.5
349.583	94.5
349.81	76.5
350.037	93.5
350.265	85.5
350.492	85.5
350.72	92.5
350.947	81.5
351.174	86.5
351.402	96.5
351.629	94.5
351.856	82.5
352.083	80.5
352.311	92.5
352.538	89.5
352.765	88.5
352.992	94.5
353.22	84.5
353.447	84.5
353.674	83.5
353.901	84.5
354.128	80.5
354.355	84.5
354.583	89.5
354.81	88.5
355.037	84.5
355.264	76.5
355.491	91.5
355.718	83.5
355.945	90.5
356.172	80.5
356.399	96.5
356.626	87.5
356.853	88.5
357.08	81.5
357.307	78.5
357.534	96.5
357.761	79.5
357.988	102.5
358.215	95.5
358.441	79.5
358.668	83.5
358.895	84.5
359.122	76.5
359.349	78.5
359.576	84.5
359.802	83.5
360.029	79.5
360.256	81.5
360.483	94.5
360.709	85.5
360.936	78.5
361.163	84.5
361.39	87.5
361.616	98.5
361.843	74.5
362.07	112.5
362.296	92.5
362.523	99.5
362.749	93.5
362.976	104.5
363.203	106.5
363.429	85.5
363.656	77.5
363.882	81.5
364.109	93.5
364.335	101.5
364.562	98.5
364.788	82.5
365.015	85.5
365.241	100.5
365.468	89.5
365.694	84.5
365.92	90.5
366.147	78.5
366.373	90.5
366.599	102.5
366.826	82.5
367.052	84.5
367.278	84.5
367.505	78.5
367.731	84.5
367.957	94.5
368.184	86.5
368.41	78.5
368.636	89.5
368.862	88.5
369.089	86.5
369.315	88.5
369.541	78.5
369.767	86.5
369.993	80.5
370.219	77.5
370.445	92.5
370.672	98.5
370.898	92.5
371.124	82.5
371.35	93.5
371.576	82.5
371.802	90.5
372.028	89.5
372.254	88.5
372.48	85.5
372.706	85.5
372.932	85.5
373.158	87.5
373.384	96.5
373.61	95.5
373.835	89.5
374.061	89.5
374.287	81.5
374.513	85.5
374.739	94.5
374.965	92.5
375.191	88.5
375.416	95.5
375.642	76.5
375.868	83.5
376.094	82.5
376.319	84.5
376.545	85.5
376.771	82.5
376.997	82.5
377.222	99.5
377.448	75.5
377.674	94.5
377.899	75.5
378.125	83.5
378.35	80.5
378.576	78.5
378.802	80.5
379.027	78.5
379.253	97.5
379.478	92.5
379.704	94.5
379.929	83.5
380.155	89.5
380.38	84.5
380.606	82.5
380.831	88.5
381.057	82.5
381.282	86.5
381.507	91.5
381.733	94.5
381.958	77.5
382.184	82.5
382.409	79.5
382.634	93.5
382.86	92.5
383.085	91.5
383.31	88.5
383.535	98.5
383.761	91.5
383.986	85.5
384.211	100.5
384.436	83.5
384.662	77.5
384.887	90.5
385.112	66.5
385.337	88.5
385.562	100.5
385.787	81.5
386.013	106.5
386.238	104.5
386.463	72.5
386.688	98.5
386.913	91.5
387.138	68.5
387.363	82.5
387.588	84.5
387.813	69.5
388.038	93.5
388.263	88.5
388.488	78.5
388.713	76.5
388.938	98.5
389.163	93.5
389.387	86.5
389.612	83.5
389.837	94.5
390.062	80.5
390.287	96.5
390.512	78.5
390.736	84.5
390.961	91.5
391.186	88.5
391.411	97.5
391.636	101.5
391.86	97.5
392.085	88.5
392.31	79.5
392.534	93.5
392.759	110.5
392.984	108.5
393.208	126.5
393.433	146.5
393.658	135.5
393.882	86.5
394.107	73.5
394.331	105.5
394.556	103.5
394.78	104.5
395.005	90.5
395.229	79.5
395.454	70.5
395.678	103.5
395.903	96.5
396.127	100.5
396.352	111.5
396.576	106.5
396.801	122.5
397.025	132.5
397.249	107.5
397.474	109.5
397.698	93.5
397.922	88.5
398.147	84.5
398.371	81.5
398.595	80.5
398.82	80.5
399.044	85.5
399.268	98.5
399.492	102.5
399.717	93.5
399.941	85.5
400.165	92.5
400.389	89.5
400.613	89.5
400.837	87.5
401.062	102.5
401.286	78.5
401.51	85.5
401.734	68.5
401.958	71.5
402.182	81.5
402.406	91.5
402.63	83.5
402.854	75.5
403.078	85.5
403.302	83.5
403.526	85.5
403.75	103.5
403.974	91.5
404.198	95.5
404.422	103.5
404.645	131.5
404.869	88.5
405.093	114.5
405.317	80.5
405.541	82.5
405.765	89.5
405.988	67.5
406.212	86.5
406.436	84.5
406.66	81.5
406.883	85.5
407.107	83.5
407.331	86.5
407.555	95.5
407.778	96.5
408.002	85.5
408.226	86.5
408.449	88.5
408.673	69.5
408.896	91.5
409.12	86.5
409.344	94.5
409.567	92.5
409.791	87.5
410.014	85.5
410.238	83.5
410.461	79.5
410.685	82.5
410.908	89.5
411.132	88.5
411.355	91.5
411.578	71.5
411.802	80.5
412.025	92.5
412.249	86.5
412.472	81.5
412.695	59.5
412.919	78.5
413.142	90.5
413.365	71.5
413.589	79.5
413.812	84.5
414.035	83.5
414.258	83.5
414.482	96.5
414.705	83.5
414.928	91.5
415.151	87.5
415.374	85.5
415.597	83.5
415.821	83.5
416.044	78.5
416.267	74.5
416.49	89.5
416.713	80.5
416.936	82.5
417.159	81.5
417.382	90.5
417.605	77.5
417.828	85.5
418.051	85.5
418.274	92.5
418.497	76.5
418.72	78.5
418.943	86.5
419.166	90.5
419.389	85.5
419.611	96.5
419.834	96.5
420.057	101.5
420.28	90.5
420.503	82.5
420.726	84.5
420.948	95.5
421.171	75.5
421.394	90.5
421.617	86.5
421.839	74.5
422.062	92.5
422.285	114.5
422.507	169.5
422.73	224.5
422.953	210.5
423.175	133.5
423.398	94.5
423.621	100.5
423.843	87.5
424.066	102.5
424.288	77.5
424.511	91.5
424.733	96.5
424.956	104.5
425.178	85.5
425.401	86.5
425.623	83.5
425.846	81.5
426.068	78.5
426.291	92.5
426.513	86.5
426.735	91.5
426.958	92.5
427.18	84.5
427.402	84.5
427.625	85.5
427.847	87.5
428.069	93.5
428.292	114.5
428.514	110.5
428.736	104.5
428.958	93.5
429.181	97.5
429.403	91.5
429.625	83.5
429.847	97.5
430.069	116.5
430.292	136.5
430.514	116.5
430.736	113.5
430.958	108.5
431.18	76.5
431.402	106.5
431.624	86.5
431.846	95.5
432.068	106.5
432.29	91.5
432.512	86.5
432.734	86.5
432.956	78.5
433.178	88.5
433.4	71.5
433.622	102.5
433.844	100.5
434.066	78.5
434.287	78.5
434.509	86.5
434.731	88.5
434.953	86.5
435.175	86.5
435.397	92.5
435.618	85.5
435.84	89.5
436.062	82.5
436.284	85.5
436.505	64.5
436.727	77.5
436.949	86.5
437.17	75.5
437.392	73.5
437.614	88.5
437.835	90.5
438.057	83.5
438.278	88.5
438.5	83.5
438.721	85.5
438.943	82.5
439.165	70.5
439.386	75.5
439.608	98.5
439.829	78.5
440.05	93.5
440.272	92.5
440.493	99.5
440.715	81.5
440.936	95.5
441.158	83.5
441.379	102.5
441.6	75.5
441.822	84.5
442.043	80.5
442.264	93.5
442.486	109.5
442.707	106.5
442.928	90.5
443.149	79.5
443.371	118.5
443.592	152.5
443.813	124.5
444.034	96.5
444.255	78.5
444.476	76.5
444.698	84.5
444.919	89.5
445.14	173.5
445.361	166.5
445.582	163.5
445.803	129.5
446.024	89.5
446.245	86.5
446.466	90.5
446.687	86.5
446.908	85.5
447.129	86.5
447.35	77.5
447.571	82.5
447.792	82.5
448.013	90.5
448.234	91.5
448.455	71.5
448.675	75.5
448.896	88.5
449.117	94.5
449.338	101.5
449.559	82.5
449.779	94.5
450	93.5
450.221	82.5
450.442	87.5
450.662	81.5
450.883	74.5
451.104	74.5
451.324	84.5
451.545	65.5
451.766	97.5
451.986	88.5
452.207	90.5
452.428	76.5
452.648	76.5
452.869	83.5
453.089	84.5
453.31	88.5
453.53	84.5
453.751	88.5
453.971	85.5
454.192	91.5
454.412	80.5
454.633	72.5
454.853	84.5
455.073	84.5
455.294	92.5
455.514	90.5
455.734	73.5
455.955	89.5
456.175	84.5
456.395	96.5
456.616	98.5
456.836	90.5
457.056	82.5
457.276	92.5
457.497	84.5
457.717	89.5
457.937	84.5
458.157	95.5
458.377	114.5
458.598	101.5
458.818	104.5
459.038	95.5
459.258	90.5
459.478	81.5
459.698	85.5
459.918	106.5
460.138	86.5
460.358	86.5
460.578	90.5
460.798	96.5
461.018	114.5
461.238	92.5
461.458	78.5
461.678	80.5
461.898	78.5
462.118	70.5
462.338	77.5
462.558	96.5
462.777	90.5
462.997	83.5
463.217	82.5
463.437	86.5
463.657	90.5
463.876	89.5
464.096	89.5
464.316	83.5
464.536	74.5
464.755	95.5
464.975	90.5
465.195	98.5
465.414	80.5
465.634	82.5
465.854	82.5
466.073	78.5
466.293	88.5
466.512	67.5
466.732	86.5
466.951	92.5
467.171	62.5
467.391	78.5
467.61	81.5
467.829	101.5
468.049	90.5
468.268	82.5
468.488	78.5
468.707	77.5
468.927	74.5
469.146	84.5
469.365	82.5
469.585	82.5
469.804	88.5
470.023	82.5
470.243	92.5
470.462	89.5
470.681	82.5
470.901	91.5
471.12	81.5
471.339	85.5
471.558	83.5
471.777	70.5
471.997	100.5
472.216	94.5
472.435	75.5
472.654	92.5
472.873	67.5
473.092	88.5
473.311	78.5
473.53	97.5
473.749	91.5
473.968	86.5
474.187	81.5
474.406	76.5
474.625	75.5
474.844	86.5
475.063	100.5
475.282	98.5
475.501	99.5
475.72	93.5
475.939	93.5
476.158	80.5
476.377	84.5
476.596	76.5
476.814	83.5
477.033	83.5
477.252	68.5
477.471	85.5
477.69	78.5
477.908	76.5
478.127	95.5
478.346	102.5
478.564	92.5
478.783	84.5
479.002	87.5
479.22	94.5
479.439	105.5
479.658	96.5
479.876	73.5
480.095	68.5
480.313	78.5
480.532	87.5
480.751	92.5
480.969	81.5
481.188	82.5
481.406	84.5
481.624	85.5
481.843	102.5
482.061	85.5
482.28	83.5
482.498	73.5
482.717	85.5
482.935	93.5
483.153	81.5
483.372	96.5
483.59	86.5
483.808	87.5
484.027	84.5
484.245	92.5
484.463	104.5
484.681	94.5
484.9	89.5
485.118	80.5
485.336	83.5
485.554	84.5
485.772	92.5
485.99	83.5
486.209	86.5
486.427	64.5
486.645	96.5
486.863	91.5
487.081	88.5
487.299	90.5
487.517	102.5
487.735	103.5
487.953	103.5
488.171	103.5
488.389	92.5
488.607	79.5
488.825	83.5
489.043	78.5
489.261	68.5
489.479	90.5
489.696	76.5
489.914	85.5
490.132	89.5
490.35	86.5
490.568	82.5
490.786	81.5
491.003	89.5
491.221	93.5
491.439	88.5
491.657	96.5
491.874	90.5
492.092	93.5
492.31	100.5
492.527	90.5
492.745	85.5
492.963	90.5
493.18	96.5
493.398	96.5
493.615	74.5
493.833	81.5
494.05	97.5
494.268	99.5
494.485	96.5
494.703	94.5
494.92	84.5
495.138	79.5
495.355	87.5
495.573	97.5
495.79	96.5
496.008	103.5
496.225	94.5
496.442	90.5
496.66	97.5
496.877	77.5
497.094	98.5
497.312	82.5
497.529	67.5
497.746	74.5
497.963	97.5
498.181	88.5
498.398	88.5
498.615	77.5
498.832	78.5
499.049	82.5
499.267	80.5
499.484	83.5
499.701	87.5
499.918	79.5
500.135	92.5
500.352	90.5
500.569	99.5
500.786	99.5
501.003	84.5
501.22	88.5
501.437	78.5
501.654	92.5
501.871	82.5
502.088	87.5
502.305	91.5
502.522	88.5
502.739	88.5
502.956	88.5
503.172	82.5
503.389	79.5
503.606	100.5
503.823	87.5
504.04	88.5
504.256	99.5
504.473	109.5
504.69	66.5
504.907	87.5
505.123	78.5
505.34	82.5
505.557	83.5
505.773	87.5
505.99	90.5
506.207	76.5
506.423	75.5
506.64	83.5
506.856	98.5
507.073	83.5
507.289	85.5
507.506	84.5
507.722	82.5
507.939	87.5
508.155	98.5
508.372	93.5
508.588	88.5
508.805	82.5
509.021	85.5
509.238	86.5
509.454	74.5
509.67	82.5
509.887	93.5
510.103	75.5
510.319	97.5
510.536	86.5
510.752	93.5
510.968	78.5
511.184	77.5
511.401	91.5
511.617	102.5
511.833	89.5
512.049	96.5
512.265	88.5
512.481	105.5
512.698	82.5
512.914	91.5
513.13	102.5
513.346	87.5
513.562	72.5
513.778	91.5
513.994	89.5
514.21	95.5
514.426	89.5
514.642	88.5
514.858	81.5
515.074	90.5
515.29	92.5
515.506	82.5
515.721	77.5
515.937	82.5
516.153	84.5
516.369	75.5
516.585	76.5
516.801	93.5
517.016	96.5
517.232	82.5
517.448	93.5
517.664	93.5
517.879	85.5
518.095	86.5
518.311	92.5
518.527	103.5
518.742	91.5
518.958	104.5
519.173	118.5
519.389	86.5
519.605	81.5
519.82	78.5
520.036	88.5
520.251	84.5
520.467	90.5
520.682	85.5
520.898	88.5
521.113	99.5
521.329	88.5
521.544	96.5
521.76	85.5
521.975	99.5
522.19	98.5
522.406	88.5
522.621	92.5
522.836	85.5
523.052	84.5
523.267	89.5
523.482	84.5
523.698	87.5
523.913	92.5
524.128	93.5
524.343	93.5
524.559	97.5
524.774	97.5
524.989	83.5
525.204	77.5
525.419	93.5
525.634	79.5
525.849	102.5
526.064	93.5
526.28	120.5
526.495	148.5
526.71	157.5
526.925	125.5
527.14	154.5
527.355	139.5
527.57	94.5
527.785	76.5
527.999	80.5
528.214	95.5
528.429	81.5
528.644	90.5
528.859	87.5
529.074	91.5
529.289	91.5
529.503	85.5
529.718	89.5
529.933	85.5
530.148	75.5
530.363	88.5
530.577	110.5
530.792	79.5
531.007	102.5
531.221	95.5
531.436	94.5
531.651	91.5
531.865	98.5
532.08	87.5
532.295	94.5
532.509	92.5
532.724	94.5
532.938	103.5
533.153	81.5
533.367	88.5
533.582	80.5
533.796	87.5
534.011	86.5
534.225	95.5
534.44	105.5
534.654	75.5
534.868	89.5
535.083	104.5
535.297	100.5
535.511	84.5
535.726	102.5
535.94	90.5
536.154	90.5
536.369	97.5
536.583	77.5
536.797	96.5
537.011	99.5
537.225	98.5
537.44	100.5
537.654	88.5
537.868	100.5
538.082	98.5
538.296	85.5
538.51	90.5
538.724	103.5
538.938	85.5
