Data from 237_3_HRD10591_00035.txt Node
Date: Mon Jan 19 14:13:12 EST 2026
User: Yrep
Spectrometer: HR+D1059
Trigger mode: 1
Integration Time (sec): 1.000000E-1
Scans to average: 1
Electric dark correction enabled: true
Nonlinearity correction enabled: false
Boxcar width: 0
XAxis mode: Wavelengths
Number of Pixels in Spectrum: 2048
>>>>>Begin Spectral Data<<<<<
223.165	-8.81
223.4	-8.81
223.635	-8.81
223.869	-13.81
224.104	-24.81
224.338	-9.81
224.573	-20.81
224.808	-9.81
225.042	-13.81
225.277	-0.81
225.511	-2.81
225.746	10.19
225.98	15.19
226.215	1.19
226.449	13.19
226.683	19.19
226.918	23.19
227.152	23.19
227.387	38.19
227.621	48.19
227.856	52.19
228.09	41.19
228.324	45.19
228.559	54.19
228.793	63.19
229.027	63.19
229.262	74.19
229.496	67.19
229.73	70.19
229.964	73.19
230.199	61.19
230.433	68.19
230.667	80.19
230.901	84.19
231.136	72.19
231.37	80.19
231.604	83.19
231.838	70.19
232.072	90.19
232.306	66.19
232.541	69.19
232.775	83.19
233.009	75.19
233.243	68.19
233.477	86.19
233.711	95.19
233.945	77.19
234.179	76.19
234.413	75.19
234.647	91.19
234.881	87.19
235.115	74.19
235.349	72.19
235.583	87.19
235.817	79.19
236.051	67.19
236.285	85.19
236.519	70.19
236.753	74.19
236.987	82.19
237.221	82.19
237.455	83.19
237.689	71.19
237.922	72.19
238.156	83.19
238.39	71.19
238.624	72.19
238.858	85.19
239.091	78.19
239.325	75.19
239.559	78.19
239.793	70.19
240.027	83.19
240.26	77.19
240.494	76.19
240.728	80.19
240.961	82.19
241.195	82.19
241.429	75.19
241.662	96.19
241.896	84.19
242.13	87.19
242.363	74.19
242.597	75.19
242.83	80.19
243.064	67.19
243.298	83.19
243.531	80.19
243.765	87.19
243.998	85.19
244.232	77.19
244.465	83.19
244.699	62.19
244.932	77.19
245.166	75.19
245.399	82.19
245.633	84.19
245.866	73.19
246.099	71.19
246.333	91.19
246.566	81.19
246.8	85.19
247.033	75.19
247.266	81.19
247.5	85.19
247.733	80.19
247.966	79.19
248.2	84.19
248.433	74.19
248.666	71.19
248.899	78.19
249.133	81.19
249.366	77.19
249.599	80.19
249.832	81.19
250.066	74.19
250.299	75.19
250.532	82.19
250.765	90.19
250.998	76.19
251.231	72.19
251.465	71.19
251.698	79.19
251.931	66.19
252.164	91.19
252.397	63.19
252.63	80.19
252.863	76.19
253.096	87.19
253.329	82.19
253.562	74.19
253.795	66.19
254.028	74.19
254.261	81.19
254.494	74.19
254.727	88.19
254.96	93.19
255.193	68.19
255.426	83.19
255.659	82.19
255.892	76.19
256.124	70.19
256.357	94.19
256.59	76.19
256.823	82.19
257.056	76.19
257.289	70.19
257.521	85.19
257.754	88.19
257.987	80.19
258.22	71.19
258.452	80.19
258.685	89.19
258.918	84.19
259.151	79.19
259.383	65.19
259.616	73.19
259.849	79.19
260.081	74.19
260.314	75.19
260.547	83.19
260.779	80.19
261.012	79.19
261.244	85.19
261.477	96.19
261.71	76.19
261.942	77.19
262.175	79.19
262.407	73.19
262.64	87.19
262.872	83.19
263.105	85.19
263.337	89.19
263.57	77.19
263.802	84.19
264.035	88.19
264.267	66.19
264.499	72.19
264.732	74.19
264.964	86.19
265.197	81.19
265.429	69.19
265.661	73.19
265.894	79.19
266.126	75.19
266.358	80.19
266.591	88.19
266.823	71.19
267.055	85.19
267.287	89.19
267.52	91.19
267.752	80.19
267.984	82.19
268.216	81.19
268.448	91.19
268.681	89.19
268.913	88.19
269.145	95.19
269.377	76.19
269.609	80.19
269.841	90.19
270.073	75.19
270.306	62.19
270.538	68.19
270.77	87.19
271.002	83.19
271.234	74.19
271.466	64.19
271.698	88.19
271.93	76.19
272.162	76.19
272.394	90.19
272.626	73.19
272.858	71.19
273.09	79.19
273.322	79.19
273.553	80.19
273.785	80.19
274.017	90.19
274.249	91.19
274.481	76.19
274.713	68.19
274.945	84.19
275.176	77.19
275.408	87.19
275.64	76.19
275.872	74.19
276.104	79.19
276.335	73.19
276.567	76.19
276.799	77.19
277.031	86.19
277.262	75.19
277.494	78.19
277.726	79.19
277.957	84.19
278.189	76.19
278.421	82.19
278.652	82.19
278.884	81.19
279.115	82.19
279.347	82.19
279.579	60.19
279.81	89.19
280.042	90.19
280.273	70.19
280.505	94.19
280.736	84.19
280.968	79.19
281.199	91.19
281.431	87.19
281.662	79.19
281.894	79.19
282.125	82.19
282.356	83.19
282.588	82.19
282.819	76.19
283.051	85.19
283.282	75.19
283.513	78.19
283.745	92.19
283.976	84.19
284.207	89.19
284.439	73.19
284.67	69.19
284.901	81.19
285.132	85.19
285.364	86.19
285.595	86.19
285.826	73.19
286.057	84.19
286.288	84.19
286.52	74.19
286.751	81.19
286.982	85.19
287.213	88.19
287.444	91.19
287.675	85.19
287.906	88.19
288.138	77.19
288.369	88.19
288.6	74.19
288.831	85.19
289.062	71.19
289.293	80.19
289.524	74.19
289.755	86.19
289.986	73.19
290.217	84.19
290.448	91.19
290.679	88.19
290.91	96.19
291.141	72.19
291.371	81.19
291.602	82.19
291.833	75.19
292.064	80.19
292.295	73.19
292.526	84.19
292.757	87.19
292.987	94.19
293.218	88.19
293.449	72.19
293.68	90.19
293.91	70.19
294.141	80.19
294.372	81.19
294.603	77.19
294.833	86.19
295.064	96.19
295.295	69.19
295.525	81.19
295.756	84.19
295.987	90.19
296.217	86.19
296.448	82.19
296.679	77.19
296.909	82.19
297.14	76.19
297.37	76.19
297.601	80.19
297.831	78.19
298.062	74.19
298.292	75.19
298.523	80.19
298.753	85.19
298.984	101.19
299.214	82.19
299.445	94.19
299.675	94.19
299.905	85.19
300.136	82.19
300.366	88.19
300.597	94.19
300.827	84.19
301.057	70.19
301.288	87.19
301.518	83.19
301.748	81.19
301.979	90.19
302.209	64.19
302.439	69.19
302.669	80.19
302.9	89.19
303.13	70.19
303.36	90.19
303.59	90.19
303.82	90.19
304.051	79.19
304.281	95.19
304.511	86.19
304.741	86.19
304.971	90.19
305.201	75.19
305.431	87.19
305.661	81.19
305.891	74.19
306.121	88.19
306.352	90.19
306.582	80.19
306.812	70.19
307.042	83.19
307.272	93.19
307.502	90.19
307.731	85.19
307.961	89.19
308.191	88.19
308.421	85.19
308.651	83.19
308.881	81.19
309.111	86.19
309.341	86.19
309.571	91.19
309.8	79.19
310.03	91.19
310.26	78.19
310.49	81.19
310.72	91.19
310.949	84.19
311.179	73.19
311.409	69.19
311.639	87.19
311.868	84.19
312.098	73.19
312.328	74.19
312.557	90.19
312.787	75.19
313.017	93.19
313.246	66.19
313.476	96.19
313.706	88.19
313.935	74.19
314.165	77.19
314.394	88.19
314.624	79.19
314.853	99.19
315.083	89.19
315.312	85.19
315.542	93.19
315.771	68.19
316.001	82.19
316.23	87.19
316.46	84.19
316.689	94.19
316.919	78.19
317.148	94.19
317.377	87.19
317.607	79.19
317.836	81.19
318.065	89.19
318.295	94.19
318.524	82.19
318.753	71.19
318.983	74.19
319.212	73.19
319.441	86.19
319.67	85.19
319.9	96.19
320.129	91.19
320.358	97.19
320.587	83.19
320.816	85.19
321.046	68.19
321.275	83.19
321.504	93.19
321.733	83.19
321.962	90.19
322.191	80.19
322.42	87.19
322.649	94.19
322.878	92.19
323.108	83.19
323.337	82.19
323.566	60.19
323.795	77.19
324.024	71.19
324.253	83.19
324.482	85.19
324.71	82.19
324.939	80.19
325.168	75.19
325.397	83.19
325.626	76.19
325.855	90.19
326.084	97.19
326.313	76.19
326.542	81.19
326.77	81.19
326.999	74.19
327.228	75.19
327.457	83.19
327.686	90.19
327.914	84.19
328.143	104.19
328.372	92.19
328.6	80.19
328.829	87.19
329.058	87.19
329.287	86.19
329.515	86.19
329.744	72.19
329.972	92.19
330.201	80.19
330.43	82.19
330.658	90.19
330.887	82.19
331.115	91.19
331.344	72.19
331.572	82.19
331.801	74.19
332.03	87.19
332.258	74.19
332.486	66.19
332.715	91.19
332.943	87.19
333.172	77.19
333.4	97.19
333.629	76.19
333.857	84.19
334.085	80.19
334.314	82.19
334.542	93.19
334.771	89.19
334.999	71.19
335.227	75.19
335.455	78.19
335.684	91.19
335.912	82.19
336.14	84.19
336.369	77.19
336.597	86.19
336.825	88.19
337.053	90.19
337.281	94.19
337.51	84.19
337.738	76.19
337.966	66.19
338.194	87.19
338.422	82.19
338.65	79.19
338.878	96.19
339.106	68.19
339.334	85.19
339.562	78.19
339.79	74.19
340.018	83.19
340.246	78.19
340.474	83.19
340.702	86.19
340.93	91.19
341.158	80.19
341.386	79.19
341.614	76.19
341.842	72.19
342.07	78.19
342.298	85.19
342.526	80.19
342.754	78.19
342.981	86.19
343.209	80.19
343.437	101.19
343.665	88.19
343.893	94.19
344.12	88.19
344.348	83.19
344.576	84.19
344.804	90.19
345.031	77.19
345.259	86.19
345.487	80.19
345.714	83.19
345.942	83.19
346.17	81.19
346.397	84.19
346.625	68.19
346.853	82.19
347.08	77.19
347.308	85.19
347.535	73.19
347.763	86.19
347.99	80.19
348.218	95.19
348.445	92.19
348.673	79.19
348.9	89.19
349.128	82.19
349.355	78.19
349.583	79.19
349.81	77.19
350.037	78.19
350.265	90.19
350.492	73.19
350.72	88.19
350.947	88.19
351.174	85.19
351.402	85.19
351.629	86.19
351.856	104.19
352.083	76.19
352.311	89.19
352.538	66.19
352.765	83.19
352.992	97.19
353.22	83.19
353.447	85.19
353.674	83.19
353.901	71.19
354.128	62.19
354.355	86.19
354.583	82.19
354.81	80.19
355.037	98.19
355.264	84.19
355.491	82.19
355.718	80.19
355.945	83.19
356.172	82.19
356.399	100.19
356.626	96.19
356.853	89.19
357.08	80.19
357.307	84.19
357.534	79.19
357.761	90.19
357.988	98.19
358.215	81.19
358.441	81.19
358.668	94.19
358.895	81.19
359.122	76.19
359.349	84.19
359.576	85.19
359.802	86.19
360.029	66.19
360.256	85.19
360.483	72.19
360.709	81.19
360.936	95.19
361.163	81.19
361.39	76.19
361.616	82.19
361.843	89.19
362.07	87.19
362.296	88.19
362.523	83.19
362.749	91.19
362.976	84.19
363.203	104.19
363.429	77.19
363.656	82.19
363.882	73.19
364.109	92.19
364.335	91.19
364.562	94.19
364.788	87.19
365.015	92.19
365.241	86.19
365.468	92.19
365.694	95.19
365.92	85.19
366.147	104.19
366.373	98.19
366.599	72.19
366.826	82.19
367.052	82.19
367.278	83.19
367.505	68.19
367.731	86.19
367.957	80.19
368.184	73.19
368.41	84.19
368.636	89.19
368.862	83.19
369.089	91.19
369.315	66.19
369.541	73.19
369.767	90.19
369.993	89.19
370.219	76.19
370.445	84.19
370.672	73.19
370.898	80.19
371.124	94.19
371.35	91.19
371.576	92.19
371.802	85.19
372.028	92.19
372.254	90.19
372.48	88.19
372.706	82.19
372.932	63.19
373.158	94.19
373.384	88.19
373.61	86.19
373.835	77.19
374.061	71.19
374.287	74.19
374.513	86.19
374.739	95.19
374.965	84.19
375.191	96.19
375.416	79.19
375.642	76.19
375.868	91.19
376.094	77.19
376.319	87.19
376.545	97.19
376.771	78.19
376.997	66.19
377.222	85.19
377.448	86.19
377.674	81.19
377.899	84.19
378.125	88.19
378.35	84.19
378.576	71.19
378.802	87.19
379.027	92.19
379.253	78.19
379.478	83.19
379.704	84.19
379.929	96.19
380.155	84.19
380.38	84.19
380.606	84.19
380.831	70.19
381.057	86.19
381.282	77.19
381.507	69.19
381.733	84.19
381.958	84.19
382.184	79.19
382.409	75.19
382.634	88.19
382.86	94.19
383.085	84.19
383.31	80.19
383.535	74.19
383.761	90.19
383.986	86.19
384.211	75.19
384.436	90.19
384.662	84.19
384.887	78.19
385.112	82.19
385.337	72.19
385.562	72.19
385.787	72.19
386.013	91.19
386.238	68.19
386.463	87.19
386.688	102.19
386.913	90.19
387.138	86.19
387.363	78.19
387.588	80.19
387.813	78.19
388.038	79.19
388.263	79.19
388.488	78.19
388.713	92.19
388.938	83.19
389.163	91.19
389.387	92.19
389.612	89.19
389.837	86.19
390.062	97.19
390.287	83.19
390.512	75.19
390.736	80.19
390.961	86.19
391.186	80.19
391.411	75.19
391.636	73.19
391.86	86.19
392.085	81.19
392.31	88.19
392.534	86.19
392.759	84.19
392.984	103.19
393.208	122.19
393.433	132.19
393.658	122.19
393.882	90.19
394.107	72.19
394.331	86.19
394.556	77.19
394.78	82.19
395.005	92.19
395.229	85.19
395.454	94.19
395.678	106.19
395.903	81.19
396.127	98.19
396.352	106.19
396.576	100.19
396.801	126.19
397.025	134.19
397.249	106.19
397.474	90.19
397.698	100.19
397.922	86.19
398.147	96.19
398.371	66.19
398.595	94.19
398.82	83.19
399.044	76.19
399.268	82.19
399.492	73.19
399.717	75.19
399.941	82.19
400.165	82.19
400.389	86.19
400.613	77.19
400.837	72.19
401.062	85.19
401.286	81.19
401.51	82.19
401.734	94.19
401.958	64.19
402.182	84.19
402.406	81.19
402.63	76.19
402.854	89.19
403.078	84.19
403.302	92.19
403.526	88.19
403.75	68.19
403.974	78.19
404.198	85.19
404.422	109.19
404.645	120.19
404.869	102.19
405.093	102.19
405.317	93.19
405.541	97.19
405.765	72.19
405.988	74.19
406.212	76.19
406.436	77.19
406.66	80.19
406.883	83.19
407.107	83.19
407.331	73.19
407.555	76.19
407.778	86.19
408.002	87.19
408.226	76.19
408.449	84.19
408.673	88.19
408.896	75.19
409.12	82.19
409.344	78.19
409.567	94.19
409.791	86.19
410.014	79.19
410.238	107.19
410.461	81.19
410.685	82.19
410.908	98.19
411.132	73.19
411.355	88.19
411.578	91.19
411.802	68.19
412.025	75.19
412.249	75.19
412.472	85.19
412.695	83.19
412.919	78.19
413.142	95.19
413.365	84.19
413.589	87.19
413.812	67.19
414.035	81.19
414.258	68.19
414.482	75.19
414.705	93.19
414.928	74.19
415.151	94.19
415.374	95.19
415.597	69.19
415.821	65.19
416.044	67.19
416.267	86.19
416.49	75.19
416.713	90.19
416.936	69.19
417.159	80.19
417.382	77.19
417.605	91.19
417.828	84.19
418.051	71.19
418.274	94.19
418.497	76.19
418.72	77.19
418.943	79.19
419.166	82.19
419.389	96.19
419.611	84.19
419.834	83.19
420.057	86.19
420.28	82.19
420.503	83.19
420.726	74.19
420.948	75.19
421.171	68.19
421.394	80.19
421.617	77.19
421.839	84.19
422.062	100.19
422.285	96.19
422.507	143.19
422.73	205.19
422.953	198.19
423.175	145.19
423.398	104.19
423.621	94.19
423.843	91.19
424.066	74.19
424.288	89.19
424.511	83.19
424.733	97.19
424.956	80.19
425.178	86.19
425.401	80.19
425.623	91.19
425.846	74.19
426.068	81.19
426.291	94.19
426.513	84.19
426.735	80.19
426.958	77.19
427.18	86.19
427.402	80.19
427.625	86.19
427.847	82.19
428.069	96.19
428.292	84.19
428.514	94.19
428.736	88.19
428.958	90.19
429.181	101.19
429.403	83.19
429.625	92.19
429.847	83.19
430.069	110.19
430.292	116.19
430.514	124.19
430.736	119.19
430.958	96.19
431.18	83.19
431.402	97.19
431.624	85.19
431.846	99.19
432.068	111.19
432.29	80.19
432.512	88.19
432.734	102.19
432.956	83.19
433.178	73.19
433.4	80.19
433.622	84.19
433.844	85.19
434.066	77.19
434.287	59.19
434.509	84.19
434.731	74.19
434.953	82.19
435.175	76.19
435.397	76.19
435.618	89.19
435.84	100.19
436.062	87.19
436.284	88.19
436.505	96.19
436.727	88.19
436.949	82.19
437.17	79.19
437.392	84.19
437.614	85.19
437.835	88.19
438.057	74.19
438.278	81.19
438.5	82.19
438.721	88.19
438.943	86.19
439.165	83.19
439.386	88.19
439.608	89.19
439.829	72.19
440.05	71.19
440.272	84.19
440.493	94.19
440.715	89.19
440.936	88.19
441.158	82.19
441.379	86.19
441.6	80.19
441.822	77.19
442.043	75.19
442.264	77.19
442.486	97.19
442.707	118.19
442.928	95.19
443.149	94.19
443.371	112.19
443.592	136.19
443.813	124.19
444.034	107.19
444.255	72.19
444.476	94.19
444.698	83.19
444.919	87.19
445.14	186.19
445.361	152.19
445.582	152.19
445.803	154.19
446.024	87.19
446.245	88.19
446.466	80.19
446.687	82.19
446.908	81.19
447.129	92.19
447.35	83.19
447.571	91.19
447.792	75.19
448.013	76.19
448.234	87.19
448.455	85.19
448.675	76.19
448.896	70.19
449.117	78.19
449.338	74.19
449.559	88.19
449.779	91.19
450	79.19
450.221	72.19
450.442	77.19
450.662	79.19
450.883	79.19
451.104	94.19
451.324	74.19
451.545	79.19
451.766	78.19
451.986	81.19
452.207	87.19
452.428	79.19
452.648	81.19
452.869	91.19
453.089	69.19
453.31	102.19
453.53	81.19
453.751	85.19
453.971	91.19
454.192	94.19
454.412	81.19
454.633	71.19
454.853	92.19
455.073	89.19
455.294	94.19
455.514	76.19
455.734	86.19
455.955	70.19
456.175	89.19
456.395	83.19
456.616	82.19
456.836	86.19
457.056	81.19
457.276	88.19
457.497	91.19
457.717	76.19
457.937	67.19
458.157	80.19
458.377	82.19
458.598	88.19
458.818	104.19
459.038	79.19
459.258	77.19
459.478	86.19
459.698	80.19
459.918	79.19
460.138	74.19
460.358	90.19
460.578	85.19
460.798	97.19
461.018	96.19
461.238	81.19
461.458	95.19
461.678	94.19
461.898	80.19
462.118	90.19
462.338	91.19
462.558	81.19
462.777	80.19
462.997	78.19
463.217	85.19
463.437	82.19
463.657	93.19
463.876	90.19
464.096	87.19
464.316	83.19
464.536	75.19
464.755	63.19
464.975	72.19
465.195	91.19
465.414	86.19
465.634	74.19
465.854	75.19
466.073	93.19
466.293	71.19
466.512	75.19
466.732	79.19
466.951	76.19
467.171	72.19
467.391	72.19
467.61	91.19
467.829	86.19
468.049	76.19
468.268	81.19
468.488	68.19
468.707	98.19
468.927	84.19
469.146	88.19
469.365	84.19
469.585	82.19
469.804	89.19
470.023	80.19
470.243	93.19
470.462	88.19
470.681	72.19
470.901	73.19
471.12	99.19
471.339	90.19
471.558	77.19
471.777	82.19
471.997	84.19
472.216	72.19
472.435	79.19
472.654	74.19
472.873	76.19
473.092	85.19
473.311	101.19
473.53	78.19
473.749	78.19
473.968	87.19
474.187	91.19
474.406	66.19
474.625	74.19
474.844	75.19
475.063	75.19
475.282	83.19
475.501	83.19
475.72	77.19
475.939	84.19
476.158	80.19
476.377	76.19
476.596	64.19
476.814	81.19
477.033	96.19
477.252	86.19
477.471	87.19
477.69	73.19
477.908	84.19
478.127	88.19
478.346	66.19
478.564	68.19
478.783	80.19
479.002	73.19
479.22	102.19
479.439	98.19
479.658	80.19
479.876	82.19
480.095	87.19
480.313	90.19
480.532	89.19
480.751	103.19
480.969	88.19
481.188	75.19
481.406	82.19
481.624	83.19
481.843	87.19
482.061	80.19
482.28	80.19
482.498	82.19
482.717	84.19
482.935	84.19
483.153	79.19
483.372	82.19
483.59	87.19
483.808	96.19
484.027	91.19
484.245	83.19
484.463	79.19
484.681	97.19
484.9	84.19
485.118	81.19
485.336	85.19
485.554	81.19
485.772	95.19
485.99	98.19
486.209	84.19
486.427	89.19
486.645	86.19
486.863	84.19
487.081	77.19
487.299	89.19
487.517	96.19
487.735	87.19
487.953	98.19
488.171	116.19
488.389	98.19
488.607	72.19
488.825	85.19
489.043	100.19
489.261	79.19
489.479	81.19
489.696	74.19
489.914	82.19
490.132	79.19
490.35	83.19
490.568	76.19
490.786	77.19
491.003	87.19
491.221	93.19
491.439	92.19
491.657	90.19
491.874	82.19
492.092	91.19
492.31	106.19
492.527	69.19
492.745	87.19
492.963	91.19
493.18	73.19
493.398	85.19
493.615	78.19
493.833	74.19
494.05	79.19
494.268	82.19
494.485	78.19
494.703	80.19
494.92	75.19
495.138	89.19
495.355	92.19
495.573	82.19
495.79	89.19
496.008	91.19
496.225	80.19
496.442	86.19
496.66	84.19
496.877	74.19
497.094	87.19
497.312	96.19
497.529	80.19
497.746	74.19
497.963	78.19
498.181	77.19
498.398	80.19
498.615	74.19
498.832	81.19
499.049	82.19
499.267	75.19
499.484	91.19
499.701	81.19
499.918	89.19
500.135	90.19
500.352	73.19
500.569	88.19
500.786	82.19
501.003	92.19
501.22	85.19
501.437	99.19
501.654	75.19
501.871	72.19
502.088	86.19
502.305	81.19
502.522	85.19
502.739	80.19
502.956	67.19
503.172	89.19
503.389	85.19
503.606	88.19
503.823	76.19
504.04	87.19
504.256	94.19
504.473	80.19
504.69	88.19
504.907	98.19
505.123	76.19
505.34	73.19
505.557	95.19
505.773	95.19
505.99	88.19
506.207	74.19
506.423	84.19
506.64	76.19
506.856	86.19
507.073	97.19
507.289	94.19
507.506	95.19
507.722	91.19
507.939	76.19
508.155	81.19
508.372	82.19
508.588	94.19
508.805	82.19
509.021	91.19
509.238	94.19
509.454	78.19
509.67	98.19
509.887	80.19
510.103	77.19
510.319	98.19
510.536	82.19
510.752	104.19
510.968	98.19
511.184	79.19
511.401	88.19
511.617	81.19
511.833	75.19
512.049	82.19
512.265	74.19
512.481	95.19
512.698	68.19
512.914	89.19
513.13	93.19
513.346	81.19
513.562	80.19
513.778	83.19
513.994	88.19
514.21	93.19
514.426	94.19
514.642	75.19
514.858	81.19
515.074	91.19
515.29	98.19
515.506	99.19
515.721	89.19
515.937	91.19
516.153	81.19
516.369	90.19
516.585	79.19
516.801	77.19
517.016	77.19
517.232	91.19
517.448	92.19
517.664	84.19
517.879	99.19
518.095	85.19
518.311	77.19
518.527	84.19
518.742	86.19
518.958	90.19
519.173	111.19
519.389	94.19
519.605	76.19
