Data from 237_3_HRD10591_00011.txt Node
Date: Mon Jan 19 14:13:00 EST 2026
User: Yrep
Spectrometer: HR+D1059
Trigger mode: 1
Integration Time (sec): 1.000000E-1
Scans to average: 1
Electric dark correction enabled: true
Nonlinearity correction enabled: false
Boxcar width: 0
XAxis mode: Wavelengths
Number of Pixels in Spectrum: 2048
>>>>>Begin Spectral Data<<<<<
223.165	-9.5
223.4	-9.5
223.635	-9.5
223.869	-17.5
224.104	-27.5
224.338	-17.5
224.573	-22.5
224.808	-11.5
225.042	-13.5
225.277	2.5
225.511	-2.5
225.746	4.5
225.98	8.5
226.215	16.5
226.449	9.5
226.683	21.5
226.918	30.5
227.152	28.5
227.387	36.5
227.621	47.5
227.856	52.5
228.09	48.5
228.324	47.5
228.559	55.5
228.793	40.5
229.027	62.5
229.262	54.5
229.496	55.5
229.73	65.5
229.964	72.5
230.199	66.5
230.433	72.5
230.667	70.5
230.901	73.5
231.136	75.5
231.37	79.5
231.604	67.5
231.838	81.5
232.072	81.5
232.306	76.5
232.541	84.5
232.775	82.5
233.009	73.5
233.243	90.5
233.477	73.5
233.711	77.5
233.945	88.5
234.179	86.5
234.413	88.5
234.647	73.5
234.881	75.5
235.115	88.5
235.349	72.5
235.583	76.5
235.817	56.5
236.051	87.5
236.285	68.5
236.519	76.5
236.753	75.5
236.987	90.5
237.221	64.5
237.455	72.5
237.689	95.5
237.922	80.5
238.156	98.5
238.39	74.5
238.624	78.5
238.858	84.5
239.091	83.5
239.325	80.5
239.559	69.5
239.793	86.5
240.027	76.5
240.26	70.5
240.494	68.5
240.728	81.5
240.961	63.5
241.195	85.5
241.429	78.5
241.662	72.5
241.896	62.5
242.13	69.5
242.363	72.5
242.597	84.5
242.83	72.5
243.064	67.5
243.298	72.5
243.531	70.5
243.765	80.5
243.998	85.5
244.232	80.5
244.465	81.5
244.699	82.5
244.932	62.5
245.166	72.5
245.399	78.5
245.633	84.5
245.866	71.5
246.099	72.5
246.333	70.5
246.566	71.5
246.8	76.5
247.033	69.5
247.266	71.5
247.5	76.5
247.733	68.5
247.966	83.5
248.2	67.5
248.433	67.5
248.666	84.5
248.899	71.5
249.133	75.5
249.366	80.5
249.599	70.5
249.832	58.5
250.066	85.5
250.299	80.5
250.532	68.5
250.765	77.5
250.998	70.5
251.231	85.5
251.465	80.5
251.698	74.5
251.931	85.5
252.164	88.5
252.397	81.5
252.63	84.5
252.863	78.5
253.096	82.5
253.329	84.5
253.562	72.5
253.795	60.5
254.028	65.5
254.261	79.5
254.494	76.5
254.727	80.5
254.96	80.5
255.193	85.5
255.426	78.5
255.659	74.5
255.892	70.5
256.124	84.5
256.357	73.5
256.59	86.5
256.823	70.5
257.056	63.5
257.289	75.5
257.521	75.5
257.754	87.5
257.987	77.5
258.22	80.5
258.452	68.5
258.685	82.5
258.918	92.5
259.151	86.5
259.383	88.5
259.616	78.5
259.849	72.5
260.081	84.5
260.314	81.5
260.547	68.5
260.779	76.5
261.012	91.5
261.244	74.5
261.477	85.5
261.71	76.5
261.942	66.5
262.175	88.5
262.407	85.5
262.64	75.5
262.872	74.5
263.105	73.5
263.337	80.5
263.57	78.5
263.802	74.5
264.035	69.5
264.267	75.5
264.499	86.5
264.732	77.5
264.964	69.5
265.197	92.5
265.429	84.5
265.661	88.5
265.894	85.5
266.126	76.5
266.358	72.5
266.591	62.5
266.823	79.5
267.055	83.5
267.287	94.5
267.52	73.5
267.752	70.5
267.984	85.5
268.216	81.5
268.448	69.5
268.681	105.5
268.913	95.5
269.145	78.5
269.377	81.5
269.609	72.5
269.841	71.5
270.073	97.5
270.306	80.5
270.538	77.5
270.77	74.5
271.002	88.5
271.234	73.5
271.466	69.5
271.698	74.5
271.93	76.5
272.162	82.5
272.394	80.5
272.626	71.5
272.858	77.5
273.09	92.5
273.322	83.5
273.553	80.5
273.785	78.5
274.017	90.5
274.249	83.5
274.481	91.5
274.713	92.5
274.945	70.5
275.176	62.5
275.408	90.5
275.64	70.5
275.872	73.5
276.104	74.5
276.335	89.5
276.567	80.5
276.799	81.5
277.031	78.5
277.262	86.5
277.494	72.5
277.726	85.5
277.957	79.5
278.189	87.5
278.421	81.5
278.652	87.5
278.884	94.5
279.115	82.5
279.347	84.5
279.579	86.5
279.81	88.5
280.042	76.5
280.273	66.5
280.505	89.5
280.736	84.5
280.968	74.5
281.199	81.5
281.431	83.5
281.662	81.5
281.894	93.5
282.125	78.5
282.356	93.5
282.588	87.5
282.819	93.5
283.051	76.5
283.282	81.5
283.513	77.5
283.745	75.5
283.976	76.5
284.207	92.5
284.439	69.5
284.67	80.5
284.901	76.5
285.132	75.5
285.364	81.5
285.595	73.5
285.826	76.5
286.057	73.5
286.288	82.5
286.52	92.5
286.751	74.5
286.982	81.5
287.213	77.5
287.444	90.5
287.675	82.5
287.906	95.5
288.138	82.5
288.369	92.5
288.6	81.5
288.831	90.5
289.062	85.5
289.293	93.5
289.524	86.5
289.755	82.5
289.986	76.5
290.217	80.5
290.448	70.5
290.679	94.5
290.91	95.5
291.141	78.5
291.371	72.5
291.602	84.5
291.833	69.5
292.064	90.5
292.295	86.5
292.526	75.5
292.757	85.5
292.987	90.5
293.218	101.5
293.449	98.5
293.68	81.5
293.91	75.5
294.141	79.5
294.372	65.5
294.603	84.5
294.833	82.5
295.064	82.5
295.295	65.5
295.525	89.5
295.756	95.5
295.987	82.5
296.217	86.5
296.448	84.5
296.679	76.5
296.909	77.5
297.14	81.5
297.37	94.5
297.601	88.5
297.831	73.5
298.062	75.5
298.292	83.5
298.523	80.5
298.753	87.5
298.984	79.5
299.214	89.5
299.445	67.5
299.675	81.5
299.905	74.5
300.136	90.5
300.366	87.5
300.597	96.5
300.827	87.5
301.057	77.5
301.288	82.5
301.518	84.5
301.748	89.5
301.979	92.5
302.209	81.5
302.439	92.5
302.669	77.5
302.9	86.5
303.13	89.5
303.36	86.5
303.59	87.5
303.82	89.5
304.051	89.5
304.281	83.5
304.511	96.5
304.741	80.5
304.971	83.5
305.201	100.5
305.431	75.5
305.661	75.5
305.891	91.5
306.121	83.5
306.352	84.5
306.582	80.5
306.812	68.5
307.042	78.5
307.272	68.5
307.502	71.5
307.731	88.5
307.961	88.5
308.191	75.5
308.421	82.5
308.651	76.5
308.881	80.5
309.111	92.5
309.341	91.5
309.571	88.5
309.8	85.5
310.03	85.5
310.26	90.5
310.49	83.5
310.72	82.5
310.949	64.5
311.179	94.5
311.409	98.5
311.639	78.5
311.868	85.5
312.098	87.5
312.328	76.5
312.557	93.5
312.787	83.5
313.017	69.5
313.246	90.5
313.476	78.5
313.706	83.5
313.935	70.5
314.165	74.5
314.394	80.5
314.624	72.5
314.853	83.5
315.083	70.5
315.312	91.5
315.542	88.5
315.771	82.5
316.001	88.5
316.23	93.5
316.46	85.5
316.689	85.5
316.919	81.5
317.148	82.5
317.377	79.5
317.607	71.5
317.836	88.5
318.065	78.5
318.295	83.5
318.524	64.5
318.753	79.5
318.983	75.5
319.212	75.5
319.441	82.5
319.67	98.5
319.9	78.5
320.129	92.5
320.358	94.5
320.587	80.5
320.816	85.5
321.046	78.5
321.275	87.5
321.504	89.5
321.733	84.5
321.962	82.5
322.191	92.5
322.42	82.5
322.649	95.5
322.878	88.5
323.108	79.5
323.337	93.5
323.566	84.5
323.795	89.5
324.024	85.5
324.253	72.5
324.482	88.5
324.71	74.5
324.939	75.5
325.168	86.5
325.397	72.5
325.626	76.5
325.855	71.5
326.084	76.5
326.313	92.5
326.542	83.5
326.77	71.5
326.999	74.5
327.228	85.5
327.457	85.5
327.686	90.5
327.914	82.5
328.143	85.5
328.372	86.5
328.6	88.5
328.829	89.5
329.058	84.5
329.287	82.5
329.515	85.5
329.744	80.5
329.972	87.5
330.201	81.5
330.43	89.5
330.658	74.5
330.887	74.5
331.115	94.5
331.344	90.5
331.572	94.5
331.801	85.5
332.03	86.5
332.258	81.5
332.486	80.5
332.715	86.5
332.943	89.5
333.172	77.5
333.4	88.5
333.629	84.5
333.857	82.5
334.085	76.5
334.314	66.5
334.542	86.5
334.771	87.5
334.999	84.5
335.227	99.5
335.455	80.5
335.684	90.5
335.912	93.5
336.14	80.5
336.369	92.5
336.597	89.5
336.825	80.5
337.053	76.5
337.281	91.5
337.51	72.5
337.738	83.5
337.966	93.5
338.194	66.5
338.422	74.5
338.65	79.5
338.878	88.5
339.106	81.5
339.334	72.5
339.562	82.5
339.79	65.5
340.018	78.5
340.246	88.5
340.474	84.5
340.702	66.5
340.93	93.5
341.158	82.5
341.386	91.5
341.614	69.5
341.842	91.5
342.07	87.5
342.298	87.5
342.526	82.5
342.754	84.5
342.981	80.5
343.209	73.5
343.437	102.5
343.665	86.5
343.893	90.5
344.12	74.5
344.348	74.5
344.576	90.5
344.804	89.5
345.031	80.5
345.259	89.5
345.487	72.5
345.714	65.5
345.942	79.5
346.17	85.5
346.397	74.5
346.625	80.5
346.853	84.5
347.08	85.5
347.308	82.5
347.535	83.5
347.763	76.5
347.99	80.5
348.218	92.5
348.445	79.5
348.673	88.5
348.9	82.5
349.128	102.5
349.355	88.5
349.583	79.5
349.81	108.5
350.037	78.5
350.265	86.5
350.492	83.5
350.72	64.5
350.947	76.5
351.174	80.5
351.402	93.5
351.629	82.5
351.856	84.5
352.083	75.5
352.311	77.5
352.538	99.5
352.765	84.5
352.992	84.5
353.22	87.5
353.447	88.5
353.674	85.5
353.901	68.5
354.128	78.5
354.355	66.5
354.583	75.5
354.81	84.5
355.037	83.5
355.264	80.5
355.491	100.5
355.718	68.5
355.945	85.5
356.172	85.5
356.399	86.5
356.626	84.5
356.853	82.5
357.08	83.5
357.307	74.5
357.534	96.5
357.761	83.5
357.988	89.5
358.215	78.5
358.441	80.5
358.668	88.5
358.895	87.5
359.122	82.5
359.349	84.5
359.576	81.5
359.802	84.5
360.029	81.5
360.256	81.5
360.483	77.5
360.709	83.5
360.936	89.5
361.163	80.5
361.39	81.5
361.616	86.5
361.843	90.5
362.07	85.5
362.296	90.5
362.523	89.5
362.749	80.5
362.976	91.5
363.203	102.5
363.429	93.5
363.656	90.5
363.882	84.5
364.109	94.5
364.335	101.5
364.562	111.5
364.788	96.5
365.015	88.5
365.241	84.5
365.468	86.5
365.694	69.5
365.92	87.5
366.147	89.5
366.373	86.5
366.599	73.5
366.826	76.5
367.052	88.5
367.278	76.5
367.505	91.5
367.731	103.5
367.957	80.5
368.184	80.5
368.41	83.5
368.636	82.5
368.862	78.5
369.089	80.5
369.315	84.5
369.541	86.5
369.767	82.5
369.993	96.5
370.219	84.5
370.445	84.5
370.672	97.5
370.898	80.5
371.124	92.5
371.35	77.5
371.576	87.5
371.802	76.5
372.028	78.5
372.254	78.5
372.48	98.5
372.706	79.5
372.932	84.5
373.158	90.5
373.384	95.5
373.61	92.5
373.835	84.5
374.061	99.5
374.287	74.5
374.513	96.5
374.739	86.5
374.965	88.5
375.191	94.5
375.416	93.5
375.642	87.5
375.868	76.5
376.094	90.5
376.319	77.5
376.545	82.5
376.771	91.5
376.997	72.5
377.222	80.5
377.448	84.5
377.674	83.5
377.899	88.5
378.125	69.5
378.35	79.5
378.576	79.5
378.802	81.5
379.027	105.5
379.253	86.5
379.478	76.5
379.704	84.5
379.929	76.5
380.155	83.5
380.38	89.5
380.606	85.5
380.831	89.5
381.057	86.5
381.282	87.5
381.507	77.5
381.733	84.5
381.958	73.5
382.184	78.5
382.409	72.5
382.634	100.5
382.86	98.5
383.085	87.5
383.31	86.5
383.535	84.5
383.761	89.5
383.986	80.5
384.211	72.5
384.436	80.5
384.662	88.5
384.887	83.5
385.112	93.5
385.337	73.5
385.562	90.5
385.787	95.5
386.013	92.5
386.238	82.5
386.463	84.5
386.688	88.5
386.913	90.5
387.138	86.5
387.363	90.5
387.588	72.5
387.813	88.5
388.038	88.5
388.263	82.5
388.488	110.5
388.713	93.5
388.938	83.5
389.163	82.5
389.387	80.5
389.612	81.5
389.837	79.5
390.062	74.5
390.287	67.5
390.512	70.5
390.736	72.5
390.961	80.5
391.186	82.5
391.411	76.5
391.636	75.5
391.86	88.5
392.085	73.5
392.31	92.5
392.534	80.5
392.759	89.5
392.984	106.5
393.208	131.5
393.433	172.5
393.658	136.5
393.882	87.5
394.107	96.5
394.331	90.5
394.556	102.5
394.78	88.5
395.005	84.5
395.229	87.5
395.454	87.5
395.678	79.5
395.903	96.5
396.127	100.5
396.352	91.5
396.576	105.5
396.801	136.5
397.025	137.5
397.249	114.5
397.474	96.5
397.698	78.5
397.922	91.5
398.147	72.5
398.371	83.5
398.595	76.5
398.82	87.5
399.044	88.5
399.268	77.5
399.492	75.5
399.717	76.5
399.941	80.5
400.165	74.5
400.389	85.5
400.613	87.5
400.837	65.5
401.062	76.5
401.286	75.5
401.51	72.5
401.734	86.5
401.958	75.5
402.182	81.5
402.406	78.5
402.63	90.5
402.854	97.5
403.078	84.5
403.302	82.5
403.526	64.5
403.75	90.5
403.974	79.5
404.198	94.5
404.422	101.5
404.645	93.5
404.869	113.5
405.093	95.5
405.317	84.5
405.541	100.5
405.765	87.5
405.988	78.5
406.212	95.5
406.436	91.5
406.66	78.5
406.883	87.5
407.107	78.5
407.331	81.5
407.555	72.5
407.778	84.5
408.002	103.5
408.226	76.5
408.449	81.5
408.673	66.5
408.896	84.5
409.12	80.5
409.344	82.5
409.567	95.5
409.791	83.5
410.014	90.5
410.238	78.5
410.461	86.5
410.685	98.5
410.908	87.5
411.132	88.5
411.355	90.5
411.578	85.5
411.802	77.5
412.025	88.5
412.249	84.5
412.472	80.5
412.695	82.5
412.919	80.5
413.142	88.5
413.365	83.5
413.589	83.5
413.812	69.5
414.035	102.5
414.258	77.5
414.482	71.5
414.705	78.5
414.928	89.5
415.151	89.5
415.374	82.5
415.597	88.5
415.821	97.5
416.044	84.5
416.267	74.5
416.49	76.5
416.713	72.5
416.936	69.5
417.159	78.5
417.382	96.5
417.605	80.5
417.828	79.5
418.051	69.5
418.274	87.5
418.497	78.5
418.72	75.5
418.943	85.5
419.166	84.5
419.389	80.5
419.611	82.5
419.834	85.5
420.057	90.5
420.28	86.5
420.503	80.5
420.726	66.5
420.948	78.5
421.171	84.5
421.394	94.5
421.617	100.5
421.839	109.5
422.062	92.5
422.285	118.5
422.507	165.5
422.73	206.5
422.953	195.5
423.175	135.5
423.398	108.5
423.621	104.5
423.843	92.5
424.066	84.5
424.288	92.5
424.511	84.5
424.733	89.5
424.956	81.5
425.178	77.5
425.401	82.5
425.623	68.5
425.846	100.5
426.068	88.5
426.291	76.5
426.513	89.5
426.735	65.5
426.958	80.5
427.18	78.5
427.402	89.5
427.625	88.5
427.847	94.5
428.069	88.5
428.292	100.5
428.514	101.5
428.736	77.5
428.958	93.5
429.181	102.5
429.403	82.5
429.625	94.5
429.847	86.5
430.069	114.5
430.292	133.5
430.514	118.5
430.736	97.5
430.958	105.5
431.18	72.5
431.402	91.5
431.624	94.5
431.846	87.5
432.068	103.5
432.29	80.5
432.512	86.5
432.734	72.5
432.956	83.5
433.178	73.5
433.4	68.5
433.622	87.5
433.844	93.5
434.066	84.5
434.287	74.5
434.509	89.5
434.731	64.5
434.953	87.5
435.175	79.5
435.397	91.5
435.618	91.5
435.84	89.5
436.062	108.5
436.284	80.5
436.505	70.5
436.727	67.5
436.949	82.5
437.17	75.5
437.392	63.5
437.614	71.5
437.835	86.5
438.057	72.5
438.278	85.5
438.5	83.5
438.721	88.5
438.943	80.5
439.165	76.5
439.386	73.5
439.608	84.5
439.829	95.5
440.05	77.5
440.272	78.5
440.493	94.5
440.715	64.5
440.936	70.5
441.158	88.5
441.379	92.5
441.6	87.5
441.822	66.5
442.043	82.5
442.264	93.5
442.486	100.5
442.707	120.5
442.928	106.5
443.149	110.5
443.371	121.5
443.592	144.5
443.813	148.5
444.034	89.5
444.255	88.5
444.476	89.5
444.698	84.5
444.919	86.5
445.14	149.5
445.361	151.5
445.582	166.5
445.803	165.5
446.024	94.5
446.245	84.5
446.466	66.5
446.687	74.5
446.908	80.5
447.129	80.5
447.35	84.5
447.571	92.5
447.792	87.5
448.013	80.5
448.234	89.5
448.455	88.5
448.675	88.5
448.896	86.5
449.117	86.5
449.338	74.5
449.559	77.5
449.779	85.5
450	80.5
450.221	73.5
450.442	81.5
450.662	89.5
450.883	76.5
451.104	81.5
451.324	89.5
451.545	93.5
451.766	86.5
451.986	79.5
452.207	94.5
452.428	73.5
452.648	83.5
452.869	84.5
453.089	96.5
453.31	78.5
453.53	79.5
453.751	75.5
453.971	64.5
454.192	79.5
454.412	88.5
454.633	80.5
454.853	87.5
455.073	100.5
455.294	89.5
455.514	85.5
455.734	83.5
455.955	87.5
456.175	69.5
456.395	82.5
456.616	86.5
456.836	84.5
457.056	79.5
457.276	84.5
457.497	82.5
457.717	88.5
457.937	76.5
458.157	101.5
458.377	108.5
458.598	92.5
458.818	101.5
459.038	91.5
459.258	72.5
459.478	80.5
459.698	80.5
459.918	78.5
460.138	78.5
460.358	76.5
460.578	87.5
460.798	99.5
461.018	90.5
461.238	84.5
461.458	75.5
461.678	69.5
461.898	82.5
462.118	67.5
462.338	80.5
462.558	93.5
462.777	86.5
462.997	72.5
463.217	80.5
463.437	80.5
463.657	88.5
463.876	74.5
464.096	75.5
464.316	77.5
464.536	65.5
464.755	80.5
464.975	83.5
465.195	93.5
465.414	88.5
465.634	78.5
465.854	86.5
466.073	72.5
466.293	88.5
466.512	74.5
466.732	72.5
466.951	72.5
467.171	82.5
467.391	86.5
467.61	79.5
467.829	71.5
468.049	84.5
468.268	80.5
468.488	67.5
468.707	78.5
468.927	91.5
469.146	86.5
469.365	87.5
469.585	67.5
469.804	76.5
470.023	74.5
470.243	94.5
470.462	73.5
470.681	91.5
470.901	90.5
471.12	79.5
471.339	81.5
471.558	90.5
471.777	82.5
471.997	73.5
472.216	77.5
472.435	89.5
472.654	74.5
472.873	74.5
473.092	89.5
473.311	87.5
473.53	69.5
473.749	85.5
473.968	87.5
474.187	88.5
474.406	83.5
474.625	77.5
474.844	77.5
475.063	69.5
475.282	74.5
475.501	88.5
475.72	92.5
475.939	88.5
476.158	77.5
476.377	89.5
476.596	82.5
476.814	87.5
477.033	78.5
477.252	96.5
477.471	89.5
477.69	103.5
477.908	76.5
478.127	97.5
478.346	94.5
478.564	80.5
478.783	77.5
479.002	80.5
479.22	87.5
479.439	77.5
479.658	82.5
479.876	87.5
480.095	72.5
480.313	88.5
480.532	80.5
480.751	82.5
480.969	73.5
481.188	78.5
481.406	84.5
481.624	97.5
481.843	88.5
482.061	76.5
482.28	86.5
482.498	75.5
482.717	80.5
482.935	76.5
483.153	75.5
483.372	81.5
483.59	78.5
483.808	97.5
484.027	86.5
484.245	105.5
484.463	80.5
484.681	88.5
484.9	89.5
485.118	81.5
485.336	73.5
485.554	94.5
485.772	92.5
485.99	65.5
486.209	83.5
486.427	82.5
486.645	64.5
486.863	78.5
487.081	82.5
487.299	79.5
487.517	90.5
487.735	100.5
487.953	114.5
488.171	106.5
488.389	84.5
488.607	101.5
488.825	83.5
489.043	78.5
489.261	73.5
489.479	77.5
489.696	88.5
489.914	89.5
490.132	94.5
490.35	96.5
490.568	84.5
490.786	84.5
491.003	75.5
491.221	88.5
491.439	87.5
491.657	88.5
491.874	74.5
492.092	89.5
492.31	78.5
492.527	78.5
492.745	80.5
492.963	74.5
493.18	76.5
493.398	75.5
493.615	81.5
493.833	93.5
494.05	89.5
494.268	82.5
494.485	86.5
494.703	81.5
494.92	84.5
495.138	93.5
495.355	78.5
495.573	93.5
495.79	93.5
496.008	95.5
496.225	82.5
496.442	79.5
496.66	89.5
496.877	85.5
497.094	94.5
497.312	86.5
497.529	89.5
497.746	88.5
497.963	89.5
498.181	93.5
498.398	80.5
498.615	80.5
498.832	80.5
499.049	87.5
499.267	92.5
499.484	73.5
499.701	89.5
499.918	74.5
500.135	98.5
500.352	76.5
500.569	88.5
500.786	87.5
501.003	84.5
501.22	82.5
501.437	83.5
501.654	82.5
501.871	89.5
502.088	88.5
502.305	88.5
502.522	80.5
502.739	92.5
502.956	81.5
503.172	84.5
503.389	86.5
503.606	80.5
503.823	97.5
504.04	77.5
504.256	94.5
504.473	111.5
504.69	84.5
504.907	87.5
505.123	84.5
505.34	75.5
505.557	92.5
505.773	87.5
505.99	82.5
506.207	71.5
506.423	81.5
506.64	78.5
506.856	83.5
507.073	73.5
507.289	97.5
507.506	72.5
507.722	89.5
507.939	86.5
508.155	88.5
508.372	82.5
508.588	89.5
508.805	85.5
509.021	91.5
509.238	99.5
509.454	99.5
509.67	106.5
509.887	80.5
510.103	89.5
510.319	78.5
510.536	90.5
510.752	76.5
510.968	80.5
511.184	98.5
511.401	90.5
511.617	90.5
511.833	74.5
512.049	94.5
512.265	70.5
512.481	78.5
512.698	81.5
512.914	76.5
513.13	98.5
513.346	85.5
513.562	95.5
513.778	76.5
513.994	92.5
514.21	72.5
514.426	82.5
514.642	85.5
514.858	90.5
515.074	73.5
515.29	93.5
515.506	84.5
515.721	81.5
515.937	78.5
516.153	83.5
516.369	86.5
516.585	80.5
516.801	84.5
517.016	88.5
517.232	71.5
517.448	100.5
517.664	82.5
517.879	80.5
518.095	85.5
518.311	99.5
518.527	83.5
518.742	86.5
518.958	116.5
519.173	112.5
519.389	92.5
519.605	94.5
519.82	91.5
520.036	105.5
520.251	88.5
520.467	87.5
520.682	78.5
520.898	92.5
521.113	78.5
521.329	84.5
521.544	85.5
521.76	81.5
521.975	89.5
522.19	93.5
522.406	86.5
522.621	79.5
522.836	86.5
523.052	88.5
523.267	88.5
523.482	82.5
523.698	89.5
523.913	83.5
524.128	92.5
524.343	85.5
524.559	75.5
524.774	84.5
524.989	96.5
525.204	92.5
525.419	76.5
525.634	81.5
525.849	95.5
526.064	97.5
526.28	151.5
526.495	157.5
526.71	180.5
526.925	148.5
527.14	168.5
527.355	134.5
527.57	103.5
527.785	78.5
527.999	89.5
528.214	78.5
528.429	89.5
528.644	88.5
528.859	93.5
529.074	80.5
529.289	86.5
529.503	96.5
529.718	86.5
529.933	79.5
530.148	90.5
530.363	91.5
530.577	94.5
530.792	76.5
531.007	90.5
531.221	88.5
531.436	92.5
531.651	100.5
531.865	88.5
532.08	84.5
532.295	99.5
532.509	76.5
532.724	93.5
532.938	92.5
533.153	95.5
533.367	86.5
533.582	95.5
533.796	83.5
534.011	86.5
534.225	89.5
534.44	88.5
534.654	100.5
534.868	104.5
535.083	103.5
535.297	120.5
535.511	92.5
535.726	94.5
535.94	83.5
536.154	105.5
536.369	82.5
536.583	94.5
536.797	89.5
537.011	94.5
537.225	89.5
537.44	87.5
537.654	89.5
537.868	92.5
538.082	77.5
538.296	99.5
538.51	92.5
538.724	96.5
538.938	89.5
539.153	85.5
539.367	78.5
