Data from 237_3_HRD10591_00007.txt Node
Date: Mon Jan 19 14:12:58 EST 2026
User: Yrep
Spectrometer: HR+D1059
Trigger mode: 1
Integration Time (sec): 1.000000E-1
Scans to average: 1
Electric dark correction enabled: true
Nonlinearity correction enabled: false
Boxcar width: 0
XAxis mode: Wavelengths
Number of Pixels in Spectrum: 2048
>>>>>Begin Spectral Data<<<<<
223.165	-21.25
223.4	-21.25
223.635	-21.25
223.869	-18.25
224.104	-24.25
224.338	-7.25
224.573	-11.25
224.808	-14.25
225.042	1.75
225.277	-6.25
225.511	3.75
225.746	1.75
225.98	18.75
226.215	11.75
226.449	8.75
226.683	11.75
226.918	19.75
227.152	24.75
227.387	23.75
227.621	44.75
227.856	40.75
228.09	50.75
228.324	44.75
228.559	64.75
228.793	70.75
229.027	56.75
229.262	66.75
229.496	64.75
229.73	72.75
229.964	69.75
230.199	80.75
230.433	80.75
230.667	92.75
230.901	80.75
231.136	67.75
231.37	74.75
231.604	83.75
231.838	76.75
232.072	73.75
232.306	75.75
232.541	76.75
232.775	84.75
233.009	80.75
233.243	92.75
233.477	73.75
233.711	82.75
233.945	81.75
234.179	71.75
234.413	84.75
234.647	70.75
234.881	76.75
235.115	80.75
235.349	91.75
235.583	76.75
235.817	69.75
236.051	84.75
236.285	69.75
236.519	80.75
236.753	85.75
236.987	74.75
237.221	96.75
237.455	90.75
237.689	62.75
237.922	75.75
238.156	73.75
238.39	89.75
238.624	75.75
238.858	58.75
239.091	84.75
239.325	66.75
239.559	74.75
239.793	64.75
240.027	80.75
240.26	73.75
240.494	82.75
240.728	60.75
240.961	74.75
241.195	85.75
241.429	80.75
241.662	83.75
241.896	57.75
242.13	72.75
242.363	72.75
242.597	80.75
242.83	80.75
243.064	69.75
243.298	66.75
243.531	78.75
243.765	72.75
243.998	81.75
244.232	74.75
244.465	80.75
244.699	86.75
244.932	81.75
245.166	82.75
245.399	80.75
245.633	84.75
245.866	70.75
246.099	78.75
246.333	84.75
246.566	80.75
246.8	87.75
247.033	71.75
247.266	68.75
247.5	79.75
247.733	74.75
247.966	74.75
248.2	70.75
248.433	92.75
248.666	74.75
248.899	82.75
249.133	78.75
249.366	88.75
249.599	84.75
249.832	72.75
250.066	81.75
250.299	82.75
250.532	65.75
250.765	55.75
250.998	73.75
251.231	74.75
251.465	78.75
251.698	79.75
251.931	68.75
252.164	74.75
252.397	80.75
252.63	76.75
252.863	83.75
253.096	76.75
253.329	74.75
253.562	75.75
253.795	72.75
254.028	71.75
254.261	76.75
254.494	70.75
254.727	87.75
254.96	74.75
255.193	82.75
255.426	85.75
255.659	64.75
255.892	88.75
256.124	76.75
256.357	82.75
256.59	78.75
256.823	88.75
257.056	76.75
257.289	74.75
257.521	80.75
257.754	77.75
257.987	85.75
258.22	84.75
258.452	79.75
258.685	82.75
258.918	92.75
259.151	86.75
259.383	87.75
259.616	68.75
259.849	78.75
260.081	80.75
260.314	82.75
260.547	80.75
260.779	76.75
261.012	78.75
261.244	80.75
261.477	85.75
261.71	72.75
261.942	66.75
262.175	77.75
262.407	73.75
262.64	78.75
262.872	104.75
263.105	80.75
263.337	87.75
263.57	90.75
263.802	90.75
264.035	93.75
264.267	78.75
264.499	90.75
264.732	74.75
264.964	70.75
265.197	84.75
265.429	84.75
265.661	75.75
265.894	70.75
266.126	94.75
266.358	88.75
266.591	93.75
266.823	78.75
267.055	76.75
267.287	75.75
267.52	82.75
267.752	96.75
267.984	68.75
268.216	84.75
268.448	83.75
268.681	85.75
268.913	75.75
269.145	81.75
269.377	82.75
269.609	74.75
269.841	88.75
270.073	69.75
270.306	88.75
270.538	75.75
270.77	79.75
271.002	85.75
271.234	86.75
271.466	81.75
271.698	74.75
271.93	82.75
272.162	82.75
272.394	79.75
272.626	78.75
272.858	71.75
273.09	87.75
273.322	80.75
273.553	69.75
273.785	84.75
274.017	86.75
274.249	73.75
274.481	85.75
274.713	76.75
274.945	90.75
275.176	86.75
275.408	83.75
275.64	81.75
275.872	68.75
276.104	75.75
276.335	86.75
276.567	85.75
276.799	79.75
277.031	81.75
277.262	80.75
277.494	92.75
277.726	98.75
277.957	88.75
278.189	92.75
278.421	79.75
278.652	84.75
278.884	95.75
279.115	94.75
279.347	82.75
279.579	75.75
279.81	88.75
280.042	89.75
280.273	71.75
280.505	85.75
280.736	90.75
280.968	76.75
281.199	79.75
281.431	72.75
281.662	94.75
281.894	86.75
282.125	84.75
282.356	90.75
282.588	94.75
282.819	84.75
283.051	78.75
283.282	72.75
283.513	88.75
283.745	82.75
283.976	85.75
284.207	74.75
284.439	83.75
284.67	85.75
284.901	85.75
285.132	78.75
285.364	95.75
285.595	73.75
285.826	69.75
286.057	78.75
286.288	81.75
286.52	93.75
286.751	90.75
286.982	83.75
287.213	85.75
287.444	101.75
287.675	81.75
287.906	74.75
288.138	83.75
288.369	71.75
288.6	88.75
288.831	87.75
289.062	89.75
289.293	78.75
289.524	96.75
289.755	94.75
289.986	81.75
290.217	83.75
290.448	89.75
290.679	84.75
290.91	87.75
291.141	84.75
291.371	90.75
291.602	87.75
291.833	83.75
292.064	78.75
292.295	86.75
292.526	86.75
292.757	97.75
292.987	84.75
293.218	86.75
293.449	89.75
293.68	80.75
293.91	86.75
294.141	90.75
294.372	70.75
294.603	80.75
294.833	89.75
295.064	96.75
295.295	80.75
295.525	88.75
295.756	78.75
295.987	90.75
296.217	89.75
296.448	87.75
296.679	87.75
296.909	92.75
297.14	90.75
297.37	90.75
297.601	85.75
297.831	85.75
298.062	85.75
298.292	86.75
298.523	80.75
298.753	93.75
298.984	90.75
299.214	72.75
299.445	92.75
299.675	88.75
299.905	94.75
300.136	80.75
300.366	73.75
300.597	98.75
300.827	76.75
301.057	90.75
301.288	78.75
301.518	94.75
301.748	93.75
301.979	95.75
302.209	92.75
302.439	88.75
302.669	91.75
302.9	82.75
303.13	84.75
303.36	85.75
303.59	80.75
303.82	88.75
304.051	88.75
304.281	82.75
304.511	104.75
304.741	89.75
304.971	94.75
305.201	94.75
305.431	82.75
305.661	78.75
305.891	89.75
306.121	89.75
306.352	89.75
306.582	81.75
306.812	77.75
307.042	82.75
307.272	78.75
307.502	83.75
307.731	83.75
307.961	97.75
308.191	88.75
308.421	83.75
308.651	78.75
308.881	81.75
309.111	83.75
309.341	96.75
309.571	105.75
309.8	97.75
310.03	88.75
310.26	74.75
310.49	95.75
310.72	79.75
310.949	90.75
311.179	82.75
311.409	78.75
311.639	87.75
311.868	93.75
312.098	84.75
312.328	89.75
312.557	88.75
312.787	83.75
313.017	75.75
313.246	81.75
313.476	100.75
313.706	81.75
313.935	90.75
314.165	87.75
314.394	86.75
314.624	81.75
314.853	83.75
315.083	88.75
315.312	71.75
315.542	87.75
315.771	98.75
316.001	96.75
316.23	76.75
316.46	72.75
316.689	90.75
316.919	72.75
317.148	78.75
317.377	99.75
317.607	92.75
317.836	83.75
318.065	84.75
318.295	98.75
318.524	103.75
318.753	88.75
318.983	96.75
319.212	81.75
319.441	81.75
319.67	86.75
319.9	85.75
320.129	94.75
320.358	82.75
320.587	82.75
320.816	72.75
321.046	88.75
321.275	101.75
321.504	105.75
321.733	103.75
321.962	74.75
322.191	86.75
322.42	96.75
322.649	92.75
322.878	92.75
323.108	88.75
323.337	83.75
323.566	83.75
323.795	78.75
324.024	99.75
324.253	91.75
324.482	88.75
324.71	88.75
324.939	66.75
325.168	83.75
325.397	91.75
325.626	84.75
325.855	74.75
326.084	82.75
326.313	64.75
326.542	88.75
326.77	92.75
326.999	90.75
327.228	84.75
327.457	108.75
327.686	84.75
327.914	78.75
328.143	69.75
328.372	92.75
328.6	69.75
328.829	70.75
329.058	91.75
329.287	76.75
329.515	84.75
329.744	83.75
329.972	90.75
330.201	87.75
330.43	80.75
330.658	84.75
330.887	90.75
331.115	97.75
331.344	75.75
331.572	88.75
331.801	85.75
332.03	86.75
332.258	93.75
332.486	95.75
332.715	74.75
332.943	89.75
333.172	86.75
333.4	73.75
333.629	92.75
333.857	94.75
334.085	97.75
334.314	86.75
334.542	89.75
334.771	95.75
334.999	96.75
335.227	92.75
335.455	94.75
335.684	93.75
335.912	87.75
336.14	84.75
336.369	93.75
336.597	96.75
336.825	95.75
337.053	87.75
337.281	96.75
337.51	68.75
337.738	91.75
337.966	90.75
338.194	82.75
338.422	78.75
338.65	89.75
338.878	83.75
339.106	89.75
339.334	94.75
339.562	102.75
339.79	88.75
340.018	85.75
340.246	78.75
340.474	84.75
340.702	83.75
340.93	92.75
341.158	80.75
341.386	80.75
341.614	81.75
341.842	89.75
342.07	86.75
342.298	73.75
342.526	80.75
342.754	76.75
342.981	83.75
343.209	82.75
343.437	104.75
343.665	84.75
343.893	98.75
344.12	86.75
344.348	90.75
344.576	85.75
344.804	93.75
345.031	93.75
345.259	88.75
345.487	83.75
345.714	84.75
345.942	87.75
346.17	88.75
346.397	96.75
346.625	83.75
346.853	97.75
347.08	97.75
347.308	82.75
347.535	85.75
347.763	88.75
347.99	93.75
348.218	90.75
348.445	78.75
348.673	72.75
348.9	80.75
349.128	90.75
349.355	78.75
349.583	82.75
349.81	84.75
350.037	89.75
350.265	75.75
350.492	78.75
350.72	86.75
350.947	85.75
351.174	82.75
351.402	86.75
351.629	72.75
351.856	73.75
352.083	80.75
352.311	95.75
352.538	91.75
352.765	87.75
352.992	75.75
353.22	74.75
353.447	80.75
353.674	83.75
353.901	103.75
354.128	96.75
354.355	77.75
354.583	95.75
354.81	84.75
355.037	92.75
355.264	93.75
355.491	86.75
355.718	96.75
355.945	92.75
356.172	92.75
356.399	93.75
356.626	77.75
356.853	95.75
357.08	88.75
357.307	94.75
357.534	81.75
357.761	98.75
357.988	85.75
358.215	94.75
358.441	86.75
358.668	84.75
358.895	80.75
359.122	89.75
359.349	87.75
359.576	88.75
359.802	86.75
360.029	83.75
360.256	81.75
360.483	90.75
360.709	84.75
360.936	88.75
361.163	84.75
361.39	88.75
361.616	76.75
361.843	90.75
362.07	91.75
362.296	104.75
362.523	88.75
362.749	103.75
362.976	105.75
363.203	121.75
363.429	92.75
363.656	87.75
363.882	92.75
364.109	113.75
364.335	104.75
364.562	128.75
364.788	96.75
365.015	80.75
365.241	92.75
365.468	91.75
365.694	80.75
365.92	80.75
366.147	90.75
366.373	95.75
366.599	80.75
366.826	85.75
367.052	80.75
367.278	92.75
367.505	84.75
367.731	97.75
367.957	81.75
368.184	86.75
368.41	80.75
368.636	84.75
368.862	80.75
369.089	83.75
369.315	84.75
369.541	87.75
369.767	87.75
369.993	70.75
370.219	74.75
370.445	74.75
370.672	88.75
370.898	96.75
371.124	82.75
371.35	80.75
371.576	69.75
371.802	80.75
372.028	98.75
372.254	89.75
372.48	93.75
372.706	99.75
372.932	90.75
373.158	95.75
373.384	88.75
373.61	97.75
373.835	94.75
374.061	87.75
374.287	83.75
374.513	92.75
374.739	103.75
374.965	84.75
375.191	94.75
375.416	96.75
375.642	97.75
375.868	91.75
376.094	104.75
376.319	94.75
376.545	89.75
376.771	84.75
376.997	86.75
377.222	80.75
377.448	81.75
377.674	66.75
377.899	84.75
378.125	90.75
378.35	94.75
378.576	82.75
378.802	86.75
379.027	80.75
379.253	85.75
379.478	88.75
379.704	86.75
379.929	81.75
380.155	85.75
380.38	91.75
380.606	80.75
380.831	92.75
381.057	98.75
381.282	96.75
381.507	92.75
381.733	74.75
381.958	109.75
382.184	85.75
382.409	94.75
382.634	95.75
382.86	87.75
383.085	86.75
383.31	88.75
383.535	94.75
383.761	75.75
383.986	92.75
384.211	96.75
384.436	88.75
384.662	92.75
384.887	99.75
385.112	86.75
385.337	95.75
385.562	83.75
385.787	82.75
386.013	105.75
386.238	90.75
386.463	101.75
386.688	109.75
386.913	97.75
387.138	82.75
387.363	83.75
387.588	92.75
387.813	102.75
388.038	86.75
388.263	98.75
388.488	101.75
388.713	98.75
388.938	89.75
389.163	86.75
389.387	89.75
389.612	85.75
389.837	76.75
390.062	78.75
390.287	71.75
390.512	78.75
390.736	90.75
390.961	92.75
391.186	71.75
391.411	93.75
391.636	85.75
391.86	80.75
392.085	88.75
392.31	88.75
392.534	96.75
392.759	104.75
392.984	127.75
393.208	193.75
393.433	269.75
393.658	196.75
393.882	124.75
394.107	114.75
394.331	96.75
394.556	105.75
394.78	97.75
395.005	88.75
395.229	102.75
395.454	86.75
395.678	114.75
395.903	118.75
396.127	129.75
396.352	144.75
396.576	136.75
396.801	196.75
397.025	212.75
397.249	156.75
397.474	116.75
397.698	99.75
397.922	102.75
398.147	78.75
398.371	101.75
398.595	98.75
398.82	103.75
399.044	88.75
399.268	96.75
399.492	85.75
399.717	86.75
399.941	76.75
400.165	85.75
400.389	87.75
400.613	77.75
400.837	88.75
401.062	95.75
401.286	80.75
401.51	89.75
401.734	77.75
401.958	88.75
402.182	76.75
402.406	80.75
402.63	80.75
402.854	89.75
403.078	89.75
403.302	88.75
403.526	89.75
403.75	96.75
403.974	90.75
404.198	106.75
404.422	126.75
404.645	129.75
404.869	108.75
405.093	96.75
405.317	79.75
405.541	72.75
405.765	86.75
405.988	98.75
406.212	89.75
406.436	83.75
406.66	89.75
406.883	92.75
407.107	89.75
407.331	96.75
407.555	89.75
407.778	97.75
408.002	100.75
408.226	85.75
408.449	79.75
408.673	97.75
408.896	96.75
409.12	92.75
409.344	100.75
409.567	109.75
409.791	109.75
410.014	97.75
410.238	95.75
410.461	92.75
410.685	91.75
410.908	86.75
411.132	88.75
411.355	79.75
411.578	100.75
411.802	91.75
412.025	86.75
412.249	76.75
412.472	82.75
412.695	94.75
412.919	80.75
413.142	102.75
413.365	88.75
413.589	81.75
413.812	71.75
414.035	76.75
414.258	91.75
414.482	79.75
414.705	102.75
414.928	80.75
415.151	72.75
415.374	62.75
415.597	81.75
415.821	87.75
416.044	100.75
416.267	84.75
416.49	89.75
416.713	89.75
416.936	75.75
417.159	74.75
417.382	88.75
417.605	78.75
417.828	94.75
418.051	81.75
418.274	85.75
418.497	83.75
418.72	86.75
418.943	90.75
419.166	87.75
419.389	90.75
419.611	92.75
419.834	84.75
420.057	86.75
420.28	87.75
420.503	74.75
420.726	88.75
420.948	93.75
421.171	87.75
421.394	87.75
421.617	112.75
421.839	118.75
422.062	124.75
422.285	160.75
422.507	238.75
422.73	319.75
422.953	294.75
423.175	188.75
423.398	153.75
423.621	110.75
423.843	92.75
424.066	92.75
424.288	86.75
424.511	94.75
424.733	87.75
424.956	73.75
425.178	78.75
425.401	89.75
425.623	96.75
425.846	87.75
426.068	72.75
426.291	87.75
426.513	79.75
426.735	82.75
426.958	76.75
427.18	92.75
427.402	100.75
427.625	80.75
427.847	84.75
428.069	104.75
428.292	117.75
428.514	126.75
428.736	113.75
428.958	116.75
429.181	122.75
429.403	105.75
429.625	89.75
429.847	100.75
430.069	160.75
430.292	170.75
430.514	160.75
430.736	131.75
430.958	109.75
431.18	98.75
431.402	75.75
431.624	104.75
431.846	110.75
432.068	122.75
432.29	93.75
432.512	93.75
432.734	94.75
432.956	83.75
433.178	90.75
433.4	69.75
433.622	84.75
433.844	70.75
434.066	96.75
434.287	76.75
434.509	91.75
434.731	73.75
434.953	89.75
435.175	88.75
435.397	89.75
435.618	80.75
435.84	90.75
436.062	91.75
436.284	75.75
436.505	80.75
436.727	85.75
436.949	65.75
437.17	88.75
437.392	86.75
437.614	80.75
437.835	70.75
438.057	79.75
438.278	82.75
438.5	84.75
438.721	77.75
438.943	66.75
439.165	95.75
439.386	90.75
439.608	94.75
439.829	92.75
440.05	82.75
440.272	95.75
440.493	91.75
440.715	74.75
440.936	68.75
441.158	82.75
441.379	88.75
441.6	86.75
441.822	84.75
442.043	98.75
442.264	101.75
442.486	131.75
442.707	153.75
442.928	124.75
443.149	99.75
443.371	143.75
443.592	228.75
443.813	208.75
444.034	122.75
444.255	87.75
444.476	95.75
444.698	106.75
444.919	102.75
445.14	170.75
445.361	194.75
445.582	285.75
445.803	231.75
446.024	144.75
446.245	110.75
446.466	86.75
446.687	91.75
446.908	80.75
447.129	76.75
447.35	79.75
447.571	98.75
447.792	72.75
448.013	69.75
448.234	86.75
448.455	81.75
448.675	86.75
448.896	88.75
449.117	90.75
449.338	82.75
449.559	86.75
449.779	75.75
450	96.75
450.221	79.75
450.442	78.75
450.662	87.75
450.883	84.75
451.104	94.75
451.324	78.75
451.545	91.75
451.766	80.75
451.986	88.75
452.207	81.75
452.428	90.75
452.648	103.75
452.869	90.75
453.089	86.75
453.31	90.75
453.53	100.75
453.751	82.75
453.971	79.75
454.192	73.75
454.412	74.75
454.633	93.75
454.853	76.75
455.073	96.75
455.294	90.75
455.514	75.75
455.734	78.75
455.955	94.75
456.175	87.75
456.395	80.75
456.616	78.75
456.836	83.75
457.056	76.75
457.276	81.75
457.497	88.75
457.717	95.75
457.937	108.75
458.157	116.75
458.377	116.75
458.598	106.75
458.818	117.75
459.038	88.75
459.258	88.75
459.478	90.75
459.698	93.75
459.918	82.75
460.138	80.75
460.358	96.75
460.578	105.75
460.798	110.75
461.018	123.75
461.238	103.75
461.458	105.75
461.678	90.75
461.898	85.75
462.118	81.75
462.338	84.75
462.558	90.75
462.777	93.75
462.997	74.75
463.217	82.75
463.437	73.75
463.657	85.75
463.876	70.75
464.096	86.75
464.316	77.75
464.536	73.75
464.755	67.75
464.975	103.75
465.195	74.75
465.414	94.75
465.634	90.75
465.854	91.75
466.073	86.75
466.293	89.75
466.512	94.75
466.732	98.75
466.951	89.75
467.171	76.75
467.391	85.75
467.61	93.75
467.829	73.75
468.049	88.75
468.268	99.75
468.488	90.75
468.707	88.75
468.927	81.75
469.146	85.75
469.365	95.75
469.585	75.75
469.804	90.75
470.023	77.75
470.243	74.75
470.462	78.75
470.681	74.75
470.901	84.75
471.12	96.75
471.339	78.75
471.558	82.75
471.777	77.75
471.997	88.75
472.216	73.75
472.435	80.75
472.654	93.75
472.873	88.75
473.092	78.75
473.311	84.75
473.53	81.75
473.749	80.75
473.968	96.75
474.187	97.75
474.406	93.75
474.625	77.75
474.844	83.75
475.063	93.75
475.282	84.75
475.501	92.75
475.72	80.75
475.939	96.75
476.158	81.75
476.377	90.75
476.596	86.75
476.814	78.75
477.033	71.75
477.252	81.75
477.471	89.75
477.69	84.75
477.908	86.75
478.127	104.75
478.346	85.75
478.564	90.75
478.783	86.75
479.002	83.75
479.22	83.75
479.439	87.75
479.658	86.75
479.876	82.75
480.095	83.75
480.313	75.75
480.532	81.75
480.751	85.75
480.969	69.75
481.188	82.75
481.406	90.75
481.624	93.75
481.843	99.75
482.061	84.75
482.28	82.75
482.498	93.75
482.717	92.75
482.935	81.75
483.153	87.75
483.372	84.75
483.59	86.75
483.808	83.75
484.027	87.75
484.245	77.75
484.463	97.75
484.681	90.75
484.9	89.75
485.118	87.75
485.336	88.75
485.554	93.75
485.772	80.75
485.99	88.75
486.209	80.75
486.427	87.75
486.645	72.75
486.863	74.75
487.081	85.75
487.299	98.75
487.517	86.75
487.735	97.75
487.953	166.75
488.171	144.75
488.389	100.75
488.607	81.75
488.825	82.75
489.043	93.75
489.261	83.75
489.479	85.75
489.696	91.75
489.914	80.75
490.132	85.75
490.35	94.75
490.568	82.75
490.786	87.75
491.003	77.75
491.221	91.75
491.439	94.75
491.657	106.75
491.874	76.75
492.092	86.75
492.31	95.75
492.527	96.75
492.745	87.75
492.963	97.75
493.18	86.75
493.398	90.75
493.615	96.75
493.833	81.75
494.05	82.75
494.268	83.75
494.485	84.75
494.703	76.75
494.92	77.75
495.138	86.75
495.355	85.75
495.573	92.75
495.79	88.75
496.008	88.75
496.225	82.75
496.442	92.75
496.66	93.75
496.877	78.75
497.094	95.75
497.312	78.75
497.529	87.75
497.746	84.75
497.963	98.75
498.181	93.75
498.398	102.75
498.615	69.75
498.832	90.75
499.049	98.75
499.267	99.75
499.484	83.75
499.701	90.75
499.918	101.75
500.135	103.75
500.352	75.75
500.569	68.75
500.786	89.75
501.003	90.75
501.22	87.75
501.437	90.75
501.654	102.75
501.871	84.75
502.088	97.75
502.305	93.75
502.522	88.75
502.739	90.75
502.956	86.75
503.172	82.75
503.389	95.75
503.606	94.75
503.823	88.75
504.04	109.75
504.256	128.75
504.473	120.75
504.69	94.75
504.907	87.75
505.123	83.75
505.34	86.75
505.557	85.75
505.773	89.75
505.99	101.75
506.207	97.75
506.423	80.75
506.64	90.75
506.856	90.75
507.073	86.75
507.289	79.75
507.506	74.75
507.722	85.75
507.939	79.75
508.155	94.75
508.372	76.75
508.588	79.75
508.805	87.75
509.021	86.75
509.238	87.75
509.454	77.75
509.67	88.75
509.887	92.75
510.103	83.75
510.319	92.75
510.536	101.75
510.752	76.75
510.968	76.75
511.184	103.75
511.401	81.75
511.617	85.75
511.833	101.75
512.049	93.75
512.265	105.75
512.481	91.75
512.698	94.75
512.914	100.75
513.13	87.75
513.346	92.75
513.562	71.75
513.778	90.75
513.994	84.75
514.21	92.75
514.426	100.75
514.642	75.75
514.858	93.75
515.074	90.75
515.29	97.75
515.506	83.75
515.721	95.75
515.937	102.75
516.153	92.75
516.369	93.75
516.585	78.75
516.801	97.75
517.016	93.75
517.232	98.75
517.448	103.75
517.664	99.75
517.879	88.75
518.095	92.75
518.311	85.75
