Data from 237_3_HRD10591_00028.txt Node
Date: Mon Jan 19 14:13:08 EST 2026
User: Yrep
Spectrometer: HR+D1059
Trigger mode: 1
Integration Time (sec): 1.000000E-1
Scans to average: 1
Electric dark correction enabled: true
Nonlinearity correction enabled: false
Boxcar width: 0
XAxis mode: Wavelengths
Number of Pixels in Spectrum: 2048
>>>>>Begin Spectral Data<<<<<
223.165	-11.62
223.4	-11.62
223.635	-11.62
223.869	-7.62
224.104	-18.62
224.338	-20.62
224.573	-7.62
224.808	-8.62
225.042	-13.62
225.277	-13.62
225.511	-1.62
225.746	-4.62
225.98	13.38
226.215	22.38
226.449	6.38
226.683	19.38
226.918	16.38
227.152	30.38
227.387	26.38
227.621	38.38
227.856	34.38
228.09	35.38
228.324	36.38
228.559	49.38
228.793	43.38
229.027	62.38
229.262	57.38
229.496	54.38
229.73	69.38
229.964	52.38
230.199	55.38
230.433	58.38
230.667	71.38
230.901	68.38
231.136	66.38
231.37	69.38
231.604	80.38
231.838	75.38
232.072	62.38
232.306	77.38
232.541	69.38
232.775	69.38
233.009	77.38
233.243	85.38
233.477	68.38
233.711	71.38
233.945	87.38
234.179	78.38
234.413	72.38
234.647	79.38
234.881	68.38
235.115	68.38
235.349	66.38
235.583	67.38
235.817	81.38
236.051	60.38
236.285	80.38
236.519	65.38
236.753	93.38
236.987	79.38
237.221	71.38
237.455	70.38
237.689	79.38
237.922	83.38
238.156	64.38
238.39	82.38
238.624	66.38
238.858	79.38
239.091	81.38
239.325	70.38
239.559	71.38
239.793	70.38
240.027	82.38
240.26	79.38
240.494	63.38
240.728	80.38
240.961	67.38
241.195	69.38
241.429	72.38
241.662	67.38
241.896	70.38
242.13	69.38
242.363	67.38
242.597	84.38
242.83	78.38
243.064	71.38
243.298	69.38
243.531	68.38
243.765	77.38
243.998	80.38
244.232	87.38
244.465	85.38
244.699	66.38
244.932	68.38
245.166	75.38
245.399	79.38
245.633	76.38
245.866	69.38
246.099	72.38
246.333	99.38
246.566	73.38
246.8	57.38
247.033	59.38
247.266	66.38
247.5	64.38
247.733	74.38
247.966	77.38
248.2	62.38
248.433	63.38
248.666	63.38
248.899	75.38
249.133	75.38
249.366	77.38
249.599	73.38
249.832	72.38
250.066	76.38
250.299	80.38
250.532	83.38
250.765	65.38
250.998	74.38
251.231	85.38
251.465	75.38
251.698	61.38
251.931	81.38
252.164	90.38
252.397	81.38
252.63	73.38
252.863	75.38
253.096	81.38
253.329	83.38
253.562	76.38
253.795	75.38
254.028	73.38
254.261	79.38
254.494	73.38
254.727	89.38
254.96	82.38
255.193	92.38
255.426	84.38
255.659	70.38
255.892	61.38
256.124	75.38
256.357	62.38
256.59	91.38
256.823	83.38
257.056	89.38
257.289	84.38
257.521	81.38
257.754	72.38
257.987	84.38
258.22	90.38
258.452	68.38
258.685	74.38
258.918	78.38
259.151	72.38
259.383	96.38
259.616	78.38
259.849	75.38
260.081	67.38
260.314	70.38
260.547	92.38
260.779	75.38
261.012	89.38
261.244	81.38
261.477	83.38
261.71	75.38
261.942	91.38
262.175	77.38
262.407	70.38
262.64	68.38
262.872	81.38
263.105	83.38
263.337	90.38
263.57	70.38
263.802	72.38
264.035	77.38
264.267	75.38
264.499	83.38
264.732	83.38
264.964	79.38
265.197	70.38
265.429	70.38
265.661	82.38
265.894	90.38
266.126	84.38
266.358	80.38
266.591	76.38
266.823	72.38
267.055	72.38
267.287	63.38
267.52	75.38
267.752	71.38
267.984	74.38
268.216	79.38
268.448	75.38
268.681	63.38
268.913	75.38
269.145	79.38
269.377	72.38
269.609	76.38
269.841	95.38
270.073	79.38
270.306	78.38
270.538	80.38
270.77	81.38
271.002	63.38
271.234	100.38
271.466	77.38
271.698	84.38
271.93	85.38
272.162	80.38
272.394	71.38
272.626	56.38
272.858	84.38
273.09	71.38
273.322	75.38
273.553	67.38
273.785	85.38
274.017	83.38
274.249	78.38
274.481	93.38
274.713	86.38
274.945	54.38
275.176	78.38
275.408	82.38
275.64	76.38
275.872	72.38
276.104	76.38
276.335	93.38
276.567	69.38
276.799	63.38
277.031	62.38
277.262	85.38
277.494	91.38
277.726	68.38
277.957	78.38
278.189	61.38
278.421	71.38
278.652	69.38
278.884	86.38
279.115	83.38
279.347	85.38
279.579	85.38
279.81	80.38
280.042	76.38
280.273	81.38
280.505	92.38
280.736	69.38
280.968	75.38
281.199	81.38
281.431	73.38
281.662	78.38
281.894	88.38
282.125	87.38
282.356	71.38
282.588	73.38
282.819	71.38
283.051	82.38
283.282	83.38
283.513	68.38
283.745	77.38
283.976	77.38
284.207	80.38
284.439	91.38
284.67	87.38
284.901	80.38
285.132	80.38
285.364	92.38
285.595	82.38
285.826	85.38
286.057	63.38
286.288	68.38
286.52	85.38
286.751	85.38
286.982	82.38
287.213	85.38
287.444	87.38
287.675	91.38
287.906	92.38
288.138	93.38
288.369	89.38
288.6	78.38
288.831	86.38
289.062	79.38
289.293	77.38
289.524	90.38
289.755	83.38
289.986	78.38
290.217	83.38
290.448	91.38
290.679	72.38
290.91	77.38
291.141	79.38
291.371	86.38
291.602	83.38
291.833	77.38
292.064	91.38
292.295	63.38
292.526	68.38
292.757	75.38
292.987	84.38
293.218	71.38
293.449	90.38
293.68	76.38
293.91	87.38
294.141	81.38
294.372	67.38
294.603	79.38
294.833	83.38
295.064	85.38
295.295	83.38
295.525	82.38
295.756	81.38
295.987	59.38
296.217	93.38
296.448	75.38
296.679	78.38
296.909	107.38
297.14	88.38
297.37	75.38
297.601	86.38
297.831	76.38
298.062	73.38
298.292	85.38
298.523	86.38
298.753	80.38
298.984	87.38
299.214	81.38
299.445	77.38
299.675	83.38
299.905	70.38
300.136	75.38
300.366	83.38
300.597	79.38
300.827	87.38
301.057	94.38
301.288	81.38
301.518	88.38
301.748	88.38
301.979	92.38
302.209	88.38
302.439	83.38
302.669	85.38
302.9	86.38
303.13	82.38
303.36	84.38
303.59	76.38
303.82	85.38
304.051	75.38
304.281	92.38
304.511	83.38
304.741	76.38
304.971	63.38
305.201	86.38
305.431	85.38
305.661	84.38
305.891	81.38
306.121	68.38
306.352	87.38
306.582	65.38
306.812	83.38
307.042	87.38
307.272	83.38
307.502	91.38
307.731	93.38
307.961	99.38
308.191	86.38
308.421	93.38
308.651	93.38
308.881	86.38
309.111	97.38
309.341	95.38
309.571	90.38
309.8	79.38
310.03	77.38
310.26	85.38
310.49	95.38
310.72	77.38
310.949	77.38
311.179	72.38
311.409	69.38
311.639	69.38
311.868	86.38
312.098	83.38
312.328	100.38
312.557	93.38
312.787	78.38
313.017	85.38
313.246	90.38
313.476	74.38
313.706	73.38
313.935	82.38
314.165	87.38
314.394	101.38
314.624	73.38
314.853	70.38
315.083	74.38
315.312	88.38
315.542	84.38
315.771	84.38
316.001	70.38
316.23	96.38
316.46	84.38
316.689	87.38
316.919	82.38
317.148	90.38
317.377	97.38
317.607	93.38
317.836	90.38
318.065	91.38
318.295	91.38
318.524	83.38
318.753	87.38
318.983	83.38
319.212	76.38
319.441	92.38
319.67	87.38
319.9	82.38
320.129	87.38
320.358	86.38
320.587	89.38
320.816	91.38
321.046	79.38
321.275	82.38
321.504	70.38
321.733	97.38
321.962	99.38
322.191	82.38
322.42	69.38
322.649	79.38
322.878	85.38
323.108	95.38
323.337	82.38
323.566	81.38
323.795	82.38
324.024	70.38
324.253	74.38
324.482	83.38
324.71	79.38
324.939	86.38
325.168	82.38
325.397	80.38
325.626	83.38
325.855	84.38
326.084	78.38
326.313	81.38
326.542	77.38
326.77	93.38
326.999	81.38
327.228	89.38
327.457	83.38
327.686	85.38
327.914	79.38
328.143	59.38
328.372	81.38
328.6	81.38
328.829	91.38
329.058	73.38
329.287	76.38
329.515	81.38
329.744	72.38
329.972	79.38
330.201	79.38
330.43	99.38
330.658	95.38
330.887	91.38
331.115	80.38
331.344	83.38
331.572	73.38
331.801	80.38
332.03	76.38
332.258	74.38
332.486	79.38
332.715	82.38
332.943	72.38
333.172	94.38
333.4	72.38
333.629	88.38
333.857	82.38
334.085	90.38
334.314	85.38
334.542	82.38
334.771	86.38
334.999	92.38
335.227	96.38
335.455	93.38
335.684	94.38
335.912	92.38
336.14	83.38
336.369	87.38
336.597	81.38
336.825	83.38
337.053	79.38
337.281	88.38
337.51	89.38
337.738	92.38
337.966	81.38
338.194	79.38
338.422	87.38
338.65	81.38
338.878	89.38
339.106	85.38
339.334	82.38
339.562	92.38
339.79	92.38
340.018	93.38
340.246	86.38
340.474	85.38
340.702	82.38
340.93	87.38
341.158	70.38
341.386	92.38
341.614	93.38
341.842	76.38
342.07	90.38
342.298	78.38
342.526	71.38
342.754	79.38
342.981	69.38
343.209	80.38
343.437	86.38
343.665	81.38
343.893	87.38
344.12	100.38
344.348	81.38
344.576	91.38
344.804	93.38
345.031	85.38
345.259	80.38
345.487	93.38
345.714	79.38
345.942	69.38
346.17	84.38
346.397	91.38
346.625	79.38
346.853	83.38
347.08	89.38
347.308	93.38
347.535	92.38
347.763	96.38
347.99	93.38
348.218	70.38
348.445	83.38
348.673	73.38
348.9	94.38
349.128	84.38
349.355	93.38
349.583	70.38
349.81	75.38
350.037	71.38
350.265	73.38
350.492	77.38
350.72	74.38
350.947	92.38
351.174	97.38
351.402	90.38
351.629	78.38
351.856	71.38
352.083	78.38
352.311	82.38
352.538	62.38
352.765	87.38
352.992	96.38
353.22	71.38
353.447	81.38
353.674	77.38
353.901	92.38
354.128	77.38
354.355	69.38
354.583	70.38
354.81	77.38
355.037	85.38
355.264	89.38
355.491	87.38
355.718	93.38
355.945	89.38
356.172	81.38
356.399	86.38
356.626	88.38
356.853	88.38
357.08	99.38
357.307	93.38
357.534	83.38
357.761	87.38
357.988	98.38
358.215	94.38
358.441	106.38
358.668	86.38
358.895	89.38
359.122	84.38
359.349	79.38
359.576	85.38
359.802	92.38
360.029	85.38
360.256	96.38
360.483	78.38
360.709	82.38
360.936	89.38
361.163	94.38
361.39	78.38
361.616	100.38
361.843	99.38
362.07	103.38
362.296	94.38
362.523	98.38
362.749	115.38
362.976	112.38
363.203	109.38
363.429	105.38
363.656	99.38
363.882	99.38
364.109	116.38
364.335	134.38
364.562	132.38
364.788	98.38
365.015	100.38
365.241	91.38
365.468	95.38
365.694	89.38
365.92	75.38
366.147	87.38
366.373	79.38
366.599	78.38
366.826	78.38
367.052	75.38
367.278	78.38
367.505	94.38
367.731	99.38
367.957	84.38
368.184	79.38
368.41	79.38
368.636	81.38
368.862	82.38
369.089	85.38
369.315	88.38
369.541	81.38
369.767	83.38
369.993	83.38
370.219	91.38
370.445	85.38
370.672	92.38
370.898	86.38
371.124	80.38
371.35	80.38
371.576	92.38
371.802	88.38
372.028	109.38
372.254	93.38
372.48	78.38
372.706	79.38
372.932	82.38
373.158	100.38
373.384	91.38
373.61	122.38
373.835	111.38
374.061	90.38
374.287	95.38
374.513	97.38
374.739	101.38
374.965	83.38
375.191	91.38
375.416	83.38
375.642	91.38
375.868	97.38
376.094	94.38
376.319	99.38
376.545	84.38
376.771	74.38
376.997	88.38
377.222	85.38
377.448	88.38
377.674	75.38
377.899	91.38
378.125	96.38
378.35	72.38
378.576	79.38
378.802	86.38
379.027	83.38
379.253	86.38
379.478	84.38
379.704	91.38
379.929	89.38
380.155	95.38
380.38	75.38
380.606	81.38
380.831	83.38
381.057	97.38
381.282	85.38
381.507	85.38
381.733	108.38
381.958	105.38
382.184	108.38
382.409	97.38
382.634	100.38
382.86	103.38
383.085	91.38
383.31	82.38
383.535	92.38
383.761	85.38
383.986	86.38
384.211	91.38
384.436	69.38
384.662	90.38
384.887	85.38
385.112	87.38
385.337	94.38
385.562	77.38
385.787	77.38
386.013	89.38
386.238	83.38
386.463	76.38
386.688	97.38
386.913	97.38
387.138	91.38
387.363	96.38
387.588	89.38
387.813	102.38
388.038	86.38
388.263	94.38
388.488	99.38
388.713	85.38
388.938	93.38
389.163	93.38
389.387	88.38
389.612	81.38
389.837	79.38
390.062	75.38
390.287	90.38
390.512	102.38
390.736	89.38
390.961	89.38
391.186	99.38
391.411	95.38
391.636	94.38
391.86	99.38
392.085	98.38
392.31	101.38
392.534	114.38
392.759	114.38
392.984	156.38
393.208	255.38
393.433	349.38
393.658	268.38
393.882	143.38
394.107	126.38
394.331	118.38
394.556	138.38
394.78	110.38
395.005	91.38
395.229	81.38
395.454	108.38
395.678	88.38
395.903	127.38
396.127	145.38
396.352	168.38
396.576	172.38
396.801	245.38
397.025	291.38
397.249	181.38
397.474	117.38
397.698	119.38
397.922	85.38
398.147	97.38
398.371	99.38
398.595	91.38
398.82	102.38
399.044	85.38
399.268	69.38
399.492	87.38
399.717	91.38
399.941	93.38
400.165	89.38
400.389	82.38
400.613	81.38
400.837	76.38
401.062	86.38
401.286	94.38
401.51	81.38
401.734	93.38
401.958	83.38
402.182	99.38
402.406	101.38
402.63	78.38
402.854	93.38
403.078	90.38
403.302	101.38
403.526	91.38
403.75	99.38
403.974	113.38
404.198	133.38
404.422	190.38
404.645	211.38
404.869	181.38
405.093	126.38
405.317	94.38
405.541	92.38
405.765	98.38
405.988	81.38
406.212	85.38
406.436	93.38
406.66	92.38
406.883	85.38
407.107	86.38
407.331	87.38
407.555	93.38
407.778	102.38
408.002	119.38
408.226	77.38
408.449	81.38
408.673	91.38
408.896	79.38
409.12	99.38
409.344	107.38
409.567	85.38
409.791	109.38
410.014	95.38
410.238	69.38
410.461	83.38
410.685	103.38
410.908	89.38
411.132	90.38
411.355	93.38
411.578	87.38
411.802	99.38
412.025	81.38
412.249	89.38
412.472	85.38
412.695	92.38
412.919	98.38
413.142	85.38
413.365	93.38
413.589	85.38
413.812	74.38
414.035	84.38
414.258	75.38
414.482	100.38
414.705	73.38
414.928	89.38
415.151	80.38
415.374	93.38
415.597	92.38
415.821	82.38
416.044	95.38
416.267	83.38
416.49	86.38
416.713	80.38
416.936	84.38
417.159	91.38
417.382	100.38
417.605	97.38
417.828	107.38
418.051	91.38
418.274	88.38
418.497	79.38
418.72	85.38
418.943	73.38
419.166	89.38
419.389	101.38
419.611	93.38
419.834	101.38
420.057	87.38
420.28	86.38
420.503	102.38
420.726	102.38
420.948	90.38
421.171	91.38
421.394	117.38
421.617	114.38
421.839	144.38
422.062	146.38
422.285	225.38
422.507	447.38
422.73	629.38
422.953	573.38
423.175	325.38
423.398	201.38
423.621	139.38
423.843	116.38
424.066	128.38
424.288	98.38
424.511	100.38
424.733	91.38
424.956	98.38
425.178	84.38
425.401	92.38
425.623	104.38
425.846	97.38
426.068	97.38
426.291	97.38
426.513	101.38
426.735	76.38
426.958	81.38
427.18	95.38
427.402	91.38
427.625	99.38
427.847	108.38
428.069	103.38
428.292	146.38
428.514	176.38
428.736	136.38
428.958	162.38
429.181	163.38
429.403	80.38
429.625	102.38
429.847	158.38
430.069	212.38
430.292	277.38
430.514	236.38
430.736	171.38
430.958	177.38
431.18	122.38
431.402	89.38
431.624	122.38
431.846	144.38
432.068	166.38
432.29	100.38
432.512	97.38
432.734	106.38
432.956	97.38
433.178	75.38
433.4	72.38
433.622	84.38
433.844	94.38
434.066	85.38
434.287	80.38
434.509	69.38
434.731	74.38
434.953	72.38
435.175	90.38
435.397	82.38
435.618	82.38
435.84	91.38
436.062	86.38
436.284	95.38
436.505	80.38
436.727	83.38
436.949	81.38
437.17	82.38
437.392	85.38
437.614	87.38
437.835	101.38
438.057	88.38
438.278	93.38
438.5	97.38
438.721	75.38
438.943	77.38
439.165	91.38
439.386	97.38
439.608	86.38
439.829	76.38
440.05	77.38
440.272	80.38
440.493	82.38
440.715	81.38
440.936	99.38
441.158	101.38
441.379	91.38
441.6	100.38
441.822	92.38
442.043	92.38
442.264	109.38
442.486	169.38
442.707	213.38
442.928	157.38
443.149	126.38
443.371	190.38
443.592	369.38
443.813	299.38
444.034	131.38
444.255	86.38
444.476	86.38
444.698	86.38
444.919	100.38
445.14	220.38
445.361	287.38
445.582	451.38
445.803	355.38
446.024	149.38
446.245	99.38
446.466	97.38
446.687	94.38
446.908	80.38
447.129	68.38
447.35	82.38
447.571	97.38
447.792	79.38
448.013	59.38
448.234	86.38
448.455	94.38
448.675	80.38
448.896	76.38
449.117	85.38
449.338	88.38
449.559	89.38
449.779	79.38
450	82.38
450.221	77.38
450.442	89.38
450.662	78.38
450.883	81.38
451.104	98.38
451.324	92.38
451.545	97.38
451.766	89.38
451.986	80.38
452.207	94.38
452.428	97.38
452.648	85.38
452.869	100.38
453.089	88.38
453.31	77.38
453.53	99.38
453.751	93.38
453.971	94.38
454.192	87.38
454.412	84.38
454.633	89.38
454.853	83.38
455.073	89.38
455.294	77.38
455.514	87.38
455.734	91.38
455.955	89.38
456.175	84.38
456.395	85.38
456.616	92.38
456.836	95.38
457.056	69.38
457.276	80.38
457.497	93.38
457.717	91.38
457.937	116.38
458.157	132.38
458.377	126.38
458.598	135.38
458.818	132.38
459.038	110.38
459.258	96.38
459.478	83.38
459.698	97.38
459.918	84.38
460.138	91.38
460.358	81.38
460.578	99.38
460.798	156.38
461.018	145.38
461.238	98.38
461.458	82.38
461.678	70.38
461.898	86.38
462.118	85.38
462.338	101.38
462.558	82.38
462.777	91.38
462.997	92.38
463.217	87.38
463.437	76.38
463.657	76.38
463.876	76.38
464.096	101.38
464.316	76.38
464.536	69.38
464.755	88.38
464.975	79.38
465.195	80.38
465.414	79.38
465.634	73.38
465.854	78.38
466.073	77.38
466.293	86.38
466.512	75.38
466.732	79.38
466.951	80.38
467.171	74.38
467.391	74.38
467.61	77.38
467.829	79.38
468.049	87.38
468.268	84.38
468.488	86.38
468.707	90.38
468.927	92.38
469.146	90.38
469.365	93.38
469.585	85.38
469.804	74.38
470.023	83.38
470.243	85.38
470.462	90.38
470.681	79.38
470.901	89.38
471.12	79.38
471.339	77.38
471.558	82.38
471.777	87.38
471.997	91.38
472.216	65.38
472.435	72.38
472.654	91.38
472.873	96.38
473.092	94.38
473.311	77.38
473.53	96.38
473.749	90.38
473.968	78.38
474.187	93.38
474.406	91.38
474.625	83.38
474.844	84.38
475.063	94.38
475.282	91.38
475.501	83.38
475.72	93.38
475.939	93.38
476.158	82.38
476.377	91.38
476.596	86.38
476.814	77.38
477.033	98.38
477.252	73.38
477.471	81.38
477.69	80.38
477.908	87.38
478.127	84.38
478.346	99.38
478.564	92.38
478.783	84.38
479.002	81.38
479.22	81.38
479.439	85.38
479.658	87.38
479.876	75.38
480.095	88.38
480.313	89.38
480.532	82.38
480.751	77.38
480.969	84.38
481.188	81.38
481.406	93.38
481.624	97.38
481.843	96.38
482.061	71.38
482.28	83.38
482.498	71.38
482.717	79.38
482.935	107.38
483.153	85.38
483.372	82.38
483.59	89.38
483.808	85.38
484.027	100.38
484.245	98.38
484.463	94.38
484.681	93.38
484.9	79.38
485.118	86.38
485.336	92.38
485.554	102.38
485.772	90.38
485.99	82.38
486.209	95.38
486.427	81.38
486.645	82.38
486.863	98.38
487.081	86.38
487.299	108.38
487.517	117.38
487.735	122.38
487.953	186.38
488.171	188.38
488.389	103.38
488.607	92.38
488.825	93.38
489.043	89.38
489.261	89.38
489.479	102.38
489.696	97.38
489.914	77.38
490.132	91.38
490.35	93.38
490.568	93.38
490.786	93.38
491.003	79.38
491.221	83.38
491.439	95.38
491.657	100.38
491.874	96.38
492.092	88.38
492.31	92.38
492.527	83.38
492.745	113.38
492.963	87.38
493.18	91.38
493.398	89.38
493.615	101.38
493.833	86.38
494.05	78.38
494.268	84.38
494.485	92.38
494.703	86.38
494.92	77.38
495.138	89.38
495.355	86.38
495.573	93.38
495.79	101.38
496.008	96.38
496.225	89.38
496.442	75.38
496.66	109.38
496.877	108.38
497.094	82.38
497.312	97.38
497.529	86.38
497.746	98.38
497.963	82.38
498.181	98.38
498.398	117.38
498.615	82.38
498.832	89.38
499.049	75.38
499.267	93.38
499.484	78.38
499.701	91.38
499.918	81.38
500.135	90.38
500.352	84.38
500.569	99.38
500.786	87.38
501.003	90.38
501.22	94.38
501.437	85.38
501.654	78.38
501.871	93.38
502.088	77.38
502.305	89.38
502.522	86.38
502.739	81.38
502.956	81.38
503.172	81.38
503.389	92.38
503.606	90.38
503.823	98.38
504.04	110.38
504.256	132.38
504.473	139.38
504.69	103.38
504.907	115.38
505.123	93.38
505.34	76.38
505.557	82.38
505.773	92.38
505.99	80.38
506.207	93.38
506.423	84.38
506.64	91.38
506.856	81.38
507.073	71.38
507.289	90.38
507.506	94.38
507.722	79.38
507.939	96.38
508.155	93.38
508.372	98.38
508.588	83.38
508.805	92.38
509.021	94.38
509.238	98.38
509.454	81.38
509.67	79.38
509.887	85.38
510.103	82.38
510.319	89.38
510.536	87.38
510.752	95.38
510.968	93.38
511.184	93.38
511.401	82.38
511.617	96.38
511.833	85.38
512.049	88.38
512.265	82.38
512.481	81.38
512.698	89.38
512.914	84.38
513.13	77.38
513.346	78.38
513.562	86.38
513.778	90.38
513.994	83.38
514.21	81.38
514.426	78.38
514.642	89.38
514.858	91.38
515.074	91.38
515.29	97.38
515.506	94.38
515.721	82.38
515.937	78.38
516.153	78.38
516.369	94.38
516.585	97.38
516.801	98.38
517.016	91.38
517.232	78.38
517.448	99.38
517.664	100.38
517.879	91.38
518.095	92.38
