Data from 237_3_HRD10591_00033.txt Node
Date: Mon Jan 19 14:13:11 EST 2026
User: Yrep
Spectrometer: HR+D1059
Trigger mode: 1
Integration Time (sec): 1.000000E-1
Scans to average: 1
Electric dark correction enabled: true
Nonlinearity correction enabled: false
Boxcar width: 0
XAxis mode: Wavelengths
Number of Pixels in Spectrum: 2048
>>>>>Begin Spectral Data<<<<<
223.165	-21.94
223.4	-21.94
223.635	-21.94
223.869	-11.94
224.104	-11.94
224.338	-16.94
224.573	-9.94
224.808	-2.94
225.042	-4.94
225.277	-16.94
225.511	-3.94
225.746	8.06
225.98	-3.94
226.215	20.06
226.449	10.06
226.683	-2.94
226.918	35.06
227.152	35.06
227.387	37.06
227.621	36.06
227.856	30.06
228.09	47.06
228.324	35.06
228.559	49.06
228.793	46.06
229.027	58.06
229.262	65.06
229.496	64.06
229.73	78.06
229.964	71.06
230.199	82.06
230.433	61.06
230.667	74.06
230.901	74.06
231.136	81.06
231.37	81.06
231.604	83.06
231.838	68.06
232.072	78.06
232.306	78.06
232.541	79.06
232.775	76.06
233.009	82.06
233.243	75.06
233.477	75.06
233.711	86.06
233.945	80.06
234.179	61.06
234.413	78.06
234.647	89.06
234.881	79.06
235.115	72.06
235.349	80.06
235.583	71.06
235.817	79.06
236.051	74.06
236.285	80.06
236.519	76.06
236.753	72.06
236.987	63.06
237.221	70.06
237.455	71.06
237.689	71.06
237.922	69.06
238.156	75.06
238.39	75.06
238.624	77.06
238.858	82.06
239.091	70.06
239.325	77.06
239.559	69.06
239.793	81.06
240.027	84.06
240.26	75.06
240.494	66.06
240.728	66.06
240.961	83.06
241.195	71.06
241.429	70.06
241.662	86.06
241.896	70.06
242.13	62.06
242.363	76.06
242.597	64.06
242.83	59.06
243.064	66.06
243.298	69.06
243.531	75.06
243.765	75.06
243.998	90.06
244.232	72.06
244.465	72.06
244.699	78.06
244.932	64.06
245.166	73.06
245.399	69.06
245.633	73.06
245.866	86.06
246.099	66.06
246.333	68.06
246.566	75.06
246.8	77.06
247.033	68.06
247.266	89.06
247.5	71.06
247.733	76.06
247.966	72.06
248.2	74.06
248.433	96.06
248.666	79.06
248.899	72.06
249.133	84.06
249.366	81.06
249.599	72.06
249.832	81.06
250.066	66.06
250.299	65.06
250.532	70.06
250.765	70.06
250.998	76.06
251.231	81.06
251.465	86.06
251.698	79.06
251.931	85.06
252.164	60.06
252.397	78.06
252.63	77.06
252.863	79.06
253.096	64.06
253.329	72.06
253.562	87.06
253.795	79.06
254.028	70.06
254.261	74.06
254.494	73.06
254.727	81.06
254.96	87.06
255.193	70.06
255.426	71.06
255.659	72.06
255.892	70.06
256.124	73.06
256.357	70.06
256.59	54.06
256.823	73.06
257.056	75.06
257.289	68.06
257.521	78.06
257.754	78.06
257.987	92.06
258.22	83.06
258.452	88.06
258.685	68.06
258.918	70.06
259.151	80.06
259.383	78.06
259.616	91.06
259.849	72.06
260.081	72.06
260.314	84.06
260.547	59.06
260.779	75.06
261.012	70.06
261.244	74.06
261.477	90.06
261.71	73.06
261.942	61.06
262.175	58.06
262.407	78.06
262.64	63.06
262.872	59.06
263.105	67.06
263.337	85.06
263.57	82.06
263.802	86.06
264.035	68.06
264.267	79.06
264.499	86.06
264.732	83.06
264.964	81.06
265.197	69.06
265.429	82.06
265.661	76.06
265.894	98.06
266.126	94.06
266.358	75.06
266.591	85.06
266.823	77.06
267.055	85.06
267.287	72.06
267.52	72.06
267.752	78.06
267.984	80.06
268.216	73.06
268.448	80.06
268.681	78.06
268.913	77.06
269.145	66.06
269.377	79.06
269.609	68.06
269.841	83.06
270.073	79.06
270.306	81.06
270.538	68.06
270.77	72.06
271.002	71.06
271.234	74.06
271.466	73.06
271.698	72.06
271.93	88.06
272.162	78.06
272.394	77.06
272.626	80.06
272.858	79.06
273.09	84.06
273.322	84.06
273.553	70.06
273.785	76.06
274.017	75.06
274.249	76.06
274.481	70.06
274.713	93.06
274.945	74.06
275.176	76.06
275.408	72.06
275.64	83.06
275.872	81.06
276.104	70.06
276.335	85.06
276.567	82.06
276.799	79.06
277.031	96.06
277.262	78.06
277.494	71.06
277.726	80.06
277.957	77.06
278.189	77.06
278.421	69.06
278.652	75.06
278.884	85.06
279.115	87.06
279.347	83.06
279.579	86.06
279.81	68.06
280.042	81.06
280.273	80.06
280.505	72.06
280.736	91.06
280.968	88.06
281.199	99.06
281.431	90.06
281.662	83.06
281.894	78.06
282.125	82.06
282.356	76.06
282.588	80.06
282.819	79.06
283.051	80.06
283.282	94.06
283.513	83.06
283.745	90.06
283.976	72.06
284.207	82.06
284.439	83.06
284.67	82.06
284.901	76.06
285.132	93.06
285.364	87.06
285.595	92.06
285.826	73.06
286.057	82.06
286.288	70.06
286.52	84.06
286.751	68.06
286.982	83.06
287.213	74.06
287.444	79.06
287.675	96.06
287.906	89.06
288.138	84.06
288.369	79.06
288.6	77.06
288.831	79.06
289.062	84.06
289.293	83.06
289.524	81.06
289.755	58.06
289.986	76.06
290.217	82.06
290.448	66.06
290.679	83.06
290.91	84.06
291.141	83.06
291.371	83.06
291.602	66.06
291.833	59.06
292.064	80.06
292.295	73.06
292.526	79.06
292.757	77.06
292.987	86.06
293.218	68.06
293.449	67.06
293.68	88.06
293.91	69.06
294.141	84.06
294.372	82.06
294.603	76.06
294.833	72.06
295.064	86.06
295.295	77.06
295.525	80.06
295.756	78.06
295.987	63.06
296.217	87.06
296.448	90.06
296.679	88.06
296.909	97.06
297.14	69.06
297.37	83.06
297.601	90.06
297.831	99.06
298.062	85.06
298.292	86.06
298.523	83.06
298.753	85.06
298.984	72.06
299.214	76.06
299.445	90.06
299.675	89.06
299.905	83.06
300.136	78.06
300.366	76.06
300.597	82.06
300.827	70.06
301.057	72.06
301.288	72.06
301.518	74.06
301.748	90.06
301.979	101.06
302.209	88.06
302.439	68.06
302.669	80.06
302.9	89.06
303.13	78.06
303.36	88.06
303.59	81.06
303.82	80.06
304.051	83.06
304.281	81.06
304.511	83.06
304.741	80.06
304.971	79.06
305.201	93.06
305.431	80.06
305.661	67.06
305.891	76.06
306.121	86.06
306.352	80.06
306.582	82.06
306.812	84.06
307.042	81.06
307.272	92.06
307.502	84.06
307.731	87.06
307.961	91.06
308.191	95.06
308.421	96.06
308.651	90.06
308.881	91.06
309.111	87.06
309.341	89.06
309.571	93.06
309.8	79.06
310.03	74.06
310.26	81.06
310.49	70.06
310.72	66.06
310.949	77.06
311.179	77.06
311.409	75.06
311.639	70.06
311.868	89.06
312.098	81.06
312.328	73.06
312.557	91.06
312.787	88.06
313.017	94.06
313.246	87.06
313.476	84.06
313.706	80.06
313.935	78.06
314.165	70.06
314.394	101.06
314.624	81.06
314.853	86.06
315.083	85.06
315.312	87.06
315.542	84.06
315.771	84.06
316.001	81.06
316.23	87.06
316.46	86.06
316.689	85.06
316.919	84.06
317.148	78.06
317.377	81.06
317.607	82.06
317.836	81.06
318.065	77.06
318.295	75.06
318.524	87.06
318.753	78.06
318.983	82.06
319.212	87.06
319.441	75.06
319.67	87.06
319.9	70.06
320.129	72.06
320.358	77.06
320.587	75.06
320.816	78.06
321.046	85.06
321.275	81.06
321.504	93.06
321.733	82.06
321.962	80.06
322.191	77.06
322.42	84.06
322.649	76.06
322.878	79.06
323.108	73.06
323.337	83.06
323.566	76.06
323.795	93.06
324.024	73.06
324.253	85.06
324.482	82.06
324.71	86.06
324.939	82.06
325.168	83.06
325.397	88.06
325.626	80.06
325.855	87.06
326.084	74.06
326.313	63.06
326.542	84.06
326.77	80.06
326.999	90.06
327.228	75.06
327.457	84.06
327.686	76.06
327.914	82.06
328.143	93.06
328.372	83.06
328.6	75.06
328.829	81.06
329.058	70.06
329.287	74.06
329.515	75.06
329.744	87.06
329.972	75.06
330.201	73.06
330.43	83.06
330.658	70.06
330.887	87.06
331.115	82.06
331.344	82.06
331.572	82.06
331.801	90.06
332.03	87.06
332.258	69.06
332.486	83.06
332.715	86.06
332.943	68.06
333.172	101.06
333.4	90.06
333.629	80.06
333.857	67.06
334.085	78.06
334.314	80.06
334.542	90.06
334.771	87.06
334.999	97.06
335.227	90.06
335.455	80.06
335.684	82.06
335.912	98.06
336.14	101.06
336.369	82.06
336.597	94.06
336.825	72.06
337.053	88.06
337.281	80.06
337.51	96.06
337.738	90.06
337.966	83.06
338.194	94.06
338.422	84.06
338.65	83.06
338.878	86.06
339.106	76.06
339.334	79.06
339.562	94.06
339.79	83.06
340.018	79.06
340.246	71.06
340.474	68.06
340.702	75.06
340.93	76.06
341.158	79.06
341.386	80.06
341.614	91.06
341.842	80.06
342.07	74.06
342.298	68.06
342.526	78.06
342.754	80.06
342.981	69.06
343.209	80.06
343.437	97.06
343.665	104.06
343.893	80.06
344.12	72.06
344.348	80.06
344.576	81.06
344.804	85.06
345.031	75.06
345.259	82.06
345.487	84.06
345.714	83.06
345.942	91.06
346.17	84.06
346.397	86.06
346.625	93.06
346.853	89.06
347.08	88.06
347.308	87.06
347.535	80.06
347.763	85.06
347.99	85.06
348.218	99.06
348.445	87.06
348.673	90.06
348.9	90.06
349.128	91.06
349.355	91.06
349.583	89.06
349.81	91.06
350.037	88.06
350.265	82.06
350.492	82.06
350.72	69.06
350.947	73.06
351.174	85.06
351.402	68.06
351.629	82.06
351.856	73.06
352.083	72.06
352.311	88.06
352.538	85.06
352.765	72.06
352.992	93.06
353.22	68.06
353.447	72.06
353.674	72.06
353.901	87.06
354.128	88.06
354.355	93.06
354.583	92.06
354.81	86.06
355.037	84.06
355.264	74.06
355.491	90.06
355.718	94.06
355.945	90.06
356.172	88.06
356.399	90.06
356.626	89.06
356.853	91.06
357.08	81.06
357.307	71.06
357.534	64.06
357.761	70.06
357.988	91.06
358.215	99.06
358.441	102.06
358.668	76.06
358.895	81.06
359.122	89.06
359.349	76.06
359.576	71.06
359.802	81.06
360.029	83.06
360.256	73.06
360.483	85.06
360.709	80.06
360.936	84.06
361.163	90.06
361.39	70.06
361.616	88.06
361.843	88.06
362.07	98.06
362.296	98.06
362.523	85.06
362.749	91.06
362.976	105.06
363.203	120.06
363.429	88.06
363.656	93.06
363.882	103.06
364.109	110.06
364.335	124.06
364.562	127.06
364.788	124.06
365.015	98.06
365.241	87.06
365.468	73.06
365.694	82.06
365.92	95.06
366.147	79.06
366.373	70.06
366.599	77.06
366.826	86.06
367.052	71.06
367.278	86.06
367.505	70.06
367.731	79.06
367.957	80.06
368.184	90.06
368.41	103.06
368.636	80.06
368.862	77.06
369.089	83.06
369.315	84.06
369.541	80.06
369.767	79.06
369.993	78.06
370.219	87.06
370.445	87.06
370.672	85.06
370.898	74.06
371.124	95.06
371.35	76.06
371.576	84.06
371.802	92.06
372.028	88.06
372.254	67.06
372.48	93.06
372.706	76.06
372.932	82.06
373.158	79.06
373.384	99.06
373.61	99.06
373.835	97.06
374.061	83.06
374.287	84.06
374.513	93.06
374.739	96.06
374.965	82.06
375.191	103.06
375.416	90.06
375.642	86.06
375.868	97.06
376.094	90.06
376.319	83.06
376.545	84.06
376.771	83.06
376.997	96.06
377.222	95.06
377.448	78.06
377.674	89.06
377.899	79.06
378.125	87.06
378.35	77.06
378.576	88.06
378.802	69.06
379.027	80.06
379.253	75.06
379.478	81.06
379.704	86.06
379.929	91.06
380.155	85.06
380.38	56.06
380.606	75.06
380.831	95.06
381.057	91.06
381.282	89.06
381.507	78.06
381.733	91.06
381.958	100.06
382.184	85.06
382.409	82.06
382.634	107.06
382.86	101.06
383.085	82.06
383.31	88.06
383.535	96.06
383.761	83.06
383.986	102.06
384.211	93.06
384.436	81.06
384.662	83.06
384.887	93.06
385.112	76.06
385.337	94.06
385.562	76.06
385.787	83.06
386.013	93.06
386.238	88.06
386.463	86.06
386.688	104.06
386.913	78.06
387.138	87.06
387.363	97.06
387.588	83.06
387.813	97.06
388.038	85.06
388.263	69.06
388.488	80.06
388.713	83.06
388.938	94.06
389.163	88.06
389.387	78.06
389.612	88.06
389.837	86.06
390.062	100.06
390.287	81.06
390.512	82.06
390.736	88.06
390.961	83.06
391.186	93.06
391.411	84.06
391.636	87.06
391.86	83.06
392.085	81.06
392.31	87.06
392.534	109.06
392.759	118.06
392.984	147.06
393.208	236.06
393.433	350.06
393.658	274.06
393.882	122.06
394.107	119.06
394.331	106.06
394.556	120.06
394.78	100.06
395.005	106.06
395.229	86.06
395.454	104.06
395.678	110.06
395.903	119.06
396.127	126.06
396.352	151.06
396.576	162.06
396.801	238.06
397.025	280.06
397.249	164.06
397.474	115.06
397.698	99.06
397.922	89.06
398.147	92.06
398.371	72.06
398.595	81.06
398.82	88.06
399.044	99.06
399.268	95.06
399.492	98.06
399.717	83.06
399.941	92.06
400.165	95.06
400.389	71.06
400.613	73.06
400.837	82.06
401.062	81.06
401.286	85.06
401.51	82.06
401.734	78.06
401.958	83.06
402.182	63.06
402.406	93.06
402.63	83.06
402.854	78.06
403.078	83.06
403.302	88.06
403.526	84.06
403.75	100.06
403.974	83.06
404.198	79.06
404.422	111.06
404.645	134.06
404.869	116.06
405.093	86.06
405.317	82.06
405.541	86.06
405.765	90.06
405.988	63.06
406.212	89.06
406.436	80.06
406.66	90.06
406.883	80.06
407.107	83.06
407.331	83.06
407.555	94.06
407.778	90.06
408.002	108.06
408.226	87.06
408.449	83.06
408.673	85.06
408.896	75.06
409.12	94.06
409.344	76.06
409.567	90.06
409.791	79.06
410.014	96.06
410.238	89.06
410.461	95.06
410.685	85.06
410.908	83.06
411.132	89.06
411.355	82.06
411.578	82.06
411.802	75.06
412.025	71.06
412.249	77.06
412.472	84.06
412.695	83.06
412.919	76.06
413.142	76.06
413.365	82.06
413.589	77.06
413.812	86.06
414.035	109.06
414.258	100.06
414.482	86.06
414.705	87.06
414.928	89.06
415.151	79.06
415.374	76.06
415.597	72.06
415.821	80.06
416.044	93.06
416.267	96.06
416.49	79.06
416.713	80.06
416.936	78.06
417.159	83.06
417.382	82.06
417.605	78.06
417.828	82.06
418.051	54.06
418.274	81.06
418.497	72.06
418.72	79.06
418.943	80.06
419.166	72.06
419.389	81.06
419.611	88.06
419.834	89.06
420.057	82.06
420.28	97.06
420.503	79.06
420.726	93.06
420.948	80.06
421.171	90.06
421.394	98.06
421.617	117.06
421.839	117.06
422.062	131.06
422.285	171.06
422.507	302.06
422.73	474.06
422.953	398.06
423.175	214.06
423.398	129.06
423.621	112.06
423.843	77.06
424.066	86.06
424.288	95.06
424.511	81.06
424.733	73.06
424.956	79.06
425.178	85.06
425.401	88.06
425.623	77.06
425.846	87.06
426.068	83.06
426.291	93.06
426.513	84.06
426.735	90.06
426.958	81.06
427.18	97.06
427.402	84.06
427.625	92.06
427.847	96.06
428.069	116.06
428.292	131.06
428.514	156.06
428.736	119.06
428.958	129.06
429.181	134.06
429.403	107.06
429.625	98.06
429.847	124.06
430.069	172.06
430.292	203.06
430.514	184.06
430.736	132.06
430.958	145.06
431.18	99.06
431.402	90.06
431.624	110.06
431.846	141.06
432.068	139.06
432.29	107.06
432.512	79.06
432.734	77.06
432.956	79.06
433.178	73.06
433.4	89.06
433.622	77.06
433.844	87.06
434.066	80.06
434.287	76.06
434.509	94.06
434.731	82.06
434.953	72.06
435.175	87.06
435.397	91.06
435.618	93.06
435.84	90.06
436.062	84.06
436.284	84.06
436.505	72.06
436.727	90.06
436.949	81.06
437.17	70.06
437.392	76.06
437.614	95.06
437.835	88.06
438.057	79.06
438.278	88.06
438.5	78.06
438.721	92.06
438.943	91.06
439.165	71.06
439.386	69.06
439.608	76.06
439.829	82.06
440.05	79.06
440.272	94.06
440.493	88.06
440.715	98.06
440.936	87.06
441.158	87.06
441.379	74.06
441.6	92.06
441.822	96.06
442.043	96.06
442.264	101.06
442.486	132.06
442.707	179.06
442.928	128.06
443.149	115.06
443.371	158.06
443.592	270.06
443.813	253.06
444.034	124.06
444.255	88.06
444.476	96.06
444.698	102.06
444.919	93.06
445.14	194.06
445.361	220.06
445.582	336.06
445.803	304.06
446.024	136.06
446.245	103.06
446.466	79.06
446.687	78.06
446.908	72.06
447.129	83.06
447.35	84.06
447.571	86.06
447.792	93.06
448.013	72.06
448.234	68.06
448.455	81.06
448.675	72.06
448.896	78.06
449.117	72.06
449.338	60.06
449.559	77.06
449.779	77.06
450	85.06
450.221	81.06
450.442	91.06
450.662	81.06
450.883	81.06
451.104	85.06
451.324	91.06
451.545	83.06
451.766	94.06
451.986	88.06
452.207	86.06
452.428	82.06
452.648	91.06
452.869	92.06
453.089	86.06
453.31	76.06
453.53	80.06
453.751	100.06
453.971	83.06
454.192	84.06
454.412	85.06
454.633	79.06
454.853	67.06
455.073	92.06
455.294	81.06
455.514	85.06
455.734	93.06
455.955	90.06
456.175	76.06
456.395	81.06
456.616	87.06
456.836	80.06
457.056	79.06
457.276	67.06
457.497	69.06
457.717	82.06
457.937	115.06
458.157	123.06
458.377	122.06
458.598	118.06
458.818	115.06
459.038	99.06
459.258	74.06
459.478	79.06
459.698	70.06
459.918	91.06
460.138	82.06
460.358	84.06
460.578	100.06
460.798	123.06
461.018	123.06
461.238	81.06
461.458	79.06
461.678	80.06
461.898	90.06
462.118	90.06
462.338	63.06
462.558	77.06
462.777	84.06
462.997	82.06
463.217	76.06
463.437	84.06
463.657	85.06
463.876	88.06
464.096	82.06
464.316	78.06
464.536	76.06
464.755	85.06
464.975	88.06
465.195	72.06
465.414	79.06
465.634	81.06
465.854	72.06
466.073	84.06
466.293	79.06
466.512	93.06
466.732	98.06
466.951	90.06
467.171	76.06
467.391	100.06
467.61	63.06
467.829	83.06
468.049	86.06
468.268	82.06
468.488	86.06
468.707	90.06
468.927	84.06
469.146	76.06
469.365	58.06
469.585	72.06
469.804	79.06
470.023	97.06
470.243	78.06
470.462	96.06
470.681	87.06
470.901	80.06
471.12	86.06
471.339	94.06
471.558	86.06
471.777	79.06
471.997	77.06
472.216	81.06
472.435	84.06
472.654	87.06
472.873	75.06
473.092	90.06
473.311	74.06
473.53	72.06
473.749	81.06
473.968	86.06
474.187	87.06
474.406	84.06
474.625	84.06
474.844	90.06
475.063	75.06
475.282	77.06
475.501	80.06
475.72	82.06
475.939	84.06
476.158	90.06
476.377	80.06
476.596	79.06
476.814	69.06
477.033	75.06
477.252	84.06
477.471	79.06
477.69	84.06
477.908	78.06
478.127	80.06
478.346	71.06
478.564	89.06
478.783	73.06
479.002	83.06
479.22	78.06
479.439	85.06
479.658	78.06
479.876	70.06
480.095	72.06
480.313	77.06
480.532	82.06
480.751	93.06
480.969	90.06
481.188	79.06
481.406	79.06
481.624	97.06
481.843	74.06
482.061	70.06
482.28	79.06
482.498	82.06
482.717	87.06
482.935	79.06
483.153	85.06
483.372	90.06
483.59	76.06
483.808	91.06
484.027	76.06
484.245	94.06
484.463	77.06
484.681	95.06
484.9	93.06
485.118	75.06
485.336	80.06
485.554	83.06
485.772	77.06
485.99	79.06
486.209	85.06
486.427	75.06
486.645	73.06
486.863	80.06
487.081	78.06
487.299	87.06
487.517	95.06
487.735	103.06
487.953	160.06
488.171	129.06
488.389	90.06
488.607	84.06
488.825	84.06
489.043	71.06
489.261	85.06
489.479	96.06
489.696	98.06
489.914	77.06
490.132	71.06
490.35	86.06
490.568	82.06
490.786	72.06
491.003	72.06
491.221	80.06
491.439	79.06
491.657	79.06
491.874	97.06
492.092	91.06
492.31	89.06
492.527	90.06
492.745	87.06
492.963	92.06
493.18	71.06
493.398	85.06
493.615	79.06
493.833	87.06
494.05	90.06
494.268	100.06
494.485	78.06
494.703	83.06
494.92	70.06
495.138	95.06
495.355	71.06
495.573	95.06
495.79	78.06
496.008	88.06
496.225	101.06
496.442	94.06
496.66	84.06
496.877	70.06
497.094	85.06
497.312	88.06
497.529	88.06
497.746	80.06
497.963	82.06
498.181	77.06
498.398	109.06
498.615	107.06
498.832	82.06
499.049	94.06
499.267	106.06
499.484	87.06
499.701	84.06
499.918	95.06
500.135	100.06
500.352	82.06
500.569	91.06
500.786	109.06
501.003	83.06
501.22	92.06
501.437	91.06
501.654	77.06
501.871	87.06
502.088	101.06
502.305	86.06
502.522	85.06
502.739	96.06
502.956	78.06
503.172	79.06
503.389	87.06
503.606	86.06
503.823	95.06
504.04	99.06
504.256	130.06
504.473	144.06
504.69	84.06
504.907	88.06
505.123	71.06
505.34	84.06
505.557	87.06
505.773	79.06
505.99	77.06
506.207	71.06
506.423	95.06
506.64	78.06
506.856	82.06
507.073	94.06
507.289	83.06
507.506	83.06
507.722	89.06
507.939	78.06
508.155	92.06
508.372	93.06
508.588	78.06
508.805	99.06
509.021	72.06
509.238	85.06
509.454	87.06
509.67	81.06
509.887	100.06
510.103	86.06
510.319	94.06
510.536	75.06
510.752	69.06
510.968	83.06
511.184	80.06
511.401	79.06
511.617	89.06
511.833	81.06
512.049	77.06
512.265	88.06
512.481	78.06
512.698	71.06
512.914	81.06
513.13	72.06
513.346	90.06
513.562	83.06
513.778	91.06
513.994	71.06
514.21	79.06
514.426	77.06
514.642	91.06
514.858	90.06
515.074	86.06
515.29	91.06
515.506	94.06
515.721	82.06
515.937	80.06
516.153	84.06
516.369	83.06
516.585	96.06
516.801	86.06
517.016	75.06
517.232	90.06
517.448	100.06
517.664	84.06
517.879	75.06
518.095	83.06
518.311	85.06
518.527	92.06
