Data from 237_3_HRD10591_00006.txt Node
Date: Mon Jan 19 14:12:57 EST 2026
User: Yrep
Spectrometer: HR+D1059
Trigger mode: 1
Integration Time (sec): 1.000000E-1
Scans to average: 1
Electric dark correction enabled: true
Nonlinearity correction enabled: false
Boxcar width: 0
XAxis mode: Wavelengths
Number of Pixels in Spectrum: 2048
>>>>>Begin Spectral Data<<<<<
223.165	-33.25
223.4	-33.25
223.635	-33.25
223.869	-26.25
224.104	-17.25
224.338	-4.25
224.573	-9.25
224.808	-5.25
225.042	0.75
225.277	0.75
225.511	-3.25
225.746	2.75
225.98	-3.25
226.215	0.75
226.449	12.75
226.683	31.75
226.918	24.75
227.152	27.75
227.387	40.75
227.621	39.75
227.856	54.75
228.09	39.75
228.324	45.75
228.559	59.75
228.793	61.75
229.027	62.75
229.262	59.75
229.496	61.75
229.73	74.75
229.964	64.75
230.199	73.75
230.433	73.75
230.667	77.75
230.901	63.75
231.136	74.75
231.37	93.75
231.604	83.75
231.838	83.75
232.072	75.75
232.306	67.75
232.541	73.75
232.775	77.75
233.009	74.75
233.243	83.75
233.477	80.75
233.711	75.75
233.945	63.75
234.179	75.75
234.413	69.75
234.647	78.75
234.881	77.75
235.115	66.75
235.349	81.75
235.583	71.75
235.817	67.75
236.051	71.75
236.285	69.75
236.519	76.75
236.753	86.75
236.987	75.75
237.221	78.75
237.455	62.75
237.689	72.75
237.922	68.75
238.156	79.75
238.39	69.75
238.624	65.75
238.858	75.75
239.091	73.75
239.325	81.75
239.559	74.75
239.793	94.75
240.027	77.75
240.26	78.75
240.494	79.75
240.728	58.75
240.961	80.75
241.195	84.75
241.429	64.75
241.662	63.75
241.896	71.75
242.13	64.75
242.363	76.75
242.597	83.75
242.83	86.75
243.064	68.75
243.298	59.75
243.531	70.75
243.765	74.75
243.998	78.75
244.232	72.75
244.465	72.75
244.699	66.75
244.932	66.75
245.166	74.75
245.399	73.75
245.633	63.75
245.866	78.75
246.099	74.75
246.333	80.75
246.566	67.75
246.8	78.75
247.033	66.75
247.266	69.75
247.5	74.75
247.733	80.75
247.966	76.75
248.2	75.75
248.433	79.75
248.666	72.75
248.899	71.75
249.133	73.75
249.366	83.75
249.599	74.75
249.832	86.75
250.066	81.75
250.299	72.75
250.532	74.75
250.765	68.75
250.998	67.75
251.231	87.75
251.465	79.75
251.698	65.75
251.931	78.75
252.164	80.75
252.397	70.75
252.63	69.75
252.863	83.75
253.096	88.75
253.329	75.75
253.562	77.75
253.795	66.75
254.028	74.75
254.261	61.75
254.494	87.75
254.727	75.75
254.96	83.75
255.193	76.75
255.426	76.75
255.659	64.75
255.892	66.75
256.124	69.75
256.357	84.75
256.59	74.75
256.823	69.75
257.056	86.75
257.289	86.75
257.521	68.75
257.754	74.75
257.987	68.75
258.22	79.75
258.452	80.75
258.685	81.75
258.918	73.75
259.151	73.75
259.383	72.75
259.616	73.75
259.849	73.75
260.081	85.75
260.314	74.75
260.547	73.75
260.779	75.75
261.012	89.75
261.244	62.75
261.477	65.75
261.71	76.75
261.942	61.75
262.175	65.75
262.407	79.75
262.64	77.75
262.872	57.75
263.105	77.75
263.337	84.75
263.57	77.75
263.802	75.75
264.035	79.75
264.267	75.75
264.499	84.75
264.732	80.75
264.964	71.75
265.197	78.75
265.429	89.75
265.661	81.75
265.894	84.75
266.126	79.75
266.358	85.75
266.591	73.75
266.823	74.75
267.055	63.75
267.287	79.75
267.52	79.75
267.752	81.75
267.984	88.75
268.216	80.75
268.448	96.75
268.681	92.75
268.913	88.75
269.145	83.75
269.377	83.75
269.609	71.75
269.841	78.75
270.073	87.75
270.306	87.75
270.538	78.75
270.77	80.75
271.002	59.75
271.234	78.75
271.466	85.75
271.698	80.75
271.93	84.75
272.162	67.75
272.394	71.75
272.626	88.75
272.858	81.75
273.09	72.75
273.322	70.75
273.553	88.75
273.785	76.75
274.017	69.75
274.249	91.75
274.481	88.75
274.713	79.75
274.945	74.75
275.176	68.75
275.408	81.75
275.64	73.75
275.872	70.75
276.104	77.75
276.335	82.75
276.567	93.75
276.799	73.75
277.031	77.75
277.262	77.75
277.494	72.75
277.726	84.75
277.957	81.75
278.189	72.75
278.421	74.75
278.652	67.75
278.884	83.75
279.115	67.75
279.347	79.75
279.579	89.75
279.81	88.75
280.042	70.75
280.273	82.75
280.505	79.75
280.736	79.75
280.968	78.75
281.199	82.75
281.431	92.75
281.662	71.75
281.894	94.75
282.125	75.75
282.356	84.75
282.588	75.75
282.819	73.75
283.051	77.75
283.282	92.75
283.513	80.75
283.745	68.75
283.976	67.75
284.207	75.75
284.439	68.75
284.67	66.75
284.901	71.75
285.132	82.75
285.364	98.75
285.595	81.75
285.826	93.75
286.057	85.75
286.288	84.75
286.52	85.75
286.751	82.75
286.982	81.75
287.213	75.75
287.444	92.75
287.675	89.75
287.906	90.75
288.138	93.75
288.369	75.75
288.6	80.75
288.831	73.75
289.062	82.75
289.293	89.75
289.524	70.75
289.755	74.75
289.986	70.75
290.217	81.75
290.448	69.75
290.679	89.75
290.91	74.75
291.141	76.75
291.371	78.75
291.602	81.75
291.833	82.75
292.064	77.75
292.295	85.75
292.526	86.75
292.757	79.75
292.987	78.75
293.218	78.75
293.449	71.75
293.68	94.75
293.91	76.75
294.141	76.75
294.372	94.75
294.603	88.75
294.833	88.75
295.064	90.75
295.295	69.75
295.525	76.75
295.756	92.75
295.987	74.75
296.217	102.75
296.448	82.75
296.679	68.75
296.909	77.75
297.14	85.75
297.37	89.75
297.601	84.75
297.831	83.75
298.062	79.75
298.292	83.75
298.523	78.75
298.753	98.75
298.984	86.75
299.214	96.75
299.445	91.75
299.675	91.75
299.905	86.75
300.136	85.75
300.366	91.75
300.597	79.75
300.827	86.75
301.057	85.75
301.288	88.75
301.518	79.75
301.748	79.75
301.979	91.75
302.209	87.75
302.439	73.75
302.669	94.75
302.9	83.75
303.13	82.75
303.36	79.75
303.59	77.75
303.82	73.75
304.051	85.75
304.281	79.75
304.511	96.75
304.741	88.75
304.971	89.75
305.201	91.75
305.431	73.75
305.661	80.75
305.891	78.75
306.121	79.75
306.352	84.75
306.582	75.75
306.812	73.75
307.042	80.75
307.272	69.75
307.502	77.75
307.731	91.75
307.961	109.75
308.191	74.75
308.421	91.75
308.651	87.75
308.881	101.75
309.111	95.75
309.341	107.75
309.571	88.75
309.8	89.75
310.03	82.75
310.26	84.75
310.49	70.75
310.72	77.75
310.949	72.75
311.179	87.75
311.409	81.75
311.639	89.75
311.868	90.75
312.098	79.75
312.328	81.75
312.557	83.75
312.787	79.75
313.017	90.75
313.246	81.75
313.476	95.75
313.706	80.75
313.935	83.75
314.165	79.75
314.394	73.75
314.624	89.75
314.853	78.75
315.083	92.75
315.312	99.75
315.542	88.75
315.771	80.75
316.001	94.75
316.23	91.75
316.46	84.75
316.689	88.75
316.919	90.75
317.148	105.75
317.377	86.75
317.607	84.75
317.836	91.75
318.065	83.75
318.295	103.75
318.524	74.75
318.753	80.75
318.983	77.75
319.212	72.75
319.441	81.75
319.67	94.75
319.9	82.75
320.129	85.75
320.358	86.75
320.587	87.75
320.816	100.75
321.046	89.75
321.275	84.75
321.504	84.75
321.733	80.75
321.962	84.75
322.191	91.75
322.42	83.75
322.649	93.75
322.878	99.75
323.108	91.75
323.337	80.75
323.566	99.75
323.795	96.75
324.024	86.75
324.253	83.75
324.482	82.75
324.71	81.75
324.939	78.75
325.168	81.75
325.397	78.75
325.626	87.75
325.855	105.75
326.084	99.75
326.313	80.75
326.542	79.75
326.77	86.75
326.999	84.75
327.228	86.75
327.457	79.75
327.686	91.75
327.914	91.75
328.143	85.75
328.372	100.75
328.6	92.75
328.829	83.75
329.058	75.75
329.287	84.75
329.515	71.75
329.744	95.75
329.972	83.75
330.201	83.75
330.43	82.75
330.658	82.75
330.887	74.75
331.115	71.75
331.344	95.75
331.572	87.75
331.801	85.75
332.03	81.75
332.258	85.75
332.486	72.75
332.715	89.75
332.943	85.75
333.172	79.75
333.4	76.75
333.629	77.75
333.857	89.75
334.085	94.75
334.314	83.75
334.542	96.75
334.771	91.75
334.999	107.75
335.227	87.75
335.455	92.75
335.684	107.75
335.912	100.75
336.14	87.75
336.369	107.75
336.597	101.75
336.825	73.75
337.053	83.75
337.281	91.75
337.51	91.75
337.738	91.75
337.966	87.75
338.194	88.75
338.422	69.75
338.65	91.75
338.878	89.75
339.106	80.75
339.334	80.75
339.562	95.75
339.79	76.75
340.018	89.75
340.246	92.75
340.474	74.75
340.702	81.75
340.93	90.75
341.158	87.75
341.386	92.75
341.614	77.75
341.842	82.75
342.07	91.75
342.298	79.75
342.526	79.75
342.754	73.75
342.981	86.75
343.209	81.75
343.437	118.75
343.665	88.75
343.893	82.75
344.12	95.75
344.348	74.75
344.576	85.75
344.804	95.75
345.031	95.75
345.259	80.75
345.487	95.75
345.714	87.75
345.942	82.75
346.17	82.75
346.397	85.75
346.625	86.75
346.853	89.75
347.08	88.75
347.308	83.75
347.535	77.75
347.763	86.75
347.99	84.75
348.218	88.75
348.445	78.75
348.673	77.75
348.9	85.75
349.128	92.75
349.355	76.75
349.583	94.75
349.81	97.75
350.037	104.75
350.265	93.75
350.492	85.75
350.72	95.75
350.947	81.75
351.174	81.75
351.402	81.75
351.629	95.75
351.856	80.75
352.083	91.75
352.311	93.75
352.538	68.75
352.765	91.75
352.992	94.75
353.22	80.75
353.447	95.75
353.674	84.75
353.901	88.75
354.128	76.75
354.355	87.75
354.583	101.75
354.81	87.75
355.037	88.75
355.264	75.75
355.491	62.75
355.718	82.75
355.945	90.75
356.172	75.75
356.399	91.75
356.626	84.75
356.853	87.75
357.08	94.75
357.307	93.75
357.534	84.75
357.761	86.75
357.988	87.75
358.215	96.75
358.441	101.75
358.668	83.75
358.895	92.75
359.122	77.75
359.349	87.75
359.576	85.75
359.802	72.75
360.029	102.75
360.256	93.75
360.483	83.75
360.709	84.75
360.936	91.75
361.163	91.75
361.39	81.75
361.616	100.75
361.843	99.75
362.07	93.75
362.296	101.75
362.523	97.75
362.749	102.75
362.976	132.75
363.203	132.75
363.429	111.75
363.656	113.75
363.882	112.75
364.109	126.75
364.335	142.75
364.562	154.75
364.788	133.75
365.015	93.75
365.241	92.75
365.468	100.75
365.694	89.75
365.92	87.75
366.147	93.75
366.373	97.75
366.599	90.75
366.826	79.75
367.052	71.75
367.278	84.75
367.505	98.75
367.731	100.75
367.957	83.75
368.184	77.75
368.41	82.75
368.636	108.75
368.862	93.75
369.089	85.75
369.315	87.75
369.541	70.75
369.767	94.75
369.993	85.75
370.219	81.75
370.445	88.75
370.672	80.75
370.898	100.75
371.124	89.75
371.35	78.75
371.576	88.75
371.802	102.75
372.028	87.75
372.254	109.75
372.48	83.75
372.706	95.75
372.932	87.75
373.158	94.75
373.384	104.75
373.61	102.75
373.835	118.75
374.061	94.75
374.287	89.75
374.513	105.75
374.739	89.75
374.965	98.75
375.191	93.75
375.416	89.75
375.642	93.75
375.868	89.75
376.094	99.75
376.319	78.75
376.545	89.75
376.771	85.75
376.997	92.75
377.222	79.75
377.448	95.75
377.674	80.75
377.899	84.75
378.125	89.75
378.35	98.75
378.576	98.75
378.802	94.75
379.027	82.75
379.253	96.75
379.478	103.75
379.704	77.75
379.929	92.75
380.155	88.75
380.38	86.75
380.606	80.75
380.831	85.75
381.057	89.75
381.282	84.75
381.507	104.75
381.733	108.75
381.958	84.75
382.184	104.75
382.409	92.75
382.634	98.75
382.86	93.75
383.085	101.75
383.31	95.75
383.535	92.75
383.761	94.75
383.986	104.75
384.211	97.75
384.436	99.75
384.662	99.75
384.887	90.75
385.112	87.75
385.337	84.75
385.562	105.75
385.787	113.75
386.013	124.75
386.238	115.75
386.463	80.75
386.688	103.75
386.913	93.75
387.138	93.75
387.363	94.75
387.588	107.75
387.813	109.75
388.038	99.75
388.263	89.75
388.488	84.75
388.713	112.75
388.938	92.75
389.163	96.75
389.387	87.75
389.612	82.75
389.837	94.75
390.062	97.75
390.287	85.75
390.512	101.75
390.736	86.75
390.961	94.75
391.186	94.75
391.411	93.75
391.636	90.75
391.86	105.75
392.085	90.75
392.31	88.75
392.534	108.75
392.759	130.75
392.984	164.75
393.208	284.75
393.433	394.75
393.658	299.75
393.882	158.75
394.107	111.75
394.331	114.75
394.556	121.75
394.78	116.75
395.005	118.75
395.229	119.75
395.454	103.75
395.678	123.75
395.903	129.75
396.127	131.75
396.352	176.75
396.576	186.75
396.801	275.75
397.025	313.75
397.249	189.75
397.474	132.75
397.698	109.75
397.922	100.75
398.147	99.75
398.371	101.75
398.595	88.75
398.82	81.75
399.044	97.75
399.268	91.75
399.492	81.75
399.717	94.75
399.941	79.75
400.165	91.75
400.389	94.75
400.613	86.75
400.837	89.75
401.062	79.75
401.286	87.75
401.51	82.75
401.734	93.75
401.958	91.75
402.182	83.75
402.406	99.75
402.63	107.75
402.854	89.75
403.078	93.75
403.302	89.75
403.526	69.75
403.75	104.75
403.974	92.75
404.198	104.75
404.422	133.75
404.645	140.75
404.869	134.75
405.093	95.75
405.317	95.75
405.541	84.75
405.765	100.75
405.988	96.75
406.212	102.75
406.436	85.75
406.66	90.75
406.883	89.75
407.107	101.75
407.331	96.75
407.555	95.75
407.778	109.75
408.002	93.75
408.226	93.75
408.449	79.75
408.673	87.75
408.896	76.75
409.12	103.75
409.344	113.75
409.567	98.75
409.791	88.75
410.014	93.75
410.238	113.75
410.461	96.75
410.685	79.75
410.908	83.75
411.132	98.75
411.355	105.75
411.578	97.75
411.802	91.75
412.025	91.75
412.249	84.75
412.472	72.75
412.695	89.75
412.919	91.75
413.142	104.75
413.365	76.75
413.589	97.75
413.812	86.75
414.035	80.75
414.258	87.75
414.482	92.75
414.705	98.75
414.928	98.75
415.151	80.75
415.374	74.75
415.597	94.75
415.821	86.75
416.044	94.75
416.267	71.75
416.49	92.75
416.713	88.75
416.936	93.75
417.159	93.75
417.382	88.75
417.605	95.75
417.828	83.75
418.051	86.75
418.274	91.75
418.497	85.75
418.72	83.75
418.943	93.75
419.166	91.75
419.389	82.75
419.611	101.75
419.834	92.75
420.057	98.75
420.28	87.75
420.503	88.75
420.726	102.75
420.948	100.75
421.171	97.75
421.394	117.75
421.617	125.75
421.839	140.75
422.062	160.75
422.285	208.75
422.507	357.75
422.73	563.75
422.953	510.75
423.175	296.75
423.398	187.75
423.621	133.75
423.843	116.75
424.066	97.75
424.288	96.75
424.511	109.75
424.733	95.75
424.956	87.75
425.178	88.75
425.401	101.75
425.623	103.75
425.846	86.75
426.068	98.75
426.291	100.75
426.513	102.75
426.735	99.75
426.958	95.75
427.18	111.75
427.402	97.75
427.625	94.75
427.847	83.75
428.069	110.75
428.292	155.75
428.514	174.75
428.736	134.75
428.958	149.75
429.181	166.75
429.403	103.75
429.625	120.75
429.847	146.75
430.069	203.75
430.292	237.75
430.514	204.75
430.736	159.75
430.958	164.75
431.18	126.75
431.402	99.75
431.624	107.75
431.846	146.75
432.068	172.75
432.29	129.75
432.512	95.75
432.734	92.75
432.956	83.75
433.178	82.75
433.4	82.75
433.622	82.75
433.844	87.75
434.066	81.75
434.287	79.75
434.509	76.75
434.731	89.75
434.953	81.75
435.175	93.75
435.397	92.75
435.618	95.75
435.84	99.75
436.062	96.75
436.284	98.75
436.505	101.75
436.727	92.75
436.949	96.75
437.17	84.75
437.392	89.75
437.614	81.75
437.835	74.75
438.057	88.75
438.278	85.75
438.5	95.75
438.721	84.75
438.943	79.75
439.165	101.75
439.386	94.75
439.608	73.75
439.829	72.75
440.05	84.75
440.272	95.75
440.493	89.75
440.715	84.75
440.936	96.75
441.158	81.75
441.379	79.75
441.6	90.75
441.822	86.75
442.043	102.75
442.264	101.75
442.486	166.75
442.707	223.75
442.928	152.75
443.149	141.75
443.371	192.75
443.592	335.75
443.813	290.75
444.034	128.75
444.255	103.75
444.476	93.75
444.698	90.75
444.919	97.75
445.14	183.75
445.361	257.75
445.582	412.75
445.803	358.75
446.024	163.75
446.245	101.75
446.466	88.75
446.687	100.75
446.908	76.75
447.129	95.75
447.35	85.75
447.571	83.75
447.792	87.75
448.013	73.75
448.234	80.75
448.455	80.75
448.675	79.75
448.896	77.75
449.117	71.75
449.338	87.75
449.559	82.75
449.779	93.75
450	82.75
450.221	72.75
450.442	82.75
450.662	96.75
450.883	81.75
451.104	82.75
451.324	87.75
451.545	89.75
451.766	94.75
451.986	77.75
452.207	103.75
452.428	87.75
452.648	114.75
452.869	110.75
453.089	92.75
453.31	82.75
453.53	111.75
453.751	84.75
453.971	85.75
454.192	79.75
454.412	88.75
454.633	86.75
454.853	87.75
455.073	93.75
455.294	100.75
455.514	96.75
455.734	79.75
455.955	85.75
456.175	93.75
456.395	79.75
456.616	65.75
456.836	85.75
457.056	79.75
457.276	79.75
457.497	92.75
457.717	98.75
457.937	112.75
458.157	159.75
458.377	150.75
458.598	131.75
458.818	168.75
459.038	132.75
459.258	85.75
459.478	100.75
459.698	105.75
459.918	96.75
460.138	96.75
460.358	96.75
460.578	85.75
460.798	125.75
461.018	118.75
461.238	100.75
461.458	82.75
461.678	86.75
461.898	88.75
462.118	80.75
462.338	83.75
462.558	97.75
462.777	87.75
462.997	73.75
463.217	76.75
463.437	95.75
463.657	73.75
463.876	91.75
464.096	81.75
464.316	83.75
464.536	76.75
464.755	86.75
464.975	67.75
465.195	80.75
465.414	85.75
465.634	81.75
465.854	85.75
466.073	86.75
466.293	98.75
466.512	80.75
466.732	86.75
466.951	80.75
467.171	77.75
467.391	91.75
467.61	88.75
467.829	81.75
468.049	80.75
468.268	83.75
468.488	87.75
468.707	90.75
468.927	91.75
469.146	89.75
469.365	85.75
469.585	88.75
469.804	90.75
470.023	85.75
470.243	82.75
470.462	83.75
470.681	87.75
470.901	99.75
471.12	85.75
471.339	86.75
471.558	86.75
471.777	100.75
471.997	92.75
472.216	85.75
472.435	88.75
472.654	76.75
472.873	78.75
473.092	104.75
473.311	84.75
473.53	77.75
473.749	80.75
473.968	89.75
474.187	86.75
474.406	75.75
474.625	93.75
474.844	85.75
475.063	81.75
475.282	78.75
475.501	75.75
475.72	87.75
475.939	93.75
476.158	92.75
476.377	86.75
476.596	89.75
476.814	75.75
477.033	83.75
477.252	96.75
477.471	81.75
477.69	80.75
477.908	101.75
478.127	102.75
478.346	83.75
478.564	98.75
478.783	89.75
479.002	86.75
479.22	72.75
479.439	93.75
479.658	98.75
479.876	80.75
480.095	91.75
480.313	96.75
480.532	80.75
480.751	78.75
480.969	93.75
481.188	99.75
481.406	87.75
481.624	81.75
481.843	90.75
482.061	105.75
482.28	91.75
482.498	93.75
482.717	84.75
482.935	101.75
483.153	92.75
483.372	87.75
483.59	91.75
483.808	83.75
484.027	82.75
484.245	83.75
484.463	92.75
484.681	98.75
484.9	95.75
485.118	113.75
485.336	84.75
485.554	91.75
485.772	89.75
485.99	93.75
486.209	85.75
486.427	86.75
486.645	79.75
486.863	86.75
487.081	89.75
487.299	99.75
487.517	94.75
487.735	119.75
487.953	229.75
488.171	196.75
488.389	104.75
488.607	77.75
488.825	89.75
489.043	84.75
489.261	93.75
489.479	79.75
489.696	91.75
489.914	75.75
490.132	88.75
490.35	84.75
490.568	83.75
490.786	90.75
491.003	96.75
491.221	83.75
491.439	88.75
491.657	101.75
491.874	92.75
492.092	96.75
492.31	82.75
492.527	78.75
492.745	91.75
492.963	101.75
493.18	95.75
493.398	91.75
493.615	80.75
493.833	93.75
494.05	88.75
494.268	94.75
494.485	100.75
494.703	99.75
494.92	93.75
495.138	104.75
495.355	78.75
495.573	99.75
495.79	91.75
496.008	99.75
496.225	128.75
496.442	91.75
496.66	99.75
496.877	91.75
497.094	92.75
497.312	100.75
497.529	98.75
497.746	85.75
497.963	83.75
498.181	110.75
498.398	103.75
498.615	96.75
498.832	86.75
499.049	97.75
499.267	108.75
499.484	97.75
499.701	86.75
499.918	83.75
500.135	105.75
500.352	101.75
500.569	98.75
500.786	109.75
501.003	103.75
501.22	89.75
501.437	97.75
501.654	92.75
501.871	112.75
502.088	92.75
502.305	89.75
502.522	97.75
502.739	93.75
502.956	101.75
503.172	88.75
503.389	100.75
503.606	92.75
503.823	108.75
504.04	114.75
504.256	174.75
504.473	173.75
504.69	125.75
504.907	105.75
505.123	94.75
505.34	98.75
505.557	95.75
505.773	98.75
505.99	69.75
506.207	82.75
506.423	90.75
506.64	101.75
506.856	74.75
507.073	97.75
507.289	92.75
507.506	83.75
507.722	89.75
507.939	83.75
508.155	87.75
508.372	95.75
508.588	92.75
508.805	86.75
509.021	86.75
509.238	92.75
509.454	92.75
509.67	80.75
509.887	90.75
510.103	81.75
510.319	77.75
510.536	81.75
510.752	79.75
510.968	85.75
511.184	94.75
511.401	91.75
511.617	97.75
511.833	90.75
512.049	95.75
512.265	98.75
512.481	89.75
512.698	107.75
512.914	104.75
513.13	88.75
513.346	94.75
513.562	88.75
513.778	96.75
513.994	87.75
514.21	97.75
514.426	74.75
514.642	87.75
514.858	77.75
515.074	77.75
515.29	99.75
515.506	74.75
515.721	77.75
515.937	89.75
516.153	90.75
516.369	98.75
516.585	96.75
516.801	88.75
517.016	109.75
517.232	83.75
517.448	110.75
