Data from 237_3_HRD10591_00040.txt Node
Date: Mon Jan 19 14:13:14 EST 2026
User: Yrep
Spectrometer: HR+D1059
Trigger mode: 1
Integration Time (sec): 1.000000E-1
Scans to average: 1
Electric dark correction enabled: true
Nonlinearity correction enabled: false
Boxcar width: 0
XAxis mode: Wavelengths
Number of Pixels in Spectrum: 2048
>>>>>Begin Spectral Data<<<<<
223.165	-15.94
223.4	-15.94
223.635	-15.94
223.869	-9.94
224.104	-22.94
224.338	-14.94
224.573	-9.94
224.808	-13.94
225.042	-9.94
225.277	-7.94
225.511	-6.94
225.746	0.06
225.98	7.06
226.215	9.06
226.449	15.06
226.683	17.06
226.918	27.06
227.152	37.06
227.387	38.06
227.621	41.06
227.856	53.06
228.09	64.06
228.324	44.06
228.559	68.06
228.793	68.06
229.027	64.06
229.262	67.06
229.496	62.06
229.73	61.06
229.964	64.06
230.199	68.06
230.433	72.06
230.667	74.06
230.901	82.06
231.136	81.06
231.37	91.06
231.604	75.06
231.838	85.06
232.072	76.06
232.306	87.06
232.541	67.06
232.775	92.06
233.009	80.06
233.243	83.06
233.477	87.06
233.711	86.06
233.945	80.06
234.179	83.06
234.413	85.06
234.647	88.06
234.881	78.06
235.115	82.06
235.349	69.06
235.583	71.06
235.817	62.06
236.051	74.06
236.285	67.06
236.519	76.06
236.753	81.06
236.987	83.06
237.221	81.06
237.455	91.06
237.689	77.06
237.922	85.06
238.156	76.06
238.39	75.06
238.624	64.06
238.858	84.06
239.091	68.06
239.325	71.06
239.559	91.06
239.793	70.06
240.027	84.06
240.26	89.06
240.494	78.06
240.728	76.06
240.961	75.06
241.195	70.06
241.429	81.06
241.662	77.06
241.896	73.06
242.13	67.06
242.363	79.06
242.597	84.06
242.83	86.06
243.064	82.06
243.298	73.06
243.531	73.06
243.765	68.06
243.998	76.06
244.232	93.06
244.465	74.06
244.699	70.06
244.932	83.06
245.166	78.06
245.399	72.06
245.633	76.06
245.866	92.06
246.099	70.06
246.333	98.06
246.566	85.06
246.8	67.06
247.033	75.06
247.266	76.06
247.5	72.06
247.733	78.06
247.966	71.06
248.2	70.06
248.433	74.06
248.666	77.06
248.899	83.06
249.133	80.06
249.366	81.06
249.599	88.06
249.832	74.06
250.066	81.06
250.299	80.06
250.532	82.06
250.765	81.06
250.998	83.06
251.231	76.06
251.465	80.06
251.698	61.06
251.931	82.06
252.164	78.06
252.397	68.06
252.63	78.06
252.863	68.06
253.096	64.06
253.329	75.06
253.562	82.06
253.795	75.06
254.028	79.06
254.261	92.06
254.494	72.06
254.727	71.06
254.96	73.06
255.193	83.06
255.426	84.06
255.659	88.06
255.892	68.06
256.124	67.06
256.357	90.06
256.59	77.06
256.823	83.06
257.056	86.06
257.289	83.06
257.521	91.06
257.754	92.06
257.987	99.06
258.22	94.06
258.452	75.06
258.685	87.06
258.918	92.06
259.151	91.06
259.383	88.06
259.616	72.06
259.849	79.06
260.081	70.06
260.314	77.06
260.547	77.06
260.779	74.06
261.012	83.06
261.244	78.06
261.477	78.06
261.71	79.06
261.942	80.06
262.175	95.06
262.407	72.06
262.64	83.06
262.872	78.06
263.105	84.06
263.337	86.06
263.57	86.06
263.802	88.06
264.035	91.06
264.267	64.06
264.499	84.06
264.732	93.06
264.964	86.06
265.197	71.06
265.429	92.06
265.661	78.06
265.894	65.06
266.126	76.06
266.358	88.06
266.591	97.06
266.823	85.06
267.055	67.06
267.287	96.06
267.52	97.06
267.752	78.06
267.984	88.06
268.216	74.06
268.448	82.06
268.681	88.06
268.913	85.06
269.145	93.06
269.377	77.06
269.609	86.06
269.841	84.06
270.073	75.06
270.306	79.06
270.538	91.06
270.77	87.06
271.002	94.06
271.234	75.06
271.466	97.06
271.698	79.06
271.93	77.06
272.162	78.06
272.394	91.06
272.626	78.06
272.858	88.06
273.09	78.06
273.322	83.06
273.553	93.06
273.785	86.06
274.017	96.06
274.249	88.06
274.481	94.06
274.713	88.06
274.945	82.06
275.176	79.06
275.408	80.06
275.64	81.06
275.872	77.06
276.104	75.06
276.335	83.06
276.567	79.06
276.799	78.06
277.031	68.06
277.262	86.06
277.494	92.06
277.726	64.06
277.957	79.06
278.189	78.06
278.421	84.06
278.652	88.06
278.884	88.06
279.115	86.06
279.347	102.06
279.579	78.06
279.81	79.06
280.042	78.06
280.273	81.06
280.505	82.06
280.736	88.06
280.968	75.06
281.199	84.06
281.431	88.06
281.662	97.06
281.894	88.06
282.125	73.06
282.356	75.06
282.588	83.06
282.819	72.06
283.051	84.06
283.282	87.06
283.513	74.06
283.745	97.06
283.976	72.06
284.207	77.06
284.439	81.06
284.67	81.06
284.901	76.06
285.132	90.06
285.364	94.06
285.595	85.06
285.826	88.06
286.057	90.06
286.288	87.06
286.52	72.06
286.751	90.06
286.982	88.06
287.213	84.06
287.444	82.06
287.675	90.06
287.906	89.06
288.138	73.06
288.369	85.06
288.6	75.06
288.831	78.06
289.062	82.06
289.293	91.06
289.524	89.06
289.755	93.06
289.986	93.06
290.217	88.06
290.448	72.06
290.679	96.06
290.91	92.06
291.141	82.06
291.371	93.06
291.602	85.06
291.833	72.06
292.064	92.06
292.295	78.06
292.526	84.06
292.757	76.06
292.987	96.06
293.218	81.06
293.449	90.06
293.68	72.06
293.91	87.06
294.141	84.06
294.372	82.06
294.603	80.06
294.833	80.06
295.064	82.06
295.295	90.06
295.525	78.06
295.756	87.06
295.987	90.06
296.217	76.06
296.448	84.06
296.679	86.06
296.909	85.06
297.14	77.06
297.37	100.06
297.601	84.06
297.831	85.06
298.062	73.06
298.292	93.06
298.523	86.06
298.753	94.06
298.984	101.06
299.214	88.06
299.445	78.06
299.675	79.06
299.905	98.06
300.136	90.06
300.366	93.06
300.597	94.06
300.827	88.06
301.057	81.06
301.288	87.06
301.518	85.06
301.748	89.06
301.979	99.06
302.209	82.06
302.439	84.06
302.669	90.06
302.9	85.06
303.13	83.06
303.36	94.06
303.59	90.06
303.82	87.06
304.051	88.06
304.281	99.06
304.511	92.06
304.741	86.06
304.971	84.06
305.201	91.06
305.431	82.06
305.661	88.06
305.891	96.06
306.121	84.06
306.352	89.06
306.582	96.06
306.812	97.06
307.042	81.06
307.272	88.06
307.502	93.06
307.731	89.06
307.961	84.06
308.191	80.06
308.421	69.06
308.651	90.06
308.881	106.06
309.111	89.06
309.341	86.06
309.571	68.06
309.8	69.06
310.03	76.06
310.26	89.06
310.49	78.06
310.72	85.06
310.949	79.06
311.179	68.06
311.409	78.06
311.639	69.06
311.868	97.06
312.098	81.06
312.328	93.06
312.557	84.06
312.787	98.06
313.017	84.06
313.246	95.06
313.476	83.06
313.706	82.06
313.935	90.06
314.165	86.06
314.394	87.06
314.624	94.06
314.853	88.06
315.083	89.06
315.312	83.06
315.542	94.06
315.771	86.06
316.001	73.06
316.23	94.06
316.46	82.06
316.689	90.06
316.919	81.06
317.148	80.06
317.377	100.06
317.607	81.06
317.836	88.06
318.065	90.06
318.295	99.06
318.524	94.06
318.753	77.06
318.983	90.06
319.212	79.06
319.441	94.06
319.67	92.06
319.9	77.06
320.129	91.06
320.358	85.06
320.587	90.06
320.816	86.06
321.046	82.06
321.275	89.06
321.504	71.06
321.733	89.06
321.962	87.06
322.191	95.06
322.42	99.06
322.649	109.06
322.878	74.06
323.108	93.06
323.337	93.06
323.566	84.06
323.795	90.06
324.024	93.06
324.253	85.06
324.482	93.06
324.71	88.06
324.939	72.06
325.168	100.06
325.397	93.06
325.626	78.06
325.855	88.06
326.084	82.06
326.313	98.06
326.542	96.06
326.77	89.06
326.999	85.06
327.228	89.06
327.457	102.06
327.686	96.06
327.914	94.06
328.143	98.06
328.372	84.06
328.6	87.06
328.829	89.06
329.058	85.06
329.287	94.06
329.515	86.06
329.744	71.06
329.972	72.06
330.201	74.06
330.43	94.06
330.658	86.06
330.887	83.06
331.115	89.06
331.344	75.06
331.572	84.06
331.801	87.06
332.03	79.06
332.258	76.06
332.486	84.06
332.715	88.06
332.943	82.06
333.172	88.06
333.4	90.06
333.629	86.06
333.857	88.06
334.085	81.06
334.314	88.06
334.542	78.06
334.771	94.06
334.999	79.06
335.227	82.06
335.455	77.06
335.684	93.06
335.912	96.06
336.14	98.06
336.369	99.06
336.597	91.06
336.825	85.06
337.053	97.06
337.281	92.06
337.51	89.06
337.738	87.06
337.966	93.06
338.194	89.06
338.422	85.06
338.65	84.06
338.878	76.06
339.106	94.06
339.334	89.06
339.562	85.06
339.79	88.06
340.018	87.06
340.246	82.06
340.474	71.06
340.702	89.06
340.93	73.06
341.158	82.06
341.386	80.06
341.614	89.06
341.842	70.06
342.07	86.06
342.298	92.06
342.526	88.06
342.754	84.06
342.981	74.06
343.209	86.06
343.437	96.06
343.665	84.06
343.893	91.06
344.12	89.06
344.348	83.06
344.576	90.06
344.804	80.06
345.031	82.06
345.259	77.06
345.487	92.06
345.714	82.06
345.942	84.06
346.17	90.06
346.397	75.06
346.625	80.06
346.853	100.06
347.08	97.06
347.308	88.06
347.535	92.06
347.763	86.06
347.99	73.06
348.218	90.06
348.445	75.06
348.673	88.06
348.9	89.06
349.128	88.06
349.355	73.06
349.583	78.06
349.81	69.06
350.037	99.06
350.265	77.06
350.492	81.06
350.72	79.06
350.947	82.06
351.174	94.06
351.402	95.06
351.629	88.06
351.856	87.06
352.083	104.06
352.311	81.06
352.538	84.06
352.765	69.06
352.992	89.06
353.22	79.06
353.447	78.06
353.674	92.06
353.901	92.06
354.128	94.06
354.355	83.06
354.583	89.06
354.81	92.06
355.037	79.06
355.264	94.06
355.491	94.06
355.718	92.06
355.945	97.06
356.172	88.06
356.399	86.06
356.626	89.06
356.853	94.06
357.08	85.06
357.307	90.06
357.534	108.06
357.761	82.06
357.988	100.06
358.215	95.06
358.441	93.06
358.668	82.06
358.895	85.06
359.122	89.06
359.349	89.06
359.576	83.06
359.802	93.06
360.029	81.06
360.256	88.06
360.483	94.06
360.709	88.06
360.936	89.06
361.163	98.06
361.39	102.06
361.616	93.06
361.843	90.06
362.07	77.06
362.296	96.06
362.523	92.06
362.749	91.06
362.976	88.06
363.203	103.06
363.429	89.06
363.656	84.06
363.882	85.06
364.109	102.06
364.335	105.06
364.562	104.06
364.788	99.06
365.015	103.06
365.241	103.06
365.468	96.06
365.694	87.06
365.92	85.06
366.147	104.06
366.373	82.06
366.599	81.06
366.826	87.06
367.052	95.06
367.278	91.06
367.505	88.06
367.731	96.06
367.957	72.06
368.184	78.06
368.41	84.06
368.636	82.06
368.862	93.06
369.089	78.06
369.315	96.06
369.541	92.06
369.767	92.06
369.993	92.06
370.219	92.06
370.445	84.06
370.672	73.06
370.898	93.06
371.124	106.06
371.35	94.06
371.576	79.06
371.802	94.06
372.028	97.06
372.254	84.06
372.48	78.06
372.706	84.06
372.932	89.06
373.158	93.06
373.384	100.06
373.61	107.06
373.835	93.06
374.061	98.06
374.287	92.06
374.513	96.06
374.739	97.06
374.965	88.06
375.191	92.06
375.416	89.06
375.642	88.06
375.868	96.06
376.094	79.06
376.319	84.06
376.545	106.06
376.771	93.06
376.997	75.06
377.222	93.06
377.448	90.06
377.674	90.06
377.899	82.06
378.125	89.06
378.35	82.06
378.576	79.06
378.802	83.06
379.027	87.06
379.253	86.06
379.478	91.06
379.704	83.06
379.929	81.06
380.155	87.06
380.38	92.06
380.606	84.06
380.831	98.06
381.057	91.06
381.282	90.06
381.507	85.06
381.733	106.06
381.958	89.06
382.184	96.06
382.409	104.06
382.634	96.06
382.86	86.06
383.085	101.06
383.31	78.06
383.535	102.06
383.761	100.06
383.986	83.06
384.211	83.06
384.436	88.06
384.662	71.06
384.887	87.06
385.112	75.06
385.337	84.06
385.562	77.06
385.787	87.06
386.013	100.06
386.238	86.06
386.463	96.06
386.688	110.06
386.913	79.06
387.138	88.06
387.363	92.06
387.588	96.06
387.813	107.06
388.038	90.06
388.263	94.06
388.488	85.06
388.713	86.06
388.938	82.06
389.163	100.06
389.387	84.06
389.612	83.06
389.837	85.06
390.062	86.06
390.287	87.06
390.512	90.06
390.736	80.06
390.961	78.06
391.186	85.06
391.411	84.06
391.636	90.06
391.86	85.06
392.085	90.06
392.31	89.06
392.534	89.06
392.759	90.06
392.984	102.06
393.208	135.06
393.433	166.06
393.658	136.06
393.882	98.06
394.107	100.06
394.331	83.06
394.556	93.06
394.78	90.06
395.005	92.06
395.229	87.06
395.454	79.06
395.678	100.06
395.903	98.06
396.127	94.06
396.352	122.06
396.576	106.06
396.801	135.06
397.025	153.06
397.249	118.06
397.474	98.06
397.698	79.06
397.922	80.06
398.147	91.06
398.371	86.06
398.595	84.06
398.82	91.06
399.044	84.06
399.268	103.06
399.492	93.06
399.717	90.06
399.941	94.06
400.165	89.06
400.389	77.06
400.613	83.06
400.837	99.06
401.062	79.06
401.286	89.06
401.51	87.06
401.734	85.06
401.958	86.06
402.182	90.06
402.406	84.06
402.63	91.06
402.854	83.06
403.078	87.06
403.302	81.06
403.526	90.06
403.75	77.06
403.974	86.06
404.198	77.06
404.422	90.06
404.645	97.06
404.869	100.06
405.093	85.06
405.317	87.06
405.541	80.06
405.765	86.06
405.988	93.06
406.212	86.06
406.436	77.06
406.66	98.06
406.883	96.06
407.107	81.06
407.331	81.06
407.555	91.06
407.778	91.06
408.002	75.06
408.226	87.06
408.449	88.06
408.673	85.06
408.896	74.06
409.12	82.06
409.344	91.06
409.567	92.06
409.791	84.06
410.014	106.06
410.238	96.06
410.461	72.06
410.685	69.06
410.908	84.06
411.132	97.06
411.355	86.06
411.578	83.06
411.802	86.06
412.025	88.06
412.249	84.06
412.472	80.06
412.695	81.06
412.919	106.06
413.142	85.06
413.365	95.06
413.589	90.06
413.812	74.06
414.035	77.06
414.258	94.06
414.482	80.06
414.705	83.06
414.928	93.06
415.151	91.06
415.374	88.06
415.597	99.06
415.821	99.06
416.044	78.06
416.267	80.06
416.49	71.06
416.713	91.06
416.936	97.06
417.159	84.06
417.382	82.06
417.605	89.06
417.828	75.06
418.051	72.06
418.274	85.06
418.497	74.06
418.72	86.06
418.943	73.06
419.166	86.06
419.389	90.06
419.611	88.06
419.834	85.06
420.057	83.06
420.28	79.06
420.503	83.06
420.726	60.06
420.948	89.06
421.171	91.06
421.394	73.06
421.617	93.06
421.839	100.06
422.062	105.06
422.285	120.06
422.507	159.06
422.73	225.06
422.953	225.06
423.175	134.06
423.398	106.06
423.621	92.06
423.843	94.06
424.066	93.06
424.288	84.06
424.511	92.06
424.733	91.06
424.956	95.06
425.178	79.06
425.401	81.06
425.623	91.06
425.846	84.06
426.068	90.06
426.291	98.06
426.513	79.06
426.735	84.06
426.958	77.06
427.18	77.06
427.402	84.06
427.625	81.06
427.847	90.06
428.069	100.06
428.292	101.06
428.514	108.06
428.736	100.06
428.958	104.06
429.181	107.06
429.403	97.06
429.625	88.06
429.847	105.06
430.069	127.06
430.292	136.06
430.514	120.06
430.736	112.06
430.958	116.06
431.18	84.06
431.402	75.06
431.624	98.06
431.846	101.06
432.068	114.06
432.29	90.06
432.512	78.06
432.734	80.06
432.956	86.06
433.178	85.06
433.4	89.06
433.622	72.06
433.844	92.06
434.066	97.06
434.287	77.06
434.509	88.06
434.731	87.06
434.953	71.06
435.175	93.06
435.397	84.06
435.618	90.06
435.84	87.06
436.062	85.06
436.284	90.06
436.505	78.06
436.727	91.06
436.949	73.06
437.17	82.06
437.392	85.06
437.614	91.06
437.835	90.06
438.057	86.06
438.278	96.06
438.5	98.06
438.721	85.06
438.943	79.06
439.165	83.06
439.386	89.06
439.608	76.06
439.829	77.06
440.05	84.06
440.272	75.06
440.493	101.06
440.715	98.06
440.936	91.06
441.158	77.06
441.379	80.06
441.6	84.06
441.822	68.06
442.043	79.06
442.264	91.06
442.486	85.06
442.707	110.06
442.928	90.06
443.149	102.06
443.371	108.06
443.592	152.06
443.813	150.06
444.034	98.06
444.255	101.06
444.476	85.06
444.698	88.06
444.919	86.06
445.14	178.06
445.361	167.06
445.582	180.06
445.803	164.06
446.024	89.06
446.245	90.06
446.466	76.06
446.687	74.06
446.908	73.06
447.129	81.06
447.35	81.06
447.571	92.06
447.792	100.06
448.013	82.06
448.234	78.06
448.455	76.06
448.675	98.06
448.896	85.06
449.117	71.06
449.338	83.06
449.559	93.06
449.779	86.06
450	97.06
450.221	85.06
450.442	81.06
450.662	64.06
450.883	74.06
451.104	78.06
451.324	96.06
451.545	83.06
451.766	79.06
451.986	85.06
452.207	89.06
452.428	88.06
452.648	91.06
452.869	91.06
453.089	96.06
453.31	84.06
453.53	94.06
453.751	100.06
453.971	86.06
454.192	84.06
454.412	76.06
454.633	93.06
454.853	96.06
455.073	84.06
455.294	90.06
455.514	89.06
455.734	96.06
455.955	77.06
456.175	86.06
456.395	79.06
456.616	73.06
456.836	87.06
457.056	86.06
457.276	88.06
457.497	94.06
457.717	83.06
457.937	93.06
458.157	100.06
458.377	79.06
458.598	98.06
458.818	108.06
459.038	98.06
459.258	98.06
459.478	85.06
459.698	94.06
459.918	105.06
460.138	89.06
460.358	97.06
460.578	93.06
460.798	93.06
461.018	92.06
461.238	91.06
461.458	104.06
461.678	81.06
461.898	90.06
462.118	89.06
462.338	89.06
462.558	89.06
462.777	93.06
462.997	90.06
463.217	76.06
463.437	85.06
463.657	75.06
463.876	84.06
464.096	85.06
464.316	92.06
464.536	79.06
464.755	70.06
464.975	84.06
465.195	106.06
465.414	101.06
465.634	85.06
465.854	97.06
466.073	83.06
466.293	99.06
466.512	79.06
466.732	89.06
466.951	76.06
467.171	79.06
467.391	82.06
467.61	87.06
467.829	86.06
468.049	90.06
468.268	81.06
468.488	83.06
468.707	89.06
468.927	84.06
469.146	84.06
469.365	78.06
469.585	68.06
469.804	89.06
470.023	102.06
470.243	74.06
470.462	101.06
470.681	108.06
470.901	93.06
471.12	92.06
471.339	89.06
471.558	83.06
471.777	84.06
471.997	86.06
472.216	83.06
472.435	86.06
472.654	101.06
472.873	104.06
473.092	76.06
473.311	86.06
473.53	77.06
473.749	80.06
473.968	84.06
474.187	79.06
474.406	86.06
474.625	93.06
474.844	91.06
475.063	84.06
475.282	75.06
475.501	80.06
475.72	88.06
475.939	95.06
476.158	87.06
476.377	79.06
476.596	89.06
476.814	98.06
477.033	96.06
477.252	100.06
477.471	89.06
477.69	89.06
477.908	78.06
478.127	86.06
478.346	79.06
478.564	79.06
478.783	82.06
479.002	95.06
479.22	64.06
479.439	102.06
479.658	88.06
479.876	94.06
480.095	91.06
480.313	84.06
480.532	92.06
480.751	82.06
480.969	85.06
481.188	88.06
481.406	90.06
481.624	105.06
481.843	83.06
482.061	79.06
482.28	95.06
482.498	87.06
482.717	77.06
482.935	79.06
483.153	88.06
483.372	80.06
483.59	78.06
483.808	88.06
484.027	92.06
484.245	88.06
484.463	81.06
484.681	86.06
484.9	78.06
485.118	98.06
485.336	97.06
485.554	101.06
485.772	84.06
485.99	87.06
486.209	82.06
486.427	88.06
486.645	97.06
486.863	103.06
487.081	82.06
487.299	88.06
487.517	96.06
487.735	93.06
487.953	120.06
488.171	91.06
488.389	78.06
488.607	79.06
488.825	86.06
489.043	87.06
489.261	89.06
489.479	89.06
489.696	90.06
489.914	76.06
490.132	94.06
490.35	81.06
490.568	91.06
490.786	93.06
491.003	96.06
491.221	98.06
491.439	76.06
491.657	86.06
491.874	84.06
492.092	97.06
492.31	98.06
492.527	89.06
492.745	97.06
492.963	97.06
493.18	86.06
493.398	84.06
493.615	94.06
493.833	95.06
494.05	92.06
494.268	99.06
494.485	84.06
494.703	96.06
494.92	76.06
495.138	79.06
495.355	100.06
495.573	78.06
495.79	87.06
496.008	95.06
496.225	74.06
496.442	97.06
496.66	88.06
496.877	92.06
497.094	85.06
497.312	68.06
497.529	88.06
497.746	92.06
497.963	78.06
498.181	80.06
498.398	101.06
498.615	90.06
498.832	89.06
499.049	64.06
499.267	102.06
499.484	96.06
499.701	91.06
499.918	88.06
500.135	99.06
500.352	84.06
500.569	100.06
500.786	88.06
501.003	86.06
501.22	102.06
501.437	77.06
501.654	89.06
501.871	86.06
502.088	88.06
502.305	91.06
502.522	93.06
502.739	100.06
502.956	88.06
503.172	85.06
503.389	90.06
503.606	89.06
503.823	89.06
504.04	89.06
504.256	102.06
504.473	90.06
504.69	76.06
504.907	85.06
505.123	81.06
505.34	76.06
505.557	88.06
505.773	102.06
505.99	85.06
506.207	89.06
506.423	82.06
506.64	92.06
506.856	86.06
507.073	82.06
507.289	95.06
507.506	81.06
507.722	89.06
507.939	101.06
508.155	81.06
508.372	84.06
508.588	89.06
508.805	79.06
509.021	91.06
509.238	89.06
509.454	90.06
509.67	99.06
509.887	95.06
510.103	84.06
510.319	71.06
510.536	90.06
510.752	77.06
510.968	79.06
511.184	78.06
511.401	92.06
511.617	84.06
511.833	92.06
512.049	84.06
512.265	72.06
512.481	82.06
512.698	83.06
512.914	99.06
513.13	85.06
513.346	81.06
513.562	96.06
513.778	80.06
513.994	85.06
514.21	88.06
514.426	86.06
514.642	87.06
514.858	78.06
515.074	88.06
515.29	108.06
515.506	94.06
515.721	94.06
515.937	84.06
516.153	90.06
516.369	94.06
516.585	82.06
516.801	93.06
517.016	92.06
517.232	85.06
517.448	80.06
517.664	96.06
517.879	90.06
518.095	94.06
518.311	90.06
518.527	76.06
518.742	94.06
