Data from 237_3_HRD10591_00030.txt Node
Date: Mon Jan 19 14:13:09 EST 2026
User: Yrep
Spectrometer: HR+D1059
Trigger mode: 1
Integration Time (sec): 1.000000E-1
Scans to average: 1
Electric dark correction enabled: true
Nonlinearity correction enabled: false
Boxcar width: 0
XAxis mode: Wavelengths
Number of Pixels in Spectrum: 2048
>>>>>Begin Spectral Data<<<<<
223.165	-14.38
223.4	-14.38
223.635	-14.38
223.869	-16.38
224.104	-8.38
224.338	-16.38
224.573	-13.38
224.808	-8.38
225.042	-6.38
225.277	-0.38
225.511	-8.38
225.746	7.62
225.98	-3.38
226.215	13.62
226.449	11.62
226.683	15.62
226.918	20.62
227.152	26.62
227.387	33.62
227.621	27.62
227.856	36.62
228.09	31.62
228.324	42.62
228.559	50.62
228.793	53.62
229.027	58.62
229.262	69.62
229.496	63.62
229.73	56.62
229.964	71.62
230.199	73.62
230.433	74.62
230.667	74.62
230.901	62.62
231.136	89.62
231.37	77.62
231.604	70.62
231.838	70.62
232.072	68.62
232.306	77.62
232.541	77.62
232.775	67.62
233.009	90.62
233.243	81.62
233.477	89.62
233.711	71.62
233.945	67.62
234.179	67.62
234.413	70.62
234.647	86.62
234.881	75.62
235.115	76.62
235.349	63.62
235.583	86.62
235.817	83.62
236.051	85.62
236.285	62.62
236.519	68.62
236.753	81.62
236.987	69.62
237.221	73.62
237.455	70.62
237.689	73.62
237.922	75.62
238.156	88.62
238.39	69.62
238.624	64.62
238.858	73.62
239.091	75.62
239.325	75.62
239.559	71.62
239.793	77.62
240.027	77.62
240.26	85.62
240.494	84.62
240.728	69.62
240.961	64.62
241.195	79.62
241.429	81.62
241.662	65.62
241.896	87.62
242.13	65.62
242.363	90.62
242.597	79.62
242.83	92.62
243.064	70.62
243.298	62.62
243.531	71.62
243.765	79.62
243.998	68.62
244.232	72.62
244.465	85.62
244.699	73.62
244.932	76.62
245.166	83.62
245.399	76.62
245.633	66.62
245.866	69.62
246.099	72.62
246.333	66.62
246.566	81.62
246.8	76.62
247.033	81.62
247.266	94.62
247.5	61.62
247.733	69.62
247.966	63.62
248.2	90.62
248.433	73.62
248.666	69.62
248.899	93.62
249.133	84.62
249.366	75.62
249.599	79.62
249.832	78.62
250.066	73.62
250.299	85.62
250.532	71.62
250.765	81.62
250.998	87.62
251.231	79.62
251.465	73.62
251.698	71.62
251.931	73.62
252.164	69.62
252.397	81.62
252.63	82.62
252.863	92.62
253.096	91.62
253.329	84.62
253.562	73.62
253.795	84.62
254.028	83.62
254.261	77.62
254.494	82.62
254.727	80.62
254.96	89.62
255.193	87.62
255.426	96.62
255.659	77.62
255.892	79.62
256.124	69.62
256.357	83.62
256.59	80.62
256.823	79.62
257.056	95.62
257.289	74.62
257.521	81.62
257.754	78.62
257.987	84.62
258.22	72.62
258.452	80.62
258.685	81.62
258.918	96.62
259.151	83.62
259.383	84.62
259.616	74.62
259.849	85.62
260.081	91.62
260.314	72.62
260.547	80.62
260.779	79.62
261.012	85.62
261.244	83.62
261.477	72.62
261.71	94.62
261.942	81.62
262.175	72.62
262.407	79.62
262.64	97.62
262.872	83.62
263.105	72.62
263.337	83.62
263.57	85.62
263.802	89.62
264.035	82.62
264.267	79.62
264.499	78.62
264.732	76.62
264.964	68.62
265.197	73.62
265.429	81.62
265.661	68.62
265.894	69.62
266.126	90.62
266.358	88.62
266.591	78.62
266.823	82.62
267.055	84.62
267.287	77.62
267.52	90.62
267.752	85.62
267.984	71.62
268.216	79.62
268.448	81.62
268.681	86.62
268.913	68.62
269.145	75.62
269.377	62.62
269.609	78.62
269.841	73.62
270.073	92.62
270.306	76.62
270.538	70.62
270.77	84.62
271.002	85.62
271.234	74.62
271.466	72.62
271.698	86.62
271.93	81.62
272.162	77.62
272.394	88.62
272.626	76.62
272.858	83.62
273.09	82.62
273.322	79.62
273.553	72.62
273.785	74.62
274.017	74.62
274.249	75.62
274.481	87.62
274.713	87.62
274.945	83.62
275.176	67.62
275.408	81.62
275.64	79.62
275.872	79.62
276.104	88.62
276.335	91.62
276.567	73.62
276.799	80.62
277.031	74.62
277.262	79.62
277.494	77.62
277.726	79.62
277.957	82.62
278.189	86.62
278.421	85.62
278.652	88.62
278.884	68.62
279.115	58.62
279.347	79.62
279.579	81.62
279.81	79.62
280.042	86.62
280.273	71.62
280.505	74.62
280.736	80.62
280.968	82.62
281.199	92.62
281.431	87.62
281.662	85.62
281.894	79.62
282.125	80.62
282.356	78.62
282.588	75.62
282.819	75.62
283.051	70.62
283.282	81.62
283.513	77.62
283.745	78.62
283.976	78.62
284.207	92.62
284.439	88.62
284.67	84.62
284.901	83.62
285.132	81.62
285.364	75.62
285.595	77.62
285.826	87.62
286.057	85.62
286.288	72.62
286.52	78.62
286.751	87.62
286.982	101.62
287.213	81.62
287.444	81.62
287.675	81.62
287.906	72.62
288.138	73.62
288.369	81.62
288.6	90.62
288.831	75.62
289.062	89.62
289.293	79.62
289.524	74.62
289.755	83.62
289.986	75.62
290.217	89.62
290.448	74.62
290.679	83.62
290.91	85.62
291.141	94.62
291.371	102.62
291.602	91.62
291.833	79.62
292.064	85.62
292.295	73.62
292.526	83.62
292.757	94.62
292.987	86.62
293.218	76.62
293.449	85.62
293.68	82.62
293.91	95.62
294.141	90.62
294.372	93.62
294.603	95.62
294.833	106.62
295.064	81.62
295.295	84.62
295.525	79.62
295.756	81.62
295.987	91.62
296.217	72.62
296.448	78.62
296.679	88.62
296.909	72.62
297.14	84.62
297.37	85.62
297.601	82.62
297.831	74.62
298.062	75.62
298.292	84.62
298.523	75.62
298.753	75.62
298.984	87.62
299.214	93.62
299.445	86.62
299.675	99.62
299.905	88.62
300.136	89.62
300.366	90.62
300.597	93.62
300.827	90.62
301.057	87.62
301.288	81.62
301.518	83.62
301.748	99.62
301.979	93.62
302.209	75.62
302.439	89.62
302.669	84.62
302.9	87.62
303.13	89.62
303.36	79.62
303.59	78.62
303.82	80.62
304.051	89.62
304.281	81.62
304.511	74.62
304.741	87.62
304.971	75.62
305.201	91.62
305.431	90.62
305.661	80.62
305.891	82.62
306.121	83.62
306.352	97.62
306.582	86.62
306.812	73.62
307.042	77.62
307.272	75.62
307.502	97.62
307.731	76.62
307.961	89.62
308.191	88.62
308.421	103.62
308.651	98.62
308.881	83.62
309.111	105.62
309.341	97.62
309.571	98.62
309.8	69.62
310.03	80.62
310.26	89.62
310.49	75.62
310.72	79.62
310.949	79.62
311.179	87.62
311.409	83.62
311.639	89.62
311.868	82.62
312.098	79.62
312.328	81.62
312.557	73.62
312.787	83.62
313.017	87.62
313.246	88.62
313.476	93.62
313.706	76.62
313.935	79.62
314.165	93.62
314.394	81.62
314.624	77.62
314.853	96.62
315.083	86.62
315.312	91.62
315.542	79.62
315.771	81.62
316.001	74.62
316.23	93.62
316.46	95.62
316.689	76.62
316.919	79.62
317.148	82.62
317.377	73.62
317.607	86.62
317.836	75.62
318.065	97.62
318.295	89.62
318.524	69.62
318.753	85.62
318.983	86.62
319.212	78.62
319.441	78.62
319.67	80.62
319.9	89.62
320.129	86.62
320.358	83.62
320.587	94.62
320.816	85.62
321.046	86.62
321.275	80.62
321.504	89.62
321.733	89.62
321.962	94.62
322.191	93.62
322.42	87.62
322.649	106.62
322.878	81.62
323.108	95.62
323.337	73.62
323.566	76.62
323.795	92.62
324.024	99.62
324.253	95.62
324.482	81.62
324.71	93.62
324.939	90.62
325.168	85.62
325.397	82.62
325.626	80.62
325.855	92.62
326.084	90.62
326.313	73.62
326.542	77.62
326.77	91.62
326.999	79.62
327.228	85.62
327.457	91.62
327.686	86.62
327.914	81.62
328.143	93.62
328.372	93.62
328.6	78.62
328.829	83.62
329.058	81.62
329.287	86.62
329.515	79.62
329.744	81.62
329.972	85.62
330.201	76.62
330.43	92.62
330.658	86.62
330.887	88.62
331.115	72.62
331.344	79.62
331.572	94.62
331.801	81.62
332.03	93.62
332.258	86.62
332.486	93.62
332.715	83.62
332.943	93.62
333.172	77.62
333.4	84.62
333.629	92.62
333.857	91.62
334.085	99.62
334.314	86.62
334.542	87.62
334.771	90.62
334.999	86.62
335.227	96.62
335.455	88.62
335.684	92.62
335.912	86.62
336.14	89.62
336.369	90.62
336.597	89.62
336.825	99.62
337.053	74.62
337.281	87.62
337.51	95.62
337.738	98.62
337.966	105.62
338.194	78.62
338.422	94.62
338.65	96.62
338.878	85.62
339.106	94.62
339.334	95.62
339.562	74.62
339.79	87.62
340.018	76.62
340.246	72.62
340.474	81.62
340.702	86.62
340.93	100.62
341.158	100.62
341.386	87.62
341.614	81.62
341.842	87.62
342.07	91.62
342.298	81.62
342.526	74.62
342.754	87.62
342.981	89.62
343.209	89.62
343.437	111.62
343.665	100.62
343.893	84.62
344.12	92.62
344.348	93.62
344.576	95.62
344.804	82.62
345.031	81.62
345.259	73.62
345.487	87.62
345.714	87.62
345.942	75.62
346.17	83.62
346.397	73.62
346.625	75.62
346.853	87.62
347.08	95.62
347.308	92.62
347.535	79.62
347.763	103.62
347.99	92.62
348.218	78.62
348.445	69.62
348.673	96.62
348.9	90.62
349.128	75.62
349.355	80.62
349.583	95.62
349.81	95.62
350.037	87.62
350.265	93.62
350.492	67.62
350.72	85.62
350.947	84.62
351.174	90.62
351.402	89.62
351.629	91.62
351.856	78.62
352.083	88.62
352.311	82.62
352.538	86.62
352.765	86.62
352.992	107.62
353.22	84.62
353.447	90.62
353.674	91.62
353.901	85.62
354.128	81.62
354.355	90.62
354.583	83.62
354.81	81.62
355.037	82.62
355.264	78.62
355.491	77.62
355.718	83.62
355.945	85.62
356.172	81.62
356.399	88.62
356.626	86.62
356.853	86.62
357.08	97.62
357.307	87.62
357.534	93.62
357.761	93.62
357.988	101.62
358.215	96.62
358.441	86.62
358.668	89.62
358.895	87.62
359.122	65.62
359.349	96.62
359.576	82.62
359.802	93.62
360.029	89.62
360.256	86.62
360.483	93.62
360.709	74.62
360.936	86.62
361.163	83.62
361.39	95.62
361.616	89.62
361.843	105.62
362.07	106.62
362.296	92.62
362.523	102.62
362.749	104.62
362.976	111.62
363.203	105.62
363.429	88.62
363.656	84.62
363.882	105.62
364.109	113.62
364.335	131.62
364.562	130.62
364.788	114.62
365.015	79.62
365.241	90.62
365.468	94.62
365.694	97.62
365.92	85.62
366.147	84.62
366.373	87.62
366.599	84.62
366.826	86.62
367.052	87.62
367.278	94.62
367.505	85.62
367.731	98.62
367.957	97.62
368.184	87.62
368.41	99.62
368.636	81.62
368.862	95.62
369.089	92.62
369.315	84.62
369.541	86.62
369.767	89.62
369.993	85.62
370.219	85.62
370.445	84.62
370.672	80.62
370.898	93.62
371.124	85.62
371.35	87.62
371.576	82.62
371.802	97.62
372.028	96.62
372.254	101.62
372.48	87.62
372.706	93.62
372.932	100.62
373.158	101.62
373.384	101.62
373.61	102.62
373.835	105.62
374.061	100.62
374.287	102.62
374.513	97.62
374.739	91.62
374.965	83.62
375.191	88.62
375.416	83.62
375.642	89.62
375.868	86.62
376.094	90.62
376.319	77.62
376.545	95.62
376.771	90.62
376.997	77.62
377.222	79.62
377.448	69.62
377.674	79.62
377.899	81.62
378.125	81.62
378.35	94.62
378.576	93.62
378.802	95.62
379.027	94.62
379.253	98.62
379.478	79.62
379.704	80.62
379.929	84.62
380.155	78.62
380.38	88.62
380.606	80.62
380.831	89.62
381.057	90.62
381.282	92.62
381.507	91.62
381.733	93.62
381.958	107.62
382.184	98.62
382.409	94.62
382.634	96.62
382.86	105.62
383.085	103.62
383.31	90.62
383.535	88.62
383.761	95.62
383.986	94.62
384.211	89.62
384.436	87.62
384.662	89.62
384.887	93.62
385.112	85.62
385.337	98.62
385.562	85.62
385.787	78.62
386.013	94.62
386.238	94.62
386.463	99.62
386.688	93.62
386.913	83.62
387.138	87.62
387.363	105.62
387.588	96.62
387.813	96.62
388.038	111.62
388.263	87.62
388.488	86.62
388.713	89.62
388.938	84.62
389.163	97.62
389.387	87.62
389.612	86.62
389.837	98.62
390.062	81.62
390.287	96.62
390.512	85.62
390.736	83.62
390.961	79.62
391.186	73.62
391.411	73.62
391.636	87.62
391.86	88.62
392.085	86.62
392.31	92.62
392.534	104.62
392.759	123.62
392.984	143.62
393.208	217.62
393.433	308.62
393.658	245.62
393.882	141.62
394.107	124.62
394.331	121.62
394.556	106.62
394.78	97.62
395.005	111.62
395.229	111.62
395.454	123.62
395.678	101.62
395.903	115.62
396.127	141.62
396.352	174.62
396.576	162.62
396.801	230.62
397.025	260.62
397.249	157.62
397.474	117.62
397.698	98.62
397.922	101.62
398.147	83.62
398.371	90.62
398.595	97.62
398.82	80.62
399.044	98.62
399.268	106.62
399.492	73.62
399.717	84.62
399.941	89.62
400.165	100.62
400.389	77.62
400.613	87.62
400.837	89.62
401.062	93.62
401.286	89.62
401.51	81.62
401.734	82.62
401.958	84.62
402.182	75.62
402.406	99.62
402.63	95.62
402.854	90.62
403.078	93.62
403.302	100.62
403.526	90.62
403.75	100.62
403.974	96.62
404.198	117.62
404.422	161.62
404.645	172.62
404.869	163.62
405.093	110.62
405.317	101.62
405.541	86.62
405.765	83.62
405.988	89.62
406.212	83.62
406.436	82.62
406.66	102.62
406.883	86.62
407.107	94.62
407.331	96.62
407.555	91.62
407.778	89.62
408.002	107.62
408.226	76.62
408.449	90.62
408.673	76.62
408.896	82.62
409.12	91.62
409.344	98.62
409.567	97.62
409.791	96.62
410.014	101.62
410.238	94.62
410.461	110.62
410.685	88.62
410.908	90.62
411.132	86.62
411.355	89.62
411.578	99.62
411.802	99.62
412.025	83.62
412.249	65.62
412.472	89.62
412.695	85.62
412.919	88.62
413.142	96.62
413.365	104.62
413.589	88.62
413.812	85.62
414.035	95.62
414.258	85.62
414.482	93.62
414.705	90.62
414.928	93.62
415.151	81.62
415.374	89.62
415.597	82.62
415.821	93.62
416.044	75.62
416.267	80.62
416.49	79.62
416.713	73.62
416.936	87.62
417.159	91.62
417.382	82.62
417.605	76.62
417.828	85.62
418.051	80.62
418.274	82.62
418.497	81.62
418.72	96.62
418.943	96.62
419.166	81.62
419.389	81.62
419.611	81.62
419.834	87.62
420.057	83.62
420.28	91.62
420.503	109.62
420.726	78.62
420.948	91.62
421.171	106.62
421.394	103.62
421.617	110.62
421.839	121.62
422.062	143.62
422.285	203.62
422.507	337.62
422.73	506.62
422.953	443.62
423.175	257.62
423.398	151.62
423.621	113.62
423.843	100.62
424.066	88.62
424.288	106.62
424.511	81.62
424.733	84.62
424.956	92.62
425.178	93.62
425.401	88.62
425.623	93.62
425.846	83.62
426.068	98.62
426.291	95.62
426.513	101.62
426.735	86.62
426.958	81.62
427.18	95.62
427.402	98.62
427.625	92.62
427.847	105.62
428.069	106.62
428.292	140.62
428.514	152.62
428.736	129.62
428.958	148.62
429.181	150.62
429.403	110.62
429.625	108.62
429.847	135.62
430.069	176.62
430.292	223.62
430.514	197.62
430.736	147.62
430.958	149.62
431.18	107.62
431.402	97.62
431.624	103.62
431.846	147.62
432.068	150.62
432.29	111.62
432.512	98.62
432.734	96.62
432.956	93.62
433.178	92.62
433.4	78.62
433.622	86.62
433.844	83.62
434.066	85.62
434.287	81.62
434.509	83.62
434.731	75.62
434.953	95.62
435.175	70.62
435.397	88.62
435.618	91.62
435.84	85.62
436.062	90.62
436.284	75.62
436.505	95.62
436.727	72.62
436.949	89.62
437.17	82.62
437.392	77.62
437.614	61.62
437.835	79.62
438.057	76.62
438.278	72.62
438.5	93.62
438.721	80.62
438.943	85.62
439.165	73.62
439.386	98.62
439.608	89.62
439.829	95.62
440.05	83.62
440.272	99.62
440.493	93.62
440.715	73.62
440.936	79.62
441.158	85.62
441.379	84.62
441.6	90.62
441.822	89.62
442.043	95.62
442.264	103.62
442.486	151.62
442.707	173.62
442.928	126.62
443.149	109.62
443.371	197.62
443.592	301.62
443.813	233.62
444.034	111.62
444.255	101.62
444.476	97.62
444.698	88.62
444.919	102.62
445.14	201.62
445.361	249.62
445.582	347.62
445.803	299.62
446.024	137.62
446.245	111.62
446.466	94.62
446.687	92.62
446.908	91.62
447.129	88.62
447.35	84.62
447.571	90.62
447.792	72.62
448.013	79.62
448.234	77.62
448.455	88.62
448.675	81.62
448.896	87.62
449.117	85.62
449.338	81.62
449.559	82.62
449.779	85.62
450	77.62
450.221	91.62
450.442	78.62
450.662	88.62
450.883	89.62
451.104	101.62
451.324	98.62
451.545	93.62
451.766	83.62
451.986	104.62
452.207	91.62
452.428	84.62
452.648	92.62
452.869	101.62
453.089	94.62
453.31	95.62
453.53	93.62
453.751	91.62
453.971	92.62
454.192	96.62
454.412	95.62
454.633	90.62
454.853	75.62
455.073	78.62
455.294	89.62
455.514	95.62
455.734	96.62
455.955	89.62
456.175	98.62
456.395	91.62
456.616	83.62
456.836	91.62
457.056	79.62
457.276	94.62
457.497	79.62
457.717	90.62
457.937	109.62
458.157	129.62
458.377	114.62
458.598	116.62
458.818	131.62
459.038	91.62
459.258	86.62
459.478	81.62
459.698	99.62
459.918	94.62
460.138	95.62
460.358	86.62
460.578	85.62
460.798	141.62
461.018	119.62
461.238	87.62
461.458	93.62
461.678	99.62
461.898	77.62
462.118	88.62
462.338	73.62
462.558	93.62
462.777	89.62
462.997	83.62
463.217	70.62
463.437	86.62
463.657	97.62
463.876	84.62
464.096	84.62
464.316	80.62
464.536	71.62
464.755	83.62
464.975	77.62
465.195	75.62
465.414	89.62
465.634	91.62
465.854	85.62
466.073	73.62
466.293	87.62
466.512	79.62
466.732	72.62
466.951	75.62
467.171	90.62
467.391	92.62
467.61	83.62
467.829	81.62
468.049	89.62
468.268	76.62
468.488	101.62
468.707	96.62
468.927	66.62
469.146	86.62
469.365	93.62
469.585	79.62
469.804	87.62
470.023	82.62
470.243	92.62
470.462	80.62
470.681	71.62
470.901	84.62
471.12	81.62
471.339	74.62
471.558	81.62
471.777	85.62
471.997	97.62
472.216	91.62
472.435	88.62
472.654	92.62
472.873	75.62
473.092	83.62
473.311	99.62
473.53	90.62
473.749	76.62
473.968	91.62
474.187	71.62
474.406	84.62
474.625	100.62
474.844	88.62
475.063	90.62
475.282	95.62
475.501	75.62
475.72	105.62
475.939	84.62
476.158	72.62
476.377	93.62
476.596	86.62
476.814	69.62
477.033	73.62
477.252	106.62
477.471	81.62
477.69	89.62
477.908	78.62
478.127	93.62
478.346	84.62
478.564	91.62
478.783	91.62
479.002	82.62
479.22	86.62
479.439	94.62
479.658	77.62
479.876	83.62
480.095	90.62
480.313	89.62
480.532	79.62
480.751	72.62
480.969	75.62
481.188	95.62
481.406	83.62
481.624	88.62
481.843	83.62
482.061	79.62
482.28	90.62
482.498	96.62
482.717	92.62
482.935	90.62
483.153	81.62
483.372	95.62
483.59	95.62
483.808	104.62
484.027	80.62
484.245	74.62
484.463	82.62
484.681	97.62
484.9	87.62
485.118	85.62
485.336	88.62
485.554	103.62
485.772	90.62
485.99	81.62
486.209	98.62
486.427	73.62
486.645	85.62
486.863	88.62
487.081	90.62
487.299	105.62
487.517	83.62
487.735	105.62
487.953	156.62
488.171	139.62
488.389	100.62
488.607	93.62
488.825	99.62
489.043	83.62
489.261	86.62
489.479	99.62
489.696	87.62
489.914	93.62
490.132	90.62
490.35	86.62
490.568	94.62
490.786	90.62
491.003	88.62
491.221	79.62
491.439	93.62
491.657	89.62
491.874	95.62
492.092	82.62
492.31	97.62
492.527	83.62
492.745	82.62
492.963	89.62
493.18	89.62
493.398	86.62
493.615	88.62
493.833	96.62
494.05	85.62
494.268	94.62
494.485	90.62
494.703	93.62
494.92	85.62
495.138	89.62
495.355	94.62
495.573	91.62
495.79	100.62
496.008	96.62
496.225	86.62
496.442	98.62
496.66	91.62
496.877	84.62
497.094	99.62
497.312	90.62
497.529	69.62
497.746	92.62
497.963	87.62
498.181	83.62
498.398	103.62
498.615	97.62
498.832	96.62
499.049	95.62
499.267	96.62
499.484	93.62
499.701	95.62
499.918	100.62
500.135	101.62
500.352	99.62
500.569	94.62
500.786	94.62
501.003	97.62
501.22	85.62
501.437	94.62
501.654	102.62
501.871	102.62
502.088	89.62
502.305	75.62
502.522	87.62
502.739	92.62
502.956	99.62
503.172	92.62
503.389	89.62
503.606	94.62
503.823	107.62
504.04	102.62
504.256	123.62
504.473	119.62
504.69	95.62
504.907	92.62
505.123	81.62
505.34	98.62
505.557	81.62
505.773	99.62
505.99	94.62
506.207	89.62
506.423	77.62
506.64	85.62
506.856	96.62
507.073	88.62
507.289	86.62
507.506	81.62
507.722	97.62
507.939	78.62
508.155	86.62
508.372	69.62
508.588	81.62
508.805	83.62
509.021	93.62
509.238	89.62
509.454	90.62
509.67	78.62
509.887	86.62
510.103	100.62
510.319	107.62
510.536	77.62
510.752	83.62
510.968	83.62
511.184	89.62
511.401	81.62
511.617	102.62
511.833	99.62
512.049	75.62
512.265	81.62
512.481	81.62
512.698	87.62
512.914	99.62
513.13	85.62
513.346	89.62
513.562	88.62
513.778	72.62
513.994	93.62
514.21	99.62
514.426	98.62
514.642	100.62
514.858	85.62
515.074	96.62
515.29	80.62
515.506	102.62
515.721	89.62
515.937	89.62
516.153	93.62
516.369	100.62
516.585	87.62
516.801	96.62
517.016	94.62
517.232	93.62
517.448	96.62
517.664	92.62
517.879	95.62
