Data from 237_3_HRD10591_00016.txt Node
Date: Mon Jan 19 14:13:02 EST 2026
User: Yrep
Spectrometer: HR+D1059
Trigger mode: 1
Integration Time (sec): 1.000000E-1
Scans to average: 1
Electric dark correction enabled: true
Nonlinearity correction enabled: false
Boxcar width: 0
XAxis mode: Wavelengths
Number of Pixels in Spectrum: 2048
>>>>>Begin Spectral Data<<<<<
223.165	-24.12
223.4	-24.12
223.635	-24.12
223.869	-11.12
224.104	-26.12
224.338	-25.12
224.573	-16.12
224.808	-5.12
225.042	-9.12
225.277	-13.12
225.511	11.88
225.746	-1.12
225.98	13.88
226.215	1.88
226.449	21.88
226.683	18.88
226.918	25.88
227.152	36.88
227.387	36.88
227.621	32.88
227.856	46.88
228.09	41.88
228.324	44.88
228.559	47.88
228.793	59.88
229.027	75.88
229.262	59.88
229.496	63.88
229.73	74.88
229.964	67.88
230.199	63.88
230.433	63.88
230.667	85.88
230.901	71.88
231.136	82.88
231.37	65.88
231.604	85.88
231.838	74.88
232.072	84.88
232.306	89.88
232.541	81.88
232.775	85.88
233.009	84.88
233.243	79.88
233.477	93.88
233.711	73.88
233.945	84.88
234.179	85.88
234.413	74.88
234.647	76.88
234.881	77.88
235.115	83.88
235.349	93.88
235.583	89.88
235.817	83.88
236.051	74.88
236.285	81.88
236.519	82.88
236.753	75.88
236.987	85.88
237.221	67.88
237.455	70.88
237.689	85.88
237.922	86.88
238.156	82.88
238.39	83.88
238.624	74.88
238.858	69.88
239.091	79.88
239.325	78.88
239.559	59.88
239.793	84.88
240.027	70.88
240.26	78.88
240.494	69.88
240.728	68.88
240.961	75.88
241.195	60.88
241.429	68.88
241.662	75.88
241.896	89.88
242.13	54.88
242.363	73.88
242.597	78.88
242.83	73.88
243.064	68.88
243.298	66.88
243.531	70.88
243.765	83.88
243.998	70.88
244.232	76.88
244.465	75.88
244.699	67.88
244.932	74.88
245.166	71.88
245.399	71.88
245.633	79.88
245.866	78.88
246.099	72.88
246.333	81.88
246.566	73.88
246.8	71.88
247.033	75.88
247.266	78.88
247.5	72.88
247.733	74.88
247.966	77.88
248.2	79.88
248.433	74.88
248.666	87.88
248.899	85.88
249.133	72.88
249.366	69.88
249.599	82.88
249.832	79.88
250.066	78.88
250.299	71.88
250.532	69.88
250.765	73.88
250.998	82.88
251.231	81.88
251.465	89.88
251.698	77.88
251.931	80.88
252.164	80.88
252.397	74.88
252.63	85.88
252.863	91.88
253.096	83.88
253.329	76.88
253.562	89.88
253.795	79.88
254.028	88.88
254.261	89.88
254.494	92.88
254.727	81.88
254.96	70.88
255.193	82.88
255.426	83.88
255.659	83.88
255.892	90.88
256.124	74.88
256.357	79.88
256.59	83.88
256.823	78.88
257.056	69.88
257.289	67.88
257.521	84.88
257.754	93.88
257.987	85.88
258.22	59.88
258.452	70.88
258.685	83.88
258.918	65.88
259.151	68.88
259.383	95.88
259.616	89.88
259.849	73.88
260.081	87.88
260.314	71.88
260.547	66.88
260.779	75.88
261.012	75.88
261.244	66.88
261.477	82.88
261.71	83.88
261.942	67.88
262.175	78.88
262.407	72.88
262.64	67.88
262.872	80.88
263.105	69.88
263.337	81.88
263.57	85.88
263.802	71.88
264.035	80.88
264.267	71.88
264.499	75.88
264.732	95.88
264.964	86.88
265.197	82.88
265.429	87.88
265.661	75.88
265.894	72.88
266.126	91.88
266.358	80.88
266.591	81.88
266.823	95.88
267.055	81.88
267.287	84.88
267.52	81.88
267.752	91.88
267.984	89.88
268.216	87.88
268.448	89.88
268.681	81.88
268.913	83.88
269.145	81.88
269.377	98.88
269.609	78.88
269.841	81.88
270.073	92.88
270.306	77.88
270.538	97.88
270.77	89.88
271.002	79.88
271.234	63.88
271.466	99.88
271.698	75.88
271.93	78.88
272.162	74.88
272.394	90.88
272.626	81.88
272.858	76.88
273.09	63.88
273.322	95.88
273.553	81.88
273.785	65.88
274.017	86.88
274.249	85.88
274.481	68.88
274.713	65.88
274.945	75.88
275.176	81.88
275.408	77.88
275.64	85.88
275.872	74.88
276.104	89.88
276.335	77.88
276.567	88.88
276.799	78.88
277.031	83.88
277.262	76.88
277.494	79.88
277.726	84.88
277.957	87.88
278.189	78.88
278.421	93.88
278.652	77.88
278.884	82.88
279.115	79.88
279.347	81.88
279.579	85.88
279.81	74.88
280.042	89.88
280.273	90.88
280.505	85.88
280.736	81.88
280.968	85.88
281.199	96.88
281.431	81.88
281.662	65.88
281.894	79.88
282.125	77.88
282.356	91.88
282.588	84.88
282.819	84.88
283.051	83.88
283.282	85.88
283.513	97.88
283.745	95.88
283.976	80.88
284.207	90.88
284.439	86.88
284.67	89.88
284.901	80.88
285.132	75.88
285.364	81.88
285.595	91.88
285.826	81.88
286.057	92.88
286.288	72.88
286.52	79.88
286.751	69.88
286.982	71.88
287.213	91.88
287.444	87.88
287.675	86.88
287.906	94.88
288.138	73.88
288.369	74.88
288.6	84.88
288.831	87.88
289.062	72.88
289.293	79.88
289.524	95.88
289.755	90.88
289.986	63.88
290.217	76.88
290.448	81.88
290.679	82.88
290.91	90.88
291.141	71.88
291.371	87.88
291.602	78.88
291.833	82.88
292.064	85.88
292.295	81.88
292.526	86.88
292.757	95.88
292.987	86.88
293.218	87.88
293.449	72.88
293.68	92.88
293.91	72.88
294.141	67.88
294.372	84.88
294.603	93.88
294.833	83.88
295.064	89.88
295.295	85.88
295.525	73.88
295.756	85.88
295.987	74.88
296.217	79.88
296.448	86.88
296.679	91.88
296.909	77.88
297.14	81.88
297.37	84.88
297.601	80.88
297.831	98.88
298.062	81.88
298.292	76.88
298.523	71.88
298.753	87.88
298.984	78.88
299.214	82.88
299.445	78.88
299.675	75.88
299.905	78.88
300.136	89.88
300.366	69.88
300.597	90.88
300.827	80.88
301.057	73.88
301.288	91.88
301.518	81.88
301.748	81.88
301.979	99.88
302.209	83.88
302.439	72.88
302.669	79.88
302.9	87.88
303.13	75.88
303.36	83.88
303.59	77.88
303.82	94.88
304.051	85.88
304.281	91.88
304.511	87.88
304.741	89.88
304.971	82.88
305.201	91.88
305.431	85.88
305.661	93.88
305.891	92.88
306.121	60.88
306.352	80.88
306.582	73.88
306.812	95.88
307.042	90.88
307.272	88.88
307.502	88.88
307.731	83.88
307.961	72.88
308.191	79.88
308.421	73.88
308.651	77.88
308.881	86.88
309.111	75.88
309.341	93.88
309.571	87.88
309.8	93.88
310.03	98.88
310.26	81.88
310.49	89.88
310.72	83.88
310.949	90.88
311.179	85.88
311.409	87.88
311.639	71.88
311.868	96.88
312.098	84.88
312.328	101.88
312.557	84.88
312.787	80.88
313.017	82.88
313.246	76.88
313.476	93.88
313.706	73.88
313.935	94.88
314.165	88.88
314.394	71.88
314.624	81.88
314.853	81.88
315.083	75.88
315.312	79.88
315.542	95.88
315.771	86.88
316.001	80.88
316.23	75.88
316.46	75.88
316.689	94.88
316.919	94.88
317.148	91.88
317.377	73.88
317.607	78.88
317.836	77.88
318.065	85.88
318.295	94.88
318.524	74.88
318.753	69.88
318.983	80.88
319.212	75.88
319.441	74.88
319.67	93.88
319.9	84.88
320.129	89.88
320.358	76.88
320.587	86.88
320.816	84.88
321.046	87.88
321.275	98.88
321.504	66.88
321.733	85.88
321.962	86.88
322.191	93.88
322.42	78.88
322.649	82.88
322.878	88.88
323.108	69.88
323.337	79.88
323.566	97.88
323.795	88.88
324.024	81.88
324.253	78.88
324.482	95.88
324.71	86.88
324.939	79.88
325.168	92.88
325.397	75.88
325.626	71.88
325.855	78.88
326.084	88.88
326.313	95.88
326.542	77.88
326.77	79.88
326.999	84.88
327.228	85.88
327.457	93.88
327.686	72.88
327.914	77.88
328.143	102.88
328.372	89.88
328.6	90.88
328.829	102.88
329.058	91.88
329.287	71.88
329.515	82.88
329.744	87.88
329.972	84.88
330.201	75.88
330.43	93.88
330.658	73.88
330.887	98.88
331.115	77.88
331.344	88.88
331.572	89.88
331.801	79.88
332.03	85.88
332.258	87.88
332.486	68.88
332.715	72.88
332.943	78.88
333.172	74.88
333.4	90.88
333.629	90.88
333.857	65.88
334.085	93.88
334.314	78.88
334.542	61.88
334.771	75.88
334.999	90.88
335.227	83.88
335.455	85.88
335.684	96.88
335.912	93.88
336.14	85.88
336.369	80.88
336.597	81.88
336.825	89.88
337.053	78.88
337.281	101.88
337.51	95.88
337.738	93.88
337.966	99.88
338.194	87.88
338.422	97.88
338.65	79.88
338.878	96.88
339.106	81.88
339.334	85.88
339.562	103.88
339.79	81.88
340.018	79.88
340.246	83.88
340.474	98.88
340.702	105.88
340.93	87.88
341.158	85.88
341.386	90.88
341.614	87.88
341.842	65.88
342.07	76.88
342.298	84.88
342.526	86.88
342.754	78.88
342.981	83.88
343.209	83.88
343.437	105.88
343.665	75.88
343.893	87.88
344.12	81.88
344.348	83.88
344.576	83.88
344.804	82.88
345.031	77.88
345.259	72.88
345.487	83.88
345.714	93.88
345.942	67.88
346.17	87.88
346.397	82.88
346.625	83.88
346.853	88.88
347.08	81.88
347.308	83.88
347.535	95.88
347.763	90.88
347.99	83.88
348.218	81.88
348.445	89.88
348.673	78.88
348.9	97.88
349.128	71.88
349.355	79.88
349.583	72.88
349.81	78.88
350.037	83.88
350.265	73.88
350.492	93.88
350.72	81.88
350.947	87.88
351.174	93.88
351.402	59.88
351.629	93.88
351.856	83.88
352.083	89.88
352.311	81.88
352.538	86.88
352.765	71.88
352.992	82.88
353.22	88.88
353.447	93.88
353.674	85.88
353.901	81.88
354.128	75.88
354.355	78.88
354.583	87.88
354.81	92.88
355.037	79.88
355.264	75.88
355.491	84.88
355.718	81.88
355.945	73.88
356.172	73.88
356.399	83.88
356.626	70.88
356.853	75.88
357.08	83.88
357.307	79.88
357.534	74.88
357.761	90.88
357.988	99.88
358.215	81.88
358.441	85.88
358.668	71.88
358.895	85.88
359.122	82.88
359.349	82.88
359.576	68.88
359.802	83.88
360.029	94.88
360.256	79.88
360.483	97.88
360.709	80.88
360.936	83.88
361.163	83.88
361.39	85.88
361.616	81.88
361.843	74.88
362.07	81.88
362.296	93.88
362.523	78.88
362.749	82.88
362.976	73.88
363.203	79.88
363.429	82.88
363.656	91.88
363.882	86.88
364.109	82.88
364.335	96.88
364.562	88.88
364.788	93.88
365.015	74.88
365.241	91.88
365.468	79.88
365.694	81.88
365.92	73.88
366.147	83.88
366.373	84.88
366.599	78.88
366.826	83.88
367.052	81.88
367.278	83.88
367.505	89.88
367.731	81.88
367.957	87.88
368.184	83.88
368.41	88.88
368.636	93.88
368.862	92.88
369.089	73.88
369.315	81.88
369.541	87.88
369.767	79.88
369.993	76.88
370.219	84.88
370.445	88.88
370.672	76.88
370.898	74.88
371.124	79.88
371.35	85.88
371.576	75.88
371.802	92.88
372.028	81.88
372.254	82.88
372.48	81.88
372.706	87.88
372.932	76.88
373.158	70.88
373.384	83.88
373.61	93.88
373.835	89.88
374.061	89.88
374.287	74.88
374.513	76.88
374.739	81.88
374.965	77.88
375.191	67.88
375.416	84.88
375.642	78.88
375.868	81.88
376.094	80.88
376.319	82.88
376.545	76.88
376.771	85.88
376.997	76.88
377.222	80.88
377.448	81.88
377.674	75.88
377.899	76.88
378.125	82.88
378.35	81.88
378.576	75.88
378.802	76.88
379.027	89.88
379.253	91.88
379.478	91.88
379.704	76.88
379.929	83.88
380.155	79.88
380.38	86.88
380.606	71.88
380.831	79.88
381.057	83.88
381.282	72.88
381.507	75.88
381.733	69.88
381.958	87.88
382.184	73.88
382.409	71.88
382.634	85.88
382.86	88.88
383.085	68.88
383.31	72.88
383.535	93.88
383.761	75.88
383.986	87.88
384.211	74.88
384.436	86.88
384.662	85.88
384.887	90.88
385.112	86.88
385.337	82.88
385.562	79.88
385.787	87.88
386.013	96.88
386.238	79.88
386.463	83.88
386.688	97.88
386.913	83.88
387.138	85.88
387.363	82.88
387.588	82.88
387.813	68.88
388.038	79.88
388.263	85.88
388.488	85.88
388.713	91.88
388.938	93.88
389.163	96.88
389.387	75.88
389.612	99.88
389.837	79.88
390.062	93.88
390.287	85.88
390.512	87.88
390.736	75.88
390.961	72.88
391.186	76.88
391.411	93.88
391.636	73.88
391.86	77.88
392.085	71.88
392.31	67.88
392.534	83.88
392.759	90.88
392.984	91.88
393.208	100.88
393.433	114.88
393.658	119.88
393.882	88.88
394.107	90.88
394.331	85.88
394.556	84.88
394.78	89.88
395.005	79.88
395.229	78.88
395.454	88.88
395.678	81.88
395.903	97.88
396.127	101.88
396.352	79.88
396.576	105.88
396.801	109.88
397.025	105.88
397.249	102.88
397.474	84.88
397.698	78.88
397.922	76.88
398.147	76.88
398.371	87.88
398.595	61.88
398.82	89.88
399.044	69.88
399.268	89.88
399.492	78.88
399.717	81.88
399.941	72.88
400.165	67.88
400.389	81.88
400.613	92.88
400.837	81.88
401.062	88.88
401.286	86.88
401.51	96.88
401.734	74.88
401.958	79.88
402.182	75.88
402.406	82.88
402.63	83.88
402.854	70.88
403.078	69.88
403.302	82.88
403.526	81.88
403.75	94.88
403.974	78.88
404.198	86.88
404.422	82.88
404.645	88.88
404.869	82.88
405.093	79.88
405.317	75.88
405.541	90.88
405.765	74.88
405.988	86.88
406.212	87.88
406.436	83.88
406.66	85.88
406.883	72.88
407.107	78.88
407.331	82.88
407.555	88.88
407.778	73.88
408.002	81.88
408.226	79.88
408.449	78.88
408.673	81.88
408.896	87.88
409.12	73.88
409.344	73.88
409.567	88.88
409.791	95.88
410.014	88.88
410.238	99.88
410.461	82.88
410.685	72.88
410.908	77.88
411.132	79.88
411.355	85.88
411.578	88.88
411.802	81.88
412.025	85.88
412.249	71.88
412.472	66.88
412.695	85.88
412.919	75.88
413.142	81.88
413.365	95.88
413.589	89.88
413.812	69.88
414.035	106.88
414.258	81.88
414.482	63.88
414.705	73.88
414.928	77.88
415.151	78.88
415.374	89.88
415.597	86.88
415.821	78.88
416.044	100.88
416.267	75.88
416.49	69.88
416.713	71.88
416.936	76.88
417.159	89.88
417.382	75.88
417.605	76.88
417.828	75.88
418.051	92.88
418.274	84.88
418.497	70.88
418.72	66.88
418.943	80.88
419.166	81.88
419.389	77.88
419.611	74.88
419.834	74.88
420.057	90.88
420.28	96.88
420.503	82.88
420.726	89.88
420.948	85.88
421.171	71.88
421.394	70.88
421.617	89.88
421.839	74.88
422.062	99.88
422.285	99.88
422.507	130.88
422.73	147.88
422.953	140.88
423.175	110.88
423.398	83.88
423.621	90.88
423.843	75.88
424.066	87.88
424.288	61.88
424.511	90.88
424.733	82.88
424.956	96.88
425.178	87.88
425.401	76.88
425.623	80.88
425.846	85.88
426.068	77.88
426.291	80.88
426.513	78.88
426.735	91.88
426.958	87.88
427.18	75.88
427.402	76.88
427.625	64.88
427.847	83.88
428.069	83.88
428.292	89.88
428.514	99.88
428.736	91.88
428.958	85.88
429.181	85.88
429.403	84.88
429.625	72.88
429.847	91.88
430.069	101.88
430.292	89.88
430.514	93.88
430.736	99.88
430.958	99.88
431.18	90.88
431.402	81.88
431.624	75.88
431.846	74.88
432.068	93.88
432.29	71.88
432.512	86.88
432.734	73.88
432.956	82.88
433.178	72.88
433.4	89.88
433.622	87.88
433.844	85.88
434.066	73.88
434.287	87.88
434.509	71.88
434.731	87.88
434.953	90.88
435.175	74.88
435.397	86.88
435.618	72.88
435.84	80.88
436.062	79.88
436.284	82.88
436.505	81.88
436.727	75.88
436.949	85.88
437.17	79.88
437.392	79.88
437.614	86.88
437.835	78.88
438.057	107.88
438.278	86.88
438.5	73.88
438.721	83.88
438.943	91.88
439.165	83.88
439.386	70.88
439.608	91.88
439.829	80.88
440.05	81.88
440.272	79.88
440.493	70.88
440.715	87.88
440.936	81.88
441.158	81.88
441.379	80.88
441.6	86.88
441.822	69.88
442.043	79.88
442.264	79.88
442.486	83.88
442.707	94.88
442.928	96.88
443.149	83.88
443.371	90.88
443.592	111.88
443.813	111.88
444.034	65.88
444.255	90.88
444.476	66.88
444.698	81.88
444.919	80.88
445.14	147.88
445.361	122.88
445.582	122.88
445.803	102.88
446.024	97.88
446.245	91.88
446.466	85.88
446.687	76.88
446.908	87.88
447.129	83.88
447.35	95.88
447.571	83.88
447.792	89.88
448.013	84.88
448.234	80.88
448.455	72.88
448.675	69.88
448.896	66.88
449.117	83.88
449.338	68.88
449.559	91.88
449.779	83.88
450	85.88
450.221	79.88
450.442	94.88
450.662	81.88
450.883	81.88
451.104	92.88
451.324	79.88
451.545	70.88
451.766	73.88
451.986	90.88
452.207	91.88
452.428	81.88
452.648	78.88
452.869	79.88
453.089	75.88
453.31	73.88
453.53	83.88
453.751	87.88
453.971	78.88
454.192	79.88
454.412	82.88
454.633	75.88
454.853	87.88
455.073	89.88
455.294	82.88
455.514	97.88
455.734	69.88
455.955	73.88
456.175	89.88
456.395	85.88
456.616	82.88
456.836	75.88
457.056	87.88
457.276	86.88
457.497	83.88
457.717	85.88
457.937	81.88
458.157	91.88
458.377	88.88
458.598	86.88
458.818	92.88
459.038	77.88
459.258	66.88
459.478	70.88
459.698	77.88
459.918	84.88
460.138	68.88
460.358	77.88
460.578	103.88
460.798	92.88
461.018	88.88
461.238	78.88
461.458	77.88
461.678	86.88
461.898	81.88
462.118	81.88
462.338	88.88
462.558	93.88
462.777	73.88
462.997	80.88
463.217	83.88
463.437	88.88
463.657	67.88
463.876	83.88
464.096	97.88
464.316	93.88
464.536	75.88
464.755	87.88
464.975	93.88
465.195	91.88
465.414	82.88
465.634	79.88
465.854	73.88
466.073	93.88
466.293	80.88
466.512	81.88
466.732	70.88
466.951	72.88
467.171	81.88
467.391	90.88
467.61	87.88
467.829	82.88
468.049	95.88
468.268	87.88
468.488	86.88
468.707	79.88
468.927	88.88
469.146	78.88
469.365	72.88
469.585	87.88
469.804	74.88
470.023	81.88
470.243	81.88
470.462	90.88
470.681	78.88
470.901	83.88
471.12	78.88
471.339	82.88
471.558	75.88
471.777	77.88
471.997	61.88
472.216	89.88
472.435	74.88
472.654	88.88
472.873	91.88
473.092	79.88
473.311	100.88
473.53	61.88
473.749	82.88
473.968	83.88
474.187	89.88
474.406	76.88
474.625	76.88
474.844	95.88
475.063	76.88
475.282	87.88
475.501	91.88
475.72	83.88
475.939	88.88
476.158	76.88
476.377	82.88
476.596	81.88
476.814	86.88
477.033	76.88
477.252	88.88
477.471	79.88
477.69	86.88
477.908	95.88
478.127	79.88
478.346	79.88
478.564	72.88
478.783	81.88
479.002	56.88
479.22	65.88
479.439	85.88
479.658	86.88
479.876	91.88
480.095	68.88
480.313	67.88
480.532	86.88
480.751	93.88
480.969	81.88
481.188	88.88
481.406	92.88
481.624	75.88
481.843	87.88
482.061	87.88
482.28	75.88
482.498	75.88
482.717	84.88
482.935	79.88
483.153	81.88
483.372	73.88
483.59	85.88
483.808	96.88
484.027	88.88
484.245	65.88
484.463	81.88
484.681	89.88
484.9	86.88
485.118	81.88
485.336	73.88
485.554	76.88
485.772	91.88
485.99	85.88
486.209	85.88
486.427	76.88
486.645	84.88
486.863	70.88
487.081	93.88
487.299	77.88
487.517	75.88
487.735	88.88
487.953	96.88
488.171	102.88
488.389	87.88
488.607	81.88
488.825	84.88
489.043	72.88
489.261	80.88
489.479	78.88
489.696	99.88
489.914	78.88
490.132	88.88
490.35	98.88
490.568	78.88
490.786	78.88
491.003	79.88
491.221	85.88
491.439	86.88
491.657	73.88
491.874	89.88
492.092	74.88
492.31	77.88
492.527	83.88
492.745	81.88
492.963	87.88
493.18	82.88
493.398	74.88
493.615	94.88
493.833	77.88
494.05	94.88
494.268	102.88
494.485	84.88
494.703	97.88
494.92	79.88
495.138	90.88
495.355	79.88
495.573	97.88
495.79	89.88
496.008	93.88
496.225	95.88
496.442	79.88
496.66	90.88
496.877	93.88
497.094	88.88
497.312	80.88
497.529	92.88
497.746	81.88
497.963	84.88
498.181	90.88
498.398	86.88
498.615	88.88
498.832	79.88
499.049	71.88
499.267	87.88
499.484	82.88
499.701	76.88
499.918	77.88
500.135	75.88
500.352	75.88
500.569	91.88
500.786	95.88
501.003	87.88
501.22	76.88
501.437	80.88
501.654	91.88
501.871	83.88
502.088	83.88
502.305	92.88
502.522	79.88
502.739	95.88
502.956	82.88
503.172	65.88
503.389	83.88
503.606	93.88
503.823	80.88
504.04	76.88
504.256	93.88
504.473	97.88
504.69	72.88
504.907	83.88
505.123	79.88
505.34	84.88
505.557	81.88
505.773	95.88
505.99	91.88
506.207	88.88
506.423	90.88
506.64	81.88
506.856	82.88
507.073	78.88
507.289	81.88
507.506	72.88
507.722	83.88
507.939	94.88
508.155	91.88
508.372	74.88
508.588	66.88
508.805	86.88
509.021	90.88
509.238	79.88
509.454	94.88
509.67	81.88
509.887	90.88
510.103	85.88
510.319	89.88
510.536	92.88
510.752	90.88
510.968	87.88
511.184	65.88
511.401	93.88
511.617	97.88
511.833	87.88
512.049	73.88
512.265	79.88
512.481	81.88
512.698	65.88
512.914	79.88
513.13	71.88
513.346	87.88
513.562	84.88
513.778	78.88
513.994	75.88
514.21	89.88
514.426	83.88
514.642	84.88
514.858	79.88
515.074	73.88
515.29	87.88
515.506	83.88
515.721	76.88
515.937	82.88
516.153	81.88
516.369	87.88
516.585	72.88
516.801	82.88
517.016	85.88
517.232	82.88
517.448	93.88
517.664	82.88
517.879	76.88
518.095	84.88
518.311	85.88
518.527	100.88
518.742	85.88
518.958	91.88
519.173	80.88
519.389	88.88
519.605	86.88
519.82	78.88
