Data from 237_3_HRD10591_00037.txt Node
Date: Mon Jan 19 14:13:13 EST 2026
User: Yrep
Spectrometer: HR+D1059
Trigger mode: 1
Integration Time (sec): 1.000000E-1
Scans to average: 1
Electric dark correction enabled: true
Nonlinearity correction enabled: false
Boxcar width: 0
XAxis mode: Wavelengths
Number of Pixels in Spectrum: 2048
>>>>>Begin Spectral Data<<<<<
223.165	-20
223.4	-20
223.635	-20
223.869	-20
224.104	-17
224.338	-19
224.573	-21
224.808	-10
225.042	-5
225.277	-6
225.511	0
225.746	-3
225.98	12
226.215	26
226.449	15
226.683	14
226.918	19
227.152	35
227.387	29
227.621	25
227.856	47
228.09	55
228.324	65
228.559	47
228.793	57
229.027	80
229.262	60
229.496	60
229.73	71
229.964	80
230.199	75
230.433	79
230.667	78
230.901	81
231.136	65
231.37	85
231.604	86
231.838	87
232.072	79
232.306	84
232.541	76
232.775	75
233.009	80
233.243	83
233.477	78
233.711	87
233.945	83
234.179	91
234.413	92
234.647	77
234.881	76
235.115	71
235.349	76
235.583	85
235.817	78
236.051	77
236.285	79
236.519	75
236.753	78
236.987	71
237.221	72
237.455	83
237.689	77
237.922	90
238.156	77
238.39	55
238.624	81
238.858	71
239.091	80
239.325	68
239.559	74
239.793	77
240.027	83
240.26	47
240.494	98
240.728	71
240.961	83
241.195	73
241.429	81
241.662	92
241.896	75
242.13	86
242.363	79
242.597	71
242.83	64
243.064	81
243.298	78
243.531	68
243.765	70
243.998	84
244.232	82
244.465	79
244.699	92
244.932	80
245.166	77
245.399	60
245.633	83
245.866	73
246.099	77
246.333	72
246.566	80
246.8	83
247.033	76
247.266	83
247.5	81
247.733	74
247.966	75
248.2	84
248.433	81
248.666	70
248.899	79
249.133	90
249.366	86
249.599	78
249.832	77
250.066	70
250.299	89
250.532	99
250.765	81
250.998	82
251.231	77
251.465	79
251.698	79
251.931	84
252.164	98
252.397	80
252.63	68
252.863	82
253.096	83
253.329	90
253.562	76
253.795	79
254.028	77
254.261	80
254.494	69
254.727	81
254.96	82
255.193	83
255.426	73
255.659	77
255.892	89
256.124	94
256.357	75
256.59	86
256.823	86
257.056	69
257.289	93
257.521	76
257.754	79
257.987	78
258.22	73
258.452	84
258.685	70
258.918	92
259.151	84
259.383	92
259.616	85
259.849	79
260.081	78
260.314	77
260.547	80
260.779	69
261.012	91
261.244	74
261.477	96
261.71	77
261.942	83
262.175	81
262.407	79
262.64	87
262.872	96
263.105	81
263.337	86
263.57	77
263.802	79
264.035	88
264.267	76
264.499	90
264.732	89
264.964	95
265.197	74
265.429	77
265.661	76
265.894	93
266.126	83
266.358	91
266.591	80
266.823	101
267.055	78
267.287	73
267.52	76
267.752	82
267.984	74
268.216	71
268.448	69
268.681	69
268.913	85
269.145	95
269.377	88
269.609	83
269.841	85
270.073	91
270.306	83
270.538	81
270.77	77
271.002	85
271.234	89
271.466	88
271.698	75
271.93	77
272.162	79
272.394	78
272.626	88
272.858	93
273.09	89
273.322	91
273.553	83
273.785	85
274.017	83
274.249	79
274.481	101
274.713	81
274.945	78
275.176	79
275.408	90
275.64	94
275.872	83
276.104	91
276.335	90
276.567	80
276.799	82
277.031	80
277.262	78
277.494	78
277.726	81
277.957	83
278.189	75
278.421	75
278.652	79
278.884	82
279.115	74
279.347	90
279.579	81
279.81	83
280.042	83
280.273	72
280.505	81
280.736	83
280.968	77
281.199	95
281.431	86
281.662	82
281.894	81
282.125	90
282.356	77
282.588	77
282.819	75
283.051	76
283.282	88
283.513	88
283.745	96
283.976	94
284.207	105
284.439	74
284.67	89
284.901	99
285.132	89
285.364	79
285.595	88
285.826	76
286.057	102
286.288	86
286.52	94
286.751	87
286.982	93
287.213	86
287.444	84
287.675	89
287.906	82
288.138	81
288.369	86
288.6	95
288.831	73
289.062	81
289.293	85
289.524	83
289.755	96
289.986	90
290.217	87
290.448	87
290.679	96
290.91	83
291.141	87
291.371	89
291.602	80
291.833	93
292.064	83
292.295	80
292.526	84
292.757	88
292.987	77
293.218	88
293.449	77
293.68	96
293.91	81
294.141	90
294.372	80
294.603	83
294.833	98
295.064	88
295.295	78
295.525	85
295.756	83
295.987	73
296.217	85
296.448	81
296.679	78
296.909	82
297.14	86
297.37	84
297.601	75
297.831	81
298.062	99
298.292	92
298.523	82
298.753	87
298.984	81
299.214	92
299.445	91
299.675	88
299.905	83
300.136	82
300.366	77
300.597	80
300.827	75
301.057	90
301.288	75
301.518	84
301.748	78
301.979	87
302.209	81
302.439	87
302.669	89
302.9	77
303.13	81
303.36	77
303.59	88
303.82	72
304.051	92
304.281	70
304.511	85
304.741	77
304.971	91
305.201	76
305.431	89
305.661	87
305.891	87
306.121	97
306.352	84
306.582	95
306.812	83
307.042	97
307.272	79
307.502	83
307.731	86
307.961	65
308.191	91
308.421	93
308.651	70
308.881	88
309.111	96
309.341	90
309.571	90
309.8	89
310.03	81
310.26	88
310.49	90
310.72	87
310.949	96
311.179	77
311.409	78
311.639	86
311.868	99
312.098	80
312.328	89
312.557	87
312.787	91
313.017	101
313.246	87
313.476	83
313.706	92
313.935	81
314.165	74
314.394	82
314.624	73
314.853	73
315.083	86
315.312	81
315.542	87
315.771	80
316.001	85
316.23	74
316.46	79
316.689	91
316.919	96
317.148	76
317.377	79
317.607	92
317.836	91
318.065	88
318.295	81
318.524	97
318.753	99
318.983	93
319.212	80
319.441	92
319.67	93
319.9	86
320.129	87
320.358	91
320.587	78
320.816	88
321.046	89
321.275	85
321.504	86
321.733	79
321.962	89
322.191	80
322.42	76
322.649	89
322.878	91
323.108	93
323.337	77
323.566	86
323.795	91
324.024	88
324.253	97
324.482	76
324.71	87
324.939	105
325.168	90
325.397	96
325.626	88
325.855	80
326.084	96
326.313	76
326.542	81
326.77	83
326.999	83
327.228	81
327.457	74
327.686	75
327.914	74
328.143	83
328.372	80
328.6	100
328.829	83
329.058	79
329.287	92
329.515	79
329.744	84
329.972	89
330.201	86
330.43	89
330.658	91
330.887	82
331.115	93
331.344	85
331.572	94
331.801	77
332.03	83
332.258	83
332.486	84
332.715	77
332.943	91
333.172	89
333.4	80
333.629	93
333.857	84
334.085	95
334.314	83
334.542	93
334.771	89
334.999	87
335.227	82
335.455	84
335.684	76
335.912	93
336.14	84
336.369	100
336.597	89
336.825	93
337.053	87
337.281	88
337.51	95
337.738	79
337.966	88
338.194	84
338.422	91
338.65	96
338.878	79
339.106	85
339.334	83
339.562	91
339.79	76
340.018	91
340.246	85
340.474	98
340.702	86
340.93	96
341.158	89
341.386	101
341.614	104
341.842	87
342.07	81
342.298	85
342.526	85
342.754	88
342.981	87
343.209	89
343.437	104
343.665	88
343.893	94
344.12	91
344.348	96
344.576	78
344.804	77
345.031	74
345.259	90
345.487	74
345.714	91
345.942	81
346.17	86
346.397	80
346.625	97
346.853	88
347.08	82
347.308	87
347.535	68
347.763	93
347.99	86
348.218	100
348.445	69
348.673	83
348.9	83
349.128	82
349.355	81
349.583	87
349.81	89
350.037	80
350.265	78
350.492	91
350.72	76
350.947	81
351.174	84
351.402	74
351.629	82
351.856	88
352.083	103
352.311	97
352.538	81
352.765	93
352.992	92
353.22	92
353.447	79
353.674	82
353.901	98
354.128	87
354.355	86
354.583	98
354.81	92
355.037	81
355.264	103
355.491	99
355.718	80
355.945	83
356.172	67
356.399	93
356.626	97
356.853	83
357.08	79
357.307	79
357.534	86
357.761	88
357.988	91
358.215	80
358.441	96
358.668	73
358.895	84
359.122	86
359.349	87
359.576	87
359.802	89
360.029	76
360.256	75
360.483	77
360.709	84
360.936	78
361.163	69
361.39	80
361.616	72
361.843	87
362.07	92
362.296	87
362.523	101
362.749	85
362.976	82
363.203	92
363.429	84
363.656	87
363.882	87
364.109	89
364.335	91
364.562	82
364.788	76
365.015	76
365.241	79
365.468	105
365.694	76
365.92	87
366.147	83
366.373	80
366.599	74
366.826	83
367.052	83
367.278	80
367.505	96
367.731	83
367.957	89
368.184	101
368.41	100
368.636	81
368.862	84
369.089	80
369.315	95
369.541	97
369.767	84
369.993	81
370.219	83
370.445	66
370.672	78
370.898	84
371.124	81
371.35	83
371.576	81
371.802	81
372.028	83
372.254	91
372.48	95
372.706	88
372.932	95
373.158	92
373.384	108
373.61	98
373.835	96
374.061	95
374.287	88
374.513	86
374.739	91
374.965	87
375.191	89
375.416	80
375.642	86
375.868	90
376.094	82
376.319	88
376.545	88
376.771	90
376.997	91
377.222	67
377.448	87
377.674	87
377.899	92
378.125	88
378.35	73
378.576	83
378.802	95
379.027	81
379.253	82
379.478	89
379.704	86
379.929	75
380.155	100
380.38	88
380.606	92
380.831	81
381.057	75
381.282	74
381.507	83
381.733	101
381.958	80
382.184	83
382.409	88
382.634	73
382.86	79
383.085	94
383.31	70
383.535	96
383.761	85
383.986	82
384.211	78
384.436	70
384.662	97
384.887	77
385.112	89
385.337	78
385.562	73
385.787	92
386.013	93
386.238	86
386.463	90
386.688	100
386.913	82
387.138	74
387.363	84
387.588	91
387.813	82
388.038	79
388.263	99
388.488	74
388.713	77
388.938	90
389.163	85
389.387	83
389.612	86
389.837	85
390.062	85
390.287	70
390.512	79
390.736	71
390.961	101
391.186	95
391.411	80
391.636	90
391.86	82
392.085	83
392.31	74
392.534	95
392.759	88
392.984	97
393.208	100
393.433	120
393.658	119
393.882	91
394.107	92
394.331	89
394.556	96
394.78	104
395.005	87
395.229	98
395.454	84
395.678	83
395.903	112
396.127	92
396.352	113
396.576	90
396.801	123
397.025	125
397.249	90
397.474	90
397.698	87
397.922	92
398.147	84
398.371	86
398.595	89
398.82	75
399.044	85
399.268	96
399.492	83
399.717	99
399.941	88
400.165	77
400.389	83
400.613	70
400.837	99
401.062	90
401.286	84
401.51	88
401.734	78
401.958	86
402.182	104
402.406	75
402.63	72
402.854	76
403.078	102
403.302	81
403.526	81
403.75	102
403.974	95
404.198	95
404.422	89
404.645	102
404.869	104
405.093	96
405.317	90
405.541	78
405.765	90
405.988	84
406.212	92
406.436	76
406.66	72
406.883	87
407.107	75
407.331	81
407.555	83
407.778	86
408.002	94
408.226	93
408.449	86
408.673	88
408.896	91
409.12	72
409.344	83
409.567	63
409.791	83
410.014	69
410.238	77
410.461	88
410.685	79
410.908	93
411.132	91
411.355	71
411.578	91
411.802	92
412.025	81
412.249	85
412.472	90
412.695	83
412.919	89
413.142	87
413.365	95
413.589	81
413.812	82
414.035	84
414.258	82
414.482	72
414.705	77
414.928	85
415.151	92
415.374	79
415.597	85
415.821	75
416.044	80
416.267	75
416.49	85
416.713	98
416.936	92
417.159	82
417.382	79
417.605	83
417.828	68
418.051	96
418.274	74
418.497	79
418.72	88
418.943	108
419.166	101
419.389	84
419.611	92
419.834	83
420.057	77
420.28	91
420.503	79
420.726	101
420.948	87
421.171	76
421.394	75
421.617	88
421.839	96
422.062	97
422.285	115
422.507	140
422.73	197
422.953	191
423.175	131
423.398	90
423.621	93
423.843	87
424.066	67
424.288	92
424.511	84
424.733	83
424.956	75
425.178	89
425.401	86
425.623	95
425.846	82
426.068	90
426.291	90
426.513	88
426.735	90
426.958	87
427.18	83
427.402	96
427.625	84
427.847	85
428.069	93
428.292	103
428.514	114
428.736	85
428.958	95
429.181	97
429.403	84
429.625	74
429.847	93
430.069	117
430.292	123
430.514	115
430.736	104
430.958	102
431.18	89
431.402	108
431.624	79
431.846	89
432.068	93
432.29	91
432.512	93
432.734	85
432.956	78
433.178	90
433.4	77
433.622	71
433.844	79
434.066	100
434.287	86
434.509	78
434.731	89
434.953	76
435.175	69
435.397	76
435.618	87
435.84	65
436.062	88
436.284	95
436.505	75
436.727	85
436.949	81
437.17	84
437.392	97
437.614	70
437.835	75
438.057	83
438.278	86
438.5	89
438.721	99
438.943	85
439.165	80
439.386	89
439.608	81
439.829	72
440.05	90
440.272	91
440.493	71
440.715	75
440.936	92
441.158	76
441.379	84
441.6	79
441.822	85
442.043	69
442.264	67
442.486	101
442.707	117
442.928	87
443.149	96
443.371	131
443.592	123
443.813	124
444.034	79
444.255	88
444.476	95
444.698	91
444.919	103
445.14	179
445.361	147
445.582	150
445.803	116
446.024	110
446.245	84
446.466	85
446.687	74
446.908	71
447.129	82
447.35	81
447.571	83
447.792	78
448.013	84
448.234	80
448.455	98
448.675	82
448.896	88
449.117	89
449.338	84
449.559	89
449.779	78
450	89
450.221	72
450.442	89
450.662	86
450.883	97
451.104	99
451.324	87
451.545	78
451.766	73
451.986	84
452.207	87
452.428	80
452.648	88
452.869	79
453.089	87
453.31	85
453.53	88
453.751	76
453.971	84
454.192	86
454.412	77
454.633	83
454.853	71
455.073	67
455.294	104
455.514	85
455.734	80
455.955	89
456.175	92
456.395	72
456.616	92
456.836	80
457.056	77
457.276	87
457.497	91
457.717	97
457.937	96
458.157	96
458.377	92
458.598	91
458.818	76
459.038	102
459.258	88
459.478	88
459.698	71
459.918	83
460.138	71
460.358	79
460.578	89
460.798	103
461.018	94
461.238	89
461.458	86
461.678	92
461.898	76
462.118	82
462.338	96
462.558	86
462.777	103
462.997	79
463.217	82
463.437	78
463.657	92
463.876	77
464.096	95
464.316	93
464.536	87
464.755	100
464.975	75
465.195	82
465.414	79
465.634	70
465.854	85
466.073	71
466.293	83
466.512	85
466.732	89
466.951	88
467.171	81
467.391	73
467.61	87
467.829	99
468.049	78
468.268	74
468.488	75
468.707	88
468.927	88
469.146	77
469.365	97
469.585	97
469.804	88
470.023	74
470.243	91
470.462	90
470.681	75
470.901	88
471.12	82
471.339	87
471.558	83
471.777	77
471.997	81
472.216	83
472.435	94
472.654	85
472.873	108
473.092	91
473.311	84
473.53	97
473.749	91
473.968	65
474.187	89
474.406	67
474.625	91
474.844	73
475.063	79
475.282	100
475.501	87
475.72	85
475.939	86
476.158	69
476.377	77
476.596	91
476.814	94
477.033	95
477.252	80
477.471	80
477.69	86
477.908	75
478.127	96
478.346	81
478.564	76
478.783	90
479.002	84
479.22	78
479.439	91
479.658	88
479.876	82
480.095	87
480.313	93
480.532	89
480.751	79
480.969	77
481.188	92
481.406	70
481.624	92
481.843	81
482.061	89
482.28	90
482.498	84
482.717	81
482.935	76
483.153	90
483.372	80
483.59	97
483.808	93
484.027	90
484.245	73
484.463	86
484.681	89
484.9	93
485.118	100
485.336	83
485.554	76
485.772	93
485.99	89
486.209	97
486.427	92
486.645	92
486.863	84
487.081	71
487.299	79
487.517	90
487.735	96
487.953	112
488.171	104
488.389	89
488.607	102
488.825	81
489.043	87
489.261	98
489.479	67
489.696	83
489.914	98
490.132	91
490.35	78
490.568	89
490.786	92
491.003	87
491.221	86
491.439	91
491.657	70
491.874	70
492.092	86
492.31	82
492.527	83
492.745	90
492.963	102
493.18	90
493.398	89
493.615	91
493.833	85
494.05	87
494.268	81
494.485	81
494.703	77
494.92	79
495.138	88
495.355	95
495.573	83
495.79	83
496.008	84
496.225	83
496.442	88
496.66	84
496.877	73
497.094	92
497.312	84
497.529	84
497.746	87
497.963	81
498.181	84
498.398	91
498.615	95
498.832	76
499.049	89
499.267	92
499.484	95
499.701	98
499.918	83
500.135	92
500.352	79
500.569	86
500.786	93
501.003	88
501.22	76
501.437	85
501.654	88
501.871	95
502.088	88
502.305	85
502.522	98
502.739	93
502.956	83
503.172	99
503.389	85
503.606	87
503.823	83
504.04	89
504.256	101
504.473	92
504.69	88
504.907	98
505.123	90
505.34	89
505.557	88
505.773	80
505.99	89
506.207	100
506.423	77
506.64	88
506.856	88
507.073	94
507.289	81
507.506	73
507.722	68
507.939	75
508.155	83
508.372	85
508.588	89
508.805	91
509.021	86
509.238	91
509.454	80
509.67	87
509.887	74
510.103	89
510.319	98
510.536	85
510.752	97
510.968	93
511.184	105
511.401	91
511.617	100
511.833	85
512.049	88
512.265	82
512.481	84
512.698	96
512.914	85
513.13	83
513.346	91
513.562	95
513.778	100
513.994	94
514.21	78
514.426	97
514.642	90
514.858	71
515.074	97
515.29	86
515.506	83
515.721	87
515.937	91
516.153	75
516.369	85
516.585	91
516.801	75
517.016	100
517.232	92
517.448	81
517.664	93
517.879	91
518.095	87
518.311	102
518.527	83
518.742	96
518.958	104
519.173	87
519.389	90
519.605	81
519.82	88
520.036	99
520.251	86
520.467	105
520.682	86
520.898	93
521.113	99
521.329	98
521.544	90
521.76	98
521.975	82
522.19	90
522.406	107
522.621	98
522.836	76
523.052	84
523.267	88
523.482	91
523.698	77
523.913	88
524.128	89
524.343	83
524.559	90
524.774	104
524.989	103
525.204	83
525.419	79
525.634	91
525.849	91
526.064	103
526.28	128
526.495	155
526.71	162
526.925	113
527.14	135
527.355	119
527.57	88
527.785	76
527.999	96
528.214	81
528.429	100
528.644	75
528.859	92
529.074	87
529.289	98
529.503	81
529.718	80
529.933	75
530.148	87
530.363	84
530.577	93
530.792	104
531.007	92
531.221	80
531.436	92
531.651	99
531.865	95
532.08	84
532.295	86
532.509	93
532.724	88
532.938	95
533.153	89
533.367	71
533.582	93
533.796	95
534.011	107
534.225	89
534.44	91
534.654	93
534.868	93
535.083	117
535.297	101
535.511	94
535.726	88
535.94	88
536.154	83
536.369	88
536.583	93
536.797	93
537.011	104
537.225	104
537.44	88
537.654	85
537.868	94
538.082	89
538.296	104
538.51	91
538.724	108
538.938	91
539.153	81
539.367	86
539.581	99
539.795	96
540.009	94
540.222	99
540.436	109
540.65	101
540.864	97
541.078	95
541.292	83
541.506	81
541.72	79
541.934	95
542.147	89
542.361	85
542.575	91
542.789	105
543.002	90
543.216	93
543.43	95
543.644	87
543.857	99
544.071	91
544.285	90
544.498	97
544.712	96
544.925	83
545.139	87
545.352	95
545.566	102
545.779	95
545.993	96
546.206	93
546.42	103
546.633	95
546.847	107
547.06	102
547.274	107
547.487	109
547.7	123
547.914	119
548.127	130
548.34	141
548.554	126
548.767	123
548.98	133
549.193	127
549.407	134
549.62	127
549.833	133
550.046	142
550.259	145
550.473	149
550.686	146
550.899	157
551.112	176
551.325	187
551.538	176
551.751	163
551.964	163
552.177	164
552.39	172
552.603	175
552.816	164
553.029	163
553.242	161
553.455	161
553.667	187
553.88	195
554.093	195
554.306	180
554.519	187
554.732	178
554.944	187
555.157	166
555.37	154
555.583	166
555.795	176
556.008	162
556.221	146
556.433	146
556.646	136
556.859	130
557.071	131
557.284	128
557.496	108
557.709	123
557.921	120
558.134	109
558.346	119
558.559	117
558.771	115
558.984	178
559.196	191
559.409	130
559.621	168
559.833	140
560.046	148
560.258	133
560.47	134
560.683	117
560.895	103
561.107	105
561.32	93
561.532	82
561.744	97
561.956	95
562.168	99
562.381	111
562.593	90
562.805	97
563.017	92
563.229	94
563.441	93
563.653	86
563.865	93
564.077	92
564.289	82
564.501	95
564.713	97
564.925	86
565.137	100
565.349	93
565.561	92
565.773	88
565.985	84
566.197	99
566.408	82
566.62	90
566.832	88
567.044	90
567.255	87
567.467	84
567.679	103
567.891	93
568.102	92
568.314	91
568.526	91
568.737	96
568.949	91
569.161	99
569.372	92
569.584	101
569.795	91
570.007	91
570.218	85
570.43	85
570.641	93
570.853	97
571.064	90
571.276	90
571.487	101
571.698	96
571.91	88
572.121	93
572.333	81
572.544	96
572.755	92
572.966	96
573.178	85
573.389	93
573.6	93
573.811	76
574.023	89
574.234	109
574.445	101
574.656	94
574.867	93
575.078	88
575.289	65
575.501	91
575.712	85
575.923	96
576.134	98
576.345	92
576.556	86
576.767	107
576.978	102
577.188	89
577.399	96
577.61	82
577.821	91
578.032	79
578.243	96
578.454	96
578.665	106
578.875	91
579.086	91
579.297	103
579.508	91
579.718	89
579.929	93
580.14	94
580.35	87
580.561	121
580.772	104
580.982	92
581.193	93
581.403	93
581.614	95
581.825	93
582.035	91
582.246	83
582.456	98
582.667	89
582.877	83
583.087	81
583.298	93
583.508	83
583.719	84
583.929	87
584.139	87
584.35	98
584.56	99
584.77	97
584.981	87
585.191	96
585.401	84
585.611	92
585.821	103
586.032	135
586.242	108
586.452	95
586.662	85
586.872	91
587.082	95
587.292	95
587.502	91
587.713	83
