Data from 237_3_HRD10591_00025.txt Node
Date: Mon Jan 19 14:13:07 EST 2026
User: Yrep
Spectrometer: HR+D1059
Trigger mode: 1
Integration Time (sec): 1.000000E-1
Scans to average: 1
Electric dark correction enabled: true
Nonlinearity correction enabled: false
Boxcar width: 0
XAxis mode: Wavelengths
Number of Pixels in Spectrum: 2048
>>>>>Begin Spectral Data<<<<<
223.165	-15.62
223.4	-15.62
223.635	-15.62
223.869	-32.62
224.104	-26.62
224.338	-19.62
224.573	-10.62
224.808	1.38
225.042	-4.62
225.277	2.38
225.511	7.38
225.746	1.38
225.98	14.38
226.215	9.38
226.449	7.38
226.683	12.38
226.918	27.38
227.152	26.38
227.387	36.38
227.621	35.38
227.856	40.38
228.09	34.38
228.324	53.38
228.559	69.38
228.793	68.38
229.027	56.38
229.262	69.38
229.496	63.38
229.73	85.38
229.964	63.38
230.199	75.38
230.433	78.38
230.667	85.38
230.901	59.38
231.136	85.38
231.37	81.38
231.604	63.38
231.838	81.38
232.072	67.38
232.306	80.38
232.541	81.38
232.775	83.38
233.009	97.38
233.243	71.38
233.477	85.38
233.711	85.38
233.945	93.38
234.179	82.38
234.413	83.38
234.647	84.38
234.881	84.38
235.115	80.38
235.349	89.38
235.583	77.38
235.817	67.38
236.051	76.38
236.285	79.38
236.519	67.38
236.753	80.38
236.987	60.38
237.221	73.38
237.455	70.38
237.689	81.38
237.922	82.38
238.156	85.38
238.39	85.38
238.624	73.38
238.858	83.38
239.091	63.38
239.325	75.38
239.559	76.38
239.793	76.38
240.027	87.38
240.26	81.38
240.494	73.38
240.728	66.38
240.961	75.38
241.195	88.38
241.429	88.38
241.662	71.38
241.896	85.38
242.13	91.38
242.363	85.38
242.597	85.38
242.83	75.38
243.064	79.38
243.298	87.38
243.531	75.38
243.765	69.38
243.998	87.38
244.232	78.38
244.465	78.38
244.699	84.38
244.932	81.38
245.166	73.38
245.399	93.38
245.633	85.38
245.866	75.38
246.099	75.38
246.333	80.38
246.566	93.38
246.8	67.38
247.033	79.38
247.266	80.38
247.5	84.38
247.733	88.38
247.966	75.38
248.2	73.38
248.433	75.38
248.666	72.38
248.899	92.38
249.133	83.38
249.366	92.38
249.599	75.38
249.832	78.38
250.066	80.38
250.299	79.38
250.532	83.38
250.765	87.38
250.998	88.38
251.231	83.38
251.465	91.38
251.698	86.38
251.931	73.38
252.164	104.38
252.397	83.38
252.63	70.38
252.863	68.38
253.096	89.38
253.329	84.38
253.562	85.38
253.795	81.38
254.028	72.38
254.261	80.38
254.494	85.38
254.727	91.38
254.96	92.38
255.193	73.38
255.426	66.38
255.659	74.38
255.892	78.38
256.124	77.38
256.357	78.38
256.59	91.38
256.823	84.38
257.056	86.38
257.289	94.38
257.521	85.38
257.754	79.38
257.987	84.38
258.22	76.38
258.452	71.38
258.685	77.38
258.918	91.38
259.151	79.38
259.383	78.38
259.616	71.38
259.849	81.38
260.081	82.38
260.314	88.38
260.547	87.38
260.779	83.38
261.012	84.38
261.244	74.38
261.477	81.38
261.71	79.38
261.942	82.38
262.175	85.38
262.407	73.38
262.64	83.38
262.872	91.38
263.105	90.38
263.337	100.38
263.57	97.38
263.802	80.38
264.035	87.38
264.267	79.38
264.499	88.38
264.732	101.38
264.964	83.38
265.197	70.38
265.429	78.38
265.661	86.38
265.894	76.38
266.126	84.38
266.358	85.38
266.591	86.38
266.823	80.38
267.055	85.38
267.287	86.38
267.52	84.38
267.752	78.38
267.984	74.38
268.216	71.38
268.448	79.38
268.681	96.38
268.913	74.38
269.145	71.38
269.377	73.38
269.609	91.38
269.841	92.38
270.073	93.38
270.306	83.38
270.538	78.38
270.77	84.38
271.002	76.38
271.234	83.38
271.466	87.38
271.698	76.38
271.93	78.38
272.162	95.38
272.394	81.38
272.626	89.38
272.858	86.38
273.09	84.38
273.322	77.38
273.553	83.38
273.785	92.38
274.017	72.38
274.249	75.38
274.481	85.38
274.713	91.38
274.945	92.38
275.176	87.38
275.408	97.38
275.64	91.38
275.872	92.38
276.104	101.38
276.335	83.38
276.567	96.38
276.799	83.38
277.031	84.38
277.262	86.38
277.494	83.38
277.726	73.38
277.957	100.38
278.189	99.38
278.421	79.38
278.652	78.38
278.884	91.38
279.115	98.38
279.347	83.38
279.579	80.38
279.81	87.38
280.042	87.38
280.273	89.38
280.505	79.38
280.736	86.38
280.968	72.38
281.199	93.38
281.431	81.38
281.662	91.38
281.894	82.38
282.125	85.38
282.356	90.38
282.588	77.38
282.819	79.38
283.051	78.38
283.282	89.38
283.513	84.38
283.745	80.38
283.976	87.38
284.207	93.38
284.439	95.38
284.67	99.38
284.901	78.38
285.132	89.38
285.364	88.38
285.595	90.38
285.826	84.38
286.057	91.38
286.288	83.38
286.52	84.38
286.751	91.38
286.982	86.38
287.213	84.38
287.444	74.38
287.675	81.38
287.906	75.38
288.138	90.38
288.369	81.38
288.6	89.38
288.831	96.38
289.062	90.38
289.293	83.38
289.524	88.38
289.755	82.38
289.986	97.38
290.217	68.38
290.448	113.38
290.679	95.38
290.91	88.38
291.141	76.38
291.371	89.38
291.602	91.38
291.833	91.38
292.064	88.38
292.295	95.38
292.526	77.38
292.757	77.38
292.987	88.38
293.218	81.38
293.449	90.38
293.68	92.38
293.91	91.38
294.141	80.38
294.372	92.38
294.603	89.38
294.833	97.38
295.064	76.38
295.295	71.38
295.525	70.38
295.756	88.38
295.987	77.38
296.217	92.38
296.448	87.38
296.679	84.38
296.909	81.38
297.14	92.38
297.37	84.38
297.601	72.38
297.831	85.38
298.062	91.38
298.292	84.38
298.523	103.38
298.753	83.38
298.984	86.38
299.214	83.38
299.445	87.38
299.675	82.38
299.905	76.38
300.136	90.38
300.366	90.38
300.597	85.38
300.827	71.38
301.057	98.38
301.288	91.38
301.518	95.38
301.748	82.38
301.979	98.38
302.209	91.38
302.439	102.38
302.669	109.38
302.9	87.38
303.13	101.38
303.36	89.38
303.59	95.38
303.82	85.38
304.051	81.38
304.281	83.38
304.511	81.38
304.741	94.38
304.971	83.38
305.201	82.38
305.431	78.38
305.661	94.38
305.891	87.38
306.121	76.38
306.352	95.38
306.582	87.38
306.812	92.38
307.042	80.38
307.272	89.38
307.502	91.38
307.731	85.38
307.961	87.38
308.191	99.38
308.421	94.38
308.651	93.38
308.881	92.38
309.111	79.38
309.341	103.38
309.571	74.38
309.8	80.38
310.03	80.38
310.26	91.38
310.49	73.38
310.72	82.38
310.949	89.38
311.179	101.38
311.409	85.38
311.639	80.38
311.868	96.38
312.098	91.38
312.328	85.38
312.557	100.38
312.787	87.38
313.017	91.38
313.246	74.38
313.476	91.38
313.706	91.38
313.935	83.38
314.165	89.38
314.394	86.38
314.624	87.38
314.853	73.38
315.083	91.38
315.312	83.38
315.542	87.38
315.771	83.38
316.001	90.38
316.23	78.38
316.46	87.38
316.689	73.38
316.919	87.38
317.148	93.38
317.377	90.38
317.607	96.38
317.836	102.38
318.065	92.38
318.295	108.38
318.524	93.38
318.753	88.38
318.983	85.38
319.212	83.38
319.441	81.38
319.67	95.38
319.9	99.38
320.129	76.38
320.358	98.38
320.587	88.38
320.816	91.38
321.046	71.38
321.275	88.38
321.504	85.38
321.733	95.38
321.962	83.38
322.191	102.38
322.42	96.38
322.649	95.38
322.878	92.38
323.108	81.38
323.337	92.38
323.566	94.38
323.795	84.38
324.024	93.38
324.253	88.38
324.482	87.38
324.71	95.38
324.939	91.38
325.168	74.38
325.397	98.38
325.626	88.38
325.855	92.38
326.084	102.38
326.313	84.38
326.542	81.38
326.77	90.38
326.999	84.38
327.228	72.38
327.457	76.38
327.686	100.38
327.914	86.38
328.143	92.38
328.372	70.38
328.6	93.38
328.829	85.38
329.058	86.38
329.287	89.38
329.515	83.38
329.744	91.38
329.972	90.38
330.201	83.38
330.43	92.38
330.658	104.38
330.887	85.38
331.115	76.38
331.344	95.38
331.572	87.38
331.801	88.38
332.03	73.38
332.258	83.38
332.486	78.38
332.715	95.38
332.943	78.38
333.172	87.38
333.4	80.38
333.629	81.38
333.857	83.38
334.085	94.38
334.314	95.38
334.542	89.38
334.771	83.38
334.999	95.38
335.227	87.38
335.455	95.38
335.684	87.38
335.912	95.38
336.14	89.38
336.369	99.38
336.597	96.38
336.825	93.38
337.053	89.38
337.281	91.38
337.51	89.38
337.738	81.38
337.966	92.38
338.194	76.38
338.422	95.38
338.65	85.38
338.878	87.38
339.106	85.38
339.334	88.38
339.562	85.38
339.79	86.38
340.018	89.38
340.246	91.38
340.474	78.38
340.702	76.38
340.93	95.38
341.158	89.38
341.386	91.38
341.614	87.38
341.842	96.38
342.07	87.38
342.298	81.38
342.526	83.38
342.754	93.38
342.981	82.38
343.209	77.38
343.437	100.38
343.665	81.38
343.893	81.38
344.12	71.38
344.348	75.38
344.576	84.38
344.804	90.38
345.031	91.38
345.259	90.38
345.487	87.38
345.714	73.38
345.942	91.38
346.17	87.38
346.397	106.38
346.625	100.38
346.853	87.38
347.08	85.38
347.308	83.38
347.535	95.38
347.763	84.38
347.99	91.38
348.218	103.38
348.445	86.38
348.673	81.38
348.9	93.38
349.128	85.38
349.355	85.38
349.583	87.38
349.81	89.38
350.037	92.38
350.265	85.38
350.492	82.38
350.72	92.38
350.947	96.38
351.174	97.38
351.402	66.38
351.629	87.38
351.856	94.38
352.083	95.38
352.311	92.38
352.538	100.38
352.765	94.38
352.992	74.38
353.22	91.38
353.447	89.38
353.674	81.38
353.901	93.38
354.128	73.38
354.355	77.38
354.583	87.38
354.81	83.38
355.037	88.38
355.264	85.38
355.491	88.38
355.718	84.38
355.945	91.38
356.172	79.38
356.399	97.38
356.626	92.38
356.853	103.38
357.08	103.38
357.307	97.38
357.534	98.38
357.761	100.38
357.988	90.38
358.215	103.38
358.441	81.38
358.668	79.38
358.895	86.38
359.122	89.38
359.349	86.38
359.576	85.38
359.802	93.38
360.029	77.38
360.256	83.38
360.483	87.38
360.709	102.38
360.936	102.38
361.163	100.38
361.39	81.38
361.616	83.38
361.843	86.38
362.07	98.38
362.296	78.38
362.523	86.38
362.749	101.38
362.976	119.38
363.203	106.38
363.429	91.38
363.656	83.38
363.882	101.38
364.109	92.38
364.335	108.38
364.562	107.38
364.788	88.38
365.015	88.38
365.241	82.38
365.468	97.38
365.694	83.38
365.92	113.38
366.147	86.38
366.373	78.38
366.599	95.38
366.826	73.38
367.052	92.38
367.278	97.38
367.505	99.38
367.731	92.38
367.957	93.38
368.184	90.38
368.41	83.38
368.636	99.38
368.862	90.38
369.089	93.38
369.315	91.38
369.541	81.38
369.767	80.38
369.993	97.38
370.219	86.38
370.445	92.38
370.672	96.38
370.898	80.38
371.124	87.38
371.35	92.38
371.576	83.38
371.802	77.38
372.028	92.38
372.254	87.38
372.48	89.38
372.706	92.38
372.932	89.38
373.158	94.38
373.384	79.38
373.61	114.38
373.835	93.38
374.061	103.38
374.287	94.38
374.513	92.38
374.739	103.38
374.965	85.38
375.191	95.38
375.416	92.38
375.642	95.38
375.868	96.38
376.094	89.38
376.319	80.38
376.545	83.38
376.771	90.38
376.997	92.38
377.222	92.38
377.448	90.38
377.674	80.38
377.899	79.38
378.125	100.38
378.35	95.38
378.576	95.38
378.802	85.38
379.027	89.38
379.253	95.38
379.478	92.38
379.704	89.38
379.929	84.38
380.155	96.38
380.38	95.38
380.606	91.38
380.831	77.38
381.057	86.38
381.282	89.38
381.507	81.38
381.733	104.38
381.958	119.38
382.184	96.38
382.409	91.38
382.634	93.38
382.86	80.38
383.085	93.38
383.31	101.38
383.535	97.38
383.761	100.38
383.986	98.38
384.211	89.38
384.436	86.38
384.662	78.38
384.887	91.38
385.112	86.38
385.337	83.38
385.562	90.38
385.787	97.38
386.013	93.38
386.238	106.38
386.463	73.38
386.688	100.38
386.913	91.38
387.138	81.38
387.363	91.38
387.588	85.38
387.813	86.38
388.038	96.38
388.263	88.38
388.488	104.38
388.713	88.38
388.938	87.38
389.163	85.38
389.387	97.38
389.612	83.38
389.837	89.38
390.062	91.38
390.287	88.38
390.512	74.38
390.736	87.38
390.961	85.38
391.186	88.38
391.411	83.38
391.636	86.38
391.86	95.38
392.085	103.38
392.31	97.38
392.534	99.38
392.759	95.38
392.984	131.38
393.208	132.38
393.433	196.38
393.658	153.38
393.882	103.38
394.107	103.38
394.331	99.38
394.556	101.38
394.78	95.38
395.005	87.38
395.229	94.38
395.454	98.38
395.678	93.38
395.903	99.38
396.127	117.38
396.352	130.38
396.576	124.38
396.801	159.38
397.025	171.38
397.249	117.38
397.474	99.38
397.698	98.38
397.922	97.38
398.147	100.38
398.371	72.38
398.595	92.38
398.82	92.38
399.044	85.38
399.268	86.38
399.492	90.38
399.717	84.38
399.941	89.38
400.165	93.38
400.389	92.38
400.613	85.38
400.837	80.38
401.062	84.38
401.286	69.38
401.51	79.38
401.734	87.38
401.958	86.38
402.182	90.38
402.406	86.38
402.63	84.38
402.854	85.38
403.078	77.38
403.302	89.38
403.526	84.38
403.75	78.38
403.974	85.38
404.198	115.38
404.422	123.38
404.645	145.38
404.869	120.38
405.093	101.38
405.317	87.38
405.541	90.38
405.765	88.38
405.988	76.38
406.212	97.38
406.436	86.38
406.66	95.38
406.883	96.38
407.107	97.38
407.331	86.38
407.555	91.38
407.778	87.38
408.002	96.38
408.226	87.38
408.449	84.38
408.673	83.38
408.896	80.38
409.12	86.38
409.344	92.38
409.567	98.38
409.791	102.38
410.014	80.38
410.238	101.38
410.461	91.38
410.685	97.38
410.908	77.38
411.132	89.38
411.355	77.38
411.578	83.38
411.802	94.38
412.025	81.38
412.249	77.38
412.472	74.38
412.695	86.38
412.919	100.38
413.142	93.38
413.365	85.38
413.589	106.38
413.812	90.38
414.035	76.38
414.258	86.38
414.482	79.38
414.705	91.38
414.928	90.38
415.151	67.38
415.374	79.38
415.597	87.38
415.821	89.38
416.044	77.38
416.267	86.38
416.49	83.38
416.713	89.38
416.936	88.38
417.159	93.38
417.382	90.38
417.605	86.38
417.828	92.38
418.051	95.38
418.274	84.38
418.497	77.38
418.72	90.38
418.943	80.38
419.166	72.38
419.389	82.38
419.611	86.38
419.834	74.38
420.057	85.38
420.28	96.38
420.503	87.38
420.726	89.38
420.948	95.38
421.171	75.38
421.394	93.38
421.617	101.38
421.839	102.38
422.062	131.38
422.285	160.38
422.507	247.38
422.73	307.38
422.953	298.38
423.175	187.38
423.398	123.38
423.621	112.38
423.843	93.38
424.066	83.38
424.288	87.38
424.511	84.38
424.733	92.38
424.956	91.38
425.178	103.38
425.401	83.38
425.623	86.38
425.846	83.38
426.068	81.38
426.291	95.38
426.513	94.38
426.735	84.38
426.958	84.38
427.18	87.38
427.402	93.38
427.625	80.38
427.847	74.38
428.069	102.38
428.292	105.38
428.514	131.38
428.736	94.38
428.958	123.38
429.181	130.38
429.403	88.38
429.625	106.38
429.847	104.38
430.069	139.38
430.292	147.38
430.514	147.38
430.736	132.38
430.958	131.38
431.18	101.38
431.402	104.38
431.624	95.38
431.846	108.38
432.068	115.38
432.29	96.38
432.512	105.38
432.734	96.38
432.956	90.38
433.178	92.38
433.4	95.38
433.622	84.38
433.844	98.38
434.066	75.38
434.287	92.38
434.509	89.38
434.731	97.38
434.953	79.38
435.175	98.38
435.397	92.38
435.618	81.38
435.84	80.38
436.062	93.38
436.284	74.38
436.505	70.38
436.727	100.38
436.949	87.38
437.17	81.38
437.392	70.38
437.614	95.38
437.835	83.38
438.057	93.38
438.278	91.38
438.5	100.38
438.721	77.38
438.943	81.38
439.165	77.38
439.386	83.38
439.608	71.38
439.829	88.38
440.05	81.38
440.272	97.38
440.493	89.38
440.715	77.38
440.936	87.38
441.158	87.38
441.379	89.38
441.6	83.38
441.822	82.38
442.043	92.38
442.264	91.38
442.486	124.38
442.707	153.38
442.928	128.38
443.149	103.38
443.371	124.38
443.592	195.38
443.813	184.38
444.034	114.38
444.255	82.38
444.476	99.38
444.698	101.38
444.919	94.38
445.14	182.38
445.361	211.38
445.582	241.38
445.803	200.38
446.024	114.38
446.245	106.38
446.466	91.38
446.687	84.38
446.908	91.38
447.129	104.38
447.35	83.38
447.571	93.38
447.792	85.38
448.013	75.38
448.234	85.38
448.455	80.38
448.675	88.38
448.896	98.38
449.117	92.38
449.338	91.38
449.559	75.38
449.779	86.38
450	84.38
450.221	79.38
450.442	76.38
450.662	75.38
450.883	89.38
451.104	86.38
451.324	78.38
451.545	74.38
451.766	90.38
451.986	78.38
452.207	71.38
452.428	77.38
452.648	92.38
452.869	88.38
453.089	102.38
453.31	93.38
453.53	88.38
453.751	90.38
453.971	79.38
454.192	80.38
454.412	86.38
454.633	83.38
454.853	79.38
455.073	86.38
455.294	91.38
455.514	84.38
455.734	94.38
455.955	90.38
456.175	82.38
456.395	88.38
456.616	82.38
456.836	89.38
457.056	67.38
457.276	88.38
457.497	91.38
457.717	100.38
457.937	92.38
458.157	97.38
458.377	107.38
458.598	111.38
458.818	112.38
459.038	114.38
459.258	83.38
459.478	78.38
459.698	99.38
459.918	95.38
460.138	87.38
460.358	90.38
460.578	88.38
460.798	130.38
461.018	116.38
461.238	99.38
461.458	97.38
461.678	83.38
461.898	82.38
462.118	85.38
462.338	88.38
462.558	81.38
462.777	84.38
462.997	79.38
463.217	93.38
463.437	72.38
463.657	85.38
463.876	71.38
464.096	80.38
464.316	87.38
464.536	75.38
464.755	71.38
464.975	86.38
465.195	85.38
465.414	89.38
465.634	97.38
465.854	82.38
466.073	78.38
466.293	93.38
466.512	94.38
466.732	83.38
466.951	84.38
467.171	82.38
467.391	82.38
467.61	90.38
467.829	85.38
468.049	85.38
468.268	82.38
468.488	93.38
468.707	77.38
468.927	87.38
469.146	87.38
469.365	100.38
469.585	99.38
469.804	90.38
470.023	83.38
470.243	95.38
470.462	95.38
470.681	88.38
470.901	95.38
471.12	93.38
471.339	96.38
471.558	89.38
471.777	89.38
471.997	86.38
472.216	89.38
472.435	100.38
472.654	88.38
472.873	78.38
473.092	94.38
473.311	84.38
473.53	80.38
473.749	90.38
473.968	91.38
474.187	95.38
474.406	93.38
474.625	105.38
474.844	89.38
475.063	91.38
475.282	73.38
475.501	74.38
475.72	86.38
475.939	86.38
476.158	84.38
476.377	99.38
476.596	83.38
476.814	91.38
477.033	87.38
477.252	85.38
477.471	86.38
477.69	83.38
477.908	90.38
478.127	85.38
478.346	73.38
478.564	98.38
478.783	90.38
479.002	83.38
479.22	70.38
479.439	91.38
479.658	81.38
479.876	92.38
480.095	87.38
480.313	76.38
480.532	89.38
480.751	88.38
480.969	82.38
481.188	95.38
481.406	86.38
481.624	79.38
481.843	88.38
482.061	99.38
482.28	93.38
482.498	97.38
482.717	99.38
482.935	88.38
483.153	85.38
483.372	85.38
483.59	83.38
483.808	82.38
484.027	84.38
484.245	94.38
484.463	96.38
484.681	92.38
484.9	92.38
485.118	80.38
485.336	91.38
485.554	95.38
485.772	89.38
485.99	82.38
486.209	88.38
486.427	76.38
486.645	92.38
486.863	99.38
487.081	112.38
487.299	91.38
487.517	91.38
487.735	108.38
487.953	119.38
488.171	108.38
488.389	97.38
488.607	84.38
488.825	91.38
489.043	94.38
489.261	82.38
489.479	83.38
489.696	97.38
489.914	81.38
490.132	84.38
490.35	93.38
490.568	86.38
490.786	95.38
491.003	94.38
491.221	86.38
491.439	80.38
491.657	70.38
491.874	87.38
492.092	85.38
492.31	85.38
492.527	80.38
492.745	95.38
492.963	91.38
493.18	93.38
493.398	73.38
493.615	105.38
493.833	78.38
494.05	71.38
494.268	84.38
494.485	79.38
494.703	90.38
494.92	95.38
495.138	106.38
495.355	87.38
495.573	83.38
495.79	92.38
496.008	80.38
496.225	93.38
496.442	101.38
496.66	90.38
496.877	95.38
497.094	92.38
497.312	80.38
497.529	99.38
497.746	82.38
497.963	92.38
498.181	98.38
498.398	111.38
498.615	79.38
498.832	93.38
499.049	87.38
499.267	99.38
499.484	95.38
499.701	78.38
499.918	96.38
500.135	106.38
500.352	95.38
500.569	90.38
500.786	94.38
501.003	91.38
501.22	84.38
501.437	86.38
501.654	85.38
501.871	93.38
502.088	83.38
502.305	91.38
502.522	86.38
502.739	107.38
502.956	73.38
503.172	80.38
503.389	89.38
503.606	83.38
503.823	84.38
504.04	95.38
504.256	105.38
504.473	103.38
504.69	113.38
504.907	91.38
505.123	92.38
505.34	100.38
505.557	87.38
505.773	104.38
505.99	96.38
506.207	91.38
506.423	87.38
506.64	91.38
506.856	93.38
507.073	95.38
507.289	79.38
507.506	80.38
507.722	104.38
507.939	92.38
508.155	94.38
508.372	85.38
508.588	85.38
508.805	98.38
509.021	93.38
509.238	90.38
509.454	94.38
509.67	83.38
509.887	99.38
510.103	83.38
510.319	86.38
510.536	93.38
510.752	93.38
510.968	98.38
511.184	91.38
511.401	92.38
511.617	91.38
511.833	83.38
512.049	74.38
512.265	91.38
512.481	117.38
512.698	81.38
512.914	81.38
513.13	101.38
513.346	71.38
513.562	86.38
513.778	88.38
513.994	87.38
514.21	98.38
514.426	91.38
514.642	87.38
514.858	90.38
515.074	97.38
515.29	87.38
515.506	86.38
515.721	93.38
515.937	94.38
516.153	78.38
516.369	96.38
516.585	92.38
516.801	104.38
517.016	78.38
517.232	92.38
517.448	95.38
517.664	98.38
517.879	74.38
518.095	77.38
518.311	81.38
