Data from 237_3_HRD10591_00013.txt Node
Date: Mon Jan 19 14:13:01 EST 2026
User: Yrep
Spectrometer: HR+D1059
Trigger mode: 1
Integration Time (sec): 1.000000E-1
Scans to average: 1
Electric dark correction enabled: true
Nonlinearity correction enabled: false
Boxcar width: 0
XAxis mode: Wavelengths
Number of Pixels in Spectrum: 2048
>>>>>Begin Spectral Data<<<<<
223.165	-13.62
223.4	-13.62
223.635	-13.62
223.869	-13.62
224.104	-25.62
224.338	-11.62
224.573	-20.62
224.808	-31.62
225.042	-6.62
225.277	-13.62
225.511	11.38
225.746	12.38
225.98	8.38
226.215	12.38
226.449	6.38
226.683	29.38
226.918	31.38
227.152	25.38
227.387	50.38
227.621	29.38
227.856	44.38
228.09	46.38
228.324	63.38
228.559	51.38
228.793	38.38
229.027	75.38
229.262	59.38
229.496	49.38
229.73	72.38
229.964	70.38
230.199	77.38
230.433	74.38
230.667	71.38
230.901	84.38
231.136	80.38
231.37	77.38
231.604	80.38
231.838	75.38
232.072	80.38
232.306	79.38
232.541	73.38
232.775	72.38
233.009	80.38
233.243	75.38
233.477	86.38
233.711	71.38
233.945	74.38
234.179	80.38
234.413	74.38
234.647	73.38
234.881	84.38
235.115	78.38
235.349	78.38
235.583	74.38
235.817	75.38
236.051	92.38
236.285	89.38
236.519	68.38
236.753	78.38
236.987	79.38
237.221	71.38
237.455	84.38
237.689	76.38
237.922	77.38
238.156	68.38
238.39	67.38
238.624	73.38
238.858	70.38
239.091	77.38
239.325	70.38
239.559	73.38
239.793	82.38
240.027	83.38
240.26	66.38
240.494	72.38
240.728	80.38
240.961	76.38
241.195	91.38
241.429	90.38
241.662	70.38
241.896	56.38
242.13	67.38
242.363	72.38
242.597	79.38
242.83	69.38
243.064	76.38
243.298	74.38
243.531	87.38
243.765	91.38
243.998	81.38
244.232	75.38
244.465	81.38
244.699	73.38
244.932	77.38
245.166	80.38
245.399	75.38
245.633	89.38
245.866	70.38
246.099	72.38
246.333	87.38
246.566	75.38
246.8	88.38
247.033	80.38
247.266	63.38
247.5	71.38
247.733	76.38
247.966	84.38
248.2	81.38
248.433	66.38
248.666	80.38
248.899	73.38
249.133	86.38
249.366	86.38
249.599	73.38
249.832	78.38
250.066	76.38
250.299	73.38
250.532	72.38
250.765	92.38
250.998	102.38
251.231	77.38
251.465	88.38
251.698	77.38
251.931	63.38
252.164	76.38
252.397	85.38
252.63	78.38
252.863	67.38
253.096	76.38
253.329	85.38
253.562	75.38
253.795	76.38
254.028	89.38
254.261	72.38
254.494	86.38
254.727	77.38
254.96	82.38
255.193	75.38
255.426	78.38
255.659	77.38
255.892	77.38
256.124	74.38
256.357	80.38
256.59	92.38
256.823	66.38
257.056	88.38
257.289	75.38
257.521	74.38
257.754	60.38
257.987	75.38
258.22	88.38
258.452	86.38
258.685	64.38
258.918	80.38
259.151	76.38
259.383	79.38
259.616	97.38
259.849	70.38
260.081	73.38
260.314	87.38
260.547	88.38
260.779	73.38
261.012	70.38
261.244	79.38
261.477	84.38
261.71	80.38
261.942	70.38
262.175	77.38
262.407	86.38
262.64	73.38
262.872	80.38
263.105	80.38
263.337	94.38
263.57	69.38
263.802	82.38
264.035	86.38
264.267	79.38
264.499	83.38
264.732	91.38
264.964	73.38
265.197	69.38
265.429	74.38
265.661	86.38
265.894	84.38
266.126	88.38
266.358	87.38
266.591	73.38
266.823	79.38
267.055	68.38
267.287	74.38
267.52	82.38
267.752	70.38
267.984	78.38
268.216	75.38
268.448	76.38
268.681	74.38
268.913	81.38
269.145	82.38
269.377	89.38
269.609	78.38
269.841	75.38
270.073	88.38
270.306	78.38
270.538	74.38
270.77	79.38
271.002	82.38
271.234	85.38
271.466	79.38
271.698	87.38
271.93	87.38
272.162	81.38
272.394	82.38
272.626	90.38
272.858	76.38
273.09	92.38
273.322	99.38
273.553	94.38
273.785	90.38
274.017	67.38
274.249	72.38
274.481	91.38
274.713	94.38
274.945	82.38
275.176	85.38
275.408	84.38
275.64	65.38
275.872	76.38
276.104	87.38
276.335	80.38
276.567	71.38
276.799	80.38
277.031	77.38
277.262	70.38
277.494	82.38
277.726	86.38
277.957	86.38
278.189	72.38
278.421	90.38
278.652	68.38
278.884	83.38
279.115	59.38
279.347	83.38
279.579	78.38
279.81	95.38
280.042	83.38
280.273	74.38
280.505	87.38
280.736	95.38
280.968	85.38
281.199	71.38
281.431	83.38
281.662	82.38
281.894	91.38
282.125	73.38
282.356	84.38
282.588	75.38
282.819	86.38
283.051	87.38
283.282	75.38
283.513	88.38
283.745	78.38
283.976	81.38
284.207	78.38
284.439	82.38
284.67	84.38
284.901	83.38
285.132	91.38
285.364	69.38
285.595	98.38
285.826	70.38
286.057	81.38
286.288	76.38
286.52	76.38
286.751	94.38
286.982	90.38
287.213	74.38
287.444	78.38
287.675	84.38
287.906	82.38
288.138	84.38
288.369	82.38
288.6	81.38
288.831	90.38
289.062	69.38
289.293	80.38
289.524	79.38
289.755	90.38
289.986	75.38
290.217	79.38
290.448	72.38
290.679	82.38
290.91	98.38
291.141	75.38
291.371	90.38
291.602	86.38
291.833	92.38
292.064	89.38
292.295	75.38
292.526	81.38
292.757	90.38
292.987	91.38
293.218	79.38
293.449	86.38
293.68	94.38
293.91	68.38
294.141	88.38
294.372	98.38
294.603	87.38
294.833	74.38
295.064	93.38
295.295	90.38
295.525	93.38
295.756	90.38
295.987	92.38
296.217	89.38
296.448	92.38
296.679	75.38
296.909	79.38
297.14	90.38
297.37	87.38
297.601	66.38
297.831	70.38
298.062	88.38
298.292	80.38
298.523	74.38
298.753	82.38
298.984	89.38
299.214	90.38
299.445	101.38
299.675	99.38
299.905	94.38
300.136	98.38
300.366	84.38
300.597	79.38
300.827	81.38
301.057	66.38
301.288	75.38
301.518	82.38
301.748	91.38
301.979	87.38
302.209	96.38
302.439	82.38
302.669	96.38
302.9	71.38
303.13	89.38
303.36	96.38
303.59	76.38
303.82	94.38
304.051	98.38
304.281	98.38
304.511	97.38
304.741	92.38
304.971	91.38
305.201	96.38
305.431	86.38
305.661	84.38
305.891	75.38
306.121	89.38
306.352	80.38
306.582	95.38
306.812	85.38
307.042	84.38
307.272	83.38
307.502	81.38
307.731	80.38
307.961	94.38
308.191	93.38
308.421	99.38
308.651	98.38
308.881	97.38
309.111	91.38
309.341	105.38
309.571	110.38
309.8	85.38
310.03	74.38
310.26	92.38
310.49	87.38
310.72	82.38
310.949	90.38
311.179	102.38
311.409	82.38
311.639	72.38
311.868	84.38
312.098	94.38
312.328	78.38
312.557	80.38
312.787	74.38
313.017	88.38
313.246	77.38
313.476	76.38
313.706	77.38
313.935	86.38
314.165	90.38
314.394	83.38
314.624	89.38
314.853	83.38
315.083	87.38
315.312	90.38
315.542	81.38
315.771	94.38
316.001	94.38
316.23	98.38
316.46	82.38
316.689	92.38
316.919	71.38
317.148	90.38
317.377	96.38
317.607	88.38
317.836	100.38
318.065	101.38
318.295	103.38
318.524	85.38
318.753	77.38
318.983	82.38
319.212	91.38
319.441	94.38
319.67	88.38
319.9	95.38
320.129	76.38
320.358	89.38
320.587	88.38
320.816	97.38
321.046	85.38
321.275	94.38
321.504	86.38
321.733	86.38
321.962	107.38
322.191	76.38
322.42	88.38
322.649	94.38
322.878	79.38
323.108	102.38
323.337	83.38
323.566	82.38
323.795	89.38
324.024	82.38
324.253	93.38
324.482	76.38
324.71	91.38
324.939	86.38
325.168	85.38
325.397	84.38
325.626	86.38
325.855	83.38
326.084	69.38
326.313	81.38
326.542	91.38
326.77	71.38
326.999	91.38
327.228	90.38
327.457	85.38
327.686	94.38
327.914	74.38
328.143	73.38
328.372	90.38
328.6	85.38
328.829	77.38
329.058	92.38
329.287	88.38
329.515	80.38
329.744	91.38
329.972	86.38
330.201	85.38
330.43	76.38
330.658	76.38
330.887	92.38
331.115	90.38
331.344	88.38
331.572	97.38
331.801	89.38
332.03	71.38
332.258	89.38
332.486	77.38
332.715	86.38
332.943	87.38
333.172	89.38
333.4	96.38
333.629	77.38
333.857	84.38
334.085	99.38
334.314	95.38
334.542	99.38
334.771	99.38
334.999	85.38
335.227	91.38
335.455	75.38
335.684	105.38
335.912	106.38
336.14	82.38
336.369	97.38
336.597	85.38
336.825	96.38
337.053	75.38
337.281	77.38
337.51	94.38
337.738	87.38
337.966	84.38
338.194	84.38
338.422	79.38
338.65	92.38
338.878	88.38
339.106	84.38
339.334	75.38
339.562	90.38
339.79	68.38
340.018	86.38
340.246	72.38
340.474	93.38
340.702	73.38
340.93	83.38
341.158	74.38
341.386	86.38
341.614	77.38
341.842	95.38
342.07	94.38
342.298	90.38
342.526	92.38
342.754	85.38
342.981	67.38
343.209	83.38
343.437	93.38
343.665	95.38
343.893	78.38
344.12	95.38
344.348	82.38
344.576	94.38
344.804	84.38
345.031	88.38
345.259	73.38
345.487	82.38
345.714	88.38
345.942	86.38
346.17	94.38
346.397	80.38
346.625	80.38
346.853	81.38
347.08	93.38
347.308	88.38
347.535	94.38
347.763	96.38
347.99	94.38
348.218	96.38
348.445	75.38
348.673	82.38
348.9	102.38
349.128	87.38
349.355	77.38
349.583	93.38
349.81	104.38
350.037	83.38
350.265	88.38
350.492	80.38
350.72	80.38
350.947	86.38
351.174	71.38
351.402	90.38
351.629	87.38
351.856	73.38
352.083	97.38
352.311	95.38
352.538	104.38
352.765	81.38
352.992	82.38
353.22	74.38
353.447	77.38
353.674	68.38
353.901	97.38
354.128	73.38
354.355	82.38
354.583	87.38
354.81	98.38
355.037	82.38
355.264	76.38
355.491	95.38
355.718	92.38
355.945	91.38
356.172	76.38
356.399	82.38
356.626	81.38
356.853	83.38
357.08	98.38
357.307	91.38
357.534	76.38
357.761	90.38
357.988	88.38
358.215	93.38
358.441	77.38
358.668	92.38
358.895	99.38
359.122	85.38
359.349	80.38
359.576	81.38
359.802	77.38
360.029	86.38
360.256	92.38
360.483	92.38
360.709	94.38
360.936	91.38
361.163	84.38
361.39	76.38
361.616	78.38
361.843	88.38
362.07	108.38
362.296	97.38
362.523	102.38
362.749	124.38
362.976	128.38
363.203	129.38
363.429	113.38
363.656	93.38
363.882	115.38
364.109	117.38
364.335	131.38
364.562	140.38
364.788	113.38
365.015	102.38
365.241	98.38
365.468	94.38
365.694	85.38
365.92	91.38
366.147	82.38
366.373	75.38
366.599	82.38
366.826	100.38
367.052	82.38
367.278	81.38
367.505	75.38
367.731	102.38
367.957	91.38
368.184	80.38
368.41	82.38
368.636	87.38
368.862	94.38
369.089	92.38
369.315	91.38
369.541	89.38
369.767	75.38
369.993	82.38
370.219	80.38
370.445	82.38
370.672	88.38
370.898	96.38
371.124	87.38
371.35	79.38
371.576	76.38
371.802	92.38
372.028	94.38
372.254	96.38
372.48	87.38
372.706	101.38
372.932	87.38
373.158	76.38
373.384	100.38
373.61	92.38
373.835	112.38
374.061	93.38
374.287	100.38
374.513	87.38
374.739	92.38
374.965	112.38
375.191	84.38
375.416	91.38
375.642	81.38
375.868	84.38
376.094	104.38
376.319	91.38
376.545	90.38
376.771	83.38
376.997	91.38
377.222	94.38
377.448	99.38
377.674	89.38
377.899	85.38
378.125	75.38
378.35	84.38
378.576	92.38
378.802	91.38
379.027	85.38
379.253	93.38
379.478	106.38
379.704	88.38
379.929	87.38
380.155	81.38
380.38	77.38
380.606	83.38
380.831	88.38
381.057	104.38
381.282	111.38
381.507	99.38
381.733	98.38
381.958	82.38
382.184	114.38
382.409	94.38
382.634	112.38
382.86	87.38
383.085	110.38
383.31	101.38
383.535	100.38
383.761	107.38
383.986	108.38
384.211	114.38
384.436	98.38
384.662	102.38
384.887	97.38
385.112	95.38
385.337	100.38
385.562	96.38
385.787	97.38
386.013	112.38
386.238	116.38
386.463	98.38
386.688	105.38
386.913	98.38
387.138	90.38
387.363	86.38
387.588	90.38
387.813	102.38
388.038	93.38
388.263	89.38
388.488	69.38
388.713	81.38
388.938	89.38
389.163	86.38
389.387	81.38
389.612	86.38
389.837	86.38
390.062	93.38
390.287	94.38
390.512	84.38
390.736	94.38
390.961	93.38
391.186	88.38
391.411	90.38
391.636	95.38
391.86	115.38
392.085	100.38
392.31	114.38
392.534	105.38
392.759	121.38
392.984	170.38
393.208	266.38
393.433	394.38
393.658	311.38
393.882	158.38
394.107	118.38
394.331	121.38
394.556	138.38
394.78	114.38
395.005	87.38
395.229	105.38
395.454	100.38
395.678	106.38
395.903	127.38
396.127	135.38
396.352	182.38
396.576	179.38
396.801	273.38
397.025	312.38
397.249	178.38
397.474	132.38
397.698	122.38
397.922	98.38
398.147	83.38
398.371	89.38
398.595	102.38
398.82	95.38
399.044	79.38
399.268	97.38
399.492	89.38
399.717	82.38
399.941	81.38
400.165	101.38
400.389	97.38
400.613	88.38
400.837	95.38
401.062	83.38
401.286	77.38
401.51	85.38
401.734	94.38
401.958	101.38
402.182	99.38
402.406	83.38
402.63	88.38
402.854	76.38
403.078	84.38
403.302	80.38
403.526	88.38
403.75	88.38
403.974	91.38
404.198	107.38
404.422	134.38
404.645	154.38
404.869	117.38
405.093	99.38
405.317	90.38
405.541	83.38
405.765	77.38
405.988	87.38
406.212	86.38
406.436	79.38
406.66	95.38
406.883	82.38
407.107	89.38
407.331	86.38
407.555	96.38
407.778	106.38
408.002	99.38
408.226	99.38
408.449	92.38
408.673	89.38
408.896	87.38
409.12	83.38
409.344	107.38
409.567	90.38
409.791	102.38
410.014	107.38
410.238	104.38
410.461	100.38
410.685	98.38
410.908	96.38
411.132	94.38
411.355	92.38
411.578	90.38
411.802	92.38
412.025	87.38
412.249	81.38
412.472	98.38
412.695	98.38
412.919	100.38
413.142	86.38
413.365	96.38
413.589	106.38
413.812	90.38
414.035	88.38
414.258	91.38
414.482	90.38
414.705	87.38
414.928	80.38
415.151	103.38
415.374	76.38
415.597	80.38
415.821	95.38
416.044	99.38
416.267	76.38
416.49	91.38
416.713	88.38
416.936	86.38
417.159	89.38
417.382	87.38
417.605	87.38
417.828	99.38
418.051	86.38
418.274	88.38
418.497	79.38
418.72	80.38
418.943	88.38
419.166	101.38
419.389	94.38
419.611	85.38
419.834	82.38
420.057	96.38
420.28	102.38
420.503	79.38
420.726	98.38
420.948	101.38
421.171	111.38
421.394	90.38
421.617	128.38
421.839	148.38
422.062	150.38
422.285	203.38
422.507	326.38
422.73	447.38
422.953	394.38
423.175	272.38
423.398	154.38
423.621	114.38
423.843	122.38
424.066	105.38
424.288	106.38
424.511	101.38
424.733	95.38
424.956	96.38
425.178	91.38
425.401	86.38
425.623	101.38
425.846	89.38
426.068	97.38
426.291	89.38
426.513	93.38
426.735	92.38
426.958	91.38
427.18	83.38
427.402	100.38
427.625	83.38
427.847	98.38
428.069	101.38
428.292	140.38
428.514	151.38
428.736	129.38
428.958	140.38
429.181	137.38
429.403	107.38
429.625	116.38
429.847	134.38
430.069	182.38
430.292	224.38
430.514	197.38
430.736	147.38
430.958	161.38
431.18	102.38
431.402	103.38
431.624	99.38
431.846	140.38
432.068	177.38
432.29	105.38
432.512	86.38
432.734	85.38
432.956	79.38
433.178	85.38
433.4	105.38
433.622	86.38
433.844	84.38
434.066	92.38
434.287	96.38
434.509	88.38
434.731	77.38
434.953	104.38
435.175	87.38
435.397	94.38
435.618	98.38
435.84	102.38
436.062	85.38
436.284	85.38
436.505	92.38
436.727	88.38
436.949	86.38
437.17	94.38
437.392	88.38
437.614	92.38
437.835	86.38
438.057	100.38
438.278	91.38
438.5	110.38
438.721	98.38
438.943	97.38
439.165	87.38
439.386	96.38
439.608	96.38
439.829	86.38
440.05	79.38
440.272	94.38
440.493	94.38
440.715	94.38
440.936	74.38
441.158	88.38
441.379	81.38
441.6	88.38
441.822	82.38
442.043	74.38
442.264	106.38
442.486	169.38
442.707	195.38
442.928	147.38
443.149	129.38
443.371	170.38
443.592	315.38
443.813	262.38
444.034	128.38
444.255	94.38
444.476	88.38
444.698	90.38
444.919	100.38
445.14	183.38
445.361	243.38
445.582	358.38
445.803	308.38
446.024	151.38
446.245	97.38
446.466	85.38
446.687	91.38
446.908	90.38
447.129	76.38
447.35	70.38
447.571	89.38
447.792	79.38
448.013	90.38
448.234	90.38
448.455	83.38
448.675	81.38
448.896	81.38
449.117	65.38
449.338	99.38
449.559	88.38
449.779	77.38
450	92.38
450.221	80.38
450.442	99.38
450.662	90.38
450.883	98.38
451.104	89.38
451.324	92.38
451.545	88.38
451.766	91.38
451.986	94.38
452.207	90.38
452.428	94.38
452.648	98.38
452.869	98.38
453.089	101.38
453.31	87.38
453.53	101.38
453.751	81.38
453.971	98.38
454.192	78.38
454.412	81.38
454.633	78.38
454.853	82.38
455.073	72.38
455.294	87.38
455.514	103.38
455.734	100.38
455.955	86.38
456.175	90.38
456.395	91.38
456.616	75.38
456.836	94.38
457.056	77.38
457.276	86.38
457.497	82.38
457.717	83.38
457.937	109.38
458.157	132.38
458.377	140.38
458.598	143.38
458.818	151.38
459.038	97.38
459.258	86.38
459.478	95.38
459.698	81.38
459.918	95.38
460.138	73.38
460.358	91.38
460.578	100.38
460.798	119.38
461.018	132.38
461.238	95.38
461.458	72.38
461.678	93.38
461.898	72.38
462.118	76.38
462.338	81.38
462.558	87.38
462.777	80.38
462.997	90.38
463.217	90.38
463.437	72.38
463.657	90.38
463.876	80.38
464.096	86.38
464.316	87.38
464.536	73.38
464.755	89.38
464.975	94.38
465.195	86.38
465.414	86.38
465.634	79.38
465.854	68.38
466.073	87.38
466.293	80.38
466.512	88.38
466.732	79.38
466.951	85.38
467.171	97.38
467.391	88.38
467.61	82.38
467.829	78.38
468.049	85.38
468.268	88.38
468.488	86.38
468.707	98.38
468.927	90.38
469.146	91.38
469.365	75.38
469.585	86.38
469.804	75.38
470.023	91.38
470.243	89.38
470.462	91.38
470.681	110.38
470.901	78.38
471.12	96.38
471.339	85.38
471.558	98.38
471.777	75.38
471.997	88.38
472.216	84.38
472.435	74.38
472.654	92.38
472.873	87.38
473.092	92.38
473.311	91.38
473.53	93.38
473.749	78.38
473.968	96.38
474.187	91.38
474.406	86.38
474.625	96.38
474.844	91.38
475.063	72.38
475.282	102.38
475.501	87.38
475.72	87.38
475.939	79.38
476.158	86.38
476.377	86.38
476.596	75.38
476.814	84.38
477.033	94.38
477.252	90.38
477.471	91.38
477.69	95.38
477.908	90.38
478.127	94.38
478.346	90.38
478.564	90.38
478.783	81.38
479.002	93.38
479.22	87.38
479.439	79.38
479.658	82.38
479.876	91.38
480.095	80.38
480.313	99.38
480.532	90.38
480.751	94.38
480.969	85.38
481.188	96.38
481.406	98.38
481.624	98.38
481.843	87.38
482.061	91.38
482.28	105.38
482.498	72.38
482.717	80.38
482.935	86.38
483.153	87.38
483.372	89.38
483.59	98.38
483.808	85.38
484.027	90.38
484.245	89.38
484.463	79.38
484.681	102.38
484.9	95.38
485.118	83.38
485.336	97.38
485.554	100.38
485.772	88.38
485.99	90.38
486.209	98.38
486.427	102.38
486.645	104.38
486.863	92.38
487.081	106.38
487.299	82.38
487.517	111.38
487.735	132.38
487.953	212.38
488.171	182.38
488.389	92.38
488.607	90.38
488.825	94.38
489.043	94.38
489.261	93.38
489.479	99.38
489.696	81.38
489.914	81.38
490.132	95.38
490.35	85.38
490.568	100.38
490.786	99.38
491.003	84.38
491.221	75.38
491.439	82.38
491.657	99.38
491.874	68.38
492.092	98.38
492.31	86.38
492.527	93.38
492.745	82.38
492.963	84.38
493.18	76.38
493.398	92.38
493.615	94.38
493.833	82.38
494.05	98.38
494.268	72.38
494.485	83.38
494.703	87.38
494.92	86.38
495.138	87.38
495.355	85.38
495.573	96.38
495.79	86.38
496.008	84.38
496.225	94.38
496.442	107.38
496.66	89.38
496.877	96.38
497.094	83.38
497.312	91.38
497.529	90.38
497.746	94.38
497.963	83.38
498.181	91.38
498.398	104.38
498.615	98.38
498.832	79.38
499.049	110.38
499.267	99.38
499.484	86.38
499.701	103.38
499.918	104.38
500.135	91.38
500.352	94.38
500.569	96.38
500.786	101.38
501.003	85.38
501.22	96.38
501.437	101.38
501.654	89.38
501.871	103.38
502.088	92.38
502.305	81.38
502.522	97.38
502.739	104.38
502.956	88.38
503.172	96.38
503.389	88.38
503.606	89.38
503.823	105.38
504.04	104.38
504.256	150.38
504.473	145.38
504.69	89.38
504.907	94.38
505.123	96.38
505.34	97.38
505.557	101.38
505.773	92.38
505.99	92.38
506.207	93.38
506.423	86.38
506.64	89.38
506.856	88.38
507.073	98.38
507.289	87.38
507.506	82.38
507.722	77.38
507.939	69.38
508.155	88.38
508.372	79.38
508.588	91.38
508.805	95.38
509.021	79.38
509.238	99.38
509.454	103.38
509.67	86.38
509.887	83.38
510.103	73.38
510.319	92.38
510.536	104.38
510.752	91.38
510.968	90.38
511.184	97.38
511.401	101.38
511.617	77.38
511.833	89.38
512.049	98.38
512.265	85.38
512.481	98.38
512.698	91.38
512.914	94.38
513.13	100.38
513.346	89.38
513.562	96.38
513.778	86.38
513.994	95.38
514.21	87.38
514.426	84.38
514.642	96.38
514.858	91.38
515.074	91.38
515.29	99.38
515.506	85.38
515.721	75.38
515.937	98.38
516.153	80.38
516.369	86.38
516.585	93.38
516.801	101.38
517.016	95.38
517.232	87.38
517.448	112.38
