Data from 237_3_HRD10591_00044.txt Node
Date: Mon Jan 19 14:13:16 EST 2026
User: Yrep
Spectrometer: HR+D1059
Trigger mode: 1
Integration Time (sec): 1.000000E-1
Scans to average: 1
Electric dark correction enabled: true
Nonlinearity correction enabled: false
Boxcar width: 0
XAxis mode: Wavelengths
Number of Pixels in Spectrum: 2048
>>>>>Begin Spectral Data<<<<<
223.165	-15.38
223.4	-15.38
223.635	-15.38
223.869	4.62
224.104	-11.38
224.338	-21.38
224.573	-20.38
224.808	-10.38
225.042	0.62
225.277	-2.38
225.511	-10.38
225.746	-4.38
225.98	-5.38
226.215	22.62
226.449	-1.38
226.683	17.62
226.918	24.62
227.152	32.62
227.387	31.62
227.621	39.62
227.856	28.62
228.09	46.62
228.324	59.62
228.559	52.62
228.793	40.62
229.027	70.62
229.262	65.62
229.496	59.62
229.73	62.62
229.964	64.62
230.199	66.62
230.433	74.62
230.667	81.62
230.901	87.62
231.136	71.62
231.37	87.62
231.604	71.62
231.838	80.62
232.072	90.62
232.306	55.62
232.541	77.62
232.775	71.62
233.009	77.62
233.243	81.62
233.477	78.62
233.711	85.62
233.945	75.62
234.179	79.62
234.413	85.62
234.647	73.62
234.881	79.62
235.115	78.62
235.349	91.62
235.583	95.62
235.817	70.62
236.051	67.62
236.285	80.62
236.519	69.62
236.753	70.62
236.987	56.62
237.221	71.62
237.455	83.62
237.689	73.62
237.922	75.62
238.156	77.62
238.39	78.62
238.624	82.62
238.858	80.62
239.091	80.62
239.325	77.62
239.559	71.62
239.793	66.62
240.027	63.62
240.26	63.62
240.494	85.62
240.728	77.62
240.961	59.62
241.195	69.62
241.429	79.62
241.662	66.62
241.896	85.62
242.13	63.62
242.363	76.62
242.597	88.62
242.83	78.62
243.064	74.62
243.298	71.62
243.531	59.62
243.765	73.62
243.998	87.62
244.232	76.62
244.465	79.62
244.699	88.62
244.932	83.62
245.166	77.62
245.399	60.62
245.633	81.62
245.866	79.62
246.099	65.62
246.333	60.62
246.566	79.62
246.8	74.62
247.033	80.62
247.266	67.62
247.5	71.62
247.733	68.62
247.966	92.62
248.2	74.62
248.433	67.62
248.666	85.62
248.899	62.62
249.133	68.62
249.366	72.62
249.599	73.62
249.832	74.62
250.066	79.62
250.299	68.62
250.532	75.62
250.765	81.62
250.998	87.62
251.231	71.62
251.465	71.62
251.698	71.62
251.931	67.62
252.164	79.62
252.397	81.62
252.63	79.62
252.863	79.62
253.096	76.62
253.329	80.62
253.562	83.62
253.795	71.62
254.028	67.62
254.261	87.62
254.494	82.62
254.727	77.62
254.96	74.62
255.193	82.62
255.426	60.62
255.659	67.62
255.892	79.62
256.124	78.62
256.357	77.62
256.59	81.62
256.823	69.62
257.056	77.62
257.289	67.62
257.521	80.62
257.754	81.62
257.987	71.62
258.22	85.62
258.452	74.62
258.685	64.62
258.918	71.62
259.151	84.62
259.383	85.62
259.616	73.62
259.849	78.62
260.081	75.62
260.314	79.62
260.547	67.62
260.779	73.62
261.012	93.62
261.244	88.62
261.477	77.62
261.71	83.62
261.942	77.62
262.175	71.62
262.407	77.62
262.64	72.62
262.872	86.62
263.105	70.62
263.337	76.62
263.57	75.62
263.802	75.62
264.035	68.62
264.267	64.62
264.499	76.62
264.732	75.62
264.964	78.62
265.197	88.62
265.429	72.62
265.661	84.62
265.894	75.62
266.126	75.62
266.358	77.62
266.591	65.62
266.823	75.62
267.055	89.62
267.287	76.62
267.52	84.62
267.752	87.62
267.984	73.62
268.216	80.62
268.448	73.62
268.681	96.62
268.913	86.62
269.145	84.62
269.377	72.62
269.609	88.62
269.841	61.62
270.073	71.62
270.306	69.62
270.538	86.62
270.77	74.62
271.002	74.62
271.234	70.62
271.466	85.62
271.698	79.62
271.93	67.62
272.162	88.62
272.394	83.62
272.626	79.62
272.858	101.62
273.09	71.62
273.322	69.62
273.553	90.62
273.785	91.62
274.017	69.62
274.249	74.62
274.481	75.62
274.713	79.62
274.945	80.62
275.176	88.62
275.408	75.62
275.64	88.62
275.872	87.62
276.104	79.62
276.335	73.62
276.567	80.62
276.799	65.62
277.031	76.62
277.262	79.62
277.494	77.62
277.726	77.62
277.957	79.62
278.189	82.62
278.421	79.62
278.652	67.62
278.884	79.62
279.115	94.62
279.347	73.62
279.579	92.62
279.81	69.62
280.042	87.62
280.273	81.62
280.505	77.62
280.736	99.62
280.968	72.62
281.199	91.62
281.431	71.62
281.662	95.62
281.894	71.62
282.125	66.62
282.356	82.62
282.588	95.62
282.819	99.62
283.051	79.62
283.282	93.62
283.513	75.62
283.745	88.62
283.976	65.62
284.207	75.62
284.439	89.62
284.67	85.62
284.901	85.62
285.132	91.62
285.364	74.62
285.595	83.62
285.826	80.62
286.057	87.62
286.288	80.62
286.52	77.62
286.751	83.62
286.982	102.62
287.213	89.62
287.444	79.62
287.675	95.62
287.906	78.62
288.138	87.62
288.369	88.62
288.6	93.62
288.831	76.62
289.062	73.62
289.293	82.62
289.524	79.62
289.755	83.62
289.986	71.62
290.217	83.62
290.448	87.62
290.679	87.62
290.91	76.62
291.141	82.62
291.371	86.62
291.602	79.62
291.833	75.62
292.064	67.62
292.295	77.62
292.526	81.62
292.757	74.62
292.987	83.62
293.218	89.62
293.449	73.62
293.68	89.62
293.91	88.62
294.141	89.62
294.372	83.62
294.603	87.62
294.833	85.62
295.064	90.62
295.295	88.62
295.525	92.62
295.756	85.62
295.987	94.62
296.217	86.62
296.448	86.62
296.679	79.62
296.909	88.62
297.14	78.62
297.37	73.62
297.601	80.62
297.831	84.62
298.062	68.62
298.292	94.62
298.523	91.62
298.753	95.62
298.984	73.62
299.214	83.62
299.445	89.62
299.675	83.62
299.905	79.62
300.136	66.62
300.366	82.62
300.597	75.62
300.827	85.62
301.057	84.62
301.288	70.62
301.518	79.62
301.748	72.62
301.979	91.62
302.209	95.62
302.439	69.62
302.669	80.62
302.9	85.62
303.13	72.62
303.36	87.62
303.59	74.62
303.82	90.62
304.051	92.62
304.281	79.62
304.511	81.62
304.741	83.62
304.971	81.62
305.201	92.62
305.431	86.62
305.661	82.62
305.891	85.62
306.121	83.62
306.352	64.62
306.582	81.62
306.812	87.62
307.042	86.62
307.272	89.62
307.502	77.62
307.731	79.62
307.961	98.62
308.191	79.62
308.421	83.62
308.651	97.62
308.881	79.62
309.111	82.62
309.341	76.62
309.571	86.62
309.8	76.62
310.03	88.62
310.26	90.62
310.49	91.62
310.72	88.62
310.949	69.62
311.179	84.62
311.409	80.62
311.639	68.62
311.868	85.62
312.098	97.62
312.328	87.62
312.557	73.62
312.787	67.62
313.017	78.62
313.246	81.62
313.476	92.62
313.706	81.62
313.935	73.62
314.165	86.62
314.394	95.62
314.624	80.62
314.853	85.62
315.083	81.62
315.312	95.62
315.542	84.62
315.771	97.62
316.001	85.62
316.23	95.62
316.46	85.62
316.689	92.62
316.919	94.62
317.148	86.62
317.377	87.62
317.607	90.62
317.836	103.62
318.065	81.62
318.295	81.62
318.524	81.62
318.753	80.62
318.983	74.62
319.212	84.62
319.441	89.62
319.67	84.62
319.9	88.62
320.129	76.62
320.358	97.62
320.587	83.62
320.816	88.62
321.046	75.62
321.275	88.62
321.504	84.62
321.733	80.62
321.962	92.62
322.191	84.62
322.42	73.62
322.649	89.62
322.878	78.62
323.108	87.62
323.337	77.62
323.566	78.62
323.795	75.62
324.024	77.62
324.253	85.62
324.482	95.62
324.71	77.62
324.939	91.62
325.168	93.62
325.397	65.62
325.626	81.62
325.855	83.62
326.084	77.62
326.313	98.62
326.542	93.62
326.77	91.62
326.999	69.62
327.228	82.62
327.457	81.62
327.686	90.62
327.914	83.62
328.143	79.62
328.372	77.62
328.6	84.62
328.829	97.62
329.058	81.62
329.287	72.62
329.515	68.62
329.744	84.62
329.972	79.62
330.201	86.62
330.43	96.62
330.658	87.62
330.887	81.62
331.115	87.62
331.344	91.62
331.572	84.62
331.801	84.62
332.03	84.62
332.258	95.62
332.486	76.62
332.715	93.62
332.943	72.62
333.172	97.62
333.4	81.62
333.629	81.62
333.857	82.62
334.085	89.62
334.314	88.62
334.542	84.62
334.771	85.62
334.999	93.62
335.227	79.62
335.455	87.62
335.684	70.62
335.912	83.62
336.14	69.62
336.369	79.62
336.597	77.62
336.825	89.62
337.053	79.62
337.281	71.62
337.51	80.62
337.738	79.62
337.966	79.62
338.194	74.62
338.422	89.62
338.65	97.62
338.878	87.62
339.106	72.62
339.334	94.62
339.562	82.62
339.79	68.62
340.018	96.62
340.246	78.62
340.474	74.62
340.702	98.62
340.93	81.62
341.158	80.62
341.386	79.62
341.614	82.62
341.842	83.62
342.07	83.62
342.298	85.62
342.526	77.62
342.754	79.62
342.981	72.62
343.209	69.62
343.437	87.62
343.665	73.62
343.893	85.62
344.12	95.62
344.348	88.62
344.576	75.62
344.804	75.62
345.031	79.62
345.259	77.62
345.487	85.62
345.714	90.62
345.942	82.62
346.17	78.62
346.397	92.62
346.625	74.62
346.853	75.62
347.08	87.62
347.308	84.62
347.535	107.62
347.763	86.62
347.99	86.62
348.218	81.62
348.445	91.62
348.673	86.62
348.9	88.62
349.128	88.62
349.355	78.62
349.583	84.62
349.81	74.62
350.037	96.62
350.265	79.62
350.492	73.62
350.72	67.62
350.947	99.62
351.174	75.62
351.402	76.62
351.629	88.62
351.856	88.62
352.083	77.62
352.311	85.62
352.538	88.62
352.765	78.62
352.992	79.62
353.22	84.62
353.447	94.62
353.674	89.62
353.901	85.62
354.128	95.62
354.355	81.62
354.583	85.62
354.81	89.62
355.037	82.62
355.264	92.62
355.491	82.62
355.718	80.62
355.945	77.62
356.172	85.62
356.399	67.62
356.626	77.62
356.853	71.62
357.08	79.62
357.307	101.62
357.534	81.62
357.761	87.62
357.988	88.62
358.215	92.62
358.441	84.62
358.668	75.62
358.895	88.62
359.122	80.62
359.349	102.62
359.576	83.62
359.802	79.62
360.029	73.62
360.256	84.62
360.483	82.62
360.709	90.62
360.936	83.62
361.163	74.62
361.39	82.62
361.616	79.62
361.843	84.62
362.07	84.62
362.296	93.62
362.523	89.62
362.749	72.62
362.976	108.62
363.203	98.62
363.429	79.62
363.656	83.62
363.882	78.62
364.109	92.62
364.335	116.62
364.562	105.62
364.788	95.62
365.015	69.62
365.241	84.62
365.468	82.62
365.694	78.62
365.92	78.62
366.147	90.62
366.373	77.62
366.599	77.62
366.826	79.62
367.052	83.62
367.278	86.62
367.505	77.62
367.731	75.62
367.957	82.62
368.184	73.62
368.41	80.62
368.636	80.62
368.862	83.62
369.089	99.62
369.315	80.62
369.541	83.62
369.767	86.62
369.993	96.62
370.219	88.62
370.445	76.62
370.672	82.62
370.898	79.62
371.124	89.62
371.35	90.62
371.576	83.62
371.802	86.62
372.028	93.62
372.254	74.62
372.48	80.62
372.706	83.62
372.932	81.62
373.158	99.62
373.384	85.62
373.61	86.62
373.835	107.62
374.061	86.62
374.287	81.62
374.513	84.62
374.739	86.62
374.965	87.62
375.191	87.62
375.416	78.62
375.642	79.62
375.868	85.62
376.094	77.62
376.319	83.62
376.545	91.62
376.771	75.62
376.997	84.62
377.222	64.62
377.448	89.62
377.674	77.62
377.899	86.62
378.125	69.62
378.35	91.62
378.576	90.62
378.802	77.62
379.027	86.62
379.253	79.62
379.478	74.62
379.704	77.62
379.929	93.62
380.155	73.62
380.38	71.62
380.606	77.62
380.831	89.62
381.057	91.62
381.282	86.62
381.507	71.62
381.733	102.62
381.958	83.62
382.184	89.62
382.409	79.62
382.634	84.62
382.86	72.62
383.085	78.62
383.31	72.62
383.535	89.62
383.761	86.62
383.986	87.62
384.211	78.62
384.436	79.62
384.662	80.62
384.887	78.62
385.112	91.62
385.337	85.62
385.562	79.62
385.787	77.62
386.013	90.62
386.238	84.62
386.463	87.62
386.688	104.62
386.913	88.62
387.138	87.62
387.363	86.62
387.588	96.62
387.813	80.62
388.038	90.62
388.263	92.62
388.488	84.62
388.713	71.62
388.938	91.62
389.163	86.62
389.387	86.62
389.612	83.62
389.837	76.62
390.062	85.62
390.287	79.62
390.512	83.62
390.736	85.62
390.961	80.62
391.186	79.62
391.411	100.62
391.636	70.62
391.86	86.62
392.085	85.62
392.31	83.62
392.534	94.62
392.759	91.62
392.984	110.62
393.208	153.62
393.433	224.62
393.658	175.62
393.882	94.62
394.107	92.62
394.331	94.62
394.556	103.62
394.78	93.62
395.005	72.62
395.229	74.62
395.454	88.62
395.678	95.62
395.903	115.62
396.127	100.62
396.352	109.62
396.576	121.62
396.801	157.62
397.025	181.62
397.249	118.62
397.474	91.62
397.698	77.62
397.922	85.62
398.147	85.62
398.371	93.62
398.595	92.62
398.82	76.62
399.044	86.62
399.268	88.62
399.492	64.62
399.717	96.62
399.941	93.62
400.165	81.62
400.389	79.62
400.613	89.62
400.837	77.62
401.062	67.62
401.286	88.62
401.51	85.62
401.734	73.62
401.958	81.62
402.182	91.62
402.406	95.62
402.63	84.62
402.854	97.62
403.078	85.62
403.302	79.62
403.526	86.62
403.75	83.62
403.974	99.62
404.198	90.62
404.422	97.62
404.645	120.62
404.869	96.62
405.093	101.62
405.317	91.62
405.541	90.62
405.765	92.62
405.988	72.62
406.212	88.62
406.436	77.62
406.66	86.62
406.883	79.62
407.107	79.62
407.331	85.62
407.555	88.62
407.778	92.62
408.002	93.62
408.226	84.62
408.449	81.62
408.673	77.62
408.896	76.62
409.12	91.62
409.344	81.62
409.567	83.62
409.791	83.62
410.014	97.62
410.238	85.62
410.461	92.62
410.685	78.62
410.908	86.62
411.132	87.62
411.355	87.62
411.578	79.62
411.802	87.62
412.025	80.62
412.249	83.62
412.472	85.62
412.695	77.62
412.919	101.62
413.142	100.62
413.365	79.62
413.589	79.62
413.812	84.62
414.035	93.62
414.258	86.62
414.482	84.62
414.705	78.62
414.928	92.62
415.151	87.62
415.374	77.62
415.597	90.62
415.821	79.62
416.044	85.62
416.267	71.62
416.49	91.62
416.713	77.62
416.936	81.62
417.159	87.62
417.382	78.62
417.605	72.62
417.828	74.62
418.051	71.62
418.274	80.62
418.497	70.62
418.72	78.62
418.943	77.62
419.166	81.62
419.389	86.62
419.611	81.62
419.834	63.62
420.057	78.62
420.28	79.62
420.503	84.62
420.726	92.62
420.948	93.62
421.171	68.62
421.394	96.62
421.617	105.62
421.839	109.62
422.062	121.62
422.285	138.62
422.507	218.62
422.73	343.62
422.953	320.62
423.175	166.62
423.398	133.62
423.621	88.62
423.843	96.62
424.066	86.62
424.288	81.62
424.511	76.62
424.733	89.62
424.956	68.62
425.178	79.62
425.401	94.62
425.623	81.62
425.846	75.62
426.068	92.62
426.291	76.62
426.513	80.62
426.735	81.62
426.958	91.62
427.18	85.62
427.402	97.62
427.625	99.62
427.847	87.62
428.069	87.62
428.292	92.62
428.514	115.62
428.736	103.62
428.958	113.62
429.181	119.62
429.403	89.62
429.625	81.62
429.847	100.62
430.069	135.62
430.292	149.62
430.514	135.62
430.736	99.62
430.958	122.62
431.18	101.62
431.402	87.62
431.624	94.62
431.846	107.62
432.068	117.62
432.29	89.62
432.512	94.62
432.734	75.62
432.956	75.62
433.178	85.62
433.4	74.62
433.622	67.62
433.844	85.62
434.066	96.62
434.287	68.62
434.509	81.62
434.731	74.62
434.953	84.62
435.175	84.62
435.397	85.62
435.618	92.62
435.84	100.62
436.062	79.62
436.284	68.62
436.505	78.62
436.727	87.62
436.949	86.62
437.17	60.62
437.392	74.62
437.614	84.62
437.835	87.62
438.057	68.62
438.278	85.62
438.5	73.62
438.721	82.62
438.943	72.62
439.165	77.62
439.386	72.62
439.608	89.62
439.829	72.62
440.05	95.62
440.272	98.62
440.493	84.62
440.715	90.62
440.936	79.62
441.158	81.62
441.379	86.62
441.6	95.62
441.822	85.62
442.043	83.62
442.264	88.62
442.486	123.62
442.707	134.62
442.928	113.62
443.149	97.62
443.371	118.62
443.592	199.62
443.813	168.62
444.034	101.62
444.255	97.62
444.476	92.62
444.698	80.62
444.919	86.62
445.14	180.62
445.361	178.62
445.582	232.62
445.803	197.62
446.024	103.62
446.245	79.62
446.466	77.62
446.687	96.62
446.908	84.62
447.129	83.62
447.35	82.62
447.571	81.62
447.792	72.62
448.013	79.62
448.234	85.62
448.455	69.62
448.675	76.62
448.896	75.62
449.117	83.62
449.338	83.62
449.559	91.62
449.779	81.62
450	75.62
450.221	76.62
450.442	85.62
450.662	73.62
450.883	81.62
451.104	72.62
451.324	73.62
451.545	79.62
451.766	87.62
451.986	80.62
452.207	70.62
452.428	103.62
452.648	98.62
452.869	88.62
453.089	87.62
453.31	83.62
453.53	71.62
453.751	65.62
453.971	84.62
454.192	83.62
454.412	70.62
454.633	79.62
454.853	79.62
455.073	66.62
455.294	73.62
455.514	83.62
455.734	82.62
455.955	92.62
456.175	91.62
456.395	91.62
456.616	87.62
456.836	69.62
457.056	78.62
457.276	84.62
457.497	78.62
457.717	97.62
457.937	101.62
458.157	88.62
458.377	92.62
458.598	81.62
458.818	92.62
459.038	93.62
459.258	80.62
459.478	80.62
459.698	99.62
459.918	80.62
460.138	78.62
460.358	83.62
460.578	95.62
460.798	111.62
461.018	111.62
461.238	95.62
461.458	95.62
461.678	83.62
461.898	68.62
462.118	88.62
462.338	96.62
462.558	61.62
462.777	55.62
462.997	79.62
463.217	78.62
463.437	86.62
463.657	89.62
463.876	77.62
464.096	74.62
464.316	71.62
464.536	75.62
464.755	80.62
464.975	87.62
465.195	84.62
465.414	87.62
465.634	85.62
465.854	74.62
466.073	81.62
466.293	81.62
466.512	64.62
466.732	76.62
466.951	88.62
467.171	73.62
467.391	82.62
467.61	85.62
467.829	84.62
468.049	82.62
468.268	77.62
468.488	81.62
468.707	84.62
468.927	68.62
469.146	93.62
469.365	80.62
469.585	73.62
469.804	79.62
470.023	81.62
470.243	77.62
470.462	80.62
470.681	86.62
470.901	79.62
471.12	83.62
471.339	78.62
471.558	95.62
471.777	86.62
471.997	73.62
472.216	77.62
472.435	74.62
472.654	78.62
472.873	80.62
473.092	96.62
473.311	79.62
473.53	88.62
473.749	109.62
473.968	86.62
474.187	87.62
474.406	73.62
474.625	72.62
474.844	74.62
475.063	77.62
475.282	70.62
475.501	79.62
475.72	93.62
475.939	84.62
476.158	75.62
476.377	78.62
476.596	97.62
476.814	87.62
477.033	85.62
477.252	92.62
477.471	84.62
477.69	82.62
477.908	91.62
478.127	69.62
478.346	84.62
478.564	88.62
478.783	87.62
479.002	88.62
479.22	80.62
479.439	86.62
479.658	72.62
479.876	83.62
480.095	91.62
480.313	86.62
480.532	81.62
480.751	64.62
480.969	65.62
481.188	95.62
481.406	83.62
481.624	88.62
481.843	68.62
482.061	82.62
482.28	79.62
482.498	85.62
482.717	84.62
482.935	79.62
483.153	86.62
483.372	85.62
483.59	92.62
483.808	89.62
484.027	85.62
484.245	85.62
484.463	86.62
484.681	91.62
484.9	98.62
485.118	92.62
485.336	95.62
485.554	81.62
485.772	77.62
485.99	63.62
486.209	90.62
486.427	90.62
486.645	89.62
486.863	78.62
487.081	72.62
487.299	87.62
487.517	101.62
487.735	112.62
487.953	130.62
488.171	115.62
488.389	79.62
488.607	77.62
488.825	78.62
489.043	89.62
489.261	87.62
489.479	92.62
489.696	81.62
489.914	79.62
490.132	96.62
490.35	96.62
490.568	83.62
490.786	87.62
491.003	105.62
491.221	69.62
491.439	73.62
491.657	84.62
491.874	86.62
492.092	85.62
492.31	97.62
492.527	82.62
492.745	81.62
492.963	79.62
493.18	75.62
493.398	84.62
493.615	90.62
493.833	85.62
494.05	67.62
494.268	83.62
494.485	88.62
494.703	76.62
494.92	72.62
495.138	75.62
495.355	80.62
495.573	85.62
495.79	84.62
496.008	100.62
496.225	87.62
496.442	80.62
496.66	87.62
496.877	82.62
497.094	79.62
497.312	94.62
497.529	77.62
497.746	96.62
497.963	91.62
498.181	73.62
498.398	101.62
498.615	83.62
498.832	76.62
499.049	89.62
499.267	98.62
499.484	100.62
499.701	81.62
499.918	93.62
500.135	94.62
500.352	77.62
500.569	63.62
500.786	80.62
501.003	99.62
501.22	91.62
501.437	96.62
501.654	82.62
501.871	86.62
502.088	74.62
502.305	95.62
502.522	96.62
502.739	79.62
502.956	99.62
503.172	80.62
503.389	79.62
503.606	95.62
503.823	94.62
504.04	87.62
504.256	117.62
504.473	109.62
504.69	85.62
504.907	89.62
505.123	79.62
505.34	90.62
505.557	91.62
505.773	83.62
505.99	93.62
506.207	87.62
506.423	77.62
506.64	89.62
506.856	81.62
507.073	99.62
507.289	71.62
507.506	86.62
507.722	89.62
507.939	95.62
508.155	91.62
508.372	85.62
508.588	87.62
508.805	85.62
509.021	87.62
509.238	75.62
509.454	80.62
509.67	110.62
509.887	90.62
510.103	77.62
510.319	79.62
510.536	92.62
510.752	84.62
510.968	77.62
511.184	94.62
511.401	79.62
511.617	75.62
511.833	85.62
512.049	77.62
512.265	82.62
512.481	88.62
512.698	72.62
512.914	83.62
513.13	99.62
513.346	74.62
513.562	87.62
513.778	85.62
513.994	73.62
514.21	80.62
514.426	85.62
514.642	81.62
514.858	84.62
515.074	91.62
515.29	95.62
515.506	86.62
515.721	81.62
515.937	79.62
516.153	79.62
516.369	73.62
516.585	84.62
516.801	83.62
517.016	85.62
517.232	78.62
517.448	87.62
517.664	78.62
517.879	87.62
518.095	84.62
518.311	69.62
518.527	92.62
518.742	100.62
518.958	123.62
519.173	143.62
