Data from 237_3_HRD10591_00045.txt Node
Date: Mon Jan 19 14:13:17 EST 2026
User: Yrep
Spectrometer: HR+D1059
Trigger mode: 1
Integration Time (sec): 1.000000E-1
Scans to average: 1
Electric dark correction enabled: true
Nonlinearity correction enabled: false
Boxcar width: 0
XAxis mode: Wavelengths
Number of Pixels in Spectrum: 2048
>>>>>Begin Spectral Data<<<<<
223.165	-21.38
223.4	-21.38
223.635	-21.38
223.869	-17.38
224.104	-9.38
224.338	-23.38
224.573	-15.38
224.808	-6.38
225.042	-14.38
225.277	-7.38
225.511	2.62
225.746	4.62
225.98	3.62
226.215	1.62
226.449	15.62
226.683	25.62
226.918	32.62
227.152	28.62
227.387	39.62
227.621	30.62
227.856	44.62
228.09	50.62
228.324	41.62
228.559	49.62
228.793	59.62
229.027	66.62
229.262	62.62
229.496	58.62
229.73	57.62
229.964	59.62
230.199	72.62
230.433	67.62
230.667	68.62
230.901	76.62
231.136	72.62
231.37	88.62
231.604	90.62
231.838	77.62
232.072	74.62
232.306	85.62
232.541	66.62
232.775	86.62
233.009	86.62
233.243	89.62
233.477	85.62
233.711	89.62
233.945	102.62
234.179	88.62
234.413	70.62
234.647	72.62
234.881	79.62
235.115	78.62
235.349	78.62
235.583	87.62
235.817	68.62
236.051	70.62
236.285	80.62
236.519	81.62
236.753	80.62
236.987	69.62
237.221	70.62
237.455	77.62
237.689	80.62
237.922	79.62
238.156	75.62
238.39	74.62
238.624	74.62
238.858	75.62
239.091	62.62
239.325	70.62
239.559	85.62
239.793	76.62
240.027	80.62
240.26	73.62
240.494	76.62
240.728	77.62
240.961	85.62
241.195	68.62
241.429	75.62
241.662	86.62
241.896	73.62
242.13	62.62
242.363	83.62
242.597	59.62
242.83	81.62
243.064	77.62
243.298	83.62
243.531	63.62
243.765	69.62
243.998	73.62
244.232	65.62
244.465	76.62
244.699	81.62
244.932	94.62
245.166	71.62
245.399	88.62
245.633	80.62
245.866	79.62
246.099	82.62
246.333	73.62
246.566	80.62
246.8	68.62
247.033	77.62
247.266	69.62
247.5	73.62
247.733	70.62
247.966	74.62
248.2	71.62
248.433	87.62
248.666	76.62
248.899	82.62
249.133	71.62
249.366	74.62
249.599	71.62
249.832	72.62
250.066	84.62
250.299	72.62
250.532	81.62
250.765	94.62
250.998	90.62
251.231	80.62
251.465	62.62
251.698	83.62
251.931	90.62
252.164	84.62
252.397	89.62
252.63	68.62
252.863	77.62
253.096	80.62
253.329	68.62
253.562	78.62
253.795	80.62
254.028	88.62
254.261	74.62
254.494	81.62
254.727	77.62
254.96	92.62
255.193	80.62
255.426	82.62
255.659	78.62
255.892	83.62
256.124	81.62
256.357	96.62
256.59	85.62
256.823	74.62
257.056	91.62
257.289	80.62
257.521	66.62
257.754	69.62
257.987	81.62
258.22	89.62
258.452	84.62
258.685	81.62
258.918	87.62
259.151	86.62
259.383	66.62
259.616	89.62
259.849	67.62
260.081	86.62
260.314	62.62
260.547	75.62
260.779	85.62
261.012	83.62
261.244	82.62
261.477	79.62
261.71	73.62
261.942	90.62
262.175	97.62
262.407	83.62
262.64	71.62
262.872	67.62
263.105	86.62
263.337	82.62
263.57	83.62
263.802	90.62
264.035	86.62
264.267	89.62
264.499	80.62
264.732	82.62
264.964	87.62
265.197	88.62
265.429	93.62
265.661	82.62
265.894	66.62
266.126	88.62
266.358	77.62
266.591	82.62
266.823	82.62
267.055	98.62
267.287	90.62
267.52	79.62
267.752	90.62
267.984	83.62
268.216	86.62
268.448	91.62
268.681	71.62
268.913	87.62
269.145	82.62
269.377	86.62
269.609	76.62
269.841	88.62
270.073	63.62
270.306	82.62
270.538	80.62
270.77	86.62
271.002	73.62
271.234	76.62
271.466	83.62
271.698	85.62
271.93	65.62
272.162	73.62
272.394	100.62
272.626	75.62
272.858	69.62
273.09	79.62
273.322	80.62
273.553	69.62
273.785	79.62
274.017	74.62
274.249	77.62
274.481	83.62
274.713	65.62
274.945	91.62
275.176	80.62
275.408	85.62
275.64	94.62
275.872	71.62
276.104	74.62
276.335	78.62
276.567	87.62
276.799	84.62
277.031	79.62
277.262	70.62
277.494	92.62
277.726	77.62
277.957	73.62
278.189	87.62
278.421	81.62
278.652	97.62
278.884	74.62
279.115	66.62
279.347	77.62
279.579	90.62
279.81	85.62
280.042	87.62
280.273	87.62
280.505	84.62
280.736	90.62
280.968	66.62
281.199	87.62
281.431	82.62
281.662	76.62
281.894	88.62
282.125	82.62
282.356	92.62
282.588	74.62
282.819	77.62
283.051	86.62
283.282	72.62
283.513	83.62
283.745	76.62
283.976	92.62
284.207	75.62
284.439	74.62
284.67	84.62
284.901	71.62
285.132	95.62
285.364	70.62
285.595	64.62
285.826	76.62
286.057	78.62
286.288	73.62
286.52	78.62
286.751	80.62
286.982	76.62
287.213	93.62
287.444	77.62
287.675	83.62
287.906	98.62
288.138	75.62
288.369	82.62
288.6	79.62
288.831	83.62
289.062	91.62
289.293	97.62
289.524	84.62
289.755	90.62
289.986	84.62
290.217	83.62
290.448	91.62
290.679	80.62
290.91	83.62
291.141	88.62
291.371	97.62
291.602	76.62
291.833	87.62
292.064	85.62
292.295	85.62
292.526	83.62
292.757	85.62
292.987	82.62
293.218	79.62
293.449	90.62
293.68	84.62
293.91	81.62
294.141	89.62
294.372	91.62
294.603	84.62
294.833	81.62
295.064	91.62
295.295	89.62
295.525	83.62
295.756	93.62
295.987	90.62
296.217	80.62
296.448	82.62
296.679	81.62
296.909	98.62
297.14	84.62
297.37	82.62
297.601	81.62
297.831	71.62
298.062	82.62
298.292	73.62
298.523	84.62
298.753	96.62
298.984	76.62
299.214	84.62
299.445	75.62
299.675	84.62
299.905	85.62
300.136	84.62
300.366	88.62
300.597	83.62
300.827	76.62
301.057	84.62
301.288	79.62
301.518	90.62
301.748	91.62
301.979	104.62
302.209	99.62
302.439	79.62
302.669	94.62
302.9	78.62
303.13	92.62
303.36	84.62
303.59	76.62
303.82	86.62
304.051	94.62
304.281	89.62
304.511	94.62
304.741	80.62
304.971	67.62
305.201	76.62
305.431	83.62
305.661	78.62
305.891	58.62
306.121	79.62
306.352	89.62
306.582	86.62
306.812	97.62
307.042	98.62
307.272	67.62
307.502	88.62
307.731	104.62
307.961	84.62
308.191	93.62
308.421	99.62
308.651	86.62
308.881	98.62
309.111	91.62
309.341	90.62
309.571	96.62
309.8	84.62
310.03	76.62
310.26	79.62
310.49	94.62
310.72	74.62
310.949	84.62
311.179	80.62
311.409	83.62
311.639	83.62
311.868	83.62
312.098	91.62
312.328	92.62
312.557	77.62
312.787	72.62
313.017	87.62
313.246	80.62
313.476	80.62
313.706	81.62
313.935	90.62
314.165	85.62
314.394	88.62
314.624	89.62
314.853	88.62
315.083	85.62
315.312	81.62
315.542	79.62
315.771	85.62
316.001	88.62
316.23	88.62
316.46	79.62
316.689	89.62
316.919	70.62
317.148	79.62
317.377	80.62
317.607	90.62
317.836	92.62
318.065	91.62
318.295	94.62
318.524	82.62
318.753	83.62
318.983	70.62
319.212	70.62
319.441	76.62
319.67	87.62
319.9	79.62
320.129	80.62
320.358	84.62
320.587	87.62
320.816	82.62
321.046	80.62
321.275	111.62
321.504	67.62
321.733	92.62
321.962	82.62
322.191	90.62
322.42	90.62
322.649	90.62
322.878	77.62
323.108	76.62
323.337	91.62
323.566	81.62
323.795	76.62
324.024	75.62
324.253	92.62
324.482	74.62
324.71	93.62
324.939	82.62
325.168	88.62
325.397	84.62
325.626	87.62
325.855	86.62
326.084	81.62
326.313	79.62
326.542	82.62
326.77	79.62
326.999	92.62
327.228	92.62
327.457	94.62
327.686	70.62
327.914	82.62
328.143	92.62
328.372	87.62
328.6	79.62
328.829	81.62
329.058	85.62
329.287	84.62
329.515	86.62
329.744	75.62
329.972	90.62
330.201	88.62
330.43	94.62
330.658	86.62
330.887	75.62
331.115	75.62
331.344	79.62
331.572	79.62
331.801	66.62
332.03	79.62
332.258	85.62
332.486	75.62
332.715	87.62
332.943	73.62
333.172	99.62
333.4	68.62
333.629	88.62
333.857	83.62
334.085	70.62
334.314	86.62
334.542	76.62
334.771	87.62
334.999	75.62
335.227	86.62
335.455	82.62
335.684	90.62
335.912	96.62
336.14	88.62
336.369	74.62
336.597	98.62
336.825	82.62
337.053	75.62
337.281	88.62
337.51	77.62
337.738	97.62
337.966	80.62
338.194	82.62
338.422	76.62
338.65	104.62
338.878	84.62
339.106	89.62
339.334	96.62
339.562	86.62
339.79	93.62
340.018	75.62
340.246	81.62
340.474	84.62
340.702	74.62
340.93	71.62
341.158	71.62
341.386	88.62
341.614	98.62
341.842	84.62
342.07	72.62
342.298	83.62
342.526	85.62
342.754	74.62
342.981	82.62
343.209	80.62
343.437	99.62
343.665	72.62
343.893	88.62
344.12	91.62
344.348	96.62
344.576	80.62
344.804	91.62
345.031	94.62
345.259	86.62
345.487	87.62
345.714	75.62
345.942	83.62
346.17	78.62
346.397	81.62
346.625	82.62
346.853	87.62
347.08	86.62
347.308	70.62
347.535	83.62
347.763	72.62
347.99	89.62
348.218	82.62
348.445	76.62
348.673	84.62
348.9	72.62
349.128	75.62
349.355	77.62
349.583	80.62
349.81	84.62
350.037	100.62
350.265	83.62
350.492	93.62
350.72	90.62
350.947	83.62
351.174	82.62
351.402	99.62
351.629	88.62
351.856	83.62
352.083	90.62
352.311	90.62
352.538	81.62
352.765	85.62
352.992	73.62
353.22	87.62
353.447	82.62
353.674	75.62
353.901	92.62
354.128	82.62
354.355	91.62
354.583	82.62
354.81	77.62
355.037	91.62
355.264	86.62
355.491	89.62
355.718	75.62
355.945	94.62
356.172	85.62
356.399	79.62
356.626	90.62
356.853	72.62
357.08	95.62
357.307	90.62
357.534	76.62
357.761	84.62
357.988	93.62
358.215	90.62
358.441	96.62
358.668	76.62
358.895	79.62
359.122	84.62
359.349	76.62
359.576	80.62
359.802	89.62
360.029	93.62
360.256	82.62
360.483	81.62
360.709	94.62
360.936	94.62
361.163	88.62
361.39	74.62
361.616	66.62
361.843	88.62
362.07	81.62
362.296	86.62
362.523	86.62
362.749	89.62
362.976	84.62
363.203	110.62
363.429	96.62
363.656	98.62
363.882	86.62
364.109	98.62
364.335	97.62
364.562	101.62
364.788	107.62
365.015	102.62
365.241	94.62
365.468	82.62
365.694	77.62
365.92	84.62
366.147	84.62
366.373	79.62
366.599	73.62
366.826	88.62
367.052	70.62
367.278	98.62
367.505	81.62
367.731	73.62
367.957	80.62
368.184	73.62
368.41	73.62
368.636	79.62
368.862	97.62
369.089	80.62
369.315	89.62
369.541	80.62
369.767	91.62
369.993	99.62
370.219	89.62
370.445	104.62
370.672	75.62
370.898	93.62
371.124	74.62
371.35	88.62
371.576	85.62
371.802	94.62
372.028	98.62
372.254	90.62
372.48	71.62
372.706	72.62
372.932	75.62
373.158	93.62
373.384	104.62
373.61	99.62
373.835	100.62
374.061	102.62
374.287	84.62
374.513	87.62
374.739	98.62
374.965	91.62
375.191	82.62
375.416	97.62
375.642	80.62
375.868	91.62
376.094	81.62
376.319	92.62
376.545	91.62
376.771	83.62
376.997	82.62
377.222	88.62
377.448	82.62
377.674	70.62
377.899	87.62
378.125	92.62
378.35	66.62
378.576	95.62
378.802	84.62
379.027	80.62
379.253	90.62
379.478	92.62
379.704	84.62
379.929	85.62
380.155	82.62
380.38	86.62
380.606	71.62
380.831	96.62
381.057	91.62
381.282	70.62
381.507	74.62
381.733	91.62
381.958	80.62
382.184	100.62
382.409	102.62
382.634	96.62
382.86	96.62
383.085	84.62
383.31	95.62
383.535	96.62
383.761	108.62
383.986	95.62
384.211	88.62
384.436	83.62
384.662	95.62
384.887	72.62
385.112	81.62
385.337	101.62
385.562	86.62
385.787	86.62
386.013	89.62
386.238	86.62
386.463	81.62
386.688	89.62
386.913	104.62
387.138	91.62
387.363	78.62
387.588	100.62
387.813	106.62
388.038	105.62
388.263	86.62
388.488	79.62
388.713	85.62
388.938	89.62
389.163	90.62
389.387	74.62
389.612	82.62
389.837	65.62
390.062	71.62
390.287	81.62
390.512	98.62
390.736	94.62
390.961	87.62
391.186	82.62
391.411	82.62
391.636	82.62
391.86	93.62
392.085	90.62
392.31	99.62
392.534	107.62
392.759	92.62
392.984	126.62
393.208	167.62
393.433	212.62
393.658	184.62
393.882	97.62
394.107	82.62
394.331	104.62
394.556	100.62
394.78	88.62
395.005	107.62
395.229	68.62
395.454	95.62
395.678	92.62
395.903	94.62
396.127	116.62
396.352	126.62
396.576	117.62
396.801	163.62
397.025	184.62
397.249	122.62
397.474	91.62
397.698	82.62
397.922	90.62
398.147	88.62
398.371	94.62
398.595	90.62
398.82	72.62
399.044	68.62
399.268	75.62
399.492	87.62
399.717	80.62
399.941	103.62
400.165	82.62
400.389	91.62
400.613	72.62
400.837	96.62
401.062	74.62
401.286	92.62
401.51	79.62
401.734	86.62
401.958	69.62
402.182	75.62
402.406	73.62
402.63	82.62
402.854	89.62
403.078	96.62
403.302	87.62
403.526	80.62
403.75	98.62
403.974	85.62
404.198	95.62
404.422	104.62
404.645	114.62
404.869	110.62
405.093	97.62
405.317	86.62
405.541	98.62
405.765	94.62
405.988	94.62
406.212	86.62
406.436	94.62
406.66	86.62
406.883	75.62
407.107	100.62
407.331	86.62
407.555	86.62
407.778	88.62
408.002	88.62
408.226	68.62
408.449	72.62
408.673	86.62
408.896	98.62
409.12	87.62
409.344	93.62
409.567	89.62
409.791	106.62
410.014	77.62
410.238	81.62
410.461	80.62
410.685	88.62
410.908	77.62
411.132	80.62
411.355	73.62
411.578	89.62
411.802	91.62
412.025	90.62
412.249	77.62
412.472	84.62
412.695	82.62
412.919	80.62
413.142	85.62
413.365	84.62
413.589	94.62
413.812	89.62
414.035	77.62
414.258	74.62
414.482	78.62
414.705	82.62
414.928	93.62
415.151	90.62
415.374	71.62
415.597	82.62
415.821	99.62
416.044	88.62
416.267	86.62
416.49	79.62
416.713	73.62
416.936	87.62
417.159	86.62
417.382	83.62
417.605	97.62
417.828	83.62
418.051	82.62
418.274	88.62
418.497	78.62
418.72	87.62
418.943	97.62
419.166	72.62
419.389	84.62
419.611	90.62
419.834	85.62
420.057	90.62
420.28	84.62
420.503	68.62
420.726	91.62
420.948	84.62
421.171	92.62
421.394	99.62
421.617	111.62
421.839	105.62
422.062	115.62
422.285	144.62
422.507	251.62
422.73	376.62
422.953	326.62
423.175	177.62
423.398	119.62
423.621	104.62
423.843	99.62
424.066	70.62
424.288	94.62
424.511	93.62
424.733	89.62
424.956	77.62
425.178	70.62
425.401	98.62
425.623	63.62
425.846	80.62
426.068	85.62
426.291	82.62
426.513	90.62
426.735	80.62
426.958	74.62
427.18	91.62
427.402	87.62
427.625	86.62
427.847	97.62
428.069	88.62
428.292	118.62
428.514	132.62
428.736	99.62
428.958	104.62
429.181	106.62
429.403	103.62
429.625	97.62
429.847	112.62
430.069	149.62
430.292	167.62
430.514	147.62
430.736	122.62
430.958	129.62
431.18	98.62
431.402	91.62
431.624	90.62
431.846	122.62
432.068	130.62
432.29	102.62
432.512	80.62
432.734	89.62
432.956	80.62
433.178	96.62
433.4	74.62
433.622	86.62
433.844	82.62
434.066	88.62
434.287	87.62
434.509	88.62
434.731	100.62
434.953	75.62
435.175	84.62
435.397	94.62
435.618	80.62
435.84	87.62
436.062	87.62
436.284	81.62
436.505	73.62
436.727	81.62
436.949	82.62
437.17	86.62
437.392	72.62
437.614	76.62
437.835	71.62
438.057	72.62
438.278	71.62
438.5	72.62
438.721	82.62
438.943	70.62
439.165	80.62
439.386	82.62
439.608	88.62
439.829	90.62
440.05	82.62
440.272	75.62
440.493	88.62
440.715	79.62
440.936	86.62
441.158	83.62
441.379	89.62
441.6	79.62
441.822	91.62
442.043	99.62
442.264	96.62
442.486	132.62
442.707	150.62
442.928	103.62
443.149	101.62
443.371	128.62
443.592	210.62
443.813	165.62
444.034	90.62
444.255	82.62
444.476	91.62
444.698	85.62
444.919	85.62
445.14	214.62
445.361	190.62
445.582	244.62
445.803	194.62
446.024	119.62
446.245	99.62
446.466	89.62
446.687	75.62
446.908	80.62
447.129	64.62
447.35	66.62
447.571	90.62
447.792	71.62
448.013	87.62
448.234	91.62
448.455	89.62
448.675	95.62
448.896	72.62
449.117	91.62
449.338	79.62
449.559	90.62
449.779	82.62
450	89.62
450.221	85.62
450.442	76.62
450.662	77.62
450.883	81.62
451.104	83.62
451.324	87.62
451.545	75.62
451.766	68.62
451.986	91.62
452.207	78.62
452.428	80.62
452.648	92.62
452.869	86.62
453.089	86.62
453.31	87.62
453.53	90.62
453.751	72.62
453.971	83.62
454.192	84.62
454.412	74.62
454.633	71.62
454.853	72.62
455.073	82.62
455.294	85.62
455.514	94.62
455.734	88.62
455.955	81.62
456.175	70.62
456.395	86.62
456.616	75.62
456.836	72.62
457.056	81.62
457.276	88.62
457.497	79.62
457.717	80.62
457.937	101.62
458.157	90.62
458.377	104.62
458.598	106.62
458.818	110.62
459.038	94.62
459.258	75.62
459.478	76.62
459.698	80.62
459.918	89.62
460.138	88.62
460.358	83.62
460.578	88.62
460.798	110.62
461.018	128.62
461.238	97.62
461.458	92.62
461.678	77.62
461.898	89.62
462.118	88.62
462.338	86.62
462.558	76.62
462.777	66.62
462.997	79.62
463.217	86.62
463.437	86.62
463.657	87.62
463.876	82.62
464.096	88.62
464.316	62.62
464.536	70.62
464.755	77.62
464.975	98.62
465.195	83.62
465.414	82.62
465.634	66.62
465.854	82.62
466.073	92.62
466.293	82.62
466.512	85.62
466.732	79.62
466.951	75.62
467.171	100.62
467.391	89.62
467.61	88.62
467.829	82.62
468.049	90.62
468.268	87.62
468.488	76.62
468.707	82.62
468.927	94.62
469.146	79.62
469.365	84.62
469.585	92.62
469.804	93.62
470.023	82.62
470.243	90.62
470.462	91.62
470.681	92.62
470.901	87.62
471.12	84.62
471.339	86.62
471.558	96.62
471.777	78.62
471.997	91.62
472.216	73.62
472.435	94.62
472.654	87.62
472.873	82.62
473.092	85.62
473.311	83.62
473.53	92.62
473.749	86.62
473.968	84.62
474.187	77.62
474.406	88.62
474.625	84.62
474.844	71.62
475.063	75.62
475.282	77.62
475.501	79.62
475.72	90.62
475.939	78.62
476.158	79.62
476.377	89.62
476.596	80.62
476.814	78.62
477.033	68.62
477.252	81.62
477.471	78.62
477.69	80.62
477.908	71.62
478.127	85.62
478.346	76.62
478.564	76.62
478.783	75.62
479.002	83.62
479.22	94.62
479.439	90.62
479.658	66.62
479.876	76.62
480.095	82.62
480.313	82.62
480.532	82.62
480.751	86.62
480.969	88.62
481.188	84.62
481.406	80.62
481.624	80.62
481.843	81.62
482.061	88.62
482.28	84.62
482.498	86.62
482.717	74.62
482.935	71.62
483.153	76.62
483.372	84.62
483.59	89.62
483.808	75.62
484.027	85.62
484.245	86.62
484.463	89.62
484.681	111.62
484.9	95.62
485.118	84.62
485.336	78.62
485.554	77.62
485.772	88.62
485.99	90.62
486.209	82.62
486.427	77.62
486.645	82.62
486.863	82.62
487.081	90.62
487.299	90.62
487.517	96.62
487.735	106.62
487.953	143.62
488.171	120.62
488.389	89.62
488.607	91.62
488.825	87.62
489.043	72.62
489.261	88.62
489.479	82.62
489.696	92.62
489.914	87.62
490.132	91.62
490.35	83.62
490.568	87.62
490.786	88.62
491.003	92.62
491.221	82.62
491.439	83.62
491.657	76.62
491.874	80.62
492.092	82.62
492.31	76.62
492.527	83.62
492.745	69.62
492.963	90.62
493.18	78.62
493.398	89.62
493.615	90.62
493.833	88.62
494.05	86.62
494.268	85.62
494.485	94.62
494.703	82.62
494.92	88.62
495.138	81.62
495.355	70.62
495.573	87.62
495.79	61.62
496.008	98.62
496.225	82.62
496.442	75.62
496.66	87.62
496.877	82.62
497.094	87.62
497.312	92.62
497.529	91.62
497.746	75.62
497.963	76.62
498.181	87.62
498.398	105.62
498.615	88.62
498.832	81.62
499.049	87.62
499.267	84.62
499.484	73.62
499.701	86.62
499.918	90.62
500.135	94.62
500.352	104.62
500.569	78.62
500.786	75.62
501.003	87.62
501.22	83.62
501.437	83.62
501.654	88.62
501.871	84.62
502.088	77.62
502.305	74.62
502.522	89.62
502.739	83.62
502.956	88.62
503.172	82.62
503.389	84.62
503.606	83.62
503.823	82.62
504.04	98.62
504.256	105.62
504.473	102.62
504.69	86.62
504.907	92.62
505.123	87.62
505.34	75.62
505.557	80.62
505.773	82.62
505.99	86.62
506.207	76.62
506.423	76.62
506.64	88.62
506.856	83.62
507.073	76.62
507.289	91.62
507.506	94.62
507.722	78.62
507.939	80.62
508.155	84.62
508.372	91.62
508.588	100.62
508.805	79.62
509.021	82.62
509.238	94.62
509.454	78.62
509.67	89.62
509.887	89.62
510.103	94.62
510.319	91.62
510.536	94.62
510.752	90.62
510.968	75.62
511.184	85.62
511.401	94.62
511.617	75.62
511.833	81.62
512.049	76.62
512.265	84.62
512.481	86.62
512.698	83.62
512.914	87.62
513.13	80.62
513.346	81.62
513.562	81.62
513.778	81.62
513.994	89.62
514.21	79.62
514.426	88.62
514.642	81.62
514.858	103.62
515.074	88.62
515.29	90.62
515.506	86.62
515.721	81.62
515.937	87.62
516.153	85.62
516.369	96.62
516.585	98.62
516.801	88.62
517.016	99.62
517.232	77.62
517.448	97.62
517.664	84.62
517.879	83.62
518.095	75.62
518.311	97.62
518.527	79.62
518.742	100.62
518.958	105.62
