Data from 237_3_HRD10591_00038.txt Node
Date: Mon Jan 19 14:13:13 EST 2026
User: Yrep
Spectrometer: HR+D1059
Trigger mode: 1
Integration Time (sec): 1.000000E-1
Scans to average: 1
Electric dark correction enabled: true
Nonlinearity correction enabled: false
Boxcar width: 0
XAxis mode: Wavelengths
Number of Pixels in Spectrum: 2048
>>>>>Begin Spectral Data<<<<<
223.165	-20.88
223.4	-20.88
223.635	-20.88
223.869	-5.88
224.104	-12.88
224.338	-26.88
224.573	-15.88
224.808	-11.88
225.042	-15.88
225.277	-21.88
225.511	2.12
225.746	11.12
225.98	7.12
226.215	3.12
226.449	20.12
226.683	26.12
226.918	32.12
227.152	30.12
227.387	31.12
227.621	40.12
227.856	42.12
228.09	44.12
228.324	48.12
228.559	59.12
228.793	59.12
229.027	59.12
229.262	60.12
229.496	53.12
229.73	61.12
229.964	81.12
230.199	72.12
230.433	76.12
230.667	75.12
230.901	88.12
231.136	81.12
231.37	90.12
231.604	87.12
231.838	73.12
232.072	74.12
232.306	88.12
232.541	89.12
232.775	78.12
233.009	93.12
233.243	87.12
233.477	86.12
233.711	82.12
233.945	77.12
234.179	69.12
234.413	73.12
234.647	67.12
234.881	67.12
235.115	80.12
235.349	87.12
235.583	72.12
235.817	69.12
236.051	84.12
236.285	69.12
236.519	71.12
236.753	73.12
236.987	77.12
237.221	85.12
237.455	83.12
237.689	83.12
237.922	71.12
238.156	78.12
238.39	80.12
238.624	73.12
238.858	71.12
239.091	79.12
239.325	73.12
239.559	80.12
239.793	89.12
240.027	74.12
240.26	79.12
240.494	70.12
240.728	70.12
240.961	74.12
241.195	83.12
241.429	73.12
241.662	71.12
241.896	72.12
242.13	80.12
242.363	88.12
242.597	77.12
242.83	68.12
243.064	76.12
243.298	89.12
243.531	75.12
243.765	80.12
243.998	89.12
244.232	84.12
244.465	72.12
244.699	85.12
244.932	70.12
245.166	64.12
245.399	84.12
245.633	89.12
245.866	85.12
246.099	84.12
246.333	86.12
246.566	89.12
246.8	80.12
247.033	89.12
247.266	75.12
247.5	80.12
247.733	73.12
247.966	68.12
248.2	87.12
248.433	81.12
248.666	85.12
248.899	81.12
249.133	83.12
249.366	80.12
249.599	71.12
249.832	68.12
250.066	82.12
250.299	80.12
250.532	78.12
250.765	73.12
250.998	72.12
251.231	77.12
251.465	84.12
251.698	64.12
251.931	87.12
252.164	84.12
252.397	69.12
252.63	72.12
252.863	74.12
253.096	87.12
253.329	74.12
253.562	77.12
253.795	76.12
254.028	84.12
254.261	72.12
254.494	74.12
254.727	77.12
254.96	79.12
255.193	76.12
255.426	78.12
255.659	82.12
255.892	79.12
256.124	85.12
256.357	80.12
256.59	75.12
256.823	72.12
257.056	63.12
257.289	75.12
257.521	82.12
257.754	84.12
257.987	62.12
258.22	80.12
258.452	80.12
258.685	70.12
258.918	80.12
259.151	80.12
259.383	78.12
259.616	73.12
259.849	88.12
260.081	78.12
260.314	79.12
260.547	80.12
260.779	75.12
261.012	84.12
261.244	82.12
261.477	91.12
261.71	61.12
261.942	67.12
262.175	86.12
262.407	69.12
262.64	76.12
262.872	80.12
263.105	83.12
263.337	89.12
263.57	84.12
263.802	90.12
264.035	81.12
264.267	72.12
264.499	91.12
264.732	86.12
264.964	86.12
265.197	81.12
265.429	75.12
265.661	76.12
265.894	97.12
266.126	77.12
266.358	69.12
266.591	87.12
266.823	73.12
267.055	66.12
267.287	85.12
267.52	76.12
267.752	88.12
267.984	86.12
268.216	69.12
268.448	78.12
268.681	77.12
268.913	86.12
269.145	60.12
269.377	85.12
269.609	91.12
269.841	83.12
270.073	89.12
270.306	67.12
270.538	68.12
270.77	77.12
271.002	78.12
271.234	83.12
271.466	89.12
271.698	76.12
271.93	85.12
272.162	88.12
272.394	70.12
272.626	75.12
272.858	83.12
273.09	76.12
273.322	82.12
273.553	99.12
273.785	95.12
274.017	75.12
274.249	100.12
274.481	88.12
274.713	87.12
274.945	99.12
275.176	76.12
275.408	83.12
275.64	85.12
275.872	92.12
276.104	80.12
276.335	77.12
276.567	74.12
276.799	78.12
277.031	75.12
277.262	69.12
277.494	80.12
277.726	90.12
277.957	76.12
278.189	76.12
278.421	99.12
278.652	80.12
278.884	75.12
279.115	75.12
279.347	77.12
279.579	68.12
279.81	82.12
280.042	69.12
280.273	87.12
280.505	83.12
280.736	77.12
280.968	67.12
281.199	88.12
281.431	88.12
281.662	75.12
281.894	77.12
282.125	78.12
282.356	83.12
282.588	85.12
282.819	75.12
283.051	89.12
283.282	83.12
283.513	73.12
283.745	90.12
283.976	79.12
284.207	87.12
284.439	83.12
284.67	84.12
284.901	91.12
285.132	83.12
285.364	86.12
285.595	84.12
285.826	74.12
286.057	94.12
286.288	80.12
286.52	89.12
286.751	82.12
286.982	87.12
287.213	83.12
287.444	87.12
287.675	88.12
287.906	88.12
288.138	85.12
288.369	82.12
288.6	84.12
288.831	79.12
289.062	83.12
289.293	75.12
289.524	96.12
289.755	75.12
289.986	86.12
290.217	71.12
290.448	97.12
290.679	75.12
290.91	90.12
291.141	93.12
291.371	81.12
291.602	83.12
291.833	76.12
292.064	58.12
292.295	83.12
292.526	79.12
292.757	87.12
292.987	95.12
293.218	91.12
293.449	83.12
293.68	86.12
293.91	83.12
294.141	91.12
294.372	81.12
294.603	76.12
294.833	82.12
295.064	93.12
295.295	75.12
295.525	83.12
295.756	87.12
295.987	90.12
296.217	71.12
296.448	82.12
296.679	92.12
296.909	96.12
297.14	81.12
297.37	94.12
297.601	77.12
297.831	79.12
298.062	82.12
298.292	79.12
298.523	83.12
298.753	80.12
298.984	87.12
299.214	82.12
299.445	73.12
299.675	95.12
299.905	78.12
300.136	78.12
300.366	84.12
300.597	86.12
300.827	83.12
301.057	92.12
301.288	78.12
301.518	77.12
301.748	73.12
301.979	102.12
302.209	71.12
302.439	80.12
302.669	85.12
302.9	83.12
303.13	95.12
303.36	85.12
303.59	99.12
303.82	88.12
304.051	91.12
304.281	86.12
304.511	102.12
304.741	80.12
304.971	79.12
305.201	96.12
305.431	85.12
305.661	94.12
305.891	86.12
306.121	80.12
306.352	64.12
306.582	76.12
306.812	75.12
307.042	83.12
307.272	74.12
307.502	76.12
307.731	74.12
307.961	95.12
308.191	90.12
308.421	86.12
308.651	76.12
308.881	85.12
309.111	90.12
309.341	92.12
309.571	84.12
309.8	82.12
310.03	74.12
310.26	90.12
310.49	83.12
310.72	62.12
310.949	71.12
311.179	91.12
311.409	75.12
311.639	86.12
311.868	82.12
312.098	80.12
312.328	77.12
312.557	94.12
312.787	86.12
313.017	88.12
313.246	77.12
313.476	91.12
313.706	82.12
313.935	70.12
314.165	77.12
314.394	93.12
314.624	77.12
314.853	84.12
315.083	80.12
315.312	88.12
315.542	78.12
315.771	85.12
316.001	68.12
316.23	85.12
316.46	76.12
316.689	76.12
316.919	81.12
317.148	73.12
317.377	90.12
317.607	82.12
317.836	90.12
318.065	102.12
318.295	95.12
318.524	77.12
318.753	97.12
318.983	93.12
319.212	72.12
319.441	67.12
319.67	75.12
319.9	90.12
320.129	84.12
320.358	83.12
320.587	83.12
320.816	84.12
321.046	88.12
321.275	87.12
321.504	76.12
321.733	77.12
321.962	81.12
322.191	87.12
322.42	77.12
322.649	75.12
322.878	85.12
323.108	95.12
323.337	81.12
323.566	85.12
323.795	87.12
324.024	87.12
324.253	79.12
324.482	84.12
324.71	94.12
324.939	101.12
325.168	82.12
325.397	75.12
325.626	83.12
325.855	88.12
326.084	79.12
326.313	93.12
326.542	86.12
326.77	77.12
326.999	90.12
327.228	86.12
327.457	80.12
327.686	78.12
327.914	76.12
328.143	87.12
328.372	80.12
328.6	71.12
328.829	90.12
329.058	86.12
329.287	89.12
329.515	69.12
329.744	81.12
329.972	84.12
330.201	104.12
330.43	82.12
330.658	79.12
330.887	76.12
331.115	76.12
331.344	74.12
331.572	78.12
331.801	88.12
332.03	86.12
332.258	79.12
332.486	86.12
332.715	78.12
332.943	94.12
333.172	82.12
333.4	85.12
333.629	98.12
333.857	98.12
334.085	80.12
334.314	81.12
334.542	82.12
334.771	100.12
334.999	91.12
335.227	84.12
335.455	91.12
335.684	84.12
335.912	101.12
336.14	86.12
336.369	82.12
336.597	91.12
336.825	90.12
337.053	85.12
337.281	93.12
337.51	88.12
337.738	80.12
337.966	82.12
338.194	71.12
338.422	68.12
338.65	68.12
338.878	103.12
339.106	81.12
339.334	89.12
339.562	74.12
339.79	74.12
340.018	79.12
340.246	80.12
340.474	76.12
340.702	90.12
340.93	79.12
341.158	81.12
341.386	89.12
341.614	83.12
341.842	86.12
342.07	83.12
342.298	85.12
342.526	79.12
342.754	90.12
342.981	65.12
343.209	80.12
343.437	96.12
343.665	83.12
343.893	87.12
344.12	83.12
344.348	80.12
344.576	88.12
344.804	94.12
345.031	91.12
345.259	89.12
345.487	95.12
345.714	82.12
345.942	85.12
346.17	83.12
346.397	82.12
346.625	87.12
346.853	96.12
347.08	92.12
347.308	84.12
347.535	75.12
347.763	76.12
347.99	91.12
348.218	84.12
348.445	86.12
348.673	73.12
348.9	98.12
349.128	91.12
349.355	91.12
349.583	89.12
349.81	82.12
350.037	80.12
350.265	85.12
350.492	78.12
350.72	85.12
350.947	78.12
351.174	80.12
351.402	77.12
351.629	72.12
351.856	80.12
352.083	94.12
352.311	94.12
352.538	83.12
352.765	91.12
352.992	84.12
353.22	72.12
353.447	87.12
353.674	96.12
353.901	85.12
354.128	89.12
354.355	87.12
354.583	77.12
354.81	90.12
355.037	93.12
355.264	79.12
355.491	98.12
355.718	91.12
355.945	81.12
356.172	75.12
356.399	76.12
356.626	73.12
356.853	87.12
357.08	82.12
357.307	86.12
357.534	92.12
357.761	92.12
357.988	94.12
358.215	83.12
358.441	81.12
358.668	78.12
358.895	80.12
359.122	82.12
359.349	77.12
359.576	82.12
359.802	85.12
360.029	92.12
360.256	83.12
360.483	80.12
360.709	82.12
360.936	74.12
361.163	78.12
361.39	74.12
361.616	89.12
361.843	87.12
362.07	89.12
362.296	85.12
362.523	95.12
362.749	102.12
362.976	79.12
363.203	114.12
363.429	85.12
363.656	91.12
363.882	91.12
364.109	101.12
364.335	87.12
364.562	90.12
364.788	70.12
365.015	86.12
365.241	75.12
365.468	86.12
365.694	95.12
365.92	88.12
366.147	84.12
366.373	83.12
366.599	83.12
366.826	81.12
367.052	79.12
367.278	86.12
367.505	87.12
367.731	94.12
367.957	85.12
368.184	86.12
368.41	71.12
368.636	93.12
368.862	70.12
369.089	72.12
369.315	65.12
369.541	98.12
369.767	88.12
369.993	77.12
370.219	84.12
370.445	96.12
370.672	82.12
370.898	82.12
371.124	85.12
371.35	89.12
371.576	78.12
371.802	97.12
372.028	91.12
372.254	94.12
372.48	89.12
372.706	81.12
372.932	83.12
373.158	86.12
373.384	91.12
373.61	86.12
373.835	85.12
374.061	87.12
374.287	75.12
374.513	88.12
374.739	85.12
374.965	75.12
375.191	97.12
375.416	85.12
375.642	81.12
375.868	85.12
376.094	90.12
376.319	89.12
376.545	87.12
376.771	80.12
376.997	69.12
377.222	84.12
377.448	76.12
377.674	89.12
377.899	80.12
378.125	96.12
378.35	87.12
378.576	87.12
378.802	90.12
379.027	85.12
379.253	75.12
379.478	89.12
379.704	83.12
379.929	95.12
380.155	94.12
380.38	91.12
380.606	90.12
380.831	90.12
381.057	85.12
381.282	75.12
381.507	80.12
381.733	90.12
381.958	87.12
382.184	81.12
382.409	95.12
382.634	86.12
382.86	84.12
383.085	82.12
383.31	99.12
383.535	102.12
383.761	90.12
383.986	88.12
384.211	89.12
384.436	88.12
384.662	72.12
384.887	83.12
385.112	77.12
385.337	86.12
385.562	90.12
385.787	96.12
386.013	94.12
386.238	76.12
386.463	91.12
386.688	96.12
386.913	68.12
387.138	85.12
387.363	95.12
387.588	84.12
387.813	85.12
388.038	90.12
388.263	85.12
388.488	86.12
388.713	96.12
388.938	84.12
389.163	86.12
389.387	75.12
389.612	84.12
389.837	88.12
390.062	89.12
390.287	77.12
390.512	84.12
390.736	75.12
390.961	79.12
391.186	94.12
391.411	81.12
391.636	73.12
391.86	73.12
392.085	100.12
392.31	88.12
392.534	95.12
392.759	95.12
392.984	100.12
393.208	138.12
393.433	166.12
393.658	144.12
393.882	102.12
394.107	98.12
394.331	88.12
394.556	100.12
394.78	101.12
395.005	92.12
395.229	76.12
395.454	84.12
395.678	121.12
395.903	94.12
396.127	100.12
396.352	112.12
396.576	119.12
396.801	139.12
397.025	126.12
397.249	113.12
397.474	99.12
397.698	88.12
397.922	82.12
398.147	88.12
398.371	68.12
398.595	94.12
398.82	110.12
399.044	87.12
399.268	74.12
399.492	87.12
399.717	70.12
399.941	93.12
400.165	91.12
400.389	67.12
400.613	94.12
400.837	84.12
401.062	91.12
401.286	87.12
401.51	79.12
401.734	76.12
401.958	86.12
402.182	87.12
402.406	82.12
402.63	91.12
402.854	71.12
403.078	75.12
403.302	72.12
403.526	103.12
403.75	74.12
403.974	82.12
404.198	97.12
404.422	91.12
404.645	100.12
404.869	102.12
405.093	80.12
405.317	95.12
405.541	92.12
405.765	86.12
405.988	88.12
406.212	94.12
406.436	85.12
406.66	93.12
406.883	89.12
407.107	102.12
407.331	94.12
407.555	94.12
407.778	96.12
408.002	95.12
408.226	76.12
408.449	90.12
408.673	91.12
408.896	96.12
409.12	110.12
409.344	94.12
409.567	92.12
409.791	86.12
410.014	81.12
410.238	97.12
410.461	80.12
410.685	86.12
410.908	96.12
411.132	88.12
411.355	91.12
411.578	88.12
411.802	70.12
412.025	84.12
412.249	81.12
412.472	86.12
412.695	80.12
412.919	84.12
413.142	75.12
413.365	78.12
413.589	96.12
413.812	98.12
414.035	79.12
414.258	82.12
414.482	103.12
414.705	88.12
414.928	87.12
415.151	98.12
415.374	82.12
415.597	83.12
415.821	79.12
416.044	80.12
416.267	70.12
416.49	94.12
416.713	88.12
416.936	88.12
417.159	87.12
417.382	74.12
417.605	92.12
417.828	81.12
418.051	66.12
418.274	92.12
418.497	63.12
418.72	78.12
418.943	75.12
419.166	90.12
419.389	75.12
419.611	72.12
419.834	83.12
420.057	74.12
420.28	86.12
420.503	77.12
420.726	75.12
420.948	90.12
421.171	84.12
421.394	91.12
421.617	91.12
421.839	88.12
422.062	106.12
422.285	129.12
422.507	190.12
422.73	283.12
422.953	238.12
423.175	155.12
423.398	98.12
423.621	103.12
423.843	90.12
424.066	88.12
424.288	80.12
424.511	101.12
424.733	97.12
424.956	83.12
425.178	79.12
425.401	84.12
425.623	82.12
425.846	80.12
426.068	80.12
426.291	99.12
426.513	75.12
426.735	92.12
426.958	87.12
427.18	90.12
427.402	83.12
427.625	91.12
427.847	85.12
428.069	76.12
428.292	114.12
428.514	103.12
428.736	84.12
428.958	100.12
429.181	91.12
429.403	87.12
429.625	91.12
429.847	125.12
430.069	113.12
430.292	137.12
430.514	125.12
430.736	120.12
430.958	117.12
431.18	83.12
431.402	92.12
431.624	101.12
431.846	104.12
432.068	125.12
432.29	78.12
432.512	90.12
432.734	88.12
432.956	94.12
433.178	104.12
433.4	91.12
433.622	86.12
433.844	75.12
434.066	80.12
434.287	76.12
434.509	77.12
434.731	82.12
434.953	73.12
435.175	93.12
435.397	87.12
435.618	73.12
435.84	84.12
436.062	87.12
436.284	81.12
436.505	76.12
436.727	80.12
436.949	66.12
437.17	84.12
437.392	84.12
437.614	91.12
437.835	73.12
438.057	75.12
438.278	64.12
438.5	89.12
438.721	102.12
438.943	77.12
439.165	82.12
439.386	77.12
439.608	78.12
439.829	88.12
440.05	84.12
440.272	91.12
440.493	81.12
440.715	78.12
440.936	95.12
441.158	86.12
441.379	95.12
441.6	89.12
441.822	90.12
442.043	87.12
442.264	74.12
442.486	98.12
442.707	119.12
442.928	106.12
443.149	100.12
443.371	123.12
443.592	150.12
443.813	142.12
444.034	97.12
444.255	97.12
444.476	89.12
444.698	83.12
444.919	82.12
445.14	181.12
445.361	172.12
445.582	202.12
445.803	156.12
446.024	96.12
446.245	82.12
446.466	97.12
446.687	82.12
446.908	88.12
447.129	89.12
447.35	91.12
447.571	86.12
447.792	76.12
448.013	66.12
448.234	71.12
448.455	79.12
448.675	84.12
448.896	78.12
449.117	82.12
449.338	91.12
449.559	91.12
449.779	79.12
450	77.12
450.221	73.12
450.442	94.12
450.662	76.12
450.883	78.12
451.104	81.12
451.324	83.12
451.545	83.12
451.766	87.12
451.986	77.12
452.207	85.12
452.428	95.12
452.648	99.12
452.869	76.12
453.089	71.12
453.31	83.12
453.53	93.12
453.751	90.12
453.971	93.12
454.192	79.12
454.412	91.12
454.633	74.12
454.853	88.12
455.073	78.12
455.294	76.12
455.514	83.12
455.734	91.12
455.955	87.12
456.175	70.12
456.395	89.12
456.616	92.12
456.836	83.12
457.056	89.12
457.276	83.12
457.497	79.12
457.717	75.12
457.937	93.12
458.157	90.12
458.377	92.12
458.598	91.12
458.818	91.12
459.038	92.12
459.258	87.12
459.478	80.12
459.698	83.12
459.918	81.12
460.138	89.12
460.358	87.12
460.578	83.12
460.798	98.12
461.018	93.12
461.238	92.12
461.458	79.12
461.678	87.12
461.898	84.12
462.118	82.12
462.338	74.12
462.558	84.12
462.777	75.12
462.997	75.12
463.217	86.12
463.437	64.12
463.657	78.12
463.876	104.12
464.096	75.12
464.316	81.12
464.536	83.12
464.755	87.12
464.975	82.12
465.195	101.12
465.414	97.12
465.634	78.12
465.854	82.12
466.073	95.12
466.293	90.12
466.512	83.12
466.732	89.12
466.951	84.12
467.171	74.12
467.391	91.12
467.61	93.12
467.829	71.12
468.049	74.12
468.268	69.12
468.488	70.12
468.707	86.12
468.927	81.12
469.146	74.12
469.365	90.12
469.585	75.12
469.804	74.12
470.023	86.12
470.243	94.12
470.462	74.12
470.681	77.12
470.901	84.12
471.12	87.12
471.339	82.12
471.558	66.12
471.777	76.12
471.997	82.12
472.216	91.12
472.435	81.12
472.654	84.12
472.873	78.12
473.092	76.12
473.311	88.12
473.53	93.12
473.749	92.12
473.968	82.12
474.187	79.12
474.406	74.12
474.625	91.12
474.844	90.12
475.063	75.12
475.282	89.12
475.501	85.12
475.72	87.12
475.939	102.12
476.158	92.12
476.377	79.12
476.596	80.12
476.814	66.12
477.033	94.12
477.252	95.12
477.471	93.12
477.69	89.12
477.908	80.12
478.127	83.12
478.346	88.12
478.564	91.12
478.783	88.12
479.002	84.12
479.22	100.12
479.439	89.12
479.658	80.12
479.876	84.12
480.095	71.12
480.313	80.12
480.532	85.12
480.751	78.12
480.969	76.12
481.188	87.12
481.406	87.12
481.624	90.12
481.843	100.12
482.061	82.12
482.28	81.12
482.498	84.12
482.717	82.12
482.935	88.12
483.153	80.12
483.372	83.12
483.59	86.12
483.808	86.12
484.027	82.12
484.245	83.12
484.463	84.12
484.681	87.12
484.9	82.12
485.118	82.12
485.336	93.12
485.554	92.12
485.772	76.12
485.99	82.12
486.209	76.12
486.427	100.12
486.645	84.12
486.863	82.12
487.081	86.12
487.299	85.12
487.517	104.12
487.735	98.12
487.953	116.12
488.171	114.12
488.389	83.12
488.607	77.12
488.825	103.12
489.043	88.12
489.261	78.12
489.479	85.12
489.696	87.12
489.914	99.12
490.132	78.12
490.35	95.12
490.568	73.12
490.786	77.12
491.003	89.12
491.221	78.12
491.439	101.12
491.657	90.12
491.874	83.12
492.092	88.12
492.31	98.12
492.527	89.12
492.745	98.12
492.963	91.12
493.18	93.12
493.398	98.12
493.615	86.12
493.833	88.12
494.05	80.12
494.268	81.12
494.485	78.12
494.703	75.12
494.92	64.12
495.138	78.12
495.355	98.12
495.573	101.12
495.79	89.12
496.008	100.12
496.225	86.12
496.442	90.12
496.66	91.12
496.877	83.12
497.094	83.12
497.312	76.12
497.529	103.12
497.746	96.12
497.963	92.12
498.181	88.12
498.398	85.12
498.615	83.12
498.832	91.12
499.049	94.12
499.267	107.12
499.484	90.12
499.701	94.12
499.918	72.12
500.135	81.12
500.352	71.12
500.569	89.12
500.786	91.12
501.003	86.12
501.22	83.12
501.437	90.12
501.654	98.12
501.871	102.12
502.088	87.12
502.305	82.12
502.522	95.12
502.739	87.12
502.956	80.12
503.172	93.12
503.389	72.12
503.606	79.12
503.823	98.12
504.04	105.12
504.256	104.12
504.473	102.12
504.69	93.12
504.907	90.12
505.123	87.12
505.34	91.12
505.557	95.12
505.773	93.12
505.99	88.12
506.207	64.12
506.423	76.12
506.64	93.12
506.856	106.12
507.073	85.12
507.289	84.12
507.506	80.12
507.722	96.12
507.939	91.12
508.155	93.12
508.372	95.12
508.588	102.12
508.805	85.12
509.021	90.12
509.238	101.12
509.454	87.12
509.67	82.12
509.887	76.12
510.103	92.12
510.319	91.12
510.536	93.12
510.752	86.12
510.968	94.12
511.184	80.12
511.401	83.12
511.617	86.12
511.833	82.12
512.049	82.12
512.265	81.12
512.481	97.12
512.698	97.12
512.914	103.12
513.13	98.12
513.346	81.12
513.562	76.12
513.778	79.12
513.994	91.12
514.21	80.12
514.426	90.12
514.642	82.12
514.858	89.12
515.074	82.12
515.29	93.12
515.506	86.12
515.721	96.12
515.937	84.12
516.153	83.12
516.369	98.12
516.585	72.12
516.801	81.12
517.016	86.12
517.232	81.12
517.448	86.12
517.664	74.12
517.879	92.12
518.095	93.12
518.311	71.12
518.527	96.12
518.742	100.12
518.958	95.12
