Data from 237_3_HRD10591_00027.txt Node
Date: Mon Jan 19 14:13:08 EST 2026
User: Yrep
Spectrometer: HR+D1059
Trigger mode: 1
Integration Time (sec): 1.000000E-1
Scans to average: 1
Electric dark correction enabled: true
Nonlinearity correction enabled: false
Boxcar width: 0
XAxis mode: Wavelengths
Number of Pixels in Spectrum: 2048
>>>>>Begin Spectral Data<<<<<
223.165	-20.62
223.4	-20.62
223.635	-20.62
223.869	-17.62
224.104	-24.62
224.338	-6.62
224.573	-11.62
224.808	-3.62
225.042	-17.62
225.277	-7.62
225.511	-13.62
225.746	-1.62
225.98	9.38
226.215	-3.62
226.449	26.38
226.683	16.38
226.918	45.38
227.152	31.38
227.387	35.38
227.621	39.38
227.856	52.38
228.09	56.38
228.324	40.38
228.559	70.38
228.793	73.38
229.027	66.38
229.262	51.38
229.496	79.38
229.73	70.38
229.964	75.38
230.199	67.38
230.433	68.38
230.667	75.38
230.901	84.38
231.136	78.38
231.37	80.38
231.604	93.38
231.838	71.38
232.072	87.38
232.306	82.38
232.541	77.38
232.775	93.38
233.009	100.38
233.243	90.38
233.477	89.38
233.711	81.38
233.945	88.38
234.179	83.38
234.413	78.38
234.647	69.38
234.881	83.38
235.115	87.38
235.349	81.38
235.583	89.38
235.817	87.38
236.051	81.38
236.285	93.38
236.519	76.38
236.753	82.38
236.987	70.38
237.221	74.38
237.455	84.38
237.689	87.38
237.922	68.38
238.156	77.38
238.39	60.38
238.624	77.38
238.858	79.38
239.091	88.38
239.325	90.38
239.559	77.38
239.793	75.38
240.027	101.38
240.26	70.38
240.494	75.38
240.728	79.38
240.961	75.38
241.195	83.38
241.429	88.38
241.662	76.38
241.896	76.38
242.13	81.38
242.363	77.38
242.597	85.38
242.83	80.38
243.064	90.38
243.298	70.38
243.531	94.38
243.765	88.38
243.998	92.38
244.232	83.38
244.465	69.38
244.699	74.38
244.932	88.38
245.166	79.38
245.399	90.38
245.633	90.38
245.866	86.38
246.099	64.38
246.333	86.38
246.566	91.38
246.8	71.38
247.033	79.38
247.266	79.38
247.5	79.38
247.733	75.38
247.966	90.38
248.2	88.38
248.433	84.38
248.666	89.38
248.899	88.38
249.133	69.38
249.366	79.38
249.599	77.38
249.832	87.38
250.066	88.38
250.299	79.38
250.532	80.38
250.765	82.38
250.998	80.38
251.231	82.38
251.465	77.38
251.698	82.38
251.931	86.38
252.164	89.38
252.397	83.38
252.63	72.38
252.863	94.38
253.096	75.38
253.329	86.38
253.562	75.38
253.795	74.38
254.028	76.38
254.261	85.38
254.494	82.38
254.727	96.38
254.96	91.38
255.193	80.38
255.426	73.38
255.659	92.38
255.892	91.38
256.124	91.38
256.357	85.38
256.59	87.38
256.823	76.38
257.056	78.38
257.289	97.38
257.521	96.38
257.754	84.38
257.987	94.38
258.22	90.38
258.452	91.38
258.685	85.38
258.918	86.38
259.151	83.38
259.383	83.38
259.616	80.38
259.849	81.38
260.081	88.38
260.314	83.38
260.547	75.38
260.779	95.38
261.012	98.38
261.244	94.38
261.477	89.38
261.71	74.38
261.942	75.38
262.175	86.38
262.407	86.38
262.64	80.38
262.872	82.38
263.105	84.38
263.337	66.38
263.57	86.38
263.802	88.38
264.035	89.38
264.267	88.38
264.499	84.38
264.732	92.38
264.964	65.38
265.197	68.38
265.429	96.38
265.661	83.38
265.894	67.38
266.126	79.38
266.358	88.38
266.591	88.38
266.823	73.38
267.055	86.38
267.287	70.38
267.52	87.38
267.752	82.38
267.984	77.38
268.216	91.38
268.448	98.38
268.681	84.38
268.913	86.38
269.145	70.38
269.377	81.38
269.609	80.38
269.841	82.38
270.073	88.38
270.306	87.38
270.538	90.38
270.77	84.38
271.002	87.38
271.234	105.38
271.466	88.38
271.698	89.38
271.93	95.38
272.162	81.38
272.394	89.38
272.626	83.38
272.858	90.38
273.09	96.38
273.322	94.38
273.553	80.38
273.785	92.38
274.017	99.38
274.249	88.38
274.481	99.38
274.713	90.38
274.945	98.38
275.176	90.38
275.408	93.38
275.64	78.38
275.872	92.38
276.104	100.38
276.335	80.38
276.567	85.38
276.799	82.38
277.031	79.38
277.262	85.38
277.494	77.38
277.726	86.38
277.957	91.38
278.189	79.38
278.421	82.38
278.652	83.38
278.884	81.38
279.115	74.38
279.347	95.38
279.579	90.38
279.81	83.38
280.042	80.38
280.273	87.38
280.505	76.38
280.736	78.38
280.968	92.38
281.199	86.38
281.431	94.38
281.662	90.38
281.894	88.38
282.125	84.38
282.356	76.38
282.588	89.38
282.819	86.38
283.051	75.38
283.282	70.38
283.513	76.38
283.745	98.38
283.976	88.38
284.207	91.38
284.439	91.38
284.67	92.38
284.901	94.38
285.132	92.38
285.364	96.38
285.595	95.38
285.826	95.38
286.057	82.38
286.288	87.38
286.52	84.38
286.751	92.38
286.982	85.38
287.213	91.38
287.444	97.38
287.675	81.38
287.906	78.38
288.138	88.38
288.369	96.38
288.6	95.38
288.831	94.38
289.062	86.38
289.293	87.38
289.524	96.38
289.755	84.38
289.986	90.38
290.217	97.38
290.448	94.38
290.679	84.38
290.91	97.38
291.141	80.38
291.371	88.38
291.602	90.38
291.833	93.38
292.064	79.38
292.295	78.38
292.526	84.38
292.757	92.38
292.987	85.38
293.218	92.38
293.449	76.38
293.68	86.38
293.91	83.38
294.141	87.38
294.372	97.38
294.603	90.38
294.833	71.38
295.064	81.38
295.295	92.38
295.525	95.38
295.756	102.38
295.987	86.38
296.217	91.38
296.448	89.38
296.679	96.38
296.909	99.38
297.14	89.38
297.37	86.38
297.601	102.38
297.831	85.38
298.062	90.38
298.292	88.38
298.523	94.38
298.753	86.38
298.984	82.38
299.214	113.38
299.445	96.38
299.675	110.38
299.905	97.38
300.136	95.38
300.366	86.38
300.597	79.38
300.827	109.38
301.057	87.38
301.288	88.38
301.518	89.38
301.748	68.38
301.979	102.38
302.209	106.38
302.439	92.38
302.669	86.38
302.9	89.38
303.13	90.38
303.36	81.38
303.59	88.38
303.82	86.38
304.051	80.38
304.281	92.38
304.511	85.38
304.741	85.38
304.971	96.38
305.201	100.38
305.431	110.38
305.661	86.38
305.891	76.38
306.121	90.38
306.352	101.38
306.582	79.38
306.812	83.38
307.042	97.38
307.272	83.38
307.502	78.38
307.731	96.38
307.961	81.38
308.191	102.38
308.421	104.38
308.651	83.38
308.881	99.38
309.111	100.38
309.341	88.38
309.571	114.38
309.8	95.38
310.03	92.38
310.26	81.38
310.49	95.38
310.72	78.38
310.949	87.38
311.179	88.38
311.409	76.38
311.639	81.38
311.868	94.38
312.098	87.38
312.328	98.38
312.557	87.38
312.787	100.38
313.017	91.38
313.246	82.38
313.476	87.38
313.706	93.38
313.935	106.38
314.165	98.38
314.394	94.38
314.624	84.38
314.853	90.38
315.083	101.38
315.312	95.38
315.542	90.38
315.771	74.38
316.001	95.38
316.23	84.38
316.46	83.38
316.689	86.38
316.919	90.38
317.148	85.38
317.377	95.38
317.607	94.38
317.836	95.38
318.065	98.38
318.295	78.38
318.524	96.38
318.753	87.38
318.983	90.38
319.212	86.38
319.441	86.38
319.67	90.38
319.9	94.38
320.129	99.38
320.358	93.38
320.587	94.38
320.816	90.38
321.046	94.38
321.275	94.38
321.504	91.38
321.733	93.38
321.962	98.38
322.191	86.38
322.42	80.38
322.649	99.38
322.878	86.38
323.108	97.38
323.337	80.38
323.566	92.38
323.795	94.38
324.024	79.38
324.253	81.38
324.482	98.38
324.71	98.38
324.939	80.38
325.168	103.38
325.397	83.38
325.626	94.38
325.855	79.38
326.084	79.38
326.313	95.38
326.542	93.38
326.77	78.38
326.999	89.38
327.228	86.38
327.457	80.38
327.686	84.38
327.914	96.38
328.143	91.38
328.372	89.38
328.6	76.38
328.829	87.38
329.058	72.38
329.287	104.38
329.515	85.38
329.744	87.38
329.972	74.38
330.201	92.38
330.43	91.38
330.658	91.38
330.887	88.38
331.115	91.38
331.344	79.38
331.572	83.38
331.801	96.38
332.03	78.38
332.258	79.38
332.486	100.38
332.715	88.38
332.943	96.38
333.172	76.38
333.4	90.38
333.629	93.38
333.857	86.38
334.085	99.38
334.314	102.38
334.542	91.38
334.771	103.38
334.999	88.38
335.227	94.38
335.455	97.38
335.684	106.38
335.912	95.38
336.14	109.38
336.369	103.38
336.597	93.38
336.825	94.38
337.053	92.38
337.281	96.38
337.51	96.38
337.738	99.38
337.966	94.38
338.194	91.38
338.422	78.38
338.65	77.38
338.878	100.38
339.106	85.38
339.334	76.38
339.562	95.38
339.79	88.38
340.018	86.38
340.246	94.38
340.474	91.38
340.702	86.38
340.93	79.38
341.158	88.38
341.386	81.38
341.614	81.38
341.842	92.38
342.07	86.38
342.298	93.38
342.526	103.38
342.754	94.38
342.981	90.38
343.209	91.38
343.437	100.38
343.665	85.38
343.893	86.38
344.12	104.38
344.348	84.38
344.576	96.38
344.804	97.38
345.031	93.38
345.259	88.38
345.487	78.38
345.714	87.38
345.942	72.38
346.17	86.38
346.397	101.38
346.625	85.38
346.853	93.38
347.08	89.38
347.308	91.38
347.535	90.38
347.763	87.38
347.99	96.38
348.218	79.38
348.445	81.38
348.673	100.38
348.9	83.38
349.128	107.38
349.355	92.38
349.583	94.38
349.81	91.38
350.037	85.38
350.265	99.38
350.492	87.38
350.72	86.38
350.947	86.38
351.174	102.38
351.402	86.38
351.629	90.38
351.856	90.38
352.083	86.38
352.311	89.38
352.538	91.38
352.765	104.38
352.992	97.38
353.22	87.38
353.447	95.38
353.674	94.38
353.901	99.38
354.128	89.38
354.355	83.38
354.583	99.38
354.81	91.38
355.037	72.38
355.264	85.38
355.491	77.38
355.718	76.38
355.945	84.38
356.172	93.38
356.399	88.38
356.626	98.38
356.853	90.38
357.08	87.38
357.307	97.38
357.534	89.38
357.761	89.38
357.988	96.38
358.215	105.38
358.441	95.38
358.668	92.38
358.895	88.38
359.122	88.38
359.349	85.38
359.576	89.38
359.802	96.38
360.029	90.38
360.256	92.38
360.483	92.38
360.709	81.38
360.936	109.38
361.163	90.38
361.39	99.38
361.616	92.38
361.843	92.38
362.07	122.38
362.296	96.38
362.523	103.38
362.749	116.38
362.976	119.38
363.203	125.38
363.429	110.38
363.656	106.38
363.882	94.38
364.109	118.38
364.335	118.38
364.562	130.38
364.788	116.38
365.015	108.38
365.241	103.38
365.468	100.38
365.694	93.38
365.92	95.38
366.147	92.38
366.373	79.38
366.599	100.38
366.826	99.38
367.052	105.38
367.278	80.38
367.505	83.38
367.731	88.38
367.957	91.38
368.184	86.38
368.41	92.38
368.636	89.38
368.862	96.38
369.089	103.38
369.315	87.38
369.541	85.38
369.767	82.38
369.993	96.38
370.219	89.38
370.445	98.38
370.672	110.38
370.898	83.38
371.124	90.38
371.35	105.38
371.576	81.38
371.802	81.38
372.028	111.38
372.254	101.38
372.48	88.38
372.706	81.38
372.932	110.38
373.158	103.38
373.384	126.38
373.61	106.38
373.835	102.38
374.061	108.38
374.287	98.38
374.513	90.38
374.739	108.38
374.965	103.38
375.191	109.38
375.416	108.38
375.642	110.38
375.868	108.38
376.094	103.38
376.319	97.38
376.545	95.38
376.771	92.38
376.997	86.38
377.222	92.38
377.448	88.38
377.674	92.38
377.899	84.38
378.125	93.38
378.35	94.38
378.576	67.38
378.802	76.38
379.027	87.38
379.253	93.38
379.478	87.38
379.704	95.38
379.929	90.38
380.155	92.38
380.38	87.38
380.606	90.38
380.831	87.38
381.057	90.38
381.282	87.38
381.507	95.38
381.733	105.38
381.958	84.38
382.184	95.38
382.409	103.38
382.634	97.38
382.86	106.38
383.085	103.38
383.31	87.38
383.535	108.38
383.761	107.38
383.986	106.38
384.211	92.38
384.436	95.38
384.662	73.38
384.887	98.38
385.112	106.38
385.337	95.38
385.562	101.38
385.787	118.38
386.013	122.38
386.238	104.38
386.463	89.38
386.688	104.38
386.913	104.38
387.138	86.38
387.363	95.38
387.588	103.38
387.813	110.38
388.038	106.38
388.263	114.38
388.488	93.38
388.713	103.38
388.938	98.38
389.163	94.38
389.387	91.38
389.612	95.38
389.837	79.38
390.062	98.38
390.287	95.38
390.512	95.38
390.736	101.38
390.961	81.38
391.186	74.38
391.411	106.38
391.636	82.38
391.86	91.38
392.085	80.38
392.31	110.38
392.534	115.38
392.759	122.38
392.984	165.38
393.208	234.38
393.433	324.38
393.658	264.38
393.882	144.38
394.107	119.38
394.331	131.38
394.556	138.38
394.78	107.38
395.005	95.38
395.229	102.38
395.454	98.38
395.678	114.38
395.903	133.38
396.127	164.38
396.352	180.38
396.576	179.38
396.801	245.38
397.025	293.38
397.249	159.38
397.474	131.38
397.698	109.38
397.922	103.38
398.147	114.38
398.371	88.38
398.595	102.38
398.82	80.38
399.044	89.38
399.268	98.38
399.492	95.38
399.717	98.38
399.941	94.38
400.165	90.38
400.389	93.38
400.613	93.38
400.837	108.38
401.062	81.38
401.286	99.38
401.51	87.38
401.734	92.38
401.958	92.38
402.182	82.38
402.406	98.38
402.63	89.38
402.854	94.38
403.078	90.38
403.302	91.38
403.526	110.38
403.75	91.38
403.974	110.38
404.198	138.38
404.422	191.38
404.645	222.38
404.869	206.38
405.093	136.38
405.317	112.38
405.541	90.38
405.765	92.38
405.988	89.38
406.212	96.38
406.436	88.38
406.66	110.38
406.883	109.38
407.107	98.38
407.331	97.38
407.555	91.38
407.778	101.38
408.002	107.38
408.226	90.38
408.449	86.38
408.673	97.38
408.896	84.38
409.12	94.38
409.344	88.38
409.567	101.38
409.791	106.38
410.014	98.38
410.238	100.38
410.461	90.38
410.685	99.38
410.908	80.38
411.132	88.38
411.355	88.38
411.578	87.38
411.802	96.38
412.025	88.38
412.249	100.38
412.472	93.38
412.695	91.38
412.919	84.38
413.142	98.38
413.365	92.38
413.589	86.38
413.812	92.38
414.035	90.38
414.258	102.38
414.482	82.38
414.705	81.38
414.928	86.38
415.151	93.38
415.374	86.38
415.597	100.38
415.821	86.38
416.044	76.38
416.267	98.38
416.49	86.38
416.713	97.38
416.936	91.38
417.159	102.38
417.382	87.38
417.605	102.38
417.828	103.38
418.051	96.38
418.274	77.38
418.497	76.38
418.72	84.38
418.943	89.38
419.166	103.38
419.389	96.38
419.611	91.38
419.834	89.38
420.057	111.38
420.28	94.38
420.503	100.38
420.726	88.38
420.948	126.38
421.171	108.38
421.394	113.38
421.617	125.38
421.839	111.38
422.062	153.38
422.285	224.38
422.507	386.38
422.73	576.38
422.953	498.38
423.175	282.38
423.398	189.38
423.621	146.38
423.843	107.38
424.066	114.38
424.288	110.38
424.511	108.38
424.733	92.38
424.956	102.38
425.178	99.38
425.401	94.38
425.623	83.38
425.846	92.38
426.068	91.38
426.291	89.38
426.513	93.38
426.735	103.38
426.958	100.38
427.18	95.38
427.402	86.38
427.625	105.38
427.847	77.38
428.069	103.38
428.292	157.38
428.514	171.38
428.736	142.38
428.958	174.38
429.181	172.38
429.403	106.38
429.625	101.38
429.847	154.38
430.069	236.38
430.292	250.38
430.514	228.38
430.736	171.38
430.958	175.38
431.18	117.38
431.402	103.38
431.624	107.38
431.846	159.38
432.068	162.38
432.29	106.38
432.512	101.38
432.734	108.38
432.956	88.38
433.178	97.38
433.4	98.38
433.622	95.38
433.844	88.38
434.066	98.38
434.287	85.38
434.509	99.38
434.731	88.38
434.953	74.38
435.175	78.38
435.397	102.38
435.618	100.38
435.84	83.38
436.062	86.38
436.284	89.38
436.505	93.38
436.727	88.38
436.949	85.38
437.17	95.38
437.392	90.38
437.614	84.38
437.835	79.38
438.057	87.38
438.278	84.38
438.5	93.38
438.721	84.38
438.943	95.38
439.165	97.38
439.386	101.38
439.608	97.38
439.829	84.38
440.05	87.38
440.272	83.38
440.493	103.38
440.715	91.38
440.936	87.38
441.158	91.38
441.379	101.38
441.6	98.38
441.822	102.38
442.043	83.38
442.264	96.38
442.486	175.38
442.707	224.38
442.928	174.38
443.149	151.38
443.371	217.38
443.592	345.38
443.813	290.38
444.034	152.38
444.255	103.38
444.476	104.38
444.698	115.38
444.919	116.38
445.14	242.38
445.361	294.38
445.582	401.38
445.803	344.38
446.024	146.38
446.245	109.38
446.466	111.38
446.687	97.38
446.908	95.38
447.129	82.38
447.35	94.38
447.571	96.38
447.792	89.38
448.013	80.38
448.234	92.38
448.455	107.38
448.675	91.38
448.896	86.38
449.117	86.38
449.338	95.38
449.559	87.38
449.779	90.38
450	82.38
450.221	91.38
450.442	105.38
450.662	75.38
450.883	91.38
451.104	95.38
451.324	92.38
451.545	91.38
451.766	89.38
451.986	90.38
452.207	80.38
452.428	94.38
452.648	99.38
452.869	90.38
453.089	100.38
453.31	91.38
453.53	110.38
453.751	101.38
453.971	90.38
454.192	77.38
454.412	89.38
454.633	90.38
454.853	97.38
455.073	90.38
455.294	83.38
455.514	91.38
455.734	90.38
455.955	102.38
456.175	89.38
456.395	96.38
456.616	94.38
456.836	82.38
457.056	92.38
457.276	97.38
457.497	85.38
457.717	96.38
457.937	124.38
458.157	145.38
458.377	142.38
458.598	144.38
458.818	139.38
459.038	112.38
459.258	91.38
459.478	104.38
459.698	90.38
459.918	75.38
460.138	81.38
460.358	92.38
460.578	116.38
460.798	158.38
461.018	150.38
461.238	107.38
461.458	96.38
461.678	98.38
461.898	106.38
462.118	86.38
462.338	81.38
462.558	85.38
462.777	90.38
462.997	83.38
463.217	84.38
463.437	88.38
463.657	91.38
463.876	84.38
464.096	88.38
464.316	96.38
464.536	90.38
464.755	83.38
464.975	108.38
465.195	96.38
465.414	86.38
465.634	98.38
465.854	95.38
466.073	90.38
466.293	89.38
466.512	82.38
466.732	95.38
466.951	108.38
467.171	82.38
467.391	94.38
467.61	103.38
467.829	84.38
468.049	98.38
468.268	90.38
468.488	90.38
468.707	99.38
468.927	80.38
469.146	77.38
469.365	93.38
469.585	96.38
469.804	78.38
470.023	93.38
470.243	95.38
470.462	90.38
470.681	101.38
470.901	99.38
471.12	90.38
471.339	79.38
471.558	90.38
471.777	96.38
471.997	91.38
472.216	91.38
472.435	86.38
472.654	102.38
472.873	79.38
473.092	107.38
473.311	95.38
473.53	89.38
473.749	91.38
473.968	84.38
474.187	112.38
474.406	90.38
474.625	82.38
474.844	92.38
475.063	94.38
475.282	104.38
475.501	100.38
475.72	82.38
475.939	98.38
476.158	93.38
476.377	87.38
476.596	86.38
476.814	96.38
477.033	89.38
477.252	97.38
477.471	91.38
477.69	94.38
477.908	91.38
478.127	103.38
478.346	91.38
478.564	73.38
478.783	89.38
479.002	89.38
479.22	100.38
479.439	87.38
479.658	102.38
479.876	77.38
480.095	104.38
480.313	120.38
480.532	90.38
480.751	75.38
480.969	102.38
481.188	100.38
481.406	94.38
481.624	105.38
481.843	99.38
482.061	98.38
482.28	99.38
482.498	90.38
482.717	100.38
482.935	109.38
483.153	96.38
483.372	99.38
483.59	88.38
483.808	101.38
484.027	103.38
484.245	95.38
484.463	94.38
484.681	105.38
484.9	80.38
485.118	90.38
485.336	101.38
485.554	98.38
485.772	90.38
485.99	91.38
486.209	96.38
486.427	100.38
486.645	95.38
486.863	94.38
487.081	95.38
487.299	106.38
487.517	101.38
487.735	122.38
487.953	192.38
488.171	172.38
488.389	124.38
488.607	105.38
488.825	95.38
489.043	108.38
489.261	106.38
489.479	102.38
489.696	96.38
489.914	82.38
490.132	84.38
490.35	93.38
490.568	95.38
490.786	99.38
491.003	95.38
491.221	98.38
491.439	84.38
491.657	109.38
491.874	88.38
492.092	103.38
492.31	91.38
492.527	98.38
492.745	89.38
492.963	90.38
493.18	97.38
493.398	95.38
493.615	103.38
493.833	99.38
494.05	95.38
494.268	100.38
494.485	100.38
494.703	91.38
494.92	86.38
495.138	97.38
495.355	92.38
495.573	95.38
495.79	115.38
496.008	106.38
496.225	90.38
496.442	93.38
496.66	106.38
496.877	91.38
497.094	93.38
497.312	104.38
497.529	96.38
497.746	108.38
497.963	87.38
498.181	103.38
498.398	113.38
498.615	101.38
498.832	107.38
499.049	94.38
499.267	103.38
499.484	94.38
499.701	85.38
499.918	102.38
500.135	106.38
500.352	101.38
500.569	88.38
500.786	101.38
501.003	98.38
501.22	90.38
501.437	107.38
501.654	111.38
501.871	103.38
502.088	79.38
502.305	103.38
502.522	91.38
502.739	105.38
502.956	105.38
503.172	100.38
503.389	100.38
503.606	98.38
503.823	103.38
504.04	122.38
504.256	147.38
504.473	137.38
504.69	115.38
504.907	101.38
505.123	101.38
505.34	103.38
505.557	99.38
505.773	100.38
505.99	91.38
506.207	80.38
506.423	90.38
506.64	114.38
506.856	88.38
507.073	93.38
507.289	109.38
507.506	93.38
507.722	100.38
507.939	84.38
508.155	99.38
508.372	91.38
508.588	80.38
508.805	86.38
509.021	102.38
509.238	102.38
509.454	96.38
509.67	98.38
509.887	99.38
510.103	105.38
510.319	114.38
510.536	96.38
510.752	78.38
510.968	98.38
511.184	99.38
511.401	88.38
511.617	90.38
511.833	96.38
512.049	86.38
512.265	107.38
512.481	93.38
512.698	86.38
512.914	100.38
513.13	94.38
513.346	88.38
513.562	104.38
513.778	99.38
513.994	101.38
514.21	91.38
514.426	86.38
514.642	97.38
514.858	93.38
515.074	104.38
515.29	97.38
515.506	106.38
515.721	90.38
