Data from 237_3_HRD10591_00018.txt Node
Date: Mon Jan 19 14:13:03 EST 2026
User: Yrep
Spectrometer: HR+D1059
Trigger mode: 1
Integration Time (sec): 1.000000E-1
Scans to average: 1
Electric dark correction enabled: true
Nonlinearity correction enabled: false
Boxcar width: 0
XAxis mode: Wavelengths
Number of Pixels in Spectrum: 2048
>>>>>Begin Spectral Data<<<<<
223.165	-30.31
223.4	-30.31
223.635	-30.31
223.869	-22.31
224.104	-17.31
224.338	-15.31
224.573	-20.31
224.808	-2.31
225.042	-9.31
225.277	-16.31
225.511	-0.31
225.746	17.69
225.98	7.69
226.215	11.69
226.449	30.69
226.683	15.69
226.918	20.69
227.152	29.69
227.387	32.69
227.621	37.69
227.856	50.69
228.09	53.69
228.324	47.69
228.559	53.69
228.793	58.69
229.027	61.69
229.262	61.69
229.496	58.69
229.73	71.69
229.964	45.69
230.199	87.69
230.433	79.69
230.667	85.69
230.901	66.69
231.136	79.69
231.37	71.69
231.604	81.69
231.838	79.69
232.072	73.69
232.306	82.69
232.541	73.69
232.775	81.69
233.009	90.69
233.243	90.69
233.477	94.69
233.711	84.69
233.945	68.69
234.179	75.69
234.413	80.69
234.647	70.69
234.881	80.69
235.115	85.69
235.349	75.69
235.583	88.69
235.817	84.69
236.051	81.69
236.285	68.69
236.519	65.69
236.753	64.69
236.987	77.69
237.221	81.69
237.455	76.69
237.689	71.69
237.922	72.69
238.156	77.69
238.39	72.69
238.624	74.69
238.858	78.69
239.091	82.69
239.325	67.69
239.559	79.69
239.793	83.69
240.027	76.69
240.26	60.69
240.494	71.69
240.728	86.69
240.961	58.69
241.195	81.69
241.429	73.69
241.662	85.69
241.896	76.69
242.13	81.69
242.363	68.69
242.597	76.69
242.83	83.69
243.064	69.69
243.298	72.69
243.531	78.69
243.765	77.69
243.998	74.69
244.232	79.69
244.465	75.69
244.699	55.69
244.932	79.69
245.166	81.69
245.399	77.69
245.633	71.69
245.866	73.69
246.099	87.69
246.333	76.69
246.566	87.69
246.8	70.69
247.033	87.69
247.266	75.69
247.5	71.69
247.733	71.69
247.966	59.69
248.2	82.69
248.433	79.69
248.666	67.69
248.899	65.69
249.133	77.69
249.366	83.69
249.599	91.69
249.832	81.69
250.066	85.69
250.299	79.69
250.532	77.69
250.765	74.69
250.998	89.69
251.231	85.69
251.465	87.69
251.698	68.69
251.931	73.69
252.164	82.69
252.397	75.69
252.63	83.69
252.863	93.69
253.096	82.69
253.329	83.69
253.562	83.69
253.795	88.69
254.028	80.69
254.261	77.69
254.494	72.69
254.727	73.69
254.96	69.69
255.193	79.69
255.426	70.69
255.659	79.69
255.892	81.69
256.124	79.69
256.357	72.69
256.59	74.69
256.823	74.69
257.056	76.69
257.289	86.69
257.521	76.69
257.754	66.69
257.987	75.69
258.22	85.69
258.452	69.69
258.685	86.69
258.918	82.69
259.151	89.69
259.383	74.69
259.616	78.69
259.849	87.69
260.081	81.69
260.314	69.69
260.547	96.69
260.779	87.69
261.012	83.69
261.244	61.69
261.477	78.69
261.71	82.69
261.942	77.69
262.175	86.69
262.407	75.69
262.64	80.69
262.872	80.69
263.105	79.69
263.337	95.69
263.57	81.69
263.802	81.69
264.035	80.69
264.267	80.69
264.499	90.69
264.732	80.69
264.964	76.69
265.197	81.69
265.429	82.69
265.661	82.69
265.894	90.69
266.126	84.69
266.358	88.69
266.591	82.69
266.823	84.69
267.055	82.69
267.287	81.69
267.52	73.69
267.752	75.69
267.984	76.69
268.216	69.69
268.448	90.69
268.681	81.69
268.913	69.69
269.145	86.69
269.377	73.69
269.609	63.69
269.841	70.69
270.073	89.69
270.306	75.69
270.538	82.69
270.77	73.69
271.002	89.69
271.234	83.69
271.466	83.69
271.698	79.69
271.93	78.69
272.162	80.69
272.394	85.69
272.626	86.69
272.858	81.69
273.09	77.69
273.322	74.69
273.553	97.69
273.785	77.69
274.017	82.69
274.249	86.69
274.481	91.69
274.713	90.69
274.945	82.69
275.176	71.69
275.408	61.69
275.64	69.69
275.872	87.69
276.104	83.69
276.335	81.69
276.567	88.69
276.799	93.69
277.031	73.69
277.262	88.69
277.494	96.69
277.726	82.69
277.957	73.69
278.189	67.69
278.421	86.69
278.652	87.69
278.884	82.69
279.115	75.69
279.347	67.69
279.579	81.69
279.81	90.69
280.042	94.69
280.273	89.69
280.505	89.69
280.736	70.69
280.968	75.69
281.199	70.69
281.431	88.69
281.662	85.69
281.894	90.69
282.125	75.69
282.356	79.69
282.588	93.69
282.819	77.69
283.051	78.69
283.282	90.69
283.513	87.69
283.745	82.69
283.976	79.69
284.207	88.69
284.439	67.69
284.67	69.69
284.901	79.69
285.132	94.69
285.364	85.69
285.595	102.69
285.826	80.69
286.057	92.69
286.288	89.69
286.52	84.69
286.751	80.69
286.982	81.69
287.213	82.69
287.444	104.69
287.675	74.69
287.906	94.69
288.138	93.69
288.369	91.69
288.6	79.69
288.831	95.69
289.062	97.69
289.293	98.69
289.524	81.69
289.755	79.69
289.986	89.69
290.217	74.69
290.448	80.69
290.679	87.69
290.91	85.69
291.141	80.69
291.371	92.69
291.602	84.69
291.833	72.69
292.064	79.69
292.295	85.69
292.526	85.69
292.757	96.69
292.987	82.69
293.218	79.69
293.449	59.69
293.68	80.69
293.91	75.69
294.141	80.69
294.372	84.69
294.603	71.69
294.833	97.69
295.064	94.69
295.295	94.69
295.525	84.69
295.756	73.69
295.987	89.69
296.217	87.69
296.448	70.69
296.679	89.69
296.909	82.69
297.14	74.69
297.37	86.69
297.601	85.69
297.831	83.69
298.062	75.69
298.292	79.69
298.523	85.69
298.753	83.69
298.984	80.69
299.214	84.69
299.445	83.69
299.675	75.69
299.905	87.69
300.136	88.69
300.366	81.69
300.597	86.69
300.827	87.69
301.057	75.69
301.288	87.69
301.518	73.69
301.748	79.69
301.979	93.69
302.209	81.69
302.439	101.69
302.669	93.69
302.9	73.69
303.13	95.69
303.36	91.69
303.59	71.69
303.82	91.69
304.051	96.69
304.281	89.69
304.511	90.69
304.741	86.69
304.971	74.69
305.201	65.69
305.431	82.69
305.661	86.69
305.891	76.69
306.121	85.69
306.352	77.69
306.582	74.69
306.812	96.69
307.042	92.69
307.272	87.69
307.502	79.69
307.731	78.69
307.961	88.69
308.191	85.69
308.421	93.69
308.651	79.69
308.881	93.69
309.111	89.69
309.341	92.69
309.571	103.69
309.8	85.69
310.03	65.69
310.26	78.69
310.49	85.69
310.72	79.69
310.949	82.69
311.179	92.69
311.409	95.69
311.639	81.69
311.868	85.69
312.098	89.69
312.328	73.69
312.557	88.69
312.787	79.69
313.017	83.69
313.246	94.69
313.476	76.69
313.706	87.69
313.935	81.69
314.165	85.69
314.394	74.69
314.624	87.69
314.853	66.69
315.083	74.69
315.312	99.69
315.542	91.69
315.771	86.69
316.001	89.69
316.23	86.69
316.46	73.69
316.689	81.69
316.919	84.69
317.148	90.69
317.377	75.69
317.607	86.69
317.836	99.69
318.065	93.69
318.295	102.69
318.524	86.69
318.753	90.69
318.983	87.69
319.212	87.69
319.441	92.69
319.67	85.69
319.9	103.69
320.129	102.69
320.358	72.69
320.587	89.69
320.816	72.69
321.046	72.69
321.275	83.69
321.504	91.69
321.733	86.69
321.962	79.69
322.191	79.69
322.42	80.69
322.649	85.69
322.878	97.69
323.108	82.69
323.337	83.69
323.566	90.69
323.795	78.69
324.024	93.69
324.253	84.69
324.482	76.69
324.71	86.69
324.939	79.69
325.168	89.69
325.397	87.69
325.626	85.69
325.855	85.69
326.084	75.69
326.313	93.69
326.542	90.69
326.77	89.69
326.999	94.69
327.228	83.69
327.457	87.69
327.686	92.69
327.914	79.69
328.143	71.69
328.372	79.69
328.6	86.69
328.829	77.69
329.058	92.69
329.287	89.69
329.515	90.69
329.744	87.69
329.972	81.69
330.201	93.69
330.43	101.69
330.658	81.69
330.887	86.69
331.115	91.69
331.344	87.69
331.572	88.69
331.801	90.69
332.03	88.69
332.258	94.69
332.486	87.69
332.715	73.69
332.943	77.69
333.172	92.69
333.4	86.69
333.629	67.69
333.857	89.69
334.085	80.69
334.314	106.69
334.542	81.69
334.771	82.69
334.999	91.69
335.227	89.69
335.455	77.69
335.684	94.69
335.912	84.69
336.14	86.69
336.369	74.69
336.597	89.69
336.825	85.69
337.053	97.69
337.281	90.69
337.51	83.69
337.738	81.69
337.966	87.69
338.194	87.69
338.422	81.69
338.65	79.69
338.878	90.69
339.106	91.69
339.334	76.69
339.562	89.69
339.79	87.69
340.018	81.69
340.246	89.69
340.474	90.69
340.702	90.69
340.93	74.69
341.158	82.69
341.386	87.69
341.614	86.69
341.842	65.69
342.07	88.69
342.298	83.69
342.526	82.69
342.754	85.69
342.981	88.69
343.209	81.69
343.437	87.69
343.665	70.69
343.893	81.69
344.12	95.69
344.348	75.69
344.576	88.69
344.804	85.69
345.031	83.69
345.259	82.69
345.487	71.69
345.714	87.69
345.942	77.69
346.17	89.69
346.397	70.69
346.625	86.69
346.853	89.69
347.08	81.69
347.308	96.69
347.535	81.69
347.763	69.69
347.99	75.69
348.218	88.69
348.445	88.69
348.673	75.69
348.9	78.69
349.128	93.69
349.355	83.69
349.583	74.69
349.81	81.69
350.037	81.69
350.265	88.69
350.492	74.69
350.72	85.69
350.947	86.69
351.174	96.69
351.402	82.69
351.629	99.69
351.856	78.69
352.083	93.69
352.311	74.69
352.538	87.69
352.765	89.69
352.992	101.69
353.22	87.69
353.447	66.69
353.674	73.69
353.901	83.69
354.128	76.69
354.355	71.69
354.583	75.69
354.81	88.69
355.037	89.69
355.264	85.69
355.491	80.69
355.718	79.69
355.945	84.69
356.172	89.69
356.399	90.69
356.626	89.69
356.853	85.69
357.08	91.69
357.307	74.69
357.534	73.69
357.761	82.69
357.988	103.69
358.215	99.69
358.441	93.69
358.668	79.69
358.895	75.69
359.122	79.69
359.349	97.69
359.576	85.69
359.802	92.69
360.029	69.69
360.256	101.69
360.483	94.69
360.709	94.69
360.936	92.69
361.163	96.69
361.39	81.69
361.616	81.69
361.843	82.69
362.07	74.69
362.296	91.69
362.523	95.69
362.749	100.69
362.976	117.69
363.203	101.69
363.429	106.69
363.656	89.69
363.882	94.69
364.109	103.69
364.335	103.69
364.562	115.69
364.788	100.69
365.015	91.69
365.241	87.69
365.468	103.69
365.694	94.69
365.92	83.69
366.147	89.69
366.373	74.69
366.599	81.69
366.826	72.69
367.052	74.69
367.278	69.69
367.505	93.69
367.731	92.69
367.957	84.69
368.184	89.69
368.41	66.69
368.636	77.69
368.862	83.69
369.089	75.69
369.315	93.69
369.541	86.69
369.767	90.69
369.993	85.69
370.219	87.69
370.445	85.69
370.672	86.69
370.898	89.69
371.124	77.69
371.35	88.69
371.576	72.69
371.802	89.69
372.028	92.69
372.254	99.69
372.48	85.69
372.706	82.69
372.932	92.69
373.158	75.69
373.384	81.69
373.61	90.69
373.835	87.69
374.061	93.69
374.287	79.69
374.513	75.69
374.739	90.69
374.965	99.69
375.191	86.69
375.416	77.69
375.642	101.69
375.868	86.69
376.094	97.69
376.319	88.69
376.545	72.69
376.771	81.69
376.997	79.69
377.222	80.69
377.448	76.69
377.674	78.69
377.899	79.69
378.125	80.69
378.35	89.69
378.576	76.69
378.802	65.69
379.027	82.69
379.253	85.69
379.478	71.69
379.704	82.69
379.929	76.69
380.155	93.69
380.38	88.69
380.606	85.69
380.831	93.69
381.057	97.69
381.282	82.69
381.507	88.69
381.733	88.69
381.958	87.69
382.184	91.69
382.409	97.69
382.634	83.69
382.86	91.69
383.085	104.69
383.31	86.69
383.535	89.69
383.761	84.69
383.986	97.69
384.211	86.69
384.436	86.69
384.662	83.69
384.887	82.69
385.112	84.69
385.337	65.69
385.562	93.69
385.787	88.69
386.013	89.69
386.238	91.69
386.463	93.69
386.688	103.69
386.913	81.69
387.138	80.69
387.363	91.69
387.588	89.69
387.813	85.69
388.038	89.69
388.263	72.69
388.488	84.69
388.713	88.69
388.938	67.69
389.163	79.69
389.387	93.69
389.612	81.69
389.837	92.69
390.062	100.69
390.287	86.69
390.512	79.69
390.736	89.69
390.961	82.69
391.186	63.69
391.411	80.69
391.636	77.69
391.86	87.69
392.085	93.69
392.31	92.69
392.534	85.69
392.759	90.69
392.984	105.69
393.208	142.69
393.433	201.69
393.658	151.69
393.882	106.69
394.107	98.69
394.331	107.69
394.556	112.69
394.78	86.69
395.005	88.69
395.229	94.69
395.454	91.69
395.678	99.69
395.903	110.69
396.127	104.69
396.352	116.69
396.576	119.69
396.801	159.69
397.025	175.69
397.249	114.69
397.474	100.69
397.698	77.69
397.922	93.69
398.147	83.69
398.371	79.69
398.595	93.69
398.82	98.69
399.044	87.69
399.268	83.69
399.492	82.69
399.717	76.69
399.941	86.69
400.165	84.69
400.389	85.69
400.613	83.69
400.837	93.69
401.062	90.69
401.286	75.69
401.51	77.69
401.734	100.69
401.958	83.69
402.182	93.69
402.406	88.69
402.63	79.69
402.854	81.69
403.078	72.69
403.302	93.69
403.526	95.69
403.75	93.69
403.974	87.69
404.198	75.69
404.422	98.69
404.645	95.69
404.869	109.69
405.093	96.69
405.317	100.69
405.541	89.69
405.765	81.69
405.988	102.69
406.212	70.69
406.436	86.69
406.66	82.69
406.883	82.69
407.107	94.69
407.331	75.69
407.555	71.69
407.778	92.69
408.002	93.69
408.226	82.69
408.449	93.69
408.673	87.69
408.896	86.69
409.12	82.69
409.344	97.69
409.567	90.69
409.791	86.69
410.014	90.69
410.238	83.69
410.461	92.69
410.685	82.69
410.908	67.69
411.132	82.69
411.355	75.69
411.578	88.69
411.802	76.69
412.025	87.69
412.249	87.69
412.472	90.69
412.695	86.69
412.919	86.69
413.142	81.69
413.365	81.69
413.589	88.69
413.812	88.69
414.035	93.69
414.258	74.69
414.482	79.69
414.705	82.69
414.928	71.69
415.151	76.69
415.374	83.69
415.597	74.69
415.821	83.69
416.044	81.69
416.267	92.69
416.49	86.69
416.713	91.69
416.936	93.69
417.159	85.69
417.382	74.69
417.605	72.69
417.828	77.69
418.051	71.69
418.274	76.69
418.497	79.69
418.72	89.69
418.943	97.69
419.166	89.69
419.389	93.69
419.611	88.69
419.834	76.69
420.057	82.69
420.28	83.69
420.503	89.69
420.726	74.69
420.948	86.69
421.171	81.69
421.394	97.69
421.617	96.69
421.839	101.69
422.062	112.69
422.285	139.69
422.507	191.69
422.73	248.69
422.953	228.69
423.175	153.69
423.398	103.69
423.621	91.69
423.843	97.69
424.066	93.69
424.288	93.69
424.511	81.69
424.733	91.69
424.956	97.69
425.178	94.69
425.401	85.69
425.623	94.69
425.846	97.69
426.068	85.69
426.291	94.69
426.513	88.69
426.735	92.69
426.958	74.69
427.18	101.69
427.402	98.69
427.625	85.69
427.847	76.69
428.069	93.69
428.292	105.69
428.514	109.69
428.736	105.69
428.958	113.69
429.181	109.69
429.403	87.69
429.625	91.69
429.847	101.69
430.069	120.69
430.292	134.69
430.514	137.69
430.736	103.69
430.958	118.69
431.18	87.69
431.402	83.69
431.624	72.69
431.846	90.69
432.068	96.69
432.29	98.69
432.512	85.69
432.734	95.69
432.956	91.69
433.178	83.69
433.4	67.69
433.622	82.69
433.844	87.69
434.066	85.69
434.287	90.69
434.509	86.69
434.731	87.69
434.953	83.69
435.175	81.69
435.397	89.69
435.618	82.69
435.84	94.69
436.062	89.69
436.284	70.69
436.505	81.69
436.727	77.69
436.949	81.69
437.17	95.69
437.392	89.69
437.614	81.69
437.835	87.69
438.057	75.69
438.278	83.69
438.5	86.69
438.721	92.69
438.943	91.69
439.165	89.69
439.386	75.69
439.608	86.69
439.829	87.69
440.05	70.69
440.272	91.69
440.493	97.69
440.715	85.69
440.936	89.69
441.158	94.69
441.379	88.69
441.6	74.69
441.822	79.69
442.043	79.69
442.264	84.69
442.486	100.69
442.707	141.69
442.928	102.69
443.149	90.69
443.371	118.69
443.592	186.69
443.813	143.69
444.034	88.69
444.255	95.69
444.476	72.69
444.698	90.69
444.919	85.69
445.14	191.69
445.361	164.69
445.582	181.69
445.803	163.69
446.024	106.69
446.245	89.69
446.466	77.69
446.687	69.69
446.908	82.69
447.129	93.69
447.35	86.69
447.571	83.69
447.792	84.69
448.013	66.69
448.234	82.69
448.455	81.69
448.675	89.69
448.896	79.69
449.117	79.69
449.338	67.69
449.559	75.69
449.779	79.69
450	89.69
450.221	89.69
450.442	76.69
450.662	88.69
450.883	89.69
451.104	94.69
451.324	89.69
451.545	78.69
451.766	71.69
451.986	87.69
452.207	88.69
452.428	68.69
452.648	85.69
452.869	80.69
453.089	83.69
453.31	78.69
453.53	96.69
453.751	69.69
453.971	80.69
454.192	73.69
454.412	81.69
454.633	89.69
454.853	83.69
455.073	81.69
455.294	75.69
455.514	97.69
455.734	81.69
455.955	74.69
456.175	75.69
456.395	72.69
456.616	85.69
456.836	93.69
457.056	83.69
457.276	66.69
457.497	76.69
457.717	69.69
457.937	104.69
458.157	111.69
458.377	95.69
458.598	103.69
458.818	112.69
459.038	83.69
459.258	83.69
459.478	83.69
459.698	81.69
459.918	82.69
460.138	76.69
460.358	81.69
460.578	97.69
460.798	97.69
461.018	99.69
461.238	84.69
461.458	85.69
461.678	80.69
461.898	82.69
462.118	88.69
462.338	77.69
462.558	75.69
462.777	85.69
462.997	87.69
463.217	70.69
463.437	98.69
463.657	77.69
463.876	74.69
464.096	86.69
464.316	84.69
464.536	81.69
464.755	71.69
464.975	70.69
465.195	76.69
465.414	82.69
465.634	71.69
465.854	80.69
466.073	89.69
466.293	74.69
466.512	83.69
466.732	87.69
466.951	78.69
467.171	79.69
467.391	81.69
467.61	73.69
467.829	75.69
468.049	88.69
468.268	83.69
468.488	84.69
468.707	83.69
468.927	71.69
469.146	84.69
469.365	83.69
469.585	74.69
469.804	95.69
470.023	80.69
470.243	89.69
470.462	85.69
470.681	81.69
470.901	77.69
471.12	77.69
471.339	79.69
471.558	78.69
471.777	81.69
471.997	75.69
472.216	88.69
472.435	85.69
472.654	83.69
472.873	89.69
473.092	96.69
473.311	77.69
473.53	86.69
473.749	79.69
473.968	106.69
474.187	86.69
474.406	78.69
474.625	86.69
474.844	81.69
475.063	86.69
475.282	85.69
475.501	74.69
475.72	93.69
475.939	87.69
476.158	89.69
476.377	71.69
476.596	81.69
476.814	84.69
477.033	88.69
477.252	86.69
477.471	80.69
477.69	91.69
477.908	83.69
478.127	93.69
478.346	86.69
478.564	77.69
478.783	97.69
479.002	85.69
479.22	94.69
479.439	91.69
479.658	97.69
479.876	88.69
480.095	106.69
480.313	72.69
480.532	80.69
480.751	83.69
480.969	65.69
481.188	89.69
481.406	101.69
481.624	80.69
481.843	81.69
482.061	82.69
482.28	72.69
482.498	80.69
482.717	84.69
482.935	90.69
483.153	69.69
483.372	87.69
483.59	90.69
483.808	86.69
484.027	83.69
484.245	80.69
484.463	79.69
484.681	86.69
484.9	82.69
485.118	82.69
485.336	90.69
485.554	81.69
485.772	99.69
485.99	83.69
486.209	77.69
486.427	77.69
486.645	78.69
486.863	79.69
487.081	74.69
487.299	81.69
487.517	91.69
487.735	102.69
487.953	121.69
488.171	118.69
488.389	83.69
488.607	93.69
488.825	84.69
489.043	72.69
489.261	83.69
489.479	85.69
489.696	82.69
489.914	76.69
490.132	86.69
490.35	78.69
490.568	85.69
490.786	85.69
491.003	89.69
491.221	82.69
491.439	96.69
491.657	73.69
491.874	82.69
492.092	82.69
492.31	78.69
492.527	97.69
492.745	85.69
492.963	101.69
493.18	99.69
493.398	89.69
493.615	99.69
493.833	82.69
494.05	91.69
494.268	87.69
494.485	97.69
494.703	87.69
494.92	76.69
495.138	79.69
495.355	97.69
495.573	87.69
495.79	84.69
496.008	87.69
496.225	84.69
496.442	87.69
496.66	93.69
496.877	80.69
497.094	98.69
497.312	97.69
497.529	88.69
497.746	93.69
497.963	94.69
498.181	83.69
498.398	100.69
498.615	72.69
498.832	76.69
499.049	85.69
499.267	94.69
499.484	86.69
499.701	78.69
499.918	80.69
500.135	92.69
500.352	88.69
500.569	84.69
500.786	89.69
501.003	96.69
501.22	75.69
501.437	81.69
501.654	92.69
501.871	80.69
502.088	95.69
502.305	89.69
502.522	78.69
502.739	93.69
502.956	81.69
503.172	91.69
503.389	96.69
503.606	97.69
503.823	90.69
504.04	84.69
504.256	113.69
504.473	128.69
504.69	107.69
504.907	83.69
505.123	81.69
505.34	66.69
505.557	84.69
505.773	77.69
505.99	76.69
506.207	58.69
506.423	77.69
506.64	73.69
506.856	82.69
507.073	72.69
507.289	82.69
507.506	77.69
507.722	82.69
507.939	75.69
508.155	91.69
508.372	73.69
508.588	86.69
508.805	71.69
509.021	88.69
509.238	73.69
509.454	82.69
509.67	64.69
509.887	73.69
510.103	86.69
510.319	86.69
510.536	101.69
510.752	87.69
510.968	98.69
511.184	79.69
511.401	82.69
511.617	87.69
511.833	73.69
512.049	85.69
512.265	105.69
512.481	81.69
512.698	76.69
512.914	79.69
513.13	81.69
513.346	87.69
513.562	94.69
513.778	97.69
513.994	90.69
514.21	96.69
514.426	80.69
514.642	91.69
514.858	82.69
515.074	98.69
515.29	76.69
515.506	94.69
515.721	100.69
515.937	88.69
516.153	88.69
516.369	97.69
516.585	77.69
516.801	89.69
517.016	73.69
517.232	97.69
517.448	94.69
517.664	85.69
517.879	86.69
518.095	86.69
518.311	94.69
518.527	88.69
518.742	106.69
518.958	95.69
