Data from 237_3_HRD10591_00034.txt Node
Date: Mon Jan 19 14:13:11 EST 2026
User: Yrep
Spectrometer: HR+D1059
Trigger mode: 1
Integration Time (sec): 1.000000E-1
Scans to average: 1
Electric dark correction enabled: true
Nonlinearity correction enabled: false
Boxcar width: 0
XAxis mode: Wavelengths
Number of Pixels in Spectrum: 2048
>>>>>Begin Spectral Data<<<<<
223.165	-19.06
223.4	-19.06
223.635	-19.06
223.869	-11.06
224.104	-38.06
224.338	-14.06
224.573	-0.06
224.808	-1.06
225.042	-12.06
225.277	1.94
225.511	-11.06
225.746	-4.06
225.98	2.94
226.215	15.94
226.449	22.94
226.683	23.94
226.918	16.94
227.152	25.94
227.387	34.94
227.621	36.94
227.856	41.94
228.09	55.94
228.324	50.94
228.559	49.94
228.793	53.94
229.027	62.94
229.262	74.94
229.496	62.94
229.73	53.94
229.964	60.94
230.199	81.94
230.433	68.94
230.667	74.94
230.901	81.94
231.136	83.94
231.37	83.94
231.604	75.94
231.838	70.94
232.072	87.94
232.306	84.94
232.541	71.94
232.775	83.94
233.009	81.94
233.243	75.94
233.477	82.94
233.711	75.94
233.945	77.94
234.179	88.94
234.413	87.94
234.647	74.94
234.881	89.94
235.115	77.94
235.349	76.94
235.583	72.94
235.817	64.94
236.051	77.94
236.285	87.94
236.519	80.94
236.753	96.94
236.987	78.94
237.221	92.94
237.455	72.94
237.689	72.94
237.922	78.94
238.156	76.94
238.39	64.94
238.624	75.94
238.858	72.94
239.091	68.94
239.325	76.94
239.559	76.94
239.793	80.94
240.027	75.94
240.26	63.94
240.494	64.94
240.728	72.94
240.961	85.94
241.195	74.94
241.429	89.94
241.662	76.94
241.896	80.94
242.13	69.94
242.363	69.94
242.597	56.94
242.83	80.94
243.064	66.94
243.298	81.94
243.531	60.94
243.765	54.94
243.998	62.94
244.232	96.94
244.465	82.94
244.699	89.94
244.932	87.94
245.166	80.94
245.399	81.94
245.633	76.94
245.866	80.94
246.099	84.94
246.333	78.94
246.566	70.94
246.8	75.94
247.033	84.94
247.266	82.94
247.5	74.94
247.733	79.94
247.966	77.94
248.2	70.94
248.433	64.94
248.666	84.94
248.899	76.94
249.133	81.94
249.366	92.94
249.599	68.94
249.832	71.94
250.066	77.94
250.299	80.94
250.532	84.94
250.765	83.94
250.998	64.94
251.231	64.94
251.465	81.94
251.698	81.94
251.931	68.94
252.164	85.94
252.397	76.94
252.63	70.94
252.863	81.94
253.096	80.94
253.329	83.94
253.562	64.94
253.795	73.94
254.028	79.94
254.261	81.94
254.494	74.94
254.727	84.94
254.96	86.94
255.193	82.94
255.426	80.94
255.659	64.94
255.892	77.94
256.124	61.94
256.357	74.94
256.59	82.94
256.823	74.94
257.056	70.94
257.289	86.94
257.521	81.94
257.754	82.94
257.987	80.94
258.22	95.94
258.452	86.94
258.685	88.94
258.918	73.94
259.151	88.94
259.383	66.94
259.616	87.94
259.849	78.94
260.081	72.94
260.314	82.94
260.547	95.94
260.779	84.94
261.012	74.94
261.244	93.94
261.477	70.94
261.71	79.94
261.942	78.94
262.175	71.94
262.407	74.94
262.64	71.94
262.872	78.94
263.105	72.94
263.337	86.94
263.57	79.94
263.802	78.94
264.035	87.94
264.267	77.94
264.499	70.94
264.732	72.94
264.964	79.94
265.197	86.94
265.429	82.94
265.661	89.94
265.894	65.94
266.126	80.94
266.358	89.94
266.591	85.94
266.823	87.94
267.055	89.94
267.287	96.94
267.52	84.94
267.752	78.94
267.984	82.94
268.216	92.94
268.448	88.94
268.681	88.94
268.913	76.94
269.145	75.94
269.377	74.94
269.609	81.94
269.841	102.94
270.073	68.94
270.306	73.94
270.538	93.94
270.77	72.94
271.002	88.94
271.234	80.94
271.466	75.94
271.698	80.94
271.93	88.94
272.162	76.94
272.394	87.94
272.626	71.94
272.858	80.94
273.09	87.94
273.322	84.94
273.553	75.94
273.785	83.94
274.017	91.94
274.249	83.94
274.481	93.94
274.713	79.94
274.945	75.94
275.176	84.94
275.408	58.94
275.64	69.94
275.872	90.94
276.104	88.94
276.335	90.94
276.567	88.94
276.799	80.94
277.031	76.94
277.262	74.94
277.494	75.94
277.726	72.94
277.957	77.94
278.189	82.94
278.421	87.94
278.652	75.94
278.884	96.94
279.115	71.94
279.347	84.94
279.579	75.94
279.81	76.94
280.042	89.94
280.273	79.94
280.505	84.94
280.736	93.94
280.968	89.94
281.199	82.94
281.431	82.94
281.662	67.94
281.894	92.94
282.125	85.94
282.356	75.94
282.588	76.94
282.819	87.94
283.051	89.94
283.282	80.94
283.513	81.94
283.745	78.94
283.976	78.94
284.207	89.94
284.439	96.94
284.67	87.94
284.901	75.94
285.132	88.94
285.364	77.94
285.595	94.94
285.826	100.94
286.057	86.94
286.288	83.94
286.52	83.94
286.751	75.94
286.982	78.94
287.213	69.94
287.444	92.94
287.675	80.94
287.906	85.94
288.138	77.94
288.369	84.94
288.6	96.94
288.831	86.94
289.062	91.94
289.293	82.94
289.524	81.94
289.755	80.94
289.986	64.94
290.217	89.94
290.448	78.94
290.679	79.94
290.91	82.94
291.141	80.94
291.371	79.94
291.602	74.94
291.833	75.94
292.064	64.94
292.295	76.94
292.526	88.94
292.757	95.94
292.987	84.94
293.218	75.94
293.449	73.94
293.68	84.94
293.91	84.94
294.141	77.94
294.372	97.94
294.603	93.94
294.833	91.94
295.064	82.94
295.295	74.94
295.525	83.94
295.756	81.94
295.987	79.94
296.217	93.94
296.448	105.94
296.679	69.94
296.909	88.94
297.14	95.94
297.37	82.94
297.601	103.94
297.831	89.94
298.062	80.94
298.292	85.94
298.523	80.94
298.753	89.94
298.984	84.94
299.214	104.94
299.445	86.94
299.675	82.94
299.905	96.94
300.136	80.94
300.366	93.94
300.597	80.94
300.827	88.94
301.057	98.94
301.288	85.94
301.518	80.94
301.748	90.94
301.979	98.94
302.209	82.94
302.439	90.94
302.669	80.94
302.9	72.94
303.13	86.94
303.36	81.94
303.59	85.94
303.82	81.94
304.051	81.94
304.281	90.94
304.511	95.94
304.741	76.94
304.971	82.94
305.201	78.94
305.431	95.94
305.661	86.94
305.891	70.94
306.121	83.94
306.352	86.94
306.582	79.94
306.812	89.94
307.042	73.94
307.272	74.94
307.502	78.94
307.731	88.94
307.961	91.94
308.191	85.94
308.421	78.94
308.651	90.94
308.881	97.94
309.111	79.94
309.341	97.94
309.571	80.94
309.8	72.94
310.03	82.94
310.26	82.94
310.49	83.94
310.72	70.94
310.949	80.94
311.179	93.94
311.409	96.94
311.639	88.94
311.868	85.94
312.098	78.94
312.328	75.94
312.557	79.94
312.787	77.94
313.017	85.94
313.246	94.94
313.476	100.94
313.706	74.94
313.935	75.94
314.165	78.94
314.394	103.94
314.624	76.94
314.853	79.94
315.083	84.94
315.312	73.94
315.542	80.94
315.771	86.94
316.001	78.94
316.23	71.94
316.46	73.94
316.689	85.94
316.919	90.94
317.148	99.94
317.377	94.94
317.607	80.94
317.836	78.94
318.065	86.94
318.295	81.94
318.524	84.94
318.753	89.94
318.983	94.94
319.212	91.94
319.441	71.94
319.67	77.94
319.9	96.94
320.129	86.94
320.358	96.94
320.587	85.94
320.816	90.94
321.046	89.94
321.275	81.94
321.504	70.94
321.733	88.94
321.962	89.94
322.191	88.94
322.42	84.94
322.649	95.94
322.878	76.94
323.108	85.94
323.337	79.94
323.566	81.94
323.795	84.94
324.024	82.94
324.253	92.94
324.482	88.94
324.71	94.94
324.939	92.94
325.168	85.94
325.397	80.94
325.626	90.94
325.855	97.94
326.084	83.94
326.313	83.94
326.542	78.94
326.77	78.94
326.999	92.94
327.228	80.94
327.457	78.94
327.686	68.94
327.914	86.94
328.143	65.94
328.372	76.94
328.6	93.94
328.829	86.94
329.058	80.94
329.287	84.94
329.515	80.94
329.744	86.94
329.972	94.94
330.201	87.94
330.43	105.94
330.658	92.94
330.887	96.94
331.115	80.94
331.344	87.94
331.572	88.94
331.801	67.94
332.03	75.94
332.258	74.94
332.486	82.94
332.715	88.94
332.943	82.94
333.172	75.94
333.4	79.94
333.629	89.94
333.857	78.94
334.085	84.94
334.314	87.94
334.542	77.94
334.771	69.94
334.999	77.94
335.227	88.94
335.455	93.94
335.684	72.94
335.912	91.94
336.14	88.94
336.369	102.94
336.597	89.94
336.825	80.94
337.053	92.94
337.281	79.94
337.51	82.94
337.738	77.94
337.966	86.94
338.194	70.94
338.422	88.94
338.65	80.94
338.878	80.94
339.106	75.94
339.334	88.94
339.562	82.94
339.79	81.94
340.018	79.94
340.246	80.94
340.474	85.94
340.702	80.94
340.93	84.94
341.158	73.94
341.386	81.94
341.614	94.94
341.842	85.94
342.07	80.94
342.298	80.94
342.526	81.94
342.754	75.94
342.981	75.94
343.209	70.94
343.437	94.94
343.665	82.94
343.893	80.94
344.12	82.94
344.348	86.94
344.576	65.94
344.804	86.94
345.031	88.94
345.259	79.94
345.487	76.94
345.714	98.94
345.942	84.94
346.17	98.94
346.397	92.94
346.625	72.94
346.853	79.94
347.08	99.94
347.308	102.94
347.535	89.94
347.763	66.94
347.99	91.94
348.218	79.94
348.445	84.94
348.673	80.94
348.9	85.94
349.128	94.94
349.355	84.94
349.583	83.94
349.81	87.94
350.037	81.94
350.265	82.94
350.492	72.94
350.72	73.94
350.947	74.94
351.174	61.94
351.402	83.94
351.629	79.94
351.856	81.94
352.083	90.94
352.311	99.94
352.538	85.94
352.765	80.94
352.992	80.94
353.22	81.94
353.447	80.94
353.674	82.94
353.901	75.94
354.128	83.94
354.355	87.94
354.583	104.94
354.81	81.94
355.037	78.94
355.264	73.94
355.491	82.94
355.718	96.94
355.945	74.94
356.172	87.94
356.399	82.94
356.626	90.94
356.853	102.94
357.08	86.94
357.307	83.94
357.534	80.94
357.761	92.94
357.988	84.94
358.215	96.94
358.441	87.94
358.668	85.94
358.895	77.94
359.122	73.94
359.349	71.94
359.576	90.94
359.802	85.94
360.029	88.94
360.256	80.94
360.483	81.94
360.709	78.94
360.936	87.94
361.163	82.94
361.39	83.94
361.616	85.94
361.843	83.94
362.07	85.94
362.296	88.94
362.523	107.94
362.749	90.94
362.976	88.94
363.203	98.94
363.429	89.94
363.656	100.94
363.882	96.94
364.109	89.94
364.335	98.94
364.562	108.94
364.788	88.94
365.015	91.94
365.241	86.94
365.468	92.94
365.694	83.94
365.92	106.94
366.147	92.94
366.373	83.94
366.599	70.94
366.826	95.94
367.052	79.94
367.278	74.94
367.505	66.94
367.731	101.94
367.957	80.94
368.184	80.94
368.41	93.94
368.636	100.94
368.862	84.94
369.089	80.94
369.315	88.94
369.541	98.94
369.767	64.94
369.993	99.94
370.219	81.94
370.445	90.94
370.672	99.94
370.898	82.94
371.124	88.94
371.35	90.94
371.576	79.94
371.802	88.94
372.028	90.94
372.254	90.94
372.48	84.94
372.706	84.94
372.932	80.94
373.158	96.94
373.384	102.94
373.61	90.94
373.835	110.94
374.061	96.94
374.287	84.94
374.513	84.94
374.739	103.94
374.965	75.94
375.191	96.94
375.416	88.94
375.642	86.94
375.868	97.94
376.094	96.94
376.319	87.94
376.545	86.94
376.771	86.94
376.997	80.94
377.222	74.94
377.448	92.94
377.674	89.94
377.899	71.94
378.125	78.94
378.35	74.94
378.576	92.94
378.802	76.94
379.027	78.94
379.253	80.94
379.478	74.94
379.704	76.94
379.929	84.94
380.155	80.94
380.38	73.94
380.606	76.94
380.831	85.94
381.057	90.94
381.282	85.94
381.507	66.94
381.733	85.94
381.958	78.94
382.184	95.94
382.409	97.94
382.634	96.94
382.86	92.94
383.085	78.94
383.31	85.94
383.535	84.94
383.761	87.94
383.986	102.94
384.211	99.94
384.436	78.94
384.662	77.94
384.887	88.94
385.112	84.94
385.337	81.94
385.562	76.94
385.787	73.94
386.013	93.94
386.238	97.94
386.463	84.94
386.688	98.94
386.913	96.94
387.138	72.94
387.363	83.94
387.588	87.94
387.813	75.94
388.038	100.94
388.263	66.94
388.488	94.94
388.713	89.94
388.938	92.94
389.163	80.94
389.387	79.94
389.612	76.94
389.837	88.94
390.062	71.94
390.287	87.94
390.512	88.94
390.736	93.94
390.961	78.94
391.186	81.94
391.411	80.94
391.636	79.94
391.86	72.94
392.085	81.94
392.31	88.94
392.534	105.94
392.759	99.94
392.984	106.94
393.208	149.94
393.433	193.94
393.658	146.94
393.882	102.94
394.107	97.94
394.331	93.94
394.556	91.94
394.78	84.94
395.005	87.94
395.229	83.94
395.454	89.94
395.678	98.94
395.903	103.94
396.127	115.94
396.352	105.94
396.576	117.94
396.801	145.94
397.025	161.94
397.249	115.94
397.474	110.94
397.698	102.94
397.922	94.94
398.147	75.94
398.371	98.94
398.595	83.94
398.82	75.94
399.044	82.94
399.268	67.94
399.492	76.94
399.717	81.94
399.941	102.94
400.165	75.94
400.389	92.94
400.613	87.94
400.837	86.94
401.062	92.94
401.286	68.94
401.51	93.94
401.734	90.94
401.958	73.94
402.182	82.94
402.406	66.94
402.63	95.94
402.854	91.94
403.078	88.94
403.302	88.94
403.526	96.94
403.75	88.94
403.974	88.94
404.198	97.94
404.422	98.94
404.645	101.94
404.869	112.94
405.093	92.94
405.317	95.94
405.541	84.94
405.765	94.94
405.988	76.94
406.212	73.94
406.436	92.94
406.66	83.94
406.883	84.94
407.107	90.94
407.331	88.94
407.555	85.94
407.778	94.94
408.002	94.94
408.226	71.94
408.449	87.94
408.673	83.94
408.896	72.94
409.12	81.94
409.344	89.94
409.567	105.94
409.791	97.94
410.014	89.94
410.238	86.94
410.461	94.94
410.685	93.94
410.908	80.94
411.132	86.94
411.355	75.94
411.578	85.94
411.802	81.94
412.025	74.94
412.249	80.94
412.472	80.94
412.695	87.94
412.919	75.94
413.142	97.94
413.365	88.94
413.589	88.94
413.812	82.94
414.035	81.94
414.258	80.94
414.482	82.94
414.705	73.94
414.928	83.94
415.151	82.94
415.374	70.94
415.597	72.94
415.821	88.94
416.044	78.94
416.267	90.94
416.49	72.94
416.713	82.94
416.936	89.94
417.159	84.94
417.382	88.94
417.605	88.94
417.828	82.94
418.051	80.94
418.274	80.94
418.497	91.94
418.72	73.94
418.943	89.94
419.166	84.94
419.389	88.94
419.611	83.94
419.834	71.94
420.057	92.94
420.28	94.94
420.503	89.94
420.726	87.94
420.948	83.94
421.171	89.94
421.394	85.94
421.617	98.94
421.839	106.94
422.062	105.94
422.285	144.94
422.507	215.94
422.73	279.94
422.953	242.94
423.175	171.94
423.398	126.94
423.621	128.94
423.843	79.94
424.066	89.94
424.288	90.94
424.511	78.94
424.733	90.94
424.956	83.94
425.178	109.94
425.401	78.94
425.623	89.94
425.846	66.94
426.068	86.94
426.291	96.94
426.513	79.94
426.735	94.94
426.958	82.94
427.18	77.94
427.402	78.94
427.625	69.94
427.847	86.94
428.069	89.94
428.292	105.94
428.514	109.94
428.736	95.94
428.958	118.94
429.181	118.94
429.403	78.94
429.625	98.94
429.847	110.94
430.069	142.94
430.292	145.94
430.514	131.94
430.736	114.94
430.958	121.94
431.18	90.94
431.402	94.94
431.624	95.94
431.846	111.94
432.068	104.94
432.29	78.94
432.512	99.94
432.734	82.94
432.956	92.94
433.178	96.94
433.4	91.94
433.622	96.94
433.844	74.94
434.066	73.94
434.287	77.94
434.509	64.94
434.731	75.94
434.953	88.94
435.175	85.94
435.397	76.94
435.618	97.94
435.84	82.94
436.062	99.94
436.284	92.94
436.505	85.94
436.727	79.94
436.949	68.94
437.17	86.94
437.392	90.94
437.614	64.94
437.835	73.94
438.057	98.94
438.278	94.94
438.5	95.94
438.721	71.94
438.943	80.94
439.165	85.94
439.386	94.94
439.608	89.94
439.829	88.94
440.05	81.94
440.272	88.94
440.493	66.94
440.715	89.94
440.936	84.94
441.158	74.94
441.379	88.94
441.6	88.94
441.822	88.94
442.043	104.94
442.264	97.94
442.486	115.94
442.707	150.94
442.928	113.94
443.149	106.94
443.371	126.94
443.592	198.94
443.813	167.94
444.034	105.94
444.255	82.94
444.476	82.94
444.698	84.94
444.919	82.94
445.14	164.94
445.361	191.94
445.582	223.94
445.803	187.94
446.024	109.94
446.245	103.94
446.466	74.94
446.687	75.94
446.908	68.94
447.129	76.94
447.35	80.94
447.571	100.94
447.792	68.94
448.013	69.94
448.234	80.94
448.455	86.94
448.675	78.94
448.896	101.94
449.117	68.94
449.338	77.94
449.559	72.94
449.779	80.94
450	89.94
450.221	81.94
450.442	74.94
450.662	84.94
450.883	80.94
451.104	74.94
451.324	83.94
451.545	75.94
451.766	87.94
451.986	76.94
452.207	72.94
452.428	78.94
452.648	92.94
452.869	77.94
453.089	86.94
453.31	78.94
453.53	87.94
453.751	83.94
453.971	80.94
454.192	92.94
454.412	82.94
454.633	85.94
454.853	82.94
455.073	71.94
455.294	100.94
455.514	89.94
455.734	91.94
455.955	96.94
456.175	89.94
456.395	88.94
456.616	88.94
456.836	88.94
457.056	78.94
457.276	84.94
457.497	93.94
457.717	79.94
457.937	106.94
458.157	96.94
458.377	100.94
458.598	108.94
458.818	94.94
459.038	88.94
459.258	75.94
459.478	81.94
459.698	68.94
459.918	62.94
460.138	67.94
460.358	87.94
460.578	85.94
460.798	110.94
461.018	98.94
461.238	96.94
461.458	71.94
461.678	80.94
461.898	98.94
462.118	97.94
462.338	86.94
462.558	82.94
462.777	75.94
462.997	82.94
463.217	85.94
463.437	75.94
463.657	84.94
463.876	88.94
464.096	80.94
464.316	85.94
464.536	103.94
464.755	87.94
464.975	74.94
465.195	88.94
465.414	87.94
465.634	80.94
465.854	94.94
466.073	82.94
466.293	94.94
466.512	78.94
466.732	70.94
466.951	67.94
467.171	89.94
467.391	88.94
467.61	86.94
467.829	74.94
468.049	72.94
468.268	79.94
468.488	75.94
468.707	71.94
468.927	87.94
469.146	86.94
469.365	87.94
469.585	82.94
469.804	81.94
470.023	82.94
470.243	90.94
470.462	80.94
470.681	79.94
470.901	87.94
471.12	80.94
471.339	97.94
471.558	74.94
471.777	82.94
471.997	74.94
472.216	92.94
472.435	82.94
472.654	87.94
472.873	89.94
473.092	73.94
473.311	101.94
473.53	82.94
473.749	82.94
473.968	80.94
474.187	95.94
474.406	82.94
474.625	78.94
474.844	79.94
475.063	84.94
475.282	72.94
475.501	84.94
475.72	89.94
475.939	77.94
476.158	78.94
476.377	87.94
476.596	80.94
476.814	78.94
477.033	73.94
477.252	86.94
477.471	80.94
477.69	90.94
477.908	93.94
478.127	87.94
478.346	74.94
478.564	68.94
478.783	82.94
479.002	88.94
479.22	76.94
479.439	86.94
479.658	79.94
479.876	78.94
480.095	90.94
480.313	96.94
480.532	77.94
480.751	93.94
480.969	87.94
481.188	83.94
481.406	91.94
481.624	97.94
481.843	90.94
482.061	66.94
482.28	81.94
482.498	85.94
482.717	87.94
482.935	72.94
483.153	73.94
483.372	72.94
483.59	90.94
483.808	87.94
484.027	77.94
484.245	87.94
484.463	81.94
484.681	86.94
484.9	80.94
485.118	81.94
485.336	82.94
485.554	81.94
485.772	81.94
485.99	70.94
486.209	76.94
486.427	81.94
486.645	83.94
486.863	87.94
487.081	90.94
487.299	95.94
487.517	98.94
487.735	113.94
487.953	130.94
488.171	111.94
488.389	96.94
488.607	84.94
488.825	74.94
489.043	78.94
489.261	84.94
489.479	83.94
489.696	90.94
489.914	89.94
490.132	84.94
490.35	91.94
490.568	87.94
490.786	84.94
491.003	73.94
491.221	100.94
491.439	89.94
491.657	76.94
491.874	83.94
492.092	79.94
492.31	77.94
492.527	83.94
492.745	66.94
492.963	82.94
493.18	84.94
493.398	85.94
493.615	90.94
493.833	85.94
494.05	74.94
494.268	90.94
494.485	100.94
494.703	80.94
494.92	99.94
495.138	88.94
495.355	80.94
495.573	81.94
495.79	90.94
496.008	89.94
496.225	85.94
496.442	83.94
496.66	69.94
496.877	86.94
497.094	92.94
497.312	86.94
497.529	81.94
497.746	92.94
497.963	81.94
498.181	95.94
498.398	111.94
498.615	83.94
498.832	91.94
499.049	88.94
499.267	86.94
499.484	91.94
499.701	98.94
499.918	93.94
500.135	90.94
500.352	99.94
500.569	62.94
500.786	92.94
501.003	92.94
501.22	75.94
501.437	81.94
501.654	82.94
501.871	90.94
502.088	96.94
502.305	93.94
502.522	98.94
502.739	90.94
502.956	87.94
503.172	82.94
503.389	92.94
503.606	91.94
503.823	95.94
504.04	117.94
504.256	100.94
504.473	104.94
504.69	89.94
504.907	82.94
505.123	88.94
505.34	84.94
505.557	81.94
505.773	88.94
505.99	82.94
506.207	82.94
506.423	87.94
506.64	87.94
506.856	83.94
507.073	80.94
507.289	104.94
507.506	95.94
507.722	86.94
507.939	98.94
508.155	83.94
508.372	73.94
508.588	80.94
508.805	72.94
509.021	73.94
509.238	91.94
509.454	85.94
509.67	84.94
509.887	85.94
510.103	82.94
510.319	88.94
510.536	94.94
510.752	104.94
510.968	72.94
511.184	90.94
511.401	104.94
511.617	81.94
511.833	84.94
512.049	75.94
512.265	65.94
512.481	101.94
512.698	78.94
512.914	74.94
513.13	86.94
513.346	66.94
513.562	80.94
513.778	98.94
513.994	89.94
514.21	89.94
514.426	92.94
514.642	80.94
514.858	77.94
515.074	92.94
515.29	87.94
515.506	92.94
515.721	88.94
515.937	83.94
516.153	92.94
516.369	75.94
516.585	81.94
516.801	92.94
517.016	99.94
517.232	89.94
517.448	97.94
517.664	95.94
517.879	85.94
518.095	78.94
518.311	86.94
518.527	94.94
518.742	101.94
