Data from 237_3_HRD10591_00032.txt Node
Date: Mon Jan 19 14:13:10 EST 2026
User: Yrep
Spectrometer: HR+D1059
Trigger mode: 1
Integration Time (sec): 1.000000E-1
Scans to average: 1
Electric dark correction enabled: true
Nonlinearity correction enabled: false
Boxcar width: 0
XAxis mode: Wavelengths
Number of Pixels in Spectrum: 2048
>>>>>Begin Spectral Data<<<<<
223.165	-28.25
223.4	-28.25
223.635	-28.25
223.869	-23.25
224.104	-13.25
224.338	-14.25
224.573	-8.25
224.808	-17.25
225.042	-6.25
225.277	-1.25
225.511	-11.25
225.746	5.75
225.98	5.75
226.215	14.75
226.449	18.75
226.683	30.75
226.918	24.75
227.152	22.75
227.387	25.75
227.621	31.75
227.856	41.75
228.09	46.75
228.324	57.75
228.559	42.75
228.793	55.75
229.027	56.75
229.262	59.75
229.496	66.75
229.73	64.75
229.964	58.75
230.199	70.75
230.433	53.75
230.667	75.75
230.901	64.75
231.136	68.75
231.37	80.75
231.604	89.75
231.838	68.75
232.072	84.75
232.306	85.75
232.541	68.75
232.775	79.75
233.009	69.75
233.243	71.75
233.477	99.75
233.711	76.75
233.945	58.75
234.179	83.75
234.413	62.75
234.647	78.75
234.881	72.75
235.115	66.75
235.349	77.75
235.583	74.75
235.817	83.75
236.051	78.75
236.285	86.75
236.519	74.75
236.753	78.75
236.987	71.75
237.221	78.75
237.455	73.75
237.689	80.75
237.922	73.75
238.156	67.75
238.39	70.75
238.624	72.75
238.858	76.75
239.091	72.75
239.325	80.75
239.559	83.75
239.793	66.75
240.027	66.75
240.26	79.75
240.494	85.75
240.728	71.75
240.961	67.75
241.195	71.75
241.429	58.75
241.662	76.75
241.896	60.75
242.13	74.75
242.363	63.75
242.597	58.75
242.83	79.75
243.064	86.75
243.298	75.75
243.531	69.75
243.765	66.75
243.998	78.75
244.232	71.75
244.465	63.75
244.699	72.75
244.932	63.75
245.166	66.75
245.399	78.75
245.633	76.75
245.866	83.75
246.099	82.75
246.333	84.75
246.566	86.75
246.8	73.75
247.033	63.75
247.266	78.75
247.5	74.75
247.733	84.75
247.966	88.75
248.2	80.75
248.433	73.75
248.666	68.75
248.899	80.75
249.133	60.75
249.366	78.75
249.599	79.75
249.832	70.75
250.066	81.75
250.299	73.75
250.532	77.75
250.765	85.75
250.998	63.75
251.231	80.75
251.465	75.75
251.698	71.75
251.931	87.75
252.164	80.75
252.397	72.75
252.63	83.75
252.863	74.75
253.096	84.75
253.329	78.75
253.562	82.75
253.795	71.75
254.028	84.75
254.261	78.75
254.494	94.75
254.727	76.75
254.96	85.75
255.193	86.75
255.426	67.75
255.659	70.75
255.892	75.75
256.124	86.75
256.357	78.75
256.59	91.75
256.823	70.75
257.056	72.75
257.289	72.75
257.521	84.75
257.754	86.75
257.987	76.75
258.22	83.75
258.452	77.75
258.685	70.75
258.918	60.75
259.151	86.75
259.383	74.75
259.616	77.75
259.849	87.75
260.081	70.75
260.314	78.75
260.547	78.75
260.779	78.75
261.012	91.75
261.244	78.75
261.477	85.75
261.71	76.75
261.942	66.75
262.175	84.75
262.407	80.75
262.64	76.75
262.872	68.75
263.105	76.75
263.337	86.75
263.57	80.75
263.802	68.75
264.035	68.75
264.267	78.75
264.499	76.75
264.732	83.75
264.964	79.75
265.197	84.75
265.429	78.75
265.661	71.75
265.894	84.75
266.126	80.75
266.358	69.75
266.591	79.75
266.823	77.75
267.055	60.75
267.287	68.75
267.52	90.75
267.752	86.75
267.984	76.75
268.216	78.75
268.448	72.75
268.681	73.75
268.913	80.75
269.145	60.75
269.377	71.75
269.609	64.75
269.841	80.75
270.073	76.75
270.306	75.75
270.538	80.75
270.77	55.75
271.002	70.75
271.234	72.75
271.466	77.75
271.698	76.75
271.93	71.75
272.162	75.75
272.394	92.75
272.626	60.75
272.858	78.75
273.09	82.75
273.322	75.75
273.553	85.75
273.785	92.75
274.017	80.75
274.249	66.75
274.481	82.75
274.713	78.75
274.945	87.75
275.176	72.75
275.408	70.75
275.64	86.75
275.872	72.75
276.104	74.75
276.335	69.75
276.567	73.75
276.799	72.75
277.031	82.75
277.262	76.75
277.494	79.75
277.726	82.75
277.957	82.75
278.189	79.75
278.421	73.75
278.652	87.75
278.884	67.75
279.115	84.75
279.347	80.75
279.579	75.75
279.81	83.75
280.042	71.75
280.273	71.75
280.505	85.75
280.736	88.75
280.968	71.75
281.199	76.75
281.431	79.75
281.662	93.75
281.894	78.75
282.125	84.75
282.356	86.75
282.588	78.75
282.819	74.75
283.051	73.75
283.282	77.75
283.513	75.75
283.745	81.75
283.976	67.75
284.207	86.75
284.439	78.75
284.67	82.75
284.901	84.75
285.132	78.75
285.364	84.75
285.595	71.75
285.826	78.75
286.057	84.75
286.288	67.75
286.52	67.75
286.751	80.75
286.982	82.75
287.213	82.75
287.444	74.75
287.675	72.75
287.906	82.75
288.138	94.75
288.369	65.75
288.6	77.75
288.831	79.75
289.062	69.75
289.293	74.75
289.524	66.75
289.755	76.75
289.986	68.75
290.217	82.75
290.448	84.75
290.679	90.75
290.91	80.75
291.141	86.75
291.371	84.75
291.602	70.75
291.833	80.75
292.064	77.75
292.295	87.75
292.526	93.75
292.757	86.75
292.987	80.75
293.218	83.75
293.449	83.75
293.68	80.75
293.91	89.75
294.141	87.75
294.372	76.75
294.603	82.75
294.833	93.75
295.064	80.75
295.295	78.75
295.525	95.75
295.756	86.75
295.987	74.75
296.217	74.75
296.448	78.75
296.679	86.75
296.909	81.75
297.14	91.75
297.37	90.75
297.601	68.75
297.831	87.75
298.062	78.75
298.292	93.75
298.523	80.75
298.753	94.75
298.984	81.75
299.214	96.75
299.445	81.75
299.675	99.75
299.905	88.75
300.136	70.75
300.366	76.75
300.597	78.75
300.827	83.75
301.057	86.75
301.288	87.75
301.518	93.75
301.748	83.75
301.979	85.75
302.209	87.75
302.439	66.75
302.669	75.75
302.9	100.75
303.13	83.75
303.36	82.75
303.59	85.75
303.82	88.75
304.051	86.75
304.281	75.75
304.511	92.75
304.741	82.75
304.971	90.75
305.201	86.75
305.431	64.75
305.661	77.75
305.891	73.75
306.121	75.75
306.352	72.75
306.582	88.75
306.812	84.75
307.042	76.75
307.272	86.75
307.502	84.75
307.731	85.75
307.961	90.75
308.191	72.75
308.421	106.75
308.651	80.75
308.881	90.75
309.111	78.75
309.341	94.75
309.571	90.75
309.8	84.75
310.03	75.75
310.26	78.75
310.49	74.75
310.72	78.75
310.949	87.75
311.179	82.75
311.409	94.75
311.639	81.75
311.868	74.75
312.098	85.75
312.328	77.75
312.557	83.75
312.787	86.75
313.017	89.75
313.246	80.75
313.476	87.75
313.706	82.75
313.935	81.75
314.165	79.75
314.394	80.75
314.624	78.75
314.853	79.75
315.083	82.75
315.312	88.75
315.542	83.75
315.771	75.75
316.001	86.75
316.23	92.75
316.46	76.75
316.689	72.75
316.919	75.75
317.148	84.75
317.377	82.75
317.607	86.75
317.836	92.75
318.065	89.75
318.295	92.75
318.524	97.75
318.753	87.75
318.983	80.75
319.212	88.75
319.441	85.75
319.67	82.75
319.9	92.75
320.129	88.75
320.358	84.75
320.587	79.75
320.816	78.75
321.046	81.75
321.275	85.75
321.504	87.75
321.733	82.75
321.962	90.75
322.191	83.75
322.42	82.75
322.649	98.75
322.878	86.75
323.108	89.75
323.337	94.75
323.566	87.75
323.795	85.75
324.024	94.75
324.253	68.75
324.482	80.75
324.71	74.75
324.939	90.75
325.168	77.75
325.397	81.75
325.626	74.75
325.855	71.75
326.084	83.75
326.313	78.75
326.542	80.75
326.77	79.75
326.999	77.75
327.228	87.75
327.457	79.75
327.686	100.75
327.914	72.75
328.143	75.75
328.372	73.75
328.6	83.75
328.829	82.75
329.058	88.75
329.287	79.75
329.515	91.75
329.744	90.75
329.972	92.75
330.201	96.75
330.43	83.75
330.658	103.75
330.887	73.75
331.115	84.75
331.344	92.75
331.572	71.75
331.801	82.75
332.03	84.75
332.258	75.75
332.486	76.75
332.715	79.75
332.943	78.75
333.172	94.75
333.4	76.75
333.629	65.75
333.857	81.75
334.085	102.75
334.314	100.75
334.542	93.75
334.771	94.75
334.999	100.75
335.227	92.75
335.455	83.75
335.684	90.75
335.912	84.75
336.14	100.75
336.369	92.75
336.597	77.75
336.825	79.75
337.053	69.75
337.281	80.75
337.51	86.75
337.738	88.75
337.966	87.75
338.194	97.75
338.422	68.75
338.65	78.75
338.878	86.75
339.106	77.75
339.334	86.75
339.562	81.75
339.79	90.75
340.018	94.75
340.246	87.75
340.474	67.75
340.702	83.75
340.93	90.75
341.158	98.75
341.386	82.75
341.614	80.75
341.842	57.75
342.07	83.75
342.298	86.75
342.526	77.75
342.754	85.75
342.981	86.75
343.209	78.75
343.437	102.75
343.665	94.75
343.893	81.75
344.12	88.75
344.348	94.75
344.576	95.75
344.804	81.75
345.031	91.75
345.259	88.75
345.487	80.75
345.714	87.75
345.942	75.75
346.17	91.75
346.397	80.75
346.625	80.75
346.853	100.75
347.08	86.75
347.308	80.75
347.535	87.75
347.763	105.75
347.99	82.75
348.218	86.75
348.445	83.75
348.673	84.75
348.9	99.75
349.128	94.75
349.355	86.75
349.583	89.75
349.81	96.75
350.037	83.75
350.265	86.75
350.492	74.75
350.72	74.75
350.947	92.75
351.174	82.75
351.402	83.75
351.629	73.75
351.856	85.75
352.083	85.75
352.311	92.75
352.538	87.75
352.765	84.75
352.992	103.75
353.22	91.75
353.447	79.75
353.674	83.75
353.901	88.75
354.128	87.75
354.355	90.75
354.583	77.75
354.81	78.75
355.037	83.75
355.264	73.75
355.491	71.75
355.718	99.75
355.945	94.75
356.172	100.75
356.399	92.75
356.626	76.75
356.853	98.75
357.08	91.75
357.307	93.75
357.534	88.75
357.761	111.75
357.988	88.75
358.215	91.75
358.441	71.75
358.668	84.75
358.895	77.75
359.122	93.75
359.349	92.75
359.576	103.75
359.802	76.75
360.029	74.75
360.256	74.75
360.483	82.75
360.709	76.75
360.936	110.75
361.163	88.75
361.39	94.75
361.616	82.75
361.843	86.75
362.07	92.75
362.296	70.75
362.523	92.75
362.749	107.75
362.976	116.75
363.203	110.75
363.429	100.75
363.656	90.75
363.882	110.75
364.109	110.75
364.335	138.75
364.562	139.75
364.788	108.75
365.015	100.75
365.241	98.75
365.468	82.75
365.694	92.75
365.92	77.75
366.147	102.75
366.373	89.75
366.599	94.75
366.826	97.75
367.052	84.75
367.278	71.75
367.505	82.75
367.731	87.75
367.957	85.75
368.184	92.75
368.41	78.75
368.636	76.75
368.862	73.75
369.089	72.75
369.315	72.75
369.541	94.75
369.767	80.75
369.993	80.75
370.219	83.75
370.445	88.75
370.672	92.75
370.898	85.75
371.124	69.75
371.35	75.75
371.576	84.75
371.802	88.75
372.028	113.75
372.254	86.75
372.48	87.75
372.706	81.75
372.932	83.75
373.158	84.75
373.384	94.75
373.61	113.75
373.835	102.75
374.061	100.75
374.287	87.75
374.513	90.75
374.739	116.75
374.965	79.75
375.191	102.75
375.416	104.75
375.642	87.75
375.868	92.75
376.094	92.75
376.319	99.75
376.545	80.75
376.771	87.75
376.997	84.75
377.222	78.75
377.448	80.75
377.674	95.75
377.899	94.75
378.125	87.75
378.35	84.75
378.576	91.75
378.802	88.75
379.027	72.75
379.253	90.75
379.478	84.75
379.704	94.75
379.929	88.75
380.155	80.75
380.38	88.75
380.606	71.75
380.831	85.75
381.057	86.75
381.282	87.75
381.507	99.75
381.733	91.75
381.958	96.75
382.184	95.75
382.409	83.75
382.634	106.75
382.86	96.75
383.085	84.75
383.31	93.75
383.535	98.75
383.761	94.75
383.986	109.75
384.211	85.75
384.436	84.75
384.662	77.75
384.887	86.75
385.112	94.75
385.337	91.75
385.562	87.75
385.787	90.75
386.013	86.75
386.238	101.75
386.463	86.75
386.688	92.75
386.913	87.75
387.138	92.75
387.363	91.75
387.588	89.75
387.813	91.75
388.038	100.75
388.263	94.75
388.488	94.75
388.713	107.75
388.938	82.75
389.163	78.75
389.387	96.75
389.612	87.75
389.837	86.75
390.062	103.75
390.287	84.75
390.512	87.75
390.736	82.75
390.961	92.75
391.186	81.75
391.411	100.75
391.636	82.75
391.86	91.75
392.085	92.75
392.31	100.75
392.534	87.75
392.759	90.75
392.984	140.75
393.208	233.75
393.433	331.75
393.658	270.75
393.882	118.75
394.107	111.75
394.331	114.75
394.556	116.75
394.78	120.75
395.005	102.75
395.229	87.75
395.454	96.75
395.678	100.75
395.903	134.75
396.127	140.75
396.352	146.75
396.576	189.75
396.801	229.75
397.025	271.75
397.249	160.75
397.474	115.75
397.698	83.75
397.922	83.75
398.147	99.75
398.371	88.75
398.595	88.75
398.82	81.75
399.044	94.75
399.268	87.75
399.492	95.75
399.717	93.75
399.941	87.75
400.165	83.75
400.389	79.75
400.613	97.75
400.837	84.75
401.062	87.75
401.286	80.75
401.51	83.75
401.734	86.75
401.958	94.75
402.182	73.75
402.406	80.75
402.63	75.75
402.854	84.75
403.078	84.75
403.302	85.75
403.526	97.75
403.75	93.75
403.974	107.75
404.198	106.75
404.422	156.75
404.645	157.75
404.869	137.75
405.093	102.75
405.317	92.75
405.541	92.75
405.765	73.75
405.988	87.75
406.212	64.75
406.436	91.75
406.66	80.75
406.883	90.75
407.107	87.75
407.331	86.75
407.555	86.75
407.778	100.75
408.002	102.75
408.226	87.75
408.449	74.75
408.673	86.75
408.896	86.75
409.12	85.75
409.344	99.75
409.567	92.75
409.791	87.75
410.014	94.75
410.238	108.75
410.461	83.75
410.685	88.75
410.908	85.75
411.132	78.75
411.355	95.75
411.578	77.75
411.802	84.75
412.025	83.75
412.249	70.75
412.472	94.75
412.695	75.75
412.919	73.75
413.142	76.75
413.365	83.75
413.589	92.75
413.812	88.75
414.035	79.75
414.258	95.75
414.482	83.75
414.705	87.75
414.928	79.75
415.151	94.75
415.374	78.75
415.597	85.75
415.821	88.75
416.044	91.75
416.267	83.75
416.49	92.75
416.713	87.75
416.936	82.75
417.159	72.75
417.382	90.75
417.605	83.75
417.828	83.75
418.051	90.75
418.274	89.75
418.497	93.75
418.72	79.75
418.943	88.75
419.166	93.75
419.389	94.75
419.611	80.75
419.834	84.75
420.057	102.75
420.28	98.75
420.503	90.75
420.726	77.75
420.948	91.75
421.171	96.75
421.394	107.75
421.617	103.75
421.839	117.75
422.062	128.75
422.285	186.75
422.507	336.75
422.73	549.75
422.953	498.75
423.175	262.75
423.398	154.75
423.621	112.75
423.843	105.75
424.066	108.75
424.288	94.75
424.511	104.75
424.733	103.75
424.956	83.75
425.178	72.75
425.401	86.75
425.623	85.75
425.846	73.75
426.068	87.75
426.291	74.75
426.513	71.75
426.735	82.75
426.958	78.75
427.18	75.75
427.402	92.75
427.625	76.75
427.847	86.75
428.069	84.75
428.292	145.75
428.514	165.75
428.736	112.75
428.958	153.75
429.181	138.75
429.403	88.75
429.625	110.75
429.847	134.75
430.069	178.75
430.292	190.75
430.514	197.75
430.736	138.75
430.958	172.75
431.18	98.75
431.402	92.75
431.624	106.75
431.846	128.75
432.068	144.75
432.29	96.75
432.512	95.75
432.734	84.75
432.956	86.75
433.178	95.75
433.4	90.75
433.622	81.75
433.844	93.75
434.066	78.75
434.287	80.75
434.509	78.75
434.731	88.75
434.953	86.75
435.175	82.75
435.397	80.75
435.618	77.75
435.84	89.75
436.062	88.75
436.284	79.75
436.505	82.75
436.727	99.75
436.949	80.75
437.17	80.75
437.392	86.75
437.614	70.75
437.835	94.75
438.057	84.75
438.278	78.75
438.5	82.75
438.721	96.75
438.943	91.75
439.165	87.75
439.386	92.75
439.608	78.75
439.829	85.75
440.05	80.75
440.272	78.75
440.493	80.75
440.715	98.75
440.936	75.75
441.158	86.75
441.379	93.75
441.6	79.75
441.822	86.75
442.043	85.75
442.264	99.75
442.486	152.75
442.707	204.75
442.928	127.75
443.149	129.75
443.371	182.75
443.592	314.75
443.813	289.75
444.034	142.75
444.255	92.75
444.476	104.75
444.698	87.75
444.919	97.75
445.14	204.75
445.361	238.75
445.582	365.75
445.803	320.75
446.024	135.75
446.245	84.75
446.466	86.75
446.687	84.75
446.908	83.75
447.129	78.75
447.35	78.75
447.571	84.75
447.792	78.75
448.013	77.75
448.234	90.75
448.455	65.75
448.675	71.75
448.896	75.75
449.117	77.75
449.338	96.75
449.559	71.75
449.779	82.75
450	82.75
450.221	68.75
450.442	83.75
450.662	82.75
450.883	90.75
451.104	86.75
451.324	81.75
451.545	79.75
451.766	71.75
451.986	83.75
452.207	87.75
452.428	81.75
452.648	80.75
452.869	109.75
453.089	92.75
453.31	99.75
453.53	90.75
453.751	99.75
453.971	86.75
454.192	69.75
454.412	72.75
454.633	86.75
454.853	78.75
455.073	74.75
455.294	88.75
455.514	96.75
455.734	94.75
455.955	82.75
456.175	79.75
456.395	79.75
456.616	86.75
456.836	66.75
457.056	71.75
457.276	88.75
457.497	79.75
457.717	88.75
457.937	99.75
458.157	118.75
458.377	142.75
458.598	119.75
458.818	114.75
459.038	85.75
459.258	80.75
459.478	83.75
459.698	88.75
459.918	75.75
460.138	77.75
460.358	92.75
460.578	94.75
460.798	118.75
461.018	123.75
461.238	90.75
461.458	89.75
461.678	83.75
461.898	84.75
462.118	84.75
462.338	105.75
462.558	90.75
462.777	82.75
462.997	77.75
463.217	83.75
463.437	71.75
463.657	82.75
463.876	62.75
464.096	90.75
464.316	70.75
464.536	66.75
464.755	78.75
464.975	84.75
465.195	70.75
465.414	75.75
465.634	92.75
465.854	65.75
466.073	72.75
466.293	83.75
466.512	79.75
466.732	98.75
466.951	88.75
467.171	87.75
467.391	86.75
467.61	83.75
467.829	90.75
468.049	83.75
468.268	83.75
468.488	93.75
468.707	93.75
468.927	74.75
469.146	66.75
469.365	74.75
469.585	76.75
469.804	85.75
470.023	83.75
470.243	83.75
470.462	83.75
470.681	86.75
470.901	75.75
471.12	93.75
471.339	82.75
471.558	88.75
471.777	70.75
471.997	85.75
472.216	88.75
472.435	79.75
472.654	78.75
472.873	80.75
473.092	87.75
473.311	75.75
473.53	84.75
473.749	89.75
473.968	88.75
474.187	92.75
474.406	81.75
474.625	90.75
474.844	104.75
475.063	78.75
475.282	90.75
475.501	80.75
475.72	94.75
475.939	88.75
476.158	88.75
476.377	79.75
476.596	80.75
476.814	90.75
477.033	82.75
477.252	80.75
477.471	69.75
477.69	72.75
477.908	78.75
478.127	84.75
478.346	77.75
478.564	97.75
478.783	60.75
479.002	71.75
479.22	84.75
479.439	84.75
479.658	93.75
479.876	92.75
480.095	68.75
480.313	95.75
480.532	82.75
480.751	76.75
480.969	68.75
481.188	88.75
481.406	90.75
481.624	79.75
481.843	92.75
482.061	81.75
482.28	80.75
482.498	71.75
482.717	95.75
482.935	89.75
483.153	89.75
483.372	80.75
483.59	82.75
483.808	79.75
484.027	88.75
484.245	72.75
484.463	86.75
484.681	93.75
484.9	93.75
485.118	78.75
485.336	90.75
485.554	91.75
485.772	89.75
485.99	87.75
486.209	76.75
486.427	76.75
486.645	97.75
486.863	97.75
487.081	89.75
487.299	99.75
487.517	106.75
487.735	104.75
487.953	186.75
488.171	150.75
488.389	90.75
488.607	88.75
488.825	93.75
489.043	97.75
489.261	78.75
489.479	94.75
489.696	84.75
489.914	84.75
490.132	70.75
490.35	61.75
490.568	89.75
490.786	92.75
491.003	77.75
491.221	100.75
491.439	96.75
491.657	94.75
491.874	84.75
492.092	83.75
492.31	87.75
492.527	88.75
492.745	91.75
492.963	81.75
493.18	82.75
493.398	80.75
493.615	90.75
493.833	85.75
494.05	86.75
494.268	89.75
494.485	77.75
494.703	83.75
494.92	80.75
495.138	92.75
495.355	87.75
495.573	86.75
495.79	98.75
496.008	93.75
496.225	84.75
496.442	94.75
496.66	94.75
496.877	98.75
497.094	92.75
497.312	82.75
497.529	63.75
497.746	90.75
497.963	86.75
498.181	86.75
498.398	94.75
498.615	71.75
498.832	90.75
499.049	99.75
499.267	99.75
499.484	73.75
499.701	60.75
499.918	72.75
500.135	84.75
500.352	76.75
500.569	79.75
500.786	86.75
501.003	80.75
501.22	82.75
501.437	90.75
501.654	93.75
501.871	90.75
502.088	83.75
502.305	90.75
502.522	98.75
502.739	78.75
502.956	81.75
503.172	82.75
503.389	97.75
503.606	78.75
503.823	82.75
504.04	102.75
504.256	157.75
504.473	145.75
504.69	98.75
504.907	89.75
505.123	80.75
505.34	86.75
505.557	88.75
505.773	88.75
505.99	81.75
506.207	79.75
506.423	85.75
506.64	85.75
506.856	82.75
507.073	87.75
507.289	72.75
507.506	85.75
507.722	96.75
507.939	76.75
508.155	88.75
508.372	81.75
508.588	78.75
508.805	91.75
509.021	94.75
509.238	81.75
509.454	91.75
509.67	81.75
509.887	87.75
510.103	95.75
510.319	95.75
510.536	83.75
510.752	75.75
510.968	83.75
511.184	82.75
511.401	76.75
511.617	73.75
511.833	88.75
512.049	97.75
512.265	73.75
512.481	94.75
512.698	87.75
512.914	83.75
513.13	82.75
513.346	90.75
513.562	96.75
513.778	88.75
513.994	101.75
514.21	85.75
514.426	85.75
514.642	85.75
514.858	94.75
515.074	79.75
515.29	83.75
515.506	90.75
515.721	84.75
515.937	83.75
516.153	80.75
516.369	82.75
516.585	74.75
516.801	82.75
517.016	94.75
517.232	95.75
517.448	110.75
517.664	90.75
517.879	72.75
518.095	82.75
518.311	98.75
