Data from 237_3_HRD10591_00042.txt Node
Date: Mon Jan 19 14:13:15 EST 2026
User: Yrep
Spectrometer: HR+D1059
Trigger mode: 1
Integration Time (sec): 1.000000E-1
Scans to average: 1
Electric dark correction enabled: true
Nonlinearity correction enabled: false
Boxcar width: 0
XAxis mode: Wavelengths
Number of Pixels in Spectrum: 2048
>>>>>Begin Spectral Data<<<<<
223.165	-16.44
223.4	-16.44
223.635	-16.44
223.869	-17.44
224.104	-24.44
224.338	-17.44
224.573	-22.44
224.808	-8.44
225.042	1.56
225.277	-14.44
225.511	-1.44
225.746	3.56
225.98	4.56
226.215	19.56
226.449	18.56
226.683	29.56
226.918	18.56
227.152	26.56
227.387	35.56
227.621	40.56
227.856	53.56
228.09	57.56
228.324	58.56
228.559	58.56
228.793	49.56
229.027	66.56
229.262	53.56
229.496	62.56
229.73	81.56
229.964	84.56
230.199	77.56
230.433	69.56
230.667	72.56
230.901	74.56
231.136	87.56
231.37	68.56
231.604	70.56
231.838	72.56
232.072	89.56
232.306	76.56
232.541	78.56
232.775	70.56
233.009	84.56
233.243	73.56
233.477	75.56
233.711	68.56
233.945	78.56
234.179	71.56
234.413	76.56
234.647	80.56
234.881	92.56
235.115	63.56
235.349	64.56
235.583	73.56
235.817	90.56
236.051	63.56
236.285	74.56
236.519	74.56
236.753	81.56
236.987	73.56
237.221	89.56
237.455	70.56
237.689	66.56
237.922	72.56
238.156	73.56
238.39	65.56
238.624	92.56
238.858	75.56
239.091	70.56
239.325	67.56
239.559	77.56
239.793	81.56
240.027	90.56
240.26	80.56
240.494	72.56
240.728	82.56
240.961	66.56
241.195	71.56
241.429	79.56
241.662	59.56
241.896	75.56
242.13	60.56
242.363	78.56
242.597	80.56
242.83	85.56
243.064	72.56
243.298	67.56
243.531	60.56
243.765	76.56
243.998	78.56
244.232	81.56
244.465	84.56
244.699	70.56
244.932	69.56
245.166	102.56
245.399	93.56
245.633	84.56
245.866	85.56
246.099	85.56
246.333	90.56
246.566	82.56
246.8	89.56
247.033	88.56
247.266	77.56
247.5	75.56
247.733	68.56
247.966	82.56
248.2	68.56
248.433	82.56
248.666	74.56
248.899	76.56
249.133	68.56
249.366	86.56
249.599	82.56
249.832	88.56
250.066	76.56
250.299	79.56
250.532	74.56
250.765	79.56
250.998	82.56
251.231	65.56
251.465	76.56
251.698	70.56
251.931	63.56
252.164	73.56
252.397	87.56
252.63	87.56
252.863	65.56
253.096	66.56
253.329	65.56
253.562	86.56
253.795	74.56
254.028	66.56
254.261	87.56
254.494	73.56
254.727	78.56
254.96	77.56
255.193	81.56
255.426	82.56
255.659	97.56
255.892	90.56
256.124	79.56
256.357	70.56
256.59	65.56
256.823	86.56
257.056	79.56
257.289	82.56
257.521	90.56
257.754	95.56
257.987	75.56
258.22	90.56
258.452	81.56
258.685	71.56
258.918	70.56
259.151	84.56
259.383	91.56
259.616	76.56
259.849	84.56
260.081	83.56
260.314	68.56
260.547	64.56
260.779	84.56
261.012	81.56
261.244	86.56
261.477	74.56
261.71	81.56
261.942	82.56
262.175	59.56
262.407	94.56
262.64	90.56
262.872	77.56
263.105	87.56
263.337	68.56
263.57	75.56
263.802	90.56
264.035	71.56
264.267	74.56
264.499	82.56
264.732	89.56
264.964	74.56
265.197	74.56
265.429	98.56
265.661	87.56
265.894	70.56
266.126	92.56
266.358	75.56
266.591	76.56
266.823	88.56
267.055	101.56
267.287	90.56
267.52	80.56
267.752	87.56
267.984	74.56
268.216	86.56
268.448	88.56
268.681	90.56
268.913	83.56
269.145	92.56
269.377	86.56
269.609	82.56
269.841	87.56
270.073	85.56
270.306	81.56
270.538	84.56
270.77	74.56
271.002	82.56
271.234	83.56
271.466	74.56
271.698	74.56
271.93	83.56
272.162	76.56
272.394	79.56
272.626	76.56
272.858	84.56
273.09	75.56
273.322	75.56
273.553	73.56
273.785	86.56
274.017	82.56
274.249	83.56
274.481	94.56
274.713	82.56
274.945	89.56
275.176	97.56
275.408	86.56
275.64	84.56
275.872	85.56
276.104	70.56
276.335	87.56
276.567	83.56
276.799	78.56
277.031	88.56
277.262	87.56
277.494	98.56
277.726	80.56
277.957	91.56
278.189	89.56
278.421	78.56
278.652	75.56
278.884	82.56
279.115	78.56
279.347	68.56
279.579	68.56
279.81	86.56
280.042	85.56
280.273	86.56
280.505	69.56
280.736	88.56
280.968	74.56
281.199	78.56
281.431	81.56
281.662	91.56
281.894	71.56
282.125	95.56
282.356	77.56
282.588	76.56
282.819	94.56
283.051	92.56
283.282	66.56
283.513	87.56
283.745	68.56
283.976	86.56
284.207	80.56
284.439	82.56
284.67	72.56
284.901	97.56
285.132	97.56
285.364	88.56
285.595	83.56
285.826	85.56
286.057	91.56
286.288	84.56
286.52	84.56
286.751	91.56
286.982	85.56
287.213	71.56
287.444	80.56
287.675	84.56
287.906	89.56
288.138	66.56
288.369	86.56
288.6	85.56
288.831	81.56
289.062	80.56
289.293	86.56
289.524	93.56
289.755	84.56
289.986	88.56
290.217	98.56
290.448	90.56
290.679	77.56
290.91	87.56
291.141	84.56
291.371	84.56
291.602	66.56
291.833	82.56
292.064	71.56
292.295	84.56
292.526	82.56
292.757	82.56
292.987	73.56
293.218	79.56
293.449	75.56
293.68	82.56
293.91	92.56
294.141	91.56
294.372	89.56
294.603	84.56
294.833	89.56
295.064	80.56
295.295	78.56
295.525	90.56
295.756	96.56
295.987	90.56
296.217	80.56
296.448	81.56
296.679	86.56
296.909	95.56
297.14	78.56
297.37	80.56
297.601	88.56
297.831	80.56
298.062	92.56
298.292	78.56
298.523	98.56
298.753	86.56
298.984	77.56
299.214	83.56
299.445	81.56
299.675	89.56
299.905	97.56
300.136	78.56
300.366	92.56
300.597	87.56
300.827	78.56
301.057	80.56
301.288	98.56
301.518	84.56
301.748	76.56
301.979	94.56
302.209	103.56
302.439	87.56
302.669	88.56
302.9	83.56
303.13	78.56
303.36	81.56
303.59	68.56
303.82	82.56
304.051	88.56
304.281	86.56
304.511	82.56
304.741	81.56
304.971	75.56
305.201	73.56
305.431	91.56
305.661	89.56
305.891	80.56
306.121	82.56
306.352	80.56
306.582	95.56
306.812	80.56
307.042	83.56
307.272	82.56
307.502	79.56
307.731	98.56
307.961	100.56
308.191	73.56
308.421	88.56
308.651	84.56
308.881	82.56
309.111	83.56
309.341	96.56
309.571	86.56
309.8	85.56
310.03	80.56
310.26	99.56
310.49	88.56
310.72	90.56
310.949	102.56
311.179	87.56
311.409	87.56
311.639	89.56
311.868	92.56
312.098	82.56
312.328	73.56
312.557	94.56
312.787	81.56
313.017	80.56
313.246	67.56
313.476	83.56
313.706	72.56
313.935	67.56
314.165	82.56
314.394	90.56
314.624	102.56
314.853	80.56
315.083	84.56
315.312	69.56
315.542	86.56
315.771	82.56
316.001	81.56
316.23	83.56
316.46	73.56
316.689	82.56
316.919	86.56
317.148	84.56
317.377	80.56
317.607	102.56
317.836	95.56
318.065	83.56
318.295	84.56
318.524	96.56
318.753	90.56
318.983	92.56
319.212	96.56
319.441	84.56
319.67	96.56
319.9	83.56
320.129	82.56
320.358	92.56
320.587	75.56
320.816	76.56
321.046	85.56
321.275	86.56
321.504	88.56
321.733	84.56
321.962	85.56
322.191	89.56
322.42	93.56
322.649	90.56
322.878	92.56
323.108	86.56
323.337	86.56
323.566	93.56
323.795	72.56
324.024	86.56
324.253	83.56
324.482	102.56
324.71	86.56
324.939	81.56
325.168	81.56
325.397	89.56
325.626	81.56
325.855	81.56
326.084	84.56
326.313	99.56
326.542	74.56
326.77	89.56
326.999	82.56
327.228	87.56
327.457	81.56
327.686	75.56
327.914	79.56
328.143	86.56
328.372	84.56
328.6	91.56
328.829	89.56
329.058	80.56
329.287	89.56
329.515	79.56
329.744	76.56
329.972	90.56
330.201	80.56
330.43	88.56
330.658	79.56
330.887	74.56
331.115	88.56
331.344	92.56
331.572	90.56
331.801	84.56
332.03	88.56
332.258	81.56
332.486	78.56
332.715	89.56
332.943	87.56
333.172	74.56
333.4	76.56
333.629	86.56
333.857	80.56
334.085	88.56
334.314	94.56
334.542	93.56
334.771	83.56
334.999	79.56
335.227	99.56
335.455	85.56
335.684	78.56
335.912	90.56
336.14	81.56
336.369	82.56
336.597	79.56
336.825	90.56
337.053	79.56
337.281	81.56
337.51	96.56
337.738	90.56
337.966	74.56
338.194	80.56
338.422	77.56
338.65	81.56
338.878	87.56
339.106	85.56
339.334	91.56
339.562	85.56
339.79	84.56
340.018	73.56
340.246	85.56
340.474	80.56
340.702	91.56
340.93	89.56
341.158	85.56
341.386	80.56
341.614	70.56
341.842	72.56
342.07	82.56
342.298	79.56
342.526	74.56
342.754	74.56
342.981	87.56
343.209	72.56
343.437	98.56
343.665	76.56
343.893	89.56
344.12	103.56
344.348	83.56
344.576	79.56
344.804	85.56
345.031	89.56
345.259	85.56
345.487	90.56
345.714	85.56
345.942	89.56
346.17	83.56
346.397	86.56
346.625	68.56
346.853	88.56
347.08	87.56
347.308	96.56
347.535	78.56
347.763	70.56
347.99	74.56
348.218	82.56
348.445	90.56
348.673	84.56
348.9	94.56
349.128	84.56
349.355	87.56
349.583	90.56
349.81	92.56
350.037	91.56
350.265	92.56
350.492	79.56
350.72	85.56
350.947	75.56
351.174	90.56
351.402	87.56
351.629	79.56
351.856	85.56
352.083	71.56
352.311	86.56
352.538	84.56
352.765	86.56
352.992	102.56
353.22	90.56
353.447	86.56
353.674	85.56
353.901	74.56
354.128	66.56
354.355	87.56
354.583	71.56
354.81	78.56
355.037	81.56
355.264	87.56
355.491	80.56
355.718	82.56
355.945	80.56
356.172	68.56
356.399	88.56
356.626	88.56
356.853	83.56
357.08	74.56
357.307	86.56
357.534	89.56
357.761	91.56
357.988	96.56
358.215	80.56
358.441	85.56
358.668	74.56
358.895	83.56
359.122	84.56
359.349	87.56
359.576	75.56
359.802	82.56
360.029	87.56
360.256	74.56
360.483	84.56
360.709	82.56
360.936	89.56
361.163	87.56
361.39	84.56
361.616	71.56
361.843	77.56
362.07	100.56
362.296	96.56
362.523	98.56
362.749	94.56
362.976	102.56
363.203	110.56
363.429	88.56
363.656	85.56
363.882	86.56
364.109	96.56
364.335	107.56
364.562	104.56
364.788	94.56
365.015	74.56
365.241	89.56
365.468	82.56
365.694	82.56
365.92	91.56
366.147	94.56
366.373	86.56
366.599	71.56
366.826	78.56
367.052	83.56
367.278	98.56
367.505	84.56
367.731	89.56
367.957	76.56
368.184	73.56
368.41	80.56
368.636	94.56
368.862	93.56
369.089	75.56
369.315	88.56
369.541	84.56
369.767	87.56
369.993	90.56
370.219	82.56
370.445	80.56
370.672	96.56
370.898	85.56
371.124	80.56
371.35	73.56
371.576	72.56
371.802	91.56
372.028	88.56
372.254	96.56
372.48	86.56
372.706	88.56
372.932	99.56
373.158	90.56
373.384	102.56
373.61	89.56
373.835	98.56
374.061	82.56
374.287	87.56
374.513	92.56
374.739	80.56
374.965	77.56
375.191	80.56
375.416	88.56
375.642	90.56
375.868	92.56
376.094	78.56
376.319	75.56
376.545	90.56
376.771	82.56
376.997	97.56
377.222	87.56
377.448	76.56
377.674	83.56
377.899	94.56
378.125	86.56
378.35	80.56
378.576	95.56
378.802	80.56
379.027	72.56
379.253	75.56
379.478	93.56
379.704	80.56
379.929	91.56
380.155	95.56
380.38	86.56
380.606	89.56
380.831	94.56
381.057	86.56
381.282	95.56
381.507	74.56
381.733	94.56
381.958	94.56
382.184	81.56
382.409	92.56
382.634	89.56
382.86	96.56
383.085	88.56
383.31	66.56
383.535	90.56
383.761	83.56
383.986	98.56
384.211	90.56
384.436	87.56
384.662	99.56
384.887	92.56
385.112	78.56
385.337	98.56
385.562	88.56
385.787	92.56
386.013	85.56
386.238	101.56
386.463	92.56
386.688	86.56
386.913	92.56
387.138	81.56
387.363	85.56
387.588	81.56
387.813	86.56
388.038	82.56
388.263	94.56
388.488	88.56
388.713	94.56
388.938	84.56
389.163	90.56
389.387	87.56
389.612	88.56
389.837	73.56
390.062	90.56
390.287	100.56
390.512	81.56
390.736	80.56
390.961	82.56
391.186	74.56
391.411	81.56
391.636	82.56
391.86	76.56
392.085	88.56
392.31	81.56
392.534	91.56
392.759	96.56
392.984	96.56
393.208	133.56
393.433	187.56
393.658	155.56
393.882	94.56
394.107	86.56
394.331	112.56
394.556	88.56
394.78	86.56
395.005	82.56
395.229	86.56
395.454	98.56
395.678	84.56
395.903	87.56
396.127	104.56
396.352	100.56
396.576	110.56
396.801	152.56
397.025	160.56
397.249	112.56
397.474	111.56
397.698	98.56
397.922	76.56
398.147	90.56
398.371	62.56
398.595	78.56
398.82	84.56
399.044	84.56
399.268	85.56
399.492	87.56
399.717	96.56
399.941	89.56
400.165	89.56
400.389	80.56
400.613	75.56
400.837	76.56
401.062	88.56
401.286	79.56
401.51	76.56
401.734	76.56
401.958	81.56
402.182	82.56
402.406	94.56
402.63	81.56
402.854	80.56
403.078	91.56
403.302	81.56
403.526	97.56
403.75	82.56
403.974	95.56
404.198	88.56
404.422	91.56
404.645	111.56
404.869	115.56
405.093	87.56
405.317	96.56
405.541	77.56
405.765	81.56
405.988	78.56
406.212	82.56
406.436	87.56
406.66	86.56
406.883	72.56
407.107	77.56
407.331	84.56
407.555	89.56
407.778	86.56
408.002	78.56
408.226	92.56
408.449	75.56
408.673	75.56
408.896	74.56
409.12	88.56
409.344	82.56
409.567	81.56
409.791	89.56
410.014	83.56
410.238	86.56
410.461	86.56
410.685	81.56
410.908	76.56
411.132	96.56
411.355	81.56
411.578	70.56
411.802	73.56
412.025	81.56
412.249	69.56
412.472	80.56
412.695	87.56
412.919	75.56
413.142	79.56
413.365	102.56
413.589	98.56
413.812	90.56
414.035	95.56
414.258	77.56
414.482	87.56
414.705	81.56
414.928	75.56
415.151	84.56
415.374	77.56
415.597	81.56
415.821	94.56
416.044	87.56
416.267	76.56
416.49	87.56
416.713	87.56
416.936	79.56
417.159	76.56
417.382	71.56
417.605	89.56
417.828	73.56
418.051	79.56
418.274	101.56
418.497	74.56
418.72	76.56
418.943	95.56
419.166	82.56
419.389	85.56
419.611	72.56
419.834	81.56
420.057	86.56
420.28	82.56
420.503	70.56
420.726	99.56
420.948	79.56
421.171	84.56
421.394	87.56
421.617	96.56
421.839	102.56
422.062	111.56
422.285	132.56
422.507	192.56
422.73	261.56
422.953	253.56
423.175	154.56
423.398	123.56
423.621	99.56
423.843	94.56
424.066	92.56
424.288	86.56
424.511	92.56
424.733	95.56
424.956	88.56
425.178	75.56
425.401	89.56
425.623	76.56
425.846	82.56
426.068	66.56
426.291	94.56
426.513	70.56
426.735	87.56
426.958	84.56
427.18	86.56
427.402	82.56
427.625	82.56
427.847	84.56
428.069	96.56
428.292	103.56
428.514	137.56
428.736	107.56
428.958	90.56
429.181	103.56
429.403	104.56
429.625	87.56
429.847	102.56
430.069	119.56
430.292	134.56
430.514	124.56
430.736	122.56
430.958	115.56
431.18	94.56
431.402	96.56
431.624	105.56
431.846	101.56
432.068	112.56
432.29	103.56
432.512	97.56
432.734	84.56
432.956	74.56
433.178	87.56
433.4	79.56
433.622	83.56
433.844	89.56
434.066	84.56
434.287	85.56
434.509	94.56
434.731	83.56
434.953	80.56
435.175	81.56
435.397	78.56
435.618	84.56
435.84	85.56
436.062	86.56
436.284	81.56
436.505	77.56
436.727	100.56
436.949	66.56
437.17	86.56
437.392	84.56
437.614	80.56
437.835	87.56
438.057	79.56
438.278	83.56
438.5	87.56
438.721	91.56
438.943	84.56
439.165	89.56
439.386	94.56
439.608	94.56
439.829	91.56
440.05	84.56
440.272	85.56
440.493	82.56
440.715	94.56
440.936	84.56
441.158	89.56
441.379	87.56
441.6	89.56
441.822	96.56
442.043	82.56
442.264	100.56
442.486	107.56
442.707	142.56
442.928	100.56
443.149	104.56
443.371	121.56
443.592	168.56
443.813	149.56
444.034	101.56
444.255	83.56
444.476	92.56
444.698	92.56
444.919	90.56
445.14	194.56
445.361	169.56
445.582	204.56
445.803	180.56
446.024	102.56
446.245	98.56
446.466	80.56
446.687	94.56
446.908	74.56
447.129	93.56
447.35	81.56
447.571	76.56
447.792	92.56
448.013	77.56
448.234	82.56
448.455	82.56
448.675	72.56
448.896	88.56
449.117	76.56
449.338	87.56
449.559	71.56
449.779	82.56
450	68.56
450.221	82.56
450.442	83.56
450.662	77.56
450.883	81.56
451.104	83.56
451.324	70.56
451.545	100.56
451.766	80.56
451.986	88.56
452.207	87.56
452.428	91.56
452.648	98.56
452.869	92.56
453.089	100.56
453.31	102.56
453.53	82.56
453.751	76.56
453.971	100.56
454.192	84.56
454.412	83.56
454.633	76.56
454.853	77.56
455.073	68.56
455.294	79.56
455.514	92.56
455.734	105.56
455.955	86.56
456.175	82.56
456.395	114.56
456.616	88.56
456.836	70.56
457.056	84.56
457.276	77.56
457.497	86.56
457.717	99.56
457.937	102.56
458.157	98.56
458.377	105.56
458.598	97.56
458.818	96.56
459.038	84.56
459.258	72.56
459.478	77.56
459.698	82.56
459.918	75.56
460.138	88.56
460.358	68.56
460.578	95.56
460.798	110.56
461.018	111.56
461.238	78.56
461.458	89.56
461.678	97.56
461.898	83.56
462.118	82.56
462.338	85.56
462.558	72.56
462.777	101.56
462.997	85.56
463.217	72.56
463.437	79.56
463.657	96.56
463.876	88.56
464.096	84.56
464.316	95.56
464.536	84.56
464.755	82.56
464.975	71.56
465.195	89.56
465.414	81.56
465.634	71.56
465.854	80.56
466.073	81.56
466.293	80.56
466.512	69.56
466.732	94.56
466.951	88.56
467.171	87.56
467.391	67.56
467.61	76.56
467.829	97.56
468.049	84.56
468.268	73.56
468.488	82.56
468.707	84.56
468.927	88.56
469.146	84.56
469.365	76.56
469.585	71.56
469.804	75.56
470.023	85.56
470.243	83.56
470.462	90.56
470.681	83.56
470.901	82.56
471.12	81.56
471.339	80.56
471.558	89.56
471.777	76.56
471.997	91.56
472.216	102.56
472.435	80.56
472.654	93.56
472.873	91.56
473.092	82.56
473.311	87.56
473.53	94.56
473.749	76.56
473.968	97.56
474.187	94.56
474.406	75.56
474.625	87.56
474.844	89.56
475.063	80.56
475.282	74.56
475.501	90.56
475.72	79.56
475.939	77.56
476.158	84.56
476.377	88.56
476.596	80.56
476.814	95.56
477.033	92.56
477.252	88.56
477.471	79.56
477.69	90.56
477.908	89.56
478.127	98.56
478.346	86.56
478.564	78.56
478.783	83.56
479.002	75.56
479.22	81.56
479.439	81.56
479.658	88.56
479.876	84.56
480.095	91.56
480.313	82.56
480.532	85.56
480.751	79.56
480.969	75.56
481.188	84.56
481.406	81.56
481.624	89.56
481.843	83.56
482.061	79.56
482.28	84.56
482.498	97.56
482.717	80.56
482.935	90.56
483.153	90.56
483.372	92.56
483.59	98.56
483.808	80.56
484.027	93.56
484.245	101.56
484.463	83.56
484.681	90.56
484.9	67.56
485.118	98.56
485.336	82.56
485.554	83.56
485.772	88.56
485.99	88.56
486.209	66.56
486.427	91.56
486.645	66.56
486.863	85.56
487.081	70.56
487.299	86.56
487.517	100.56
487.735	109.56
487.953	120.56
488.171	118.56
488.389	105.56
488.607	83.56
488.825	82.56
489.043	78.56
489.261	94.56
489.479	97.56
489.696	90.56
489.914	81.56
490.132	81.56
490.35	88.56
490.568	86.56
490.786	83.56
491.003	97.56
491.221	77.56
491.439	89.56
491.657	90.56
491.874	84.56
492.092	91.56
492.31	111.56
492.527	89.56
492.745	92.56
492.963	76.56
493.18	82.56
493.398	95.56
493.615	80.56
493.833	88.56
494.05	96.56
494.268	81.56
494.485	86.56
494.703	83.56
494.92	84.56
495.138	83.56
495.355	89.56
495.573	95.56
495.79	79.56
496.008	96.56
496.225	91.56
496.442	82.56
496.66	105.56
496.877	94.56
497.094	80.56
497.312	88.56
497.529	78.56
497.746	90.56
497.963	79.56
498.181	99.56
498.398	102.56
498.615	98.56
498.832	91.56
499.049	87.56
499.267	95.56
499.484	88.56
499.701	86.56
499.918	73.56
500.135	96.56
500.352	78.56
500.569	80.56
500.786	99.56
501.003	95.56
501.22	82.56
501.437	80.56
501.654	98.56
501.871	80.56
502.088	94.56
502.305	92.56
502.522	79.56
502.739	74.56
502.956	68.56
503.172	92.56
503.389	86.56
503.606	78.56
503.823	91.56
504.04	96.56
504.256	108.56
504.473	114.56
504.69	94.56
504.907	96.56
505.123	90.56
505.34	98.56
505.557	84.56
505.773	100.56
505.99	88.56
506.207	73.56
506.423	101.56
506.64	100.56
506.856	90.56
507.073	93.56
507.289	93.56
507.506	79.56
507.722	74.56
507.939	77.56
508.155	90.56
508.372	84.56
508.588	89.56
508.805	82.56
509.021	84.56
509.238	90.56
509.454	74.56
509.67	93.56
509.887	101.56
510.103	86.56
510.319	80.56
510.536	95.56
510.752	83.56
510.968	76.56
511.184	97.56
511.401	98.56
511.617	93.56
511.833	91.56
512.049	86.56
512.265	89.56
512.481	74.56
512.698	87.56
512.914	76.56
513.13	88.56
513.346	88.56
513.562	89.56
513.778	105.56
513.994	92.56
514.21	80.56
514.426	102.56
514.642	89.56
514.858	86.56
515.074	76.56
515.29	88.56
515.506	86.56
515.721	85.56
515.937	80.56
516.153	85.56
516.369	85.56
516.585	91.56
516.801	91.56
517.016	85.56
517.232	90.56
517.448	88.56
517.664	93.56
517.879	104.56
518.095	87.56
518.311	82.56
518.527	97.56
518.742	97.56
518.958	111.56
