Data from 237_3_HRD10591_00023.txt Node
Date: Mon Jan 19 14:13:06 EST 2026
User: Yrep
Spectrometer: HR+D1059
Trigger mode: 1
Integration Time (sec): 1.000000E-1
Scans to average: 1
Electric dark correction enabled: true
Nonlinearity correction enabled: false
Boxcar width: 0
XAxis mode: Wavelengths
Number of Pixels in Spectrum: 2048
>>>>>Begin Spectral Data<<<<<
223.165	-30.25
223.4	-30.25
223.635	-30.25
223.869	-27.25
224.104	-23.25
224.338	-0.25
224.573	-28.25
224.808	-10.25
225.042	-17.25
225.277	-5.25
225.511	11.75
225.746	3.75
225.98	5.75
226.215	10.75
226.449	17.75
226.683	20.75
226.918	28.75
227.152	42.75
227.387	31.75
227.621	37.75
227.856	32.75
228.09	28.75
228.324	49.75
228.559	49.75
228.793	51.75
229.027	70.75
229.262	58.75
229.496	72.75
229.73	70.75
229.964	60.75
230.199	72.75
230.433	82.75
230.667	74.75
230.901	70.75
231.136	79.75
231.37	73.75
231.604	77.75
231.838	67.75
232.072	86.75
232.306	82.75
232.541	78.75
232.775	77.75
233.009	84.75
233.243	77.75
233.477	58.75
233.711	89.75
233.945	86.75
234.179	78.75
234.413	87.75
234.647	70.75
234.881	76.75
235.115	82.75
235.349	72.75
235.583	80.75
235.817	84.75
236.051	80.75
236.285	76.75
236.519	71.75
236.753	95.75
236.987	72.75
237.221	64.75
237.455	69.75
237.689	64.75
237.922	64.75
238.156	60.75
238.39	83.75
238.624	65.75
238.858	82.75
239.091	62.75
239.325	70.75
239.559	70.75
239.793	72.75
240.027	73.75
240.26	70.75
240.494	74.75
240.728	62.75
240.961	71.75
241.195	78.75
241.429	78.75
241.662	80.75
241.896	66.75
242.13	70.75
242.363	84.75
242.597	74.75
242.83	76.75
243.064	67.75
243.298	75.75
243.531	89.75
243.765	72.75
243.998	84.75
244.232	84.75
244.465	73.75
244.699	80.75
244.932	62.75
245.166	88.75
245.399	76.75
245.633	76.75
245.866	72.75
246.099	77.75
246.333	82.75
246.566	84.75
246.8	82.75
247.033	81.75
247.266	75.75
247.5	82.75
247.733	84.75
247.966	74.75
248.2	84.75
248.433	79.75
248.666	69.75
248.899	62.75
249.133	82.75
249.366	75.75
249.599	92.75
249.832	70.75
250.066	88.75
250.299	76.75
250.532	74.75
250.765	90.75
250.998	70.75
251.231	82.75
251.465	81.75
251.698	74.75
251.931	75.75
252.164	71.75
252.397	73.75
252.63	75.75
252.863	89.75
253.096	68.75
253.329	78.75
253.562	94.75
253.795	77.75
254.028	74.75
254.261	69.75
254.494	63.75
254.727	84.75
254.96	76.75
255.193	75.75
255.426	66.75
255.659	81.75
255.892	66.75
256.124	74.75
256.357	78.75
256.59	90.75
256.823	70.75
257.056	78.75
257.289	83.75
257.521	95.75
257.754	80.75
257.987	89.75
258.22	88.75
258.452	95.75
258.685	87.75
258.918	86.75
259.151	73.75
259.383	75.75
259.616	81.75
259.849	81.75
260.081	72.75
260.314	85.75
260.547	64.75
260.779	72.75
261.012	60.75
261.244	77.75
261.477	75.75
261.71	80.75
261.942	76.75
262.175	75.75
262.407	77.75
262.64	75.75
262.872	76.75
263.105	83.75
263.337	79.75
263.57	86.75
263.802	72.75
264.035	83.75
264.267	76.75
264.499	84.75
264.732	84.75
264.964	83.75
265.197	81.75
265.429	75.75
265.661	77.75
265.894	82.75
266.126	84.75
266.358	88.75
266.591	78.75
266.823	94.75
267.055	77.75
267.287	87.75
267.52	84.75
267.752	72.75
267.984	89.75
268.216	82.75
268.448	87.75
268.681	96.75
268.913	83.75
269.145	72.75
269.377	78.75
269.609	84.75
269.841	88.75
270.073	90.75
270.306	89.75
270.538	86.75
270.77	90.75
271.002	89.75
271.234	78.75
271.466	80.75
271.698	70.75
271.93	82.75
272.162	98.75
272.394	68.75
272.626	80.75
272.858	76.75
273.09	97.75
273.322	78.75
273.553	100.75
273.785	83.75
274.017	88.75
274.249	84.75
274.481	87.75
274.713	62.75
274.945	89.75
275.176	89.75
275.408	76.75
275.64	73.75
275.872	85.75
276.104	83.75
276.335	82.75
276.567	75.75
276.799	81.75
277.031	68.75
277.262	82.75
277.494	96.75
277.726	78.75
277.957	75.75
278.189	88.75
278.421	85.75
278.652	80.75
278.884	92.75
279.115	87.75
279.347	90.75
279.579	72.75
279.81	73.75
280.042	89.75
280.273	80.75
280.505	77.75
280.736	89.75
280.968	87.75
281.199	80.75
281.431	80.75
281.662	82.75
281.894	87.75
282.125	74.75
282.356	81.75
282.588	82.75
282.819	82.75
283.051	89.75
283.282	103.75
283.513	85.75
283.745	71.75
283.976	80.75
284.207	78.75
284.439	79.75
284.67	80.75
284.901	66.75
285.132	85.75
285.364	85.75
285.595	85.75
285.826	85.75
286.057	73.75
286.288	75.75
286.52	71.75
286.751	88.75
286.982	91.75
287.213	83.75
287.444	95.75
287.675	78.75
287.906	77.75
288.138	85.75
288.369	90.75
288.6	89.75
288.831	88.75
289.062	80.75
289.293	82.75
289.524	84.75
289.755	77.75
289.986	87.75
290.217	84.75
290.448	88.75
290.679	75.75
290.91	96.75
291.141	81.75
291.371	94.75
291.602	89.75
291.833	78.75
292.064	82.75
292.295	89.75
292.526	63.75
292.757	82.75
292.987	84.75
293.218	87.75
293.449	88.75
293.68	88.75
293.91	72.75
294.141	89.75
294.372	86.75
294.603	88.75
294.833	84.75
295.064	80.75
295.295	80.75
295.525	80.75
295.756	96.75
295.987	73.75
296.217	84.75
296.448	80.75
296.679	84.75
296.909	86.75
297.14	96.75
297.37	93.75
297.601	82.75
297.831	80.75
298.062	85.75
298.292	92.75
298.523	76.75
298.753	85.75
298.984	88.75
299.214	76.75
299.445	94.75
299.675	96.75
299.905	93.75
300.136	95.75
300.366	99.75
300.597	90.75
300.827	110.75
301.057	100.75
301.288	73.75
301.518	86.75
301.748	67.75
301.979	102.75
302.209	103.75
302.439	91.75
302.669	88.75
302.9	88.75
303.13	88.75
303.36	73.75
303.59	84.75
303.82	86.75
304.051	88.75
304.281	93.75
304.511	75.75
304.741	70.75
304.971	80.75
305.201	83.75
305.431	82.75
305.661	96.75
305.891	93.75
306.121	88.75
306.352	86.75
306.582	74.75
306.812	81.75
307.042	86.75
307.272	76.75
307.502	87.75
307.731	95.75
307.961	91.75
308.191	93.75
308.421	106.75
308.651	97.75
308.881	86.75
309.111	102.75
309.341	115.75
309.571	100.75
309.8	92.75
310.03	90.75
310.26	100.75
310.49	94.75
310.72	92.75
310.949	84.75
311.179	66.75
311.409	90.75
311.639	79.75
311.868	87.75
312.098	89.75
312.328	82.75
312.557	85.75
312.787	89.75
313.017	87.75
313.246	75.75
313.476	92.75
313.706	60.75
313.935	78.75
314.165	80.75
314.394	92.75
314.624	78.75
314.853	82.75
315.083	80.75
315.312	93.75
315.542	86.75
315.771	84.75
316.001	94.75
316.23	94.75
316.46	93.75
316.689	83.75
316.919	88.75
317.148	74.75
317.377	93.75
317.607	90.75
317.836	92.75
318.065	85.75
318.295	93.75
318.524	84.75
318.753	86.75
318.983	82.75
319.212	92.75
319.441	96.75
319.67	87.75
319.9	74.75
320.129	88.75
320.358	83.75
320.587	85.75
320.816	102.75
321.046	86.75
321.275	77.75
321.504	78.75
321.733	83.75
321.962	92.75
322.191	83.75
322.42	68.75
322.649	76.75
322.878	89.75
323.108	81.75
323.337	74.75
323.566	89.75
323.795	82.75
324.024	82.75
324.253	92.75
324.482	84.75
324.71	105.75
324.939	90.75
325.168	84.75
325.397	74.75
325.626	82.75
325.855	86.75
326.084	88.75
326.313	78.75
326.542	80.75
326.77	94.75
326.999	97.75
327.228	91.75
327.457	96.75
327.686	89.75
327.914	92.75
328.143	96.75
328.372	86.75
328.6	91.75
328.829	80.75
329.058	79.75
329.287	88.75
329.515	75.75
329.744	94.75
329.972	82.75
330.201	98.75
330.43	92.75
330.658	79.75
330.887	92.75
331.115	81.75
331.344	78.75
331.572	85.75
331.801	87.75
332.03	76.75
332.258	92.75
332.486	71.75
332.715	87.75
332.943	78.75
333.172	88.75
333.4	100.75
333.629	90.75
333.857	93.75
334.085	89.75
334.314	90.75
334.542	91.75
334.771	93.75
334.999	94.75
335.227	100.75
335.455	93.75
335.684	104.75
335.912	95.75
336.14	106.75
336.369	88.75
336.597	95.75
336.825	97.75
337.053	81.75
337.281	98.75
337.51	84.75
337.738	83.75
337.966	78.75
338.194	75.75
338.422	92.75
338.65	91.75
338.878	95.75
339.106	86.75
339.334	63.75
339.562	86.75
339.79	90.75
340.018	89.75
340.246	88.75
340.474	87.75
340.702	99.75
340.93	84.75
341.158	92.75
341.386	86.75
341.614	81.75
341.842	80.75
342.07	92.75
342.298	85.75
342.526	85.75
342.754	101.75
342.981	84.75
343.209	94.75
343.437	93.75
343.665	86.75
343.893	88.75
344.12	98.75
344.348	110.75
344.576	86.75
344.804	97.75
345.031	86.75
345.259	88.75
345.487	90.75
345.714	89.75
345.942	73.75
346.17	100.75
346.397	99.75
346.625	79.75
346.853	90.75
347.08	86.75
347.308	86.75
347.535	89.75
347.763	92.75
347.99	90.75
348.218	77.75
348.445	86.75
348.673	100.75
348.9	99.75
349.128	71.75
349.355	80.75
349.583	74.75
349.81	108.75
350.037	101.75
350.265	87.75
350.492	76.75
350.72	71.75
350.947	75.75
351.174	92.75
351.402	92.75
351.629	69.75
351.856	91.75
352.083	88.75
352.311	97.75
352.538	92.75
352.765	92.75
352.992	85.75
353.22	79.75
353.447	80.75
353.674	72.75
353.901	88.75
354.128	88.75
354.355	98.75
354.583	94.75
354.81	89.75
355.037	96.75
355.264	87.75
355.491	82.75
355.718	85.75
355.945	102.75
356.172	98.75
356.399	86.75
356.626	84.75
356.853	83.75
357.08	113.75
357.307	86.75
357.534	92.75
357.761	102.75
357.988	85.75
358.215	96.75
358.441	96.75
358.668	96.75
358.895	80.75
359.122	88.75
359.349	85.75
359.576	81.75
359.802	88.75
360.029	93.75
360.256	90.75
360.483	97.75
360.709	103.75
360.936	86.75
361.163	80.75
361.39	71.75
361.616	96.75
361.843	91.75
362.07	113.75
362.296	139.75
362.523	129.75
362.749	114.75
362.976	153.75
363.203	170.75
363.429	118.75
363.656	114.75
363.882	107.75
364.109	138.75
364.335	166.75
364.562	185.75
364.788	142.75
365.015	114.75
365.241	103.75
365.468	93.75
365.694	69.75
365.92	87.75
366.147	86.75
366.373	100.75
366.599	97.75
366.826	93.75
367.052	94.75
367.278	101.75
367.505	62.75
367.731	77.75
367.957	88.75
368.184	80.75
368.41	68.75
368.636	96.75
368.862	95.75
369.089	91.75
369.315	79.75
369.541	92.75
369.767	90.75
369.993	65.75
370.219	90.75
370.445	99.75
370.672	88.75
370.898	86.75
371.124	85.75
371.35	96.75
371.576	96.75
371.802	97.75
372.028	106.75
372.254	118.75
372.48	81.75
372.706	80.75
372.932	104.75
373.158	106.75
373.384	108.75
373.61	135.75
373.835	114.75
374.061	109.75
374.287	108.75
374.513	101.75
374.739	114.75
374.965	110.75
375.191	102.75
375.416	84.75
375.642	92.75
375.868	97.75
376.094	87.75
376.319	97.75
376.545	101.75
376.771	81.75
376.997	83.75
377.222	88.75
377.448	97.75
377.674	96.75
377.899	67.75
378.125	99.75
378.35	87.75
378.576	94.75
378.802	96.75
379.027	82.75
379.253	85.75
379.478	91.75
379.704	96.75
379.929	92.75
380.155	80.75
380.38	79.75
380.606	86.75
380.831	92.75
381.057	80.75
381.282	100.75
381.507	100.75
381.733	80.75
381.958	99.75
382.184	106.75
382.409	102.75
382.634	126.75
382.86	118.75
383.085	104.75
383.31	113.75
383.535	110.75
383.761	113.75
383.986	105.75
384.211	84.75
384.436	91.75
384.662	69.75
384.887	79.75
385.112	85.75
385.337	96.75
385.562	92.75
385.787	97.75
386.013	128.75
386.238	120.75
386.463	100.75
386.688	108.75
386.913	99.75
387.138	103.75
387.363	110.75
387.588	103.75
387.813	100.75
388.038	98.75
388.263	97.75
388.488	89.75
388.713	105.75
388.938	83.75
389.163	90.75
389.387	100.75
389.612	88.75
389.837	97.75
390.062	88.75
390.287	97.75
390.512	107.75
390.736	93.75
390.961	90.75
391.186	98.75
391.411	93.75
391.636	92.75
391.86	88.75
392.085	99.75
392.31	101.75
392.534	108.75
392.759	132.75
392.984	181.75
393.208	345.75
393.433	508.75
393.658	376.75
393.882	185.75
394.107	144.75
394.331	148.75
394.556	154.75
394.78	122.75
395.005	109.75
395.229	120.75
395.454	108.75
395.678	134.75
395.903	170.75
396.127	203.75
396.352	223.75
396.576	223.75
396.801	362.75
397.025	411.75
397.249	208.75
397.474	148.75
397.698	131.75
397.922	112.75
398.147	95.75
398.371	89.75
398.595	92.75
398.82	88.75
399.044	94.75
399.268	82.75
399.492	93.75
399.717	104.75
399.941	87.75
400.165	97.75
400.389	81.75
400.613	73.75
400.837	92.75
401.062	89.75
401.286	94.75
401.51	82.75
401.734	92.75
401.958	78.75
402.182	82.75
402.406	78.75
402.63	93.75
402.854	96.75
403.078	95.75
403.302	77.75
403.526	100.75
403.75	88.75
403.974	92.75
404.198	121.75
404.422	146.75
404.645	169.75
404.869	137.75
405.093	112.75
405.317	74.75
405.541	99.75
405.765	85.75
405.988	96.75
406.212	90.75
406.436	103.75
406.66	106.75
406.883	91.75
407.107	78.75
407.331	92.75
407.555	104.75
407.778	121.75
408.002	126.75
408.226	92.75
408.449	98.75
408.673	100.75
408.896	87.75
409.12	80.75
409.344	102.75
409.567	103.75
409.791	112.75
410.014	120.75
410.238	102.75
410.461	88.75
410.685	87.75
410.908	84.75
411.132	93.75
411.355	92.75
411.578	91.75
411.802	93.75
412.025	87.75
412.249	95.75
412.472	90.75
412.695	86.75
412.919	92.75
413.142	80.75
413.365	92.75
413.589	92.75
413.812	97.75
414.035	93.75
414.258	86.75
414.482	100.75
414.705	88.75
414.928	65.75
415.151	80.75
415.374	93.75
415.597	86.75
415.821	82.75
416.044	86.75
416.267	65.75
416.49	76.75
416.713	88.75
416.936	83.75
417.159	84.75
417.382	78.75
417.605	94.75
417.828	89.75
418.051	97.75
418.274	90.75
418.497	80.75
418.72	91.75
418.943	90.75
419.166	73.75
419.389	80.75
419.611	94.75
419.834	84.75
420.057	102.75
420.28	88.75
420.503	94.75
420.726	105.75
420.948	114.75
421.171	104.75
421.394	129.75
421.617	137.75
421.839	161.75
422.062	185.75
422.285	282.75
422.507	530.75
422.73	846.75
422.953	740.75
423.175	358.75
423.398	207.75
423.621	155.75
423.843	135.75
424.066	105.75
424.288	105.75
424.511	102.75
424.733	91.75
424.956	101.75
425.178	94.75
425.401	94.75
425.623	105.75
425.846	95.75
426.068	95.75
426.291	100.75
426.513	101.75
426.735	73.75
426.958	101.75
427.18	105.75
427.402	94.75
427.625	94.75
427.847	95.75
428.069	113.75
428.292	166.75
428.514	222.75
428.736	150.75
428.958	195.75
429.181	189.75
429.403	116.75
429.625	122.75
429.847	175.75
430.069	269.75
430.292	320.75
430.514	294.75
430.736	212.75
430.958	217.75
431.18	136.75
431.402	99.75
431.624	114.75
431.846	162.75
432.068	214.75
432.29	134.75
432.512	94.75
432.734	81.75
432.956	80.75
433.178	82.75
433.4	73.75
433.622	83.75
433.844	86.75
434.066	89.75
434.287	87.75
434.509	90.75
434.731	92.75
434.953	92.75
435.175	90.75
435.397	99.75
435.618	90.75
435.84	112.75
436.062	85.75
436.284	89.75
436.505	83.75
436.727	70.75
436.949	68.75
437.17	88.75
437.392	67.75
437.614	80.75
437.835	80.75
438.057	74.75
438.278	96.75
438.5	101.75
438.721	80.75
438.943	89.75
439.165	80.75
439.386	77.75
439.608	82.75
439.829	96.75
440.05	82.75
440.272	92.75
440.493	96.75
440.715	93.75
440.936	84.75
441.158	98.75
441.379	103.75
441.6	97.75
441.822	89.75
442.043	114.75
442.264	130.75
442.486	210.75
442.707	305.75
442.928	192.75
443.149	139.75
443.371	258.75
443.592	500.75
443.813	396.75
444.034	154.75
444.255	118.75
444.476	112.75
444.698	105.75
444.919	120.75
445.14	249.75
445.361	327.75
445.582	598.75
445.803	485.75
446.024	186.75
446.245	101.75
446.466	112.75
446.687	90.75
446.908	92.75
447.129	84.75
447.35	79.75
447.571	70.75
447.792	78.75
448.013	84.75
448.234	76.75
448.455	95.75
448.675	93.75
448.896	85.75
449.117	95.75
449.338	80.75
449.559	90.75
449.779	82.75
450	81.75
450.221	98.75
450.442	92.75
450.662	90.75
450.883	87.75
451.104	87.75
451.324	103.75
451.545	87.75
451.766	80.75
451.986	76.75
452.207	72.75
452.428	80.75
452.648	103.75
452.869	103.75
453.089	129.75
453.31	96.75
453.53	84.75
453.751	105.75
453.971	95.75
454.192	88.75
454.412	88.75
454.633	79.75
454.853	91.75
455.073	106.75
455.294	78.75
455.514	121.75
455.734	96.75
455.955	86.75
456.175	82.75
456.395	86.75
456.616	80.75
456.836	86.75
457.056	81.75
457.276	80.75
457.497	97.75
457.717	91.75
457.937	137.75
458.157	144.75
458.377	190.75
458.598	165.75
458.818	172.75
459.038	124.75
459.258	86.75
459.478	96.75
459.698	72.75
459.918	90.75
460.138	88.75
460.358	93.75
460.578	111.75
460.798	154.75
461.018	163.75
461.238	86.75
461.458	89.75
461.678	73.75
461.898	90.75
462.118	93.75
462.338	87.75
462.558	101.75
462.777	93.75
462.997	82.75
463.217	79.75
463.437	83.75
463.657	80.75
463.876	89.75
464.096	89.75
464.316	82.75
464.536	98.75
464.755	81.75
464.975	90.75
465.195	87.75
465.414	86.75
465.634	86.75
465.854	88.75
466.073	92.75
466.293	98.75
466.512	84.75
466.732	80.75
466.951	95.75
467.171	96.75
467.391	82.75
467.61	76.75
467.829	87.75
468.049	82.75
468.268	87.75
468.488	88.75
468.707	79.75
468.927	77.75
469.146	68.75
469.365	84.75
469.585	83.75
469.804	82.75
470.023	85.75
470.243	78.75
470.462	92.75
470.681	79.75
470.901	98.75
471.12	89.75
471.339	78.75
471.558	83.75
471.777	86.75
471.997	73.75
472.216	92.75
472.435	95.75
472.654	82.75
472.873	96.75
473.092	88.75
473.311	97.75
473.53	74.75
473.749	81.75
473.968	79.75
474.187	85.75
474.406	72.75
474.625	94.75
474.844	85.75
475.063	69.75
475.282	90.75
475.501	92.75
475.72	89.75
475.939	82.75
476.158	87.75
476.377	82.75
476.596	87.75
476.814	84.75
477.033	83.75
477.252	85.75
477.471	78.75
477.69	84.75
477.908	87.75
478.127	86.75
478.346	82.75
478.564	73.75
478.783	82.75
479.002	84.75
479.22	84.75
479.439	80.75
479.658	82.75
479.876	89.75
480.095	78.75
480.313	85.75
480.532	82.75
480.751	89.75
480.969	88.75
481.188	89.75
481.406	104.75
481.624	88.75
481.843	87.75
482.061	87.75
482.28	90.75
482.498	101.75
482.717	86.75
482.935	86.75
483.153	78.75
483.372	85.75
483.59	104.75
483.808	94.75
484.027	86.75
484.245	102.75
484.463	80.75
484.681	90.75
484.9	96.75
485.118	94.75
485.336	94.75
485.554	102.75
485.772	85.75
485.99	84.75
486.209	80.75
486.427	85.75
486.645	98.75
486.863	92.75
487.081	88.75
487.299	102.75
487.517	108.75
487.735	142.75
487.953	273.75
488.171	227.75
488.389	119.75
488.607	88.75
488.825	79.75
489.043	97.75
489.261	99.75
489.479	97.75
489.696	98.75
489.914	78.75
490.132	98.75
490.35	97.75
490.568	96.75
490.786	84.75
491.003	75.75
491.221	95.75
491.439	89.75
491.657	76.75
491.874	84.75
492.092	98.75
492.31	93.75
492.527	85.75
492.745	84.75
492.963	86.75
493.18	95.75
493.398	90.75
493.615	90.75
493.833	84.75
494.05	88.75
494.268	87.75
494.485	87.75
494.703	84.75
494.92	84.75
495.138	98.75
495.355	99.75
495.573	76.75
495.79	93.75
496.008	98.75
496.225	84.75
496.442	82.75
496.66	82.75
496.877	96.75
497.094	97.75
497.312	102.75
497.529	99.75
497.746	86.75
497.963	98.75
498.181	100.75
498.398	119.75
498.615	117.75
498.832	86.75
499.049	75.75
499.267	108.75
499.484	94.75
499.701	98.75
499.918	107.75
500.135	112.75
500.352	88.75
500.569	87.75
500.786	93.75
501.003	88.75
501.22	86.75
501.437	94.75
501.654	99.75
501.871	101.75
502.088	96.75
502.305	95.75
502.522	89.75
502.739	95.75
502.956	94.75
503.172	89.75
503.389	84.75
503.606	105.75
503.823	110.75
504.04	106.75
504.256	165.75
504.473	192.75
504.69	102.75
504.907	114.75
505.123	80.75
505.34	87.75
505.557	89.75
505.773	79.75
505.99	91.75
506.207	73.75
506.423	97.75
506.64	93.75
506.856	96.75
507.073	86.75
507.289	85.75
507.506	74.75
507.722	93.75
507.939	85.75
508.155	64.75
508.372	91.75
508.588	82.75
508.805	90.75
509.021	86.75
509.238	83.75
509.454	99.75
509.67	98.75
509.887	96.75
510.103	93.75
510.319	88.75
510.536	91.75
510.752	94.75
510.968	100.75
511.184	93.75
511.401	100.75
511.617	96.75
511.833	89.75
512.049	82.75
512.265	83.75
512.481	93.75
512.698	99.75
512.914	75.75
513.13	86.75
513.346	88.75
513.562	82.75
513.778	93.75
513.994	98.75
514.21	85.75
514.426	86.75
514.642	97.75
514.858	76.75
515.074	82.75
515.29	86.75
515.506	75.75
515.721	78.75
515.937	102.75
516.153	93.75
516.369	80.75
516.585	71.75
516.801	78.75
