Data from 237_3_HRD10591_00039.txt Node
Date: Mon Jan 19 14:13:14 EST 2026
User: Yrep
Spectrometer: HR+D1059
Trigger mode: 1
Integration Time (sec): 1.000000E-1
Scans to average: 1
Electric dark correction enabled: true
Nonlinearity correction enabled: false
Boxcar width: 0
XAxis mode: Wavelengths
Number of Pixels in Spectrum: 2048
>>>>>Begin Spectral Data<<<<<
223.165	-18.44
223.4	-18.44
223.635	-18.44
223.869	-26.44
224.104	-21.44
224.338	-12.44
224.573	-15.44
224.808	-8.44
225.042	-7.44
225.277	6.56
225.511	-6.44
225.746	1.56
225.98	17.56
226.215	-5.44
226.449	21.56
226.683	29.56
226.918	22.56
227.152	22.56
227.387	33.56
227.621	51.56
227.856	49.56
228.09	40.56
228.324	37.56
228.559	57.56
228.793	45.56
229.027	64.56
229.262	69.56
229.496	65.56
229.73	49.56
229.964	76.56
230.199	70.56
230.433	86.56
230.667	75.56
230.901	89.56
231.136	83.56
231.37	86.56
231.604	82.56
231.838	85.56
232.072	84.56
232.306	94.56
232.541	82.56
232.775	86.56
233.009	82.56
233.243	82.56
233.477	101.56
233.711	97.56
233.945	66.56
234.179	78.56
234.413	88.56
234.647	67.56
234.881	59.56
235.115	73.56
235.349	79.56
235.583	75.56
235.817	85.56
236.051	79.56
236.285	76.56
236.519	83.56
236.753	77.56
236.987	67.56
237.221	79.56
237.455	75.56
237.689	82.56
237.922	65.56
238.156	91.56
238.39	85.56
238.624	80.56
238.858	80.56
239.091	84.56
239.325	70.56
239.559	73.56
239.793	67.56
240.027	76.56
240.26	72.56
240.494	68.56
240.728	75.56
240.961	67.56
241.195	60.56
241.429	75.56
241.662	81.56
241.896	81.56
242.13	66.56
242.363	73.56
242.597	74.56
242.83	82.56
243.064	85.56
243.298	83.56
243.531	68.56
243.765	82.56
243.998	73.56
244.232	75.56
244.465	75.56
244.699	72.56
244.932	69.56
245.166	79.56
245.399	79.56
245.633	68.56
245.866	75.56
246.099	64.56
246.333	84.56
246.566	63.56
246.8	71.56
247.033	68.56
247.266	81.56
247.5	74.56
247.733	85.56
247.966	67.56
248.2	78.56
248.433	71.56
248.666	68.56
248.899	73.56
249.133	78.56
249.366	74.56
249.599	76.56
249.832	77.56
250.066	81.56
250.299	92.56
250.532	65.56
250.765	76.56
250.998	76.56
251.231	81.56
251.465	76.56
251.698	87.56
251.931	72.56
252.164	76.56
252.397	84.56
252.63	65.56
252.863	65.56
253.096	77.56
253.329	85.56
253.562	75.56
253.795	80.56
254.028	69.56
254.261	85.56
254.494	65.56
254.727	81.56
254.96	75.56
255.193	85.56
255.426	79.56
255.659	86.56
255.892	78.56
256.124	70.56
256.357	92.56
256.59	83.56
256.823	70.56
257.056	85.56
257.289	82.56
257.521	79.56
257.754	84.56
257.987	80.56
258.22	81.56
258.452	72.56
258.685	83.56
258.918	69.56
259.151	79.56
259.383	85.56
259.616	77.56
259.849	76.56
260.081	97.56
260.314	87.56
260.547	80.56
260.779	79.56
261.012	73.56
261.244	93.56
261.477	91.56
261.71	80.56
261.942	78.56
262.175	78.56
262.407	89.56
262.64	86.56
262.872	85.56
263.105	70.56
263.337	85.56
263.57	81.56
263.802	79.56
264.035	81.56
264.267	83.56
264.499	71.56
264.732	83.56
264.964	74.56
265.197	69.56
265.429	91.56
265.661	90.56
265.894	84.56
266.126	90.56
266.358	88.56
266.591	86.56
266.823	87.56
267.055	89.56
267.287	68.56
267.52	73.56
267.752	90.56
267.984	94.56
268.216	86.56
268.448	83.56
268.681	74.56
268.913	75.56
269.145	76.56
269.377	88.56
269.609	74.56
269.841	87.56
270.073	77.56
270.306	92.56
270.538	89.56
270.77	80.56
271.002	77.56
271.234	76.56
271.466	61.56
271.698	76.56
271.93	89.56
272.162	89.56
272.394	66.56
272.626	65.56
272.858	65.56
273.09	91.56
273.322	84.56
273.553	79.56
273.785	84.56
274.017	85.56
274.249	76.56
274.481	83.56
274.713	80.56
274.945	75.56
275.176	71.56
275.408	86.56
275.64	84.56
275.872	83.56
276.104	90.56
276.335	92.56
276.567	95.56
276.799	74.56
277.031	89.56
277.262	68.56
277.494	81.56
277.726	79.56
277.957	84.56
278.189	90.56
278.421	74.56
278.652	83.56
278.884	81.56
279.115	85.56
279.347	81.56
279.579	84.56
279.81	89.56
280.042	85.56
280.273	90.56
280.505	72.56
280.736	79.56
280.968	82.56
281.199	89.56
281.431	76.56
281.662	84.56
281.894	93.56
282.125	83.56
282.356	81.56
282.588	73.56
282.819	81.56
283.051	66.56
283.282	73.56
283.513	101.56
283.745	75.56
283.976	78.56
284.207	93.56
284.439	97.56
284.67	88.56
284.901	81.56
285.132	81.56
285.364	78.56
285.595	77.56
285.826	69.56
286.057	80.56
286.288	87.56
286.52	72.56
286.751	70.56
286.982	89.56
287.213	86.56
287.444	97.56
287.675	75.56
287.906	74.56
288.138	85.56
288.369	75.56
288.6	79.56
288.831	90.56
289.062	89.56
289.293	97.56
289.524	91.56
289.755	81.56
289.986	73.56
290.217	80.56
290.448	89.56
290.679	73.56
290.91	86.56
291.141	66.56
291.371	81.56
291.602	89.56
291.833	92.56
292.064	86.56
292.295	91.56
292.526	85.56
292.757	77.56
292.987	84.56
293.218	82.56
293.449	89.56
293.68	96.56
293.91	67.56
294.141	91.56
294.372	86.56
294.603	81.56
294.833	73.56
295.064	90.56
295.295	88.56
295.525	72.56
295.756	86.56
295.987	87.56
296.217	78.56
296.448	87.56
296.679	82.56
296.909	88.56
297.14	82.56
297.37	93.56
297.601	65.56
297.831	70.56
298.062	97.56
298.292	83.56
298.523	91.56
298.753	86.56
298.984	85.56
299.214	81.56
299.445	68.56
299.675	77.56
299.905	87.56
300.136	83.56
300.366	99.56
300.597	92.56
300.827	79.56
301.057	85.56
301.288	90.56
301.518	87.56
301.748	93.56
301.979	100.56
302.209	90.56
302.439	94.56
302.669	81.56
302.9	80.56
303.13	72.56
303.36	84.56
303.59	83.56
303.82	75.56
304.051	82.56
304.281	88.56
304.511	87.56
304.741	73.56
304.971	83.56
305.201	85.56
305.431	78.56
305.661	75.56
305.891	81.56
306.121	89.56
306.352	107.56
306.582	89.56
306.812	87.56
307.042	87.56
307.272	75.56
307.502	99.56
307.731	84.56
307.961	87.56
308.191	89.56
308.421	91.56
308.651	76.56
308.881	98.56
309.111	85.56
309.341	83.56
309.571	95.56
309.8	78.56
310.03	72.56
310.26	76.56
310.49	85.56
310.72	88.56
310.949	81.56
311.179	81.56
311.409	90.56
311.639	82.56
311.868	81.56
312.098	80.56
312.328	95.56
312.557	80.56
312.787	89.56
313.017	87.56
313.246	93.56
313.476	89.56
313.706	79.56
313.935	87.56
314.165	79.56
314.394	89.56
314.624	85.56
314.853	96.56
315.083	86.56
315.312	86.56
315.542	78.56
315.771	70.56
316.001	85.56
316.23	91.56
316.46	95.56
316.689	74.56
316.919	80.56
317.148	90.56
317.377	89.56
317.607	81.56
317.836	83.56
318.065	81.56
318.295	76.56
318.524	80.56
318.753	85.56
318.983	80.56
319.212	95.56
319.441	97.56
319.67	95.56
319.9	87.56
320.129	89.56
320.358	89.56
320.587	91.56
320.816	89.56
321.046	85.56
321.275	90.56
321.504	85.56
321.733	79.56
321.962	82.56
322.191	86.56
322.42	71.56
322.649	86.56
322.878	88.56
323.108	90.56
323.337	88.56
323.566	75.56
323.795	74.56
324.024	83.56
324.253	89.56
324.482	81.56
324.71	91.56
324.939	79.56
325.168	85.56
325.397	93.56
325.626	84.56
325.855	86.56
326.084	81.56
326.313	78.56
326.542	93.56
326.77	87.56
326.999	84.56
327.228	77.56
327.457	74.56
327.686	79.56
327.914	80.56
328.143	87.56
328.372	91.56
328.6	75.56
328.829	78.56
329.058	97.56
329.287	90.56
329.515	86.56
329.744	93.56
329.972	86.56
330.201	87.56
330.43	84.56
330.658	83.56
330.887	79.56
331.115	83.56
331.344	88.56
331.572	95.56
331.801	81.56
332.03	80.56
332.258	82.56
332.486	81.56
332.715	82.56
332.943	85.56
333.172	83.56
333.4	86.56
333.629	91.56
333.857	86.56
334.085	97.56
334.314	75.56
334.542	88.56
334.771	81.56
334.999	92.56
335.227	95.56
335.455	90.56
335.684	87.56
335.912	92.56
336.14	83.56
336.369	81.56
336.597	80.56
336.825	82.56
337.053	76.56
337.281	77.56
337.51	89.56
337.738	89.56
337.966	91.56
338.194	90.56
338.422	86.56
338.65	80.56
338.878	75.56
339.106	65.56
339.334	83.56
339.562	93.56
339.79	97.56
340.018	77.56
340.246	88.56
340.474	84.56
340.702	80.56
340.93	87.56
341.158	74.56
341.386	91.56
341.614	79.56
341.842	86.56
342.07	90.56
342.298	89.56
342.526	77.56
342.754	71.56
342.981	86.56
343.209	72.56
343.437	95.56
343.665	83.56
343.893	85.56
344.12	79.56
344.348	87.56
344.576	86.56
344.804	83.56
345.031	85.56
345.259	71.56
345.487	88.56
345.714	79.56
345.942	93.56
346.17	91.56
346.397	86.56
346.625	81.56
346.853	78.56
347.08	76.56
347.308	84.56
347.535	79.56
347.763	83.56
347.99	83.56
348.218	74.56
348.445	89.56
348.673	90.56
348.9	89.56
349.128	81.56
349.355	89.56
349.583	103.56
349.81	89.56
350.037	90.56
350.265	88.56
350.492	85.56
350.72	79.56
350.947	83.56
351.174	83.56
351.402	76.56
351.629	93.56
351.856	85.56
352.083	70.56
352.311	91.56
352.538	89.56
352.765	85.56
352.992	95.56
353.22	92.56
353.447	96.56
353.674	76.56
353.901	93.56
354.128	87.56
354.355	65.56
354.583	92.56
354.81	96.56
355.037	90.56
355.264	81.56
355.491	83.56
355.718	78.56
355.945	75.56
356.172	77.56
356.399	63.56
356.626	80.56
356.853	88.56
357.08	69.56
357.307	70.56
357.534	85.56
357.761	76.56
357.988	80.56
358.215	81.56
358.441	79.56
358.668	83.56
358.895	83.56
359.122	74.56
359.349	95.56
359.576	79.56
359.802	84.56
360.029	89.56
360.256	75.56
360.483	91.56
360.709	75.56
360.936	88.56
361.163	97.56
361.39	86.56
361.616	86.56
361.843	90.56
362.07	82.56
362.296	95.56
362.523	79.56
362.749	83.56
362.976	79.56
363.203	83.56
363.429	76.56
363.656	87.56
363.882	79.56
364.109	82.56
364.335	97.56
364.562	93.56
364.788	85.56
365.015	88.56
365.241	82.56
365.468	80.56
365.694	67.56
365.92	75.56
366.147	83.56
366.373	89.56
366.599	79.56
366.826	87.56
367.052	97.56
367.278	75.56
367.505	84.56
367.731	86.56
367.957	103.56
368.184	87.56
368.41	86.56
368.636	87.56
368.862	76.56
369.089	66.56
369.315	80.56
369.541	90.56
369.767	79.56
369.993	94.56
370.219	87.56
370.445	80.56
370.672	74.56
370.898	88.56
371.124	76.56
371.35	78.56
371.576	73.56
371.802	85.56
372.028	74.56
372.254	68.56
372.48	71.56
372.706	89.56
372.932	84.56
373.158	76.56
373.384	98.56
373.61	95.56
373.835	72.56
374.061	75.56
374.287	83.56
374.513	88.56
374.739	87.56
374.965	99.56
375.191	83.56
375.416	85.56
375.642	81.56
375.868	90.56
376.094	87.56
376.319	77.56
376.545	76.56
376.771	84.56
376.997	95.56
377.222	85.56
377.448	86.56
377.674	82.56
377.899	82.56
378.125	82.56
378.35	79.56
378.576	73.56
378.802	83.56
379.027	79.56
379.253	79.56
379.478	89.56
379.704	90.56
379.929	65.56
380.155	71.56
380.38	83.56
380.606	89.56
380.831	81.56
381.057	79.56
381.282	69.56
381.507	83.56
381.733	84.56
381.958	73.56
382.184	82.56
382.409	82.56
382.634	75.56
382.86	89.56
383.085	90.56
383.31	93.56
383.535	82.56
383.761	86.56
383.986	89.56
384.211	80.56
384.436	80.56
384.662	82.56
384.887	88.56
385.112	92.56
385.337	80.56
385.562	85.56
385.787	93.56
386.013	100.56
386.238	99.56
386.463	80.56
386.688	91.56
386.913	89.56
387.138	81.56
387.363	83.56
387.588	86.56
387.813	101.56
388.038	61.56
388.263	87.56
388.488	93.56
388.713	84.56
388.938	97.56
389.163	94.56
389.387	85.56
389.612	87.56
389.837	70.56
390.062	76.56
390.287	81.56
390.512	67.56
390.736	67.56
390.961	82.56
391.186	64.56
391.411	74.56
391.636	85.56
391.86	69.56
392.085	82.56
392.31	83.56
392.534	75.56
392.759	79.56
392.984	84.56
393.208	103.56
393.433	101.56
393.658	94.56
393.882	85.56
394.107	72.56
394.331	85.56
394.556	90.56
394.78	85.56
395.005	86.56
395.229	81.56
395.454	85.56
395.678	86.56
395.903	86.56
396.127	85.56
396.352	96.56
396.576	89.56
396.801	79.56
397.025	88.56
397.249	84.56
397.474	83.56
397.698	84.56
397.922	73.56
398.147	71.56
398.371	75.56
398.595	94.56
398.82	89.56
399.044	75.56
399.268	87.56
399.492	83.56
399.717	99.56
399.941	73.56
400.165	79.56
400.389	76.56
400.613	69.56
400.837	81.56
401.062	77.56
401.286	93.56
401.51	81.56
401.734	94.56
401.958	83.56
402.182	69.56
402.406	86.56
402.63	87.56
402.854	80.56
403.078	90.56
403.302	79.56
403.526	82.56
403.75	84.56
403.974	88.56
404.198	84.56
404.422	88.56
404.645	73.56
404.869	74.56
405.093	91.56
405.317	76.56
405.541	89.56
405.765	83.56
405.988	101.56
406.212	85.56
406.436	81.56
406.66	84.56
406.883	79.56
407.107	83.56
407.331	87.56
407.555	83.56
407.778	89.56
408.002	78.56
408.226	81.56
408.449	79.56
408.673	69.56
408.896	79.56
409.12	73.56
409.344	85.56
409.567	77.56
409.791	70.56
410.014	73.56
410.238	83.56
410.461	85.56
410.685	83.56
410.908	85.56
411.132	83.56
411.355	94.56
411.578	83.56
411.802	77.56
412.025	77.56
412.249	83.56
412.472	87.56
412.695	88.56
412.919	91.56
413.142	94.56
413.365	83.56
413.589	87.56
413.812	84.56
414.035	70.56
414.258	68.56
414.482	67.56
414.705	82.56
414.928	70.56
415.151	75.56
415.374	82.56
415.597	90.56
415.821	78.56
416.044	94.56
416.267	81.56
416.49	91.56
416.713	84.56
416.936	93.56
417.159	81.56
417.382	82.56
417.605	80.56
417.828	76.56
418.051	82.56
418.274	87.56
418.497	89.56
418.72	80.56
418.943	67.56
419.166	67.56
419.389	86.56
419.611	79.56
419.834	86.56
420.057	76.56
420.28	85.56
420.503	83.56
420.726	70.56
420.948	96.56
421.171	79.56
421.394	82.56
421.617	95.56
421.839	90.56
422.062	95.56
422.285	95.56
422.507	111.56
422.73	130.56
422.953	125.56
423.175	103.56
423.398	79.56
423.621	96.56
423.843	77.56
424.066	93.56
424.288	83.56
424.511	68.56
424.733	85.56
424.956	80.56
425.178	74.56
425.401	79.56
425.623	64.56
425.846	83.56
426.068	81.56
426.291	82.56
426.513	92.56
426.735	78.56
426.958	98.56
427.18	89.56
427.402	74.56
427.625	83.56
427.847	67.56
428.069	80.56
428.292	91.56
428.514	85.56
428.736	75.56
428.958	74.56
429.181	72.56
429.403	81.56
429.625	73.56
429.847	70.56
430.069	83.56
430.292	88.56
430.514	89.56
430.736	83.56
430.958	85.56
431.18	67.56
431.402	81.56
431.624	85.56
431.846	83.56
432.068	86.56
432.29	72.56
432.512	94.56
432.734	93.56
432.956	78.56
433.178	78.56
433.4	76.56
433.622	70.56
433.844	68.56
434.066	79.56
434.287	75.56
434.509	80.56
434.731	71.56
434.953	88.56
435.175	77.56
435.397	78.56
435.618	75.56
435.84	84.56
436.062	79.56
436.284	97.56
436.505	69.56
436.727	77.56
436.949	78.56
437.17	87.56
437.392	83.56
437.614	81.56
437.835	75.56
438.057	83.56
438.278	83.56
438.5	77.56
438.721	84.56
438.943	91.56
439.165	83.56
439.386	79.56
439.608	68.56
439.829	66.56
440.05	84.56
440.272	85.56
440.493	89.56
440.715	96.56
440.936	71.56
441.158	77.56
441.379	77.56
441.6	88.56
441.822	73.56
442.043	76.56
442.264	90.56
442.486	84.56
442.707	74.56
442.928	90.56
443.149	66.56
443.371	89.56
443.592	87.56
443.813	97.56
444.034	84.56
444.255	88.56
444.476	73.56
444.698	77.56
444.919	80.56
445.14	185.56
445.361	124.56
445.582	109.56
445.803	102.56
446.024	79.56
446.245	92.56
446.466	87.56
446.687	83.56
446.908	74.56
447.129	75.56
447.35	65.56
447.571	92.56
447.792	82.56
448.013	73.56
448.234	81.56
448.455	78.56
448.675	95.56
448.896	82.56
449.117	77.56
449.338	82.56
449.559	78.56
449.779	86.56
450	82.56
450.221	85.56
450.442	90.56
450.662	76.56
450.883	90.56
451.104	91.56
451.324	71.56
451.545	88.56
451.766	91.56
451.986	84.56
452.207	78.56
452.428	64.56
452.648	75.56
452.869	80.56
453.089	93.56
453.31	75.56
453.53	81.56
453.751	79.56
453.971	88.56
454.192	76.56
454.412	81.56
454.633	93.56
454.853	76.56
455.073	80.56
455.294	88.56
455.514	80.56
455.734	76.56
455.955	87.56
456.175	72.56
456.395	81.56
456.616	75.56
456.836	75.56
457.056	82.56
457.276	90.56
457.497	87.56
457.717	74.56
457.937	95.56
458.157	85.56
458.377	89.56
458.598	76.56
458.818	73.56
459.038	82.56
459.258	75.56
459.478	79.56
459.698	81.56
459.918	80.56
460.138	78.56
460.358	71.56
460.578	89.56
460.798	86.56
461.018	80.56
461.238	69.56
461.458	71.56
461.678	74.56
461.898	81.56
462.118	70.56
462.338	73.56
462.558	77.56
462.777	73.56
462.997	75.56
463.217	87.56
463.437	88.56
463.657	87.56
463.876	75.56
464.096	72.56
464.316	82.56
464.536	77.56
464.755	100.56
464.975	73.56
465.195	76.56
465.414	65.56
465.634	81.56
465.854	74.56
466.073	73.56
466.293	90.56
466.512	73.56
466.732	81.56
466.951	87.56
467.171	81.56
467.391	77.56
467.61	74.56
467.829	81.56
468.049	87.56
468.268	87.56
468.488	79.56
468.707	76.56
468.927	69.56
469.146	87.56
469.365	89.56
469.585	93.56
469.804	90.56
470.023	91.56
470.243	78.56
470.462	82.56
470.681	94.56
470.901	83.56
471.12	70.56
471.339	81.56
471.558	83.56
471.777	69.56
471.997	89.56
472.216	84.56
472.435	83.56
472.654	92.56
472.873	97.56
473.092	67.56
473.311	78.56
473.53	85.56
473.749	73.56
473.968	97.56
474.187	88.56
474.406	78.56
474.625	85.56
474.844	70.56
475.063	92.56
475.282	90.56
475.501	93.56
475.72	69.56
475.939	82.56
476.158	84.56
476.377	87.56
476.596	81.56
476.814	73.56
477.033	95.56
477.252	88.56
477.471	73.56
477.69	72.56
477.908	99.56
478.127	82.56
478.346	92.56
478.564	87.56
478.783	82.56
479.002	84.56
479.22	90.56
479.439	83.56
479.658	89.56
479.876	89.56
480.095	78.56
480.313	78.56
480.532	89.56
480.751	93.56
480.969	73.56
481.188	83.56
481.406	79.56
481.624	90.56
481.843	69.56
482.061	77.56
482.28	74.56
482.498	85.56
482.717	89.56
482.935	61.56
483.153	77.56
483.372	92.56
483.59	97.56
483.808	82.56
484.027	79.56
484.245	90.56
484.463	77.56
484.681	82.56
484.9	69.56
485.118	72.56
485.336	81.56
485.554	89.56
485.772	90.56
485.99	73.56
486.209	77.56
486.427	73.56
486.645	91.56
486.863	80.56
487.081	85.56
487.299	83.56
487.517	79.56
487.735	91.56
487.953	88.56
488.171	91.56
488.389	74.56
488.607	91.56
488.825	76.56
489.043	74.56
489.261	91.56
489.479	70.56
489.696	76.56
489.914	77.56
490.132	82.56
490.35	102.56
490.568	87.56
490.786	83.56
491.003	84.56
491.221	71.56
491.439	78.56
491.657	90.56
491.874	103.56
492.092	85.56
492.31	89.56
492.527	83.56
492.745	65.56
492.963	88.56
493.18	79.56
493.398	76.56
493.615	91.56
493.833	85.56
494.05	89.56
494.268	87.56
494.485	92.56
494.703	85.56
494.92	91.56
495.138	85.56
495.355	71.56
495.573	74.56
495.79	89.56
496.008	71.56
496.225	91.56
496.442	84.56
496.66	74.56
496.877	78.56
497.094	91.56
497.312	90.56
497.529	88.56
497.746	81.56
497.963	71.56
498.181	81.56
498.398	93.56
498.615	89.56
498.832	89.56
499.049	93.56
499.267	82.56
499.484	88.56
499.701	81.56
499.918	81.56
500.135	87.56
500.352	93.56
500.569	89.56
500.786	99.56
501.003	85.56
501.22	81.56
501.437	84.56
501.654	77.56
501.871	82.56
502.088	80.56
502.305	79.56
502.522	83.56
502.739	88.56
502.956	81.56
503.172	82.56
503.389	83.56
503.606	94.56
503.823	89.56
504.04	100.56
504.256	83.56
504.473	86.56
504.69	82.56
504.907	81.56
505.123	74.56
505.34	88.56
505.557	73.56
505.773	86.56
505.99	89.56
506.207	89.56
506.423	87.56
506.64	76.56
506.856	83.56
507.073	62.56
507.289	90.56
507.506	87.56
507.722	69.56
507.939	86.56
508.155	104.56
508.372	90.56
508.588	86.56
508.805	78.56
509.021	92.56
509.238	87.56
509.454	76.56
509.67	77.56
509.887	80.56
510.103	88.56
510.319	72.56
510.536	75.56
510.752	81.56
510.968	71.56
511.184	79.56
511.401	71.56
511.617	80.56
511.833	87.56
512.049	73.56
512.265	89.56
512.481	82.56
512.698	71.56
512.914	71.56
513.13	77.56
513.346	70.56
513.562	89.56
513.778	98.56
513.994	88.56
514.21	87.56
514.426	93.56
514.642	81.56
514.858	79.56
515.074	81.56
515.29	82.56
515.506	78.56
515.721	87.56
515.937	88.56
516.153	82.56
516.369	81.56
516.585	81.56
516.801	89.56
517.016	69.56
517.232	89.56
517.448	78.56
517.664	82.56
517.879	80.56
518.095	87.56
518.311	89.56
518.527	83.56
518.742	90.56
518.958	89.56
519.173	86.56
519.389	81.56
519.605	77.56
519.82	73.56
520.036	78.56
