Data from 237_3_HRD10591_00031.txt Node
Date: Mon Jan 19 14:13:10 EST 2026
User: Yrep
Spectrometer: HR+D1059
Trigger mode: 1
Integration Time (sec): 1.000000E-1
Scans to average: 1
Electric dark correction enabled: true
Nonlinearity correction enabled: false
Boxcar width: 0
XAxis mode: Wavelengths
Number of Pixels in Spectrum: 2048
>>>>>Begin Spectral Data<<<<<
223.165	-9.25
223.4	-9.25
223.635	-9.25
223.869	-23.25
224.104	-31.25
224.338	-16.25
224.573	-6.25
224.808	-16.25
225.042	-19.25
225.277	-5.25
225.511	-4.25
225.746	6.75
225.98	11.75
226.215	24.75
226.449	11.75
226.683	23.75
226.918	25.75
227.152	26.75
227.387	26.75
227.621	28.75
227.856	37.75
228.09	56.75
228.324	45.75
228.559	55.75
228.793	62.75
229.027	60.75
229.262	64.75
229.496	70.75
229.73	74.75
229.964	76.75
230.199	68.75
230.433	71.75
230.667	74.75
230.901	75.75
231.136	86.75
231.37	78.75
231.604	65.75
231.838	73.75
232.072	82.75
232.306	78.75
232.541	81.75
232.775	84.75
233.009	82.75
233.243	88.75
233.477	72.75
233.711	70.75
233.945	77.75
234.179	72.75
234.413	69.75
234.647	80.75
234.881	66.75
235.115	72.75
235.349	73.75
235.583	66.75
235.817	85.75
236.051	79.75
236.285	72.75
236.519	83.75
236.753	80.75
236.987	61.75
237.221	71.75
237.455	56.75
237.689	72.75
237.922	87.75
238.156	70.75
238.39	60.75
238.624	62.75
238.858	59.75
239.091	77.75
239.325	85.75
239.559	79.75
239.793	68.75
240.027	78.75
240.26	70.75
240.494	82.75
240.728	72.75
240.961	86.75
241.195	61.75
241.429	70.75
241.662	64.75
241.896	75.75
242.13	72.75
242.363	63.75
242.597	66.75
242.83	74.75
243.064	78.75
243.298	84.75
243.531	54.75
243.765	71.75
243.998	83.75
244.232	72.75
244.465	72.75
244.699	81.75
244.932	74.75
245.166	71.75
245.399	86.75
245.633	72.75
245.866	79.75
246.099	75.75
246.333	73.75
246.566	59.75
246.8	70.75
247.033	66.75
247.266	79.75
247.5	77.75
247.733	71.75
247.966	85.75
248.2	75.75
248.433	79.75
248.666	75.75
248.899	81.75
249.133	81.75
249.366	66.75
249.599	68.75
249.832	69.75
250.066	77.75
250.299	71.75
250.532	77.75
250.765	80.75
250.998	66.75
251.231	79.75
251.465	75.75
251.698	76.75
251.931	79.75
252.164	69.75
252.397	89.75
252.63	80.75
252.863	80.75
253.096	77.75
253.329	65.75
253.562	62.75
253.795	72.75
254.028	73.75
254.261	82.75
254.494	68.75
254.727	76.75
254.96	59.75
255.193	75.75
255.426	73.75
255.659	66.75
255.892	79.75
256.124	96.75
256.357	82.75
256.59	92.75
256.823	59.75
257.056	89.75
257.289	89.75
257.521	71.75
257.754	74.75
257.987	67.75
258.22	82.75
258.452	68.75
258.685	72.75
258.918	75.75
259.151	85.75
259.383	85.75
259.616	81.75
259.849	74.75
260.081	84.75
260.314	87.75
260.547	81.75
260.779	94.75
261.012	79.75
261.244	64.75
261.477	87.75
261.71	77.75
261.942	68.75
262.175	72.75
262.407	72.75
262.64	84.75
262.872	89.75
263.105	75.75
263.337	86.75
263.57	71.75
263.802	72.75
264.035	74.75
264.267	87.75
264.499	85.75
264.732	68.75
264.964	76.75
265.197	77.75
265.429	89.75
265.661	91.75
265.894	80.75
266.126	90.75
266.358	84.75
266.591	77.75
266.823	80.75
267.055	78.75
267.287	69.75
267.52	88.75
267.752	90.75
267.984	69.75
268.216	88.75
268.448	78.75
268.681	74.75
268.913	80.75
269.145	83.75
269.377	68.75
269.609	81.75
269.841	88.75
270.073	83.75
270.306	85.75
270.538	65.75
270.77	73.75
271.002	88.75
271.234	76.75
271.466	84.75
271.698	69.75
271.93	85.75
272.162	74.75
272.394	82.75
272.626	88.75
272.858	85.75
273.09	74.75
273.322	83.75
273.553	87.75
273.785	80.75
274.017	73.75
274.249	57.75
274.481	85.75
274.713	88.75
274.945	76.75
275.176	77.75
275.408	76.75
275.64	70.75
275.872	73.75
276.104	79.75
276.335	91.75
276.567	94.75
276.799	83.75
277.031	79.75
277.262	77.75
277.494	92.75
277.726	79.75
277.957	92.75
278.189	88.75
278.421	90.75
278.652	85.75
278.884	85.75
279.115	88.75
279.347	89.75
279.579	94.75
279.81	68.75
280.042	80.75
280.273	96.75
280.505	64.75
280.736	80.75
280.968	69.75
281.199	89.75
281.431	80.75
281.662	79.75
281.894	86.75
282.125	81.75
282.356	84.75
282.588	75.75
282.819	75.75
283.051	86.75
283.282	76.75
283.513	72.75
283.745	83.75
283.976	76.75
284.207	87.75
284.439	87.75
284.67	66.75
284.901	82.75
285.132	73.75
285.364	79.75
285.595	75.75
285.826	80.75
286.057	87.75
286.288	80.75
286.52	85.75
286.751	82.75
286.982	80.75
287.213	66.75
287.444	88.75
287.675	66.75
287.906	71.75
288.138	83.75
288.369	80.75
288.6	74.75
288.831	68.75
289.062	81.75
289.293	78.75
289.524	89.75
289.755	102.75
289.986	81.75
290.217	65.75
290.448	75.75
290.679	87.75
290.91	75.75
291.141	75.75
291.371	91.75
291.602	92.75
291.833	93.75
292.064	70.75
292.295	83.75
292.526	82.75
292.757	71.75
292.987	70.75
293.218	96.75
293.449	78.75
293.68	89.75
293.91	86.75
294.141	87.75
294.372	86.75
294.603	80.75
294.833	77.75
295.064	75.75
295.295	78.75
295.525	80.75
295.756	86.75
295.987	75.75
296.217	86.75
296.448	109.75
296.679	96.75
296.909	74.75
297.14	82.75
297.37	76.75
297.601	73.75
297.831	76.75
298.062	89.75
298.292	86.75
298.523	83.75
298.753	75.75
298.984	80.75
299.214	63.75
299.445	82.75
299.675	79.75
299.905	93.75
300.136	85.75
300.366	74.75
300.597	65.75
300.827	80.75
301.057	81.75
301.288	85.75
301.518	95.75
301.748	85.75
301.979	100.75
302.209	90.75
302.439	85.75
302.669	83.75
302.9	73.75
303.13	82.75
303.36	77.75
303.59	90.75
303.82	74.75
304.051	82.75
304.281	87.75
304.511	90.75
304.741	86.75
304.971	85.75
305.201	91.75
305.431	83.75
305.661	73.75
305.891	71.75
306.121	82.75
306.352	92.75
306.582	81.75
306.812	82.75
307.042	84.75
307.272	81.75
307.502	73.75
307.731	96.75
307.961	90.75
308.191	71.75
308.421	87.75
308.651	72.75
308.881	74.75
309.111	93.75
309.341	86.75
309.571	77.75
309.8	72.75
310.03	78.75
310.26	71.75
310.49	83.75
310.72	71.75
310.949	75.75
311.179	76.75
311.409	81.75
311.639	84.75
311.868	79.75
312.098	69.75
312.328	68.75
312.557	89.75
312.787	66.75
313.017	96.75
313.246	86.75
313.476	92.75
313.706	64.75
313.935	92.75
314.165	75.75
314.394	85.75
314.624	90.75
314.853	88.75
315.083	80.75
315.312	84.75
315.542	66.75
315.771	93.75
316.001	69.75
316.23	88.75
316.46	86.75
316.689	85.75
316.919	73.75
317.148	74.75
317.377	73.75
317.607	84.75
317.836	99.75
318.065	100.75
318.295	78.75
318.524	81.75
318.753	87.75
318.983	89.75
319.212	87.75
319.441	72.75
319.67	81.75
319.9	96.75
320.129	74.75
320.358	87.75
320.587	86.75
320.816	72.75
321.046	92.75
321.275	84.75
321.504	66.75
321.733	86.75
321.962	82.75
322.191	80.75
322.42	71.75
322.649	91.75
322.878	90.75
323.108	95.75
323.337	80.75
323.566	79.75
323.795	82.75
324.024	88.75
324.253	77.75
324.482	72.75
324.71	85.75
324.939	73.75
325.168	82.75
325.397	70.75
325.626	84.75
325.855	80.75
326.084	89.75
326.313	93.75
326.542	77.75
326.77	71.75
326.999	72.75
327.228	87.75
327.457	82.75
327.686	77.75
327.914	75.75
328.143	77.75
328.372	79.75
328.6	92.75
328.829	73.75
329.058	84.75
329.287	80.75
329.515	83.75
329.744	80.75
329.972	76.75
330.201	85.75
330.43	74.75
330.658	74.75
330.887	86.75
331.115	79.75
331.344	88.75
331.572	84.75
331.801	80.75
332.03	71.75
332.258	78.75
332.486	94.75
332.715	65.75
332.943	72.75
333.172	101.75
333.4	90.75
333.629	69.75
333.857	73.75
334.085	90.75
334.314	75.75
334.542	78.75
334.771	94.75
334.999	85.75
335.227	71.75
335.455	89.75
335.684	74.75
335.912	84.75
336.14	74.75
336.369	86.75
336.597	71.75
336.825	91.75
337.053	81.75
337.281	77.75
337.51	80.75
337.738	84.75
337.966	76.75
338.194	84.75
338.422	73.75
338.65	75.75
338.878	92.75
339.106	86.75
339.334	98.75
339.562	69.75
339.79	84.75
340.018	74.75
340.246	68.75
340.474	83.75
340.702	82.75
340.93	77.75
341.158	83.75
341.386	83.75
341.614	87.75
341.842	78.75
342.07	86.75
342.298	85.75
342.526	72.75
342.754	76.75
342.981	86.75
343.209	92.75
343.437	85.75
343.665	81.75
343.893	78.75
344.12	93.75
344.348	97.75
344.576	81.75
344.804	68.75
345.031	86.75
345.259	61.75
345.487	74.75
345.714	88.75
345.942	74.75
346.17	80.75
346.397	88.75
346.625	85.75
346.853	87.75
347.08	82.75
347.308	74.75
347.535	70.75
347.763	71.75
347.99	72.75
348.218	83.75
348.445	81.75
348.673	80.75
348.9	92.75
349.128	93.75
349.355	84.75
349.583	75.75
349.81	77.75
350.037	72.75
350.265	72.75
350.492	68.75
350.72	78.75
350.947	93.75
351.174	86.75
351.402	86.75
351.629	85.75
351.856	87.75
352.083	80.75
352.311	76.75
352.538	83.75
352.765	61.75
352.992	87.75
353.22	71.75
353.447	64.75
353.674	71.75
353.901	86.75
354.128	73.75
354.355	82.75
354.583	72.75
354.81	78.75
355.037	94.75
355.264	83.75
355.491	67.75
355.718	77.75
355.945	84.75
356.172	94.75
356.399	89.75
356.626	82.75
356.853	74.75
357.08	73.75
357.307	84.75
357.534	75.75
357.761	87.75
357.988	71.75
358.215	92.75
358.441	94.75
358.668	86.75
358.895	97.75
359.122	95.75
359.349	82.75
359.576	80.75
359.802	80.75
360.029	75.75
360.256	82.75
360.483	81.75
360.709	70.75
360.936	86.75
361.163	88.75
361.39	86.75
361.616	71.75
361.843	74.75
362.07	77.75
362.296	78.75
362.523	82.75
362.749	80.75
362.976	84.75
363.203	102.75
363.429	88.75
363.656	72.75
363.882	94.75
364.109	98.75
364.335	81.75
364.562	85.75
364.788	89.75
365.015	74.75
365.241	96.75
365.468	96.75
365.694	86.75
365.92	81.75
366.147	83.75
366.373	65.75
366.599	72.75
366.826	72.75
367.052	73.75
367.278	85.75
367.505	87.75
367.731	69.75
367.957	74.75
368.184	78.75
368.41	74.75
368.636	78.75
368.862	80.75
369.089	70.75
369.315	68.75
369.541	83.75
369.767	97.75
369.993	87.75
370.219	87.75
370.445	70.75
370.672	84.75
370.898	80.75
371.124	90.75
371.35	86.75
371.576	74.75
371.802	93.75
372.028	88.75
372.254	84.75
372.48	70.75
372.706	80.75
372.932	71.75
373.158	85.75
373.384	86.75
373.61	82.75
373.835	71.75
374.061	78.75
374.287	85.75
374.513	85.75
374.739	69.75
374.965	90.75
375.191	83.75
375.416	86.75
375.642	73.75
375.868	86.75
376.094	94.75
376.319	81.75
376.545	77.75
376.771	86.75
376.997	96.75
377.222	69.75
377.448	72.75
377.674	71.75
377.899	71.75
378.125	92.75
378.35	80.75
378.576	80.75
378.802	80.75
379.027	84.75
379.253	80.75
379.478	74.75
379.704	80.75
379.929	85.75
380.155	82.75
380.38	78.75
380.606	75.75
380.831	78.75
381.057	98.75
381.282	81.75
381.507	84.75
381.733	80.75
381.958	88.75
382.184	83.75
382.409	108.75
382.634	80.75
382.86	84.75
383.085	65.75
383.31	82.75
383.535	85.75
383.761	88.75
383.986	66.75
384.211	94.75
384.436	77.75
384.662	72.75
384.887	86.75
385.112	72.75
385.337	71.75
385.562	87.75
385.787	89.75
386.013	82.75
386.238	88.75
386.463	80.75
386.688	89.75
386.913	68.75
387.138	78.75
387.363	79.75
387.588	86.75
387.813	81.75
388.038	93.75
388.263	73.75
388.488	70.75
388.713	71.75
388.938	82.75
389.163	75.75
389.387	76.75
389.612	66.75
389.837	72.75
390.062	79.75
390.287	79.75
390.512	76.75
390.736	76.75
390.961	77.75
391.186	80.75
391.411	86.75
391.636	76.75
391.86	75.75
392.085	79.75
392.31	92.75
392.534	71.75
392.759	84.75
392.984	101.75
393.208	110.75
393.433	127.75
393.658	108.75
393.882	79.75
394.107	80.75
394.331	71.75
394.556	82.75
394.78	78.75
395.005	77.75
395.229	78.75
395.454	83.75
395.678	95.75
395.903	90.75
396.127	100.75
396.352	89.75
396.576	89.75
396.801	112.75
397.025	116.75
397.249	82.75
397.474	96.75
397.698	89.75
397.922	98.75
398.147	101.75
398.371	69.75
398.595	83.75
398.82	72.75
399.044	78.75
399.268	87.75
399.492	72.75
399.717	81.75
399.941	72.75
400.165	70.75
400.389	89.75
400.613	82.75
400.837	92.75
401.062	86.75
401.286	79.75
401.51	77.75
401.734	77.75
401.958	87.75
402.182	72.75
402.406	66.75
402.63	79.75
402.854	68.75
403.078	75.75
403.302	87.75
403.526	74.75
403.75	75.75
403.974	97.75
404.198	89.75
404.422	99.75
404.645	78.75
404.869	87.75
405.093	93.75
405.317	89.75
405.541	90.75
405.765	83.75
405.988	86.75
406.212	82.75
406.436	82.75
406.66	79.75
406.883	85.75
407.107	78.75
407.331	76.75
407.555	71.75
407.778	80.75
408.002	80.75
408.226	92.75
408.449	76.75
408.673	71.75
408.896	85.75
409.12	86.75
409.344	92.75
409.567	82.75
409.791	74.75
410.014	88.75
410.238	78.75
410.461	88.75
410.685	87.75
410.908	79.75
411.132	84.75
411.355	73.75
411.578	60.75
411.802	87.75
412.025	73.75
412.249	67.75
412.472	84.75
412.695	83.75
412.919	73.75
413.142	73.75
413.365	80.75
413.589	62.75
413.812	67.75
414.035	86.75
414.258	87.75
414.482	86.75
414.705	67.75
414.928	76.75
415.151	75.75
415.374	84.75
415.597	84.75
415.821	80.75
416.044	75.75
416.267	84.75
416.49	83.75
416.713	77.75
416.936	88.75
417.159	88.75
417.382	85.75
417.605	89.75
417.828	80.75
418.051	81.75
418.274	73.75
418.497	71.75
418.72	84.75
418.943	89.75
419.166	92.75
419.389	84.75
419.611	87.75
419.834	84.75
420.057	94.75
420.28	71.75
420.503	72.75
420.726	83.75
420.948	76.75
421.171	73.75
421.394	70.75
421.617	86.75
421.839	85.75
422.062	86.75
422.285	102.75
422.507	130.75
422.73	140.75
422.953	144.75
423.175	114.75
423.398	96.75
423.621	108.75
423.843	77.75
424.066	90.75
424.288	92.75
424.511	78.75
424.733	83.75
424.956	98.75
425.178	84.75
425.401	76.75
425.623	75.75
425.846	78.75
426.068	77.75
426.291	78.75
426.513	84.75
426.735	78.75
426.958	89.75
427.18	84.75
427.402	77.75
427.625	72.75
427.847	66.75
428.069	79.75
428.292	97.75
428.514	82.75
428.736	85.75
428.958	102.75
429.181	82.75
429.403	89.75
429.625	88.75
429.847	82.75
430.069	102.75
430.292	102.75
430.514	104.75
430.736	91.75
430.958	101.75
431.18	75.75
431.402	78.75
431.624	77.75
431.846	76.75
432.068	79.75
432.29	84.75
432.512	84.75
432.734	79.75
432.956	73.75
433.178	78.75
433.4	70.75
433.622	80.75
433.844	70.75
434.066	87.75
434.287	82.75
434.509	79.75
434.731	84.75
434.953	83.75
435.175	75.75
435.397	97.75
435.618	78.75
435.84	74.75
436.062	87.75
436.284	84.75
436.505	85.75
436.727	79.75
436.949	83.75
437.17	82.75
437.392	72.75
437.614	82.75
437.835	74.75
438.057	78.75
438.278	68.75
438.5	69.75
438.721	77.75
438.943	67.75
439.165	86.75
439.386	94.75
439.608	87.75
439.829	84.75
440.05	89.75
440.272	70.75
440.493	65.75
440.715	65.75
440.936	81.75
441.158	70.75
441.379	89.75
441.6	86.75
441.822	88.75
442.043	77.75
442.264	73.75
442.486	87.75
442.707	85.75
442.928	77.75
443.149	77.75
443.371	90.75
443.592	111.75
443.813	92.75
444.034	86.75
444.255	85.75
444.476	70.75
444.698	77.75
444.919	74.75
445.14	169.75
445.361	138.75
445.582	116.75
445.803	102.75
446.024	84.75
446.245	78.75
446.466	77.75
446.687	70.75
446.908	72.75
447.129	73.75
447.35	74.75
447.571	81.75
447.792	67.75
448.013	88.75
448.234	80.75
448.455	64.75
448.675	77.75
448.896	72.75
449.117	71.75
449.338	74.75
449.559	86.75
449.779	83.75
450	79.75
450.221	78.75
450.442	92.75
450.662	81.75
450.883	83.75
451.104	82.75
451.324	73.75
451.545	82.75
451.766	71.75
451.986	85.75
452.207	93.75
452.428	85.75
452.648	78.75
452.869	72.75
453.089	66.75
453.31	86.75
453.53	90.75
453.751	78.75
453.971	78.75
454.192	74.75
454.412	85.75
454.633	72.75
454.853	80.75
455.073	71.75
455.294	68.75
455.514	81.75
455.734	79.75
455.955	82.75
456.175	84.75
456.395	71.75
456.616	72.75
456.836	77.75
457.056	73.75
457.276	76.75
457.497	69.75
457.717	83.75
457.937	87.75
458.157	72.75
458.377	85.75
458.598	69.75
458.818	81.75
459.038	82.75
459.258	83.75
459.478	64.75
459.698	71.75
459.918	89.75
460.138	82.75
460.358	68.75
460.578	69.75
460.798	85.75
461.018	76.75
461.238	92.75
461.458	82.75
461.678	68.75
461.898	92.75
462.118	78.75
462.338	79.75
462.558	74.75
462.777	72.75
462.997	95.75
463.217	82.75
463.437	89.75
463.657	78.75
463.876	73.75
464.096	75.75
464.316	74.75
464.536	87.75
464.755	78.75
464.975	85.75
465.195	89.75
465.414	82.75
465.634	75.75
465.854	69.75
466.073	84.75
466.293	71.75
466.512	75.75
466.732	74.75
466.951	82.75
467.171	89.75
467.391	73.75
467.61	81.75
467.829	86.75
468.049	75.75
468.268	82.75
468.488	79.75
468.707	73.75
468.927	77.75
469.146	77.75
469.365	77.75
469.585	84.75
469.804	85.75
470.023	83.75
470.243	81.75
470.462	85.75
470.681	82.75
470.901	79.75
471.12	84.75
471.339	89.75
471.558	81.75
471.777	82.75
471.997	81.75
472.216	93.75
472.435	61.75
472.654	86.75
472.873	80.75
473.092	86.75
473.311	85.75
473.53	78.75
473.749	77.75
473.968	75.75
474.187	92.75
474.406	80.75
474.625	77.75
474.844	90.75
475.063	60.75
475.282	82.75
475.501	62.75
475.72	80.75
475.939	84.75
476.158	85.75
476.377	83.75
476.596	68.75
476.814	87.75
477.033	94.75
477.252	80.75
477.471	78.75
477.69	78.75
477.908	75.75
478.127	80.75
478.346	81.75
478.564	80.75
478.783	69.75
479.002	81.75
479.22	76.75
479.439	85.75
479.658	85.75
479.876	94.75
480.095	80.75
480.313	76.75
480.532	88.75
480.751	84.75
480.969	73.75
481.188	82.75
481.406	96.75
481.624	81.75
481.843	69.75
482.061	77.75
482.28	62.75
482.498	86.75
482.717	80.75
482.935	77.75
483.153	63.75
483.372	88.75
483.59	82.75
483.808	93.75
484.027	84.75
484.245	86.75
484.463	65.75
484.681	89.75
484.9	88.75
485.118	78.75
485.336	75.75
485.554	88.75
485.772	78.75
485.99	79.75
486.209	70.75
486.427	58.75
486.645	74.75
486.863	74.75
487.081	84.75
487.299	76.75
487.517	88.75
487.735	90.75
487.953	89.75
488.171	71.75
488.389	78.75
488.607	80.75
488.825	74.75
489.043	72.75
489.261	62.75
489.479	92.75
489.696	85.75
489.914	82.75
490.132	85.75
490.35	84.75
490.568	93.75
490.786	77.75
491.003	79.75
491.221	84.75
491.439	80.75
491.657	86.75
491.874	83.75
492.092	83.75
492.31	69.75
492.527	86.75
492.745	86.75
492.963	89.75
493.18	82.75
493.398	82.75
493.615	73.75
493.833	82.75
494.05	78.75
494.268	84.75
494.485	87.75
494.703	85.75
494.92	74.75
495.138	71.75
495.355	81.75
495.573	82.75
495.79	82.75
496.008	82.75
496.225	88.75
496.442	92.75
496.66	79.75
496.877	84.75
497.094	78.75
497.312	68.75
497.529	66.75
497.746	81.75
497.963	82.75
498.181	79.75
498.398	60.75
498.615	68.75
498.832	73.75
499.049	91.75
499.267	77.75
499.484	76.75
499.701	71.75
499.918	80.75
500.135	86.75
500.352	71.75
500.569	87.75
500.786	86.75
501.003	80.75
501.22	85.75
501.437	78.75
501.654	76.75
501.871	91.75
502.088	83.75
502.305	81.75
502.522	89.75
502.739	79.75
502.956	76.75
503.172	83.75
503.389	91.75
503.606	75.75
503.823	83.75
504.04	93.75
504.256	100.75
504.473	85.75
504.69	87.75
504.907	83.75
505.123	80.75
505.34	75.75
505.557	88.75
505.773	78.75
505.99	87.75
506.207	77.75
506.423	74.75
506.64	88.75
506.856	85.75
507.073	77.75
507.289	96.75
507.506	82.75
507.722	66.75
507.939	81.75
508.155	75.75
508.372	82.75
508.588	75.75
508.805	76.75
509.021	75.75
509.238	81.75
509.454	96.75
509.67	87.75
509.887	77.75
510.103	79.75
510.319	80.75
510.536	75.75
510.752	64.75
510.968	89.75
511.184	71.75
511.401	87.75
511.617	83.75
511.833	92.75
512.049	77.75
512.265	86.75
512.481	77.75
512.698	70.75
512.914	90.75
513.13	78.75
513.346	80.75
513.562	82.75
513.778	66.75
513.994	71.75
514.21	90.75
514.426	93.75
514.642	80.75
514.858	73.75
515.074	76.75
515.29	74.75
515.506	91.75
515.721	80.75
515.937	88.75
516.153	73.75
516.369	76.75
516.585	88.75
516.801	74.75
517.016	80.75
517.232	89.75
517.448	84.75
517.664	85.75
517.879	78.75
518.095	78.75
518.311	84.75
518.527	83.75
518.742	78.75
518.958	79.75
519.173	92.75
519.389	95.75
519.605	65.75
519.82	90.75
