Data from 237_3_HRD10591_00021.txt Node
Date: Mon Jan 19 14:13:05 EST 2026
User: Yrep
Spectrometer: HR+D1059
Trigger mode: 1
Integration Time (sec): 1.000000E-1
Scans to average: 1
Electric dark correction enabled: true
Nonlinearity correction enabled: false
Boxcar width: 0
XAxis mode: Wavelengths
Number of Pixels in Spectrum: 2048
>>>>>Begin Spectral Data<<<<<
223.165	-11.56
223.4	-11.56
223.635	-11.56
223.869	-12.56
224.104	-40.56
224.338	-19.56
224.573	-15.56
224.808	-13.56
225.042	-9.56
225.277	-2.56
225.511	11.44
225.746	6.44
225.98	8.44
226.215	18.44
226.449	21.44
226.683	14.44
226.918	20.44
227.152	24.44
227.387	39.44
227.621	46.44
227.856	58.44
228.09	55.44
228.324	65.44
228.559	50.44
228.793	72.44
229.027	62.44
229.262	66.44
229.496	68.44
229.73	81.44
229.964	77.44
230.199	83.44
230.433	91.44
230.667	62.44
230.901	75.44
231.136	76.44
231.37	84.44
231.604	88.44
231.838	101.44
232.072	76.44
232.306	63.44
232.541	87.44
232.775	80.44
233.009	83.44
233.243	81.44
233.477	82.44
233.711	89.44
233.945	91.44
234.179	82.44
234.413	90.44
234.647	75.44
234.881	68.44
235.115	93.44
235.349	74.44
235.583	80.44
235.817	88.44
236.051	86.44
236.285	64.44
236.519	89.44
236.753	70.44
236.987	77.44
237.221	70.44
237.455	72.44
237.689	90.44
237.922	82.44
238.156	82.44
238.39	86.44
238.624	78.44
238.858	85.44
239.091	65.44
239.325	76.44
239.559	66.44
239.793	72.44
240.027	80.44
240.26	86.44
240.494	78.44
240.728	88.44
240.961	72.44
241.195	80.44
241.429	74.44
241.662	71.44
241.896	76.44
242.13	79.44
242.363	75.44
242.597	82.44
242.83	75.44
243.064	76.44
243.298	65.44
243.531	80.44
243.765	84.44
243.998	73.44
244.232	75.44
244.465	88.44
244.699	75.44
244.932	86.44
245.166	70.44
245.399	82.44
245.633	90.44
245.866	84.44
246.099	78.44
246.333	87.44
246.566	70.44
246.8	56.44
247.033	82.44
247.266	92.44
247.5	89.44
247.733	66.44
247.966	66.44
248.2	67.44
248.433	78.44
248.666	77.44
248.899	86.44
249.133	75.44
249.366	76.44
249.599	88.44
249.832	88.44
250.066	73.44
250.299	68.44
250.532	82.44
250.765	74.44
250.998	80.44
251.231	86.44
251.465	67.44
251.698	70.44
251.931	81.44
252.164	64.44
252.397	67.44
252.63	89.44
252.863	94.44
253.096	70.44
253.329	69.44
253.562	77.44
253.795	91.44
254.028	89.44
254.261	74.44
254.494	72.44
254.727	80.44
254.96	81.44
255.193	84.44
255.426	72.44
255.659	88.44
255.892	88.44
256.124	90.44
256.357	78.44
256.59	92.44
256.823	82.44
257.056	78.44
257.289	90.44
257.521	81.44
257.754	92.44
257.987	63.44
258.22	82.44
258.452	88.44
258.685	75.44
258.918	82.44
259.151	79.44
259.383	88.44
259.616	75.44
259.849	93.44
260.081	70.44
260.314	81.44
260.547	84.44
260.779	88.44
261.012	85.44
261.244	81.44
261.477	102.44
261.71	87.44
261.942	78.44
262.175	68.44
262.407	78.44
262.64	82.44
262.872	80.44
263.105	77.44
263.337	82.44
263.57	72.44
263.802	89.44
264.035	84.44
264.267	75.44
264.499	83.44
264.732	79.44
264.964	98.44
265.197	77.44
265.429	90.44
265.661	84.44
265.894	92.44
266.126	81.44
266.358	68.44
266.591	99.44
266.823	95.44
267.055	77.44
267.287	76.44
267.52	83.44
267.752	86.44
267.984	94.44
268.216	77.44
268.448	74.44
268.681	84.44
268.913	78.44
269.145	81.44
269.377	78.44
269.609	84.44
269.841	94.44
270.073	88.44
270.306	91.44
270.538	91.44
270.77	92.44
271.002	75.44
271.234	84.44
271.466	82.44
271.698	76.44
271.93	82.44
272.162	87.44
272.394	86.44
272.626	96.44
272.858	82.44
273.09	82.44
273.322	84.44
273.553	81.44
273.785	88.44
274.017	79.44
274.249	91.44
274.481	85.44
274.713	80.44
274.945	93.44
275.176	78.44
275.408	87.44
275.64	82.44
275.872	88.44
276.104	88.44
276.335	75.44
276.567	87.44
276.799	88.44
277.031	78.44
277.262	73.44
277.494	93.44
277.726	99.44
277.957	86.44
278.189	76.44
278.421	82.44
278.652	80.44
278.884	95.44
279.115	95.44
279.347	78.44
279.579	76.44
279.81	75.44
280.042	94.44
280.273	84.44
280.505	78.44
280.736	74.44
280.968	88.44
281.199	98.44
281.431	89.44
281.662	87.44
281.894	86.44
282.125	88.44
282.356	83.44
282.588	85.44
282.819	85.44
283.051	92.44
283.282	75.44
283.513	75.44
283.745	74.44
283.976	84.44
284.207	77.44
284.439	91.44
284.67	88.44
284.901	82.44
285.132	76.44
285.364	97.44
285.595	92.44
285.826	76.44
286.057	97.44
286.288	94.44
286.52	102.44
286.751	85.44
286.982	88.44
287.213	83.44
287.444	97.44
287.675	72.44
287.906	93.44
288.138	87.44
288.369	97.44
288.6	91.44
288.831	88.44
289.062	89.44
289.293	73.44
289.524	88.44
289.755	77.44
289.986	80.44
290.217	74.44
290.448	83.44
290.679	72.44
290.91	78.44
291.141	72.44
291.371	75.44
291.602	92.44
291.833	84.44
292.064	79.44
292.295	80.44
292.526	76.44
292.757	92.44
292.987	71.44
293.218	88.44
293.449	90.44
293.68	85.44
293.91	95.44
294.141	82.44
294.372	87.44
294.603	98.44
294.833	85.44
295.064	104.44
295.295	94.44
295.525	101.44
295.756	84.44
295.987	67.44
296.217	74.44
296.448	68.44
296.679	85.44
296.909	93.44
297.14	92.44
297.37	96.44
297.601	98.44
297.831	86.44
298.062	102.44
298.292	78.44
298.523	85.44
298.753	77.44
298.984	92.44
299.214	87.44
299.445	85.44
299.675	94.44
299.905	103.44
300.136	94.44
300.366	99.44
300.597	85.44
300.827	79.44
301.057	84.44
301.288	88.44
301.518	97.44
301.748	86.44
301.979	108.44
302.209	83.44
302.439	91.44
302.669	91.44
302.9	92.44
303.13	97.44
303.36	89.44
303.59	97.44
303.82	86.44
304.051	96.44
304.281	84.44
304.511	95.44
304.741	83.44
304.971	85.44
305.201	78.44
305.431	86.44
305.661	85.44
305.891	101.44
306.121	104.44
306.352	93.44
306.582	85.44
306.812	88.44
307.042	89.44
307.272	86.44
307.502	82.44
307.731	84.44
307.961	88.44
308.191	81.44
308.421	92.44
308.651	90.44
308.881	96.44
309.111	84.44
309.341	99.44
309.571	100.44
309.8	83.44
310.03	89.44
310.26	90.44
310.49	89.44
310.72	75.44
310.949	68.44
311.179	85.44
311.409	90.44
311.639	92.44
311.868	91.44
312.098	90.44
312.328	81.44
312.557	84.44
312.787	84.44
313.017	77.44
313.246	84.44
313.476	96.44
313.706	91.44
313.935	70.44
314.165	82.44
314.394	80.44
314.624	88.44
314.853	87.44
315.083	78.44
315.312	95.44
315.542	100.44
315.771	79.44
316.001	77.44
316.23	96.44
316.46	89.44
316.689	84.44
316.919	93.44
317.148	92.44
317.377	110.44
317.607	90.44
317.836	78.44
318.065	84.44
318.295	81.44
318.524	86.44
318.753	106.44
318.983	83.44
319.212	84.44
319.441	76.44
319.67	88.44
319.9	81.44
320.129	91.44
320.358	96.44
320.587	90.44
320.816	85.44
321.046	93.44
321.275	81.44
321.504	87.44
321.733	91.44
321.962	94.44
322.191	97.44
322.42	100.44
322.649	89.44
322.878	94.44
323.108	90.44
323.337	77.44
323.566	94.44
323.795	92.44
324.024	107.44
324.253	77.44
324.482	95.44
324.71	80.44
324.939	93.44
325.168	90.44
325.397	92.44
325.626	92.44
325.855	84.44
326.084	77.44
326.313	90.44
326.542	83.44
326.77	75.44
326.999	92.44
327.228	76.44
327.457	78.44
327.686	93.44
327.914	76.44
328.143	86.44
328.372	87.44
328.6	74.44
328.829	74.44
329.058	81.44
329.287	101.44
329.515	89.44
329.744	94.44
329.972	88.44
330.201	76.44
330.43	99.44
330.658	98.44
330.887	90.44
331.115	78.44
331.344	72.44
331.572	85.44
331.801	82.44
332.03	94.44
332.258	83.44
332.486	80.44
332.715	94.44
332.943	88.44
333.172	77.44
333.4	93.44
333.629	96.44
333.857	84.44
334.085	81.44
334.314	106.44
334.542	86.44
334.771	93.44
334.999	90.44
335.227	89.44
335.455	93.44
335.684	84.44
335.912	106.44
336.14	94.44
336.369	91.44
336.597	88.44
336.825	96.44
337.053	86.44
337.281	92.44
337.51	83.44
337.738	94.44
337.966	96.44
338.194	72.44
338.422	85.44
338.65	95.44
338.878	89.44
339.106	95.44
339.334	88.44
339.562	77.44
339.79	90.44
340.018	78.44
340.246	95.44
340.474	100.44
340.702	73.44
340.93	80.44
341.158	92.44
341.386	84.44
341.614	89.44
341.842	95.44
342.07	81.44
342.298	80.44
342.526	79.44
342.754	94.44
342.981	84.44
343.209	89.44
343.437	106.44
343.665	83.44
343.893	90.44
344.12	100.44
344.348	93.44
344.576	91.44
344.804	86.44
345.031	98.44
345.259	89.44
345.487	82.44
345.714	69.44
345.942	77.44
346.17	75.44
346.397	65.44
346.625	94.44
346.853	90.44
347.08	92.44
347.308	73.44
347.535	84.44
347.763	78.44
347.99	81.44
348.218	87.44
348.445	96.44
348.673	110.44
348.9	107.44
349.128	91.44
349.355	100.44
349.583	101.44
349.81	85.44
350.037	84.44
350.265	106.44
350.492	92.44
350.72	84.44
350.947	100.44
351.174	87.44
351.402	93.44
351.629	93.44
351.856	85.44
352.083	86.44
352.311	81.44
352.538	77.44
352.765	80.44
352.992	88.44
353.22	84.44
353.447	102.44
353.674	93.44
353.901	93.44
354.128	99.44
354.355	88.44
354.583	98.44
354.81	90.44
355.037	85.44
355.264	82.44
355.491	88.44
355.718	92.44
355.945	98.44
356.172	98.44
356.399	93.44
356.626	88.44
356.853	93.44
357.08	84.44
357.307	96.44
357.534	104.44
357.761	102.44
357.988	88.44
358.215	101.44
358.441	86.44
358.668	78.44
358.895	95.44
359.122	100.44
359.349	87.44
359.576	87.44
359.802	89.44
360.029	98.44
360.256	84.44
360.483	82.44
360.709	91.44
360.936	93.44
361.163	101.44
361.39	99.44
361.616	91.44
361.843	91.44
362.07	99.44
362.296	107.44
362.523	106.44
362.749	112.44
362.976	122.44
363.203	117.44
363.429	92.44
363.656	90.44
363.882	100.44
364.109	94.44
364.335	134.44
364.562	133.44
364.788	121.44
365.015	101.44
365.241	84.44
365.468	94.44
365.694	91.44
365.92	104.44
366.147	88.44
366.373	93.44
366.599	81.44
366.826	78.44
367.052	75.44
367.278	89.44
367.505	96.44
367.731	103.44
367.957	86.44
368.184	99.44
368.41	83.44
368.636	85.44
368.862	91.44
369.089	78.44
369.315	97.44
369.541	74.44
369.767	82.44
369.993	87.44
370.219	89.44
370.445	106.44
370.672	96.44
370.898	90.44
371.124	95.44
371.35	92.44
371.576	99.44
371.802	112.44
372.028	110.44
372.254	91.44
372.48	87.44
372.706	99.44
372.932	93.44
373.158	88.44
373.384	103.44
373.61	117.44
373.835	116.44
374.061	102.44
374.287	86.44
374.513	106.44
374.739	97.44
374.965	113.44
375.191	106.44
375.416	95.44
375.642	96.44
375.868	88.44
376.094	84.44
376.319	91.44
376.545	83.44
376.771	97.44
376.997	78.44
377.222	100.44
377.448	83.44
377.674	88.44
377.899	91.44
378.125	86.44
378.35	95.44
378.576	82.44
378.802	80.44
379.027	83.44
379.253	92.44
379.478	98.44
379.704	94.44
379.929	90.44
380.155	79.44
380.38	94.44
380.606	96.44
380.831	104.44
381.057	84.44
381.282	94.44
381.507	78.44
381.733	104.44
381.958	110.44
382.184	96.44
382.409	90.44
382.634	118.44
382.86	97.44
383.085	91.44
383.31	94.44
383.535	94.44
383.761	94.44
383.986	103.44
384.211	101.44
384.436	102.44
384.662	88.44
384.887	99.44
385.112	92.44
385.337	92.44
385.562	93.44
385.787	100.44
386.013	99.44
386.238	92.44
386.463	96.44
386.688	91.44
386.913	94.44
387.138	100.44
387.363	93.44
387.588	99.44
387.813	106.44
388.038	92.44
388.263	91.44
388.488	101.44
388.713	86.44
388.938	89.44
389.163	101.44
389.387	90.44
389.612	98.44
389.837	94.44
390.062	100.44
390.287	92.44
390.512	112.44
390.736	97.44
390.961	88.44
391.186	100.44
391.411	85.44
391.636	86.44
391.86	103.44
392.085	100.44
392.31	91.44
392.534	103.44
392.759	103.44
392.984	146.44
393.208	210.44
393.433	270.44
393.658	212.44
393.882	124.44
394.107	86.44
394.331	116.44
394.556	103.44
394.78	102.44
395.005	85.44
395.229	92.44
395.454	91.44
395.678	116.44
395.903	116.44
396.127	131.44
396.352	149.44
396.576	140.44
396.801	202.44
397.025	246.44
397.249	152.44
397.474	112.44
397.698	97.44
397.922	99.44
398.147	98.44
398.371	96.44
398.595	83.44
398.82	96.44
399.044	84.44
399.268	93.44
399.492	99.44
399.717	86.44
399.941	100.44
400.165	97.44
400.389	106.44
400.613	83.44
400.837	88.44
401.062	90.44
401.286	82.44
401.51	94.44
401.734	93.44
401.958	77.44
402.182	75.44
402.406	85.44
402.63	93.44
402.854	98.44
403.078	93.44
403.302	92.44
403.526	84.44
403.75	96.44
403.974	92.44
404.198	104.44
404.422	134.44
404.645	132.44
404.869	118.44
405.093	101.44
405.317	84.44
405.541	88.44
405.765	89.44
405.988	87.44
406.212	83.44
406.436	99.44
406.66	98.44
406.883	92.44
407.107	84.44
407.331	98.44
407.555	104.44
407.778	109.44
408.002	96.44
408.226	80.44
408.449	93.44
408.673	96.44
408.896	95.44
409.12	107.44
409.344	97.44
409.567	90.44
409.791	89.44
410.014	80.44
410.238	77.44
410.461	88.44
410.685	101.44
410.908	92.44
411.132	90.44
411.355	82.44
411.578	95.44
411.802	74.44
412.025	83.44
412.249	90.44
412.472	89.44
412.695	93.44
412.919	94.44
413.142	86.44
413.365	93.44
413.589	79.44
413.812	100.44
414.035	100.44
414.258	97.44
414.482	96.44
414.705	91.44
414.928	102.44
415.151	86.44
415.374	76.44
415.597	95.44
415.821	89.44
416.044	80.44
416.267	69.44
416.49	88.44
416.713	94.44
416.936	106.44
417.159	93.44
417.382	98.44
417.605	82.44
417.828	92.44
418.051	86.44
418.274	96.44
418.497	84.44
418.72	87.44
418.943	99.44
419.166	93.44
419.389	92.44
419.611	74.44
419.834	92.44
420.057	98.44
420.28	70.44
420.503	97.44
420.726	92.44
420.948	92.44
421.171	105.44
421.394	105.44
421.617	113.44
421.839	116.44
422.062	139.44
422.285	176.44
422.507	300.44
422.73	436.44
422.953	383.44
423.175	231.44
423.398	144.44
423.621	120.44
423.843	109.44
424.066	104.44
424.288	87.44
424.511	88.44
424.733	97.44
424.956	93.44
425.178	86.44
425.401	85.44
425.623	102.44
425.846	92.44
426.068	102.44
426.291	88.44
426.513	89.44
426.735	90.44
426.958	98.44
427.18	97.44
427.402	96.44
427.625	114.44
427.847	86.44
428.069	108.44
428.292	132.44
428.514	153.44
428.736	104.44
428.958	129.44
429.181	139.44
429.403	97.44
429.625	109.44
429.847	142.44
430.069	164.44
430.292	188.44
430.514	189.44
430.736	149.44
430.958	144.44
431.18	112.44
431.402	86.44
431.624	113.44
431.846	118.44
432.068	150.44
432.29	96.44
432.512	96.44
432.734	104.44
432.956	89.44
433.178	105.44
433.4	89.44
433.622	86.44
433.844	92.44
434.066	87.44
434.287	90.44
434.509	89.44
434.731	103.44
434.953	93.44
435.175	98.44
435.397	105.44
435.618	101.44
435.84	89.44
436.062	105.44
436.284	92.44
436.505	81.44
436.727	80.44
436.949	87.44
437.17	85.44
437.392	80.44
437.614	81.44
437.835	95.44
438.057	92.44
438.278	89.44
438.5	84.44
438.721	81.44
438.943	85.44
439.165	88.44
439.386	91.44
439.608	74.44
439.829	96.44
440.05	86.44
440.272	101.44
440.493	88.44
440.715	90.44
440.936	88.44
441.158	93.44
441.379	90.44
441.6	89.44
441.822	98.44
442.043	85.44
442.264	116.44
442.486	140.44
442.707	182.44
442.928	122.44
443.149	112.44
443.371	173.44
443.592	281.44
443.813	227.44
444.034	112.44
444.255	86.44
444.476	89.44
444.698	99.44
444.919	99.44
445.14	200.44
445.361	226.44
445.582	322.44
445.803	287.44
446.024	140.44
446.245	97.44
446.466	101.44
446.687	79.44
446.908	84.44
447.129	91.44
447.35	92.44
447.571	101.44
447.792	85.44
448.013	93.44
448.234	87.44
448.455	82.44
448.675	98.44
448.896	105.44
449.117	92.44
449.338	102.44
449.559	87.44
449.779	94.44
450	103.44
450.221	96.44
450.442	91.44
450.662	78.44
450.883	100.44
451.104	89.44
451.324	94.44
451.545	97.44
451.766	100.44
451.986	74.44
452.207	88.44
452.428	90.44
452.648	97.44
452.869	103.44
453.089	100.44
453.31	85.44
453.53	94.44
453.751	104.44
453.971	81.44
454.192	109.44
454.412	88.44
454.633	88.44
454.853	82.44
455.073	96.44
455.294	92.44
455.514	92.44
455.734	81.44
455.955	92.44
456.175	86.44
456.395	87.44
456.616	82.44
456.836	91.44
457.056	84.44
457.276	86.44
457.497	99.44
457.717	100.44
457.937	106.44
458.157	120.44
458.377	143.44
458.598	124.44
458.818	154.44
459.038	103.44
459.258	85.44
459.478	87.44
459.698	93.44
459.918	93.44
460.138	78.44
460.358	92.44
460.578	90.44
460.798	125.44
461.018	115.44
461.238	87.44
461.458	90.44
461.678	78.44
461.898	100.44
462.118	86.44
462.338	81.44
462.558	81.44
462.777	88.44
462.997	80.44
463.217	82.44
463.437	93.44
463.657	66.44
463.876	66.44
464.096	88.44
464.316	84.44
464.536	84.44
464.755	88.44
464.975	100.44
465.195	84.44
465.414	101.44
465.634	93.44
465.854	86.44
466.073	91.44
466.293	90.44
466.512	80.44
466.732	100.44
466.951	87.44
467.171	84.44
467.391	83.44
467.61	93.44
467.829	86.44
468.049	96.44
468.268	94.44
468.488	86.44
468.707	88.44
468.927	85.44
469.146	90.44
469.365	75.44
469.585	94.44
469.804	92.44
470.023	86.44
470.243	93.44
470.462	102.44
470.681	87.44
470.901	88.44
471.12	80.44
471.339	81.44
471.558	80.44
471.777	90.44
471.997	90.44
472.216	90.44
472.435	93.44
472.654	96.44
472.873	85.44
473.092	90.44
473.311	95.44
473.53	91.44
473.749	108.44
473.968	85.44
474.187	86.44
474.406	86.44
474.625	89.44
474.844	74.44
475.063	89.44
475.282	90.44
475.501	89.44
475.72	84.44
475.939	95.44
476.158	77.44
476.377	76.44
476.596	86.44
476.814	92.44
477.033	92.44
477.252	79.44
477.471	93.44
477.69	79.44
477.908	96.44
478.127	88.44
478.346	100.44
478.564	81.44
478.783	96.44
479.002	90.44
479.22	81.44
479.439	99.44
479.658	89.44
479.876	92.44
480.095	96.44
480.313	99.44
480.532	80.44
480.751	70.44
480.969	82.44
481.188	96.44
481.406	105.44
481.624	92.44
481.843	81.44
482.061	88.44
482.28	81.44
482.498	79.44
482.717	86.44
482.935	105.44
483.153	104.44
483.372	99.44
483.59	91.44
483.808	93.44
484.027	87.44
484.245	98.44
484.463	95.44
484.681	88.44
484.9	91.44
485.118	101.44
485.336	104.44
485.554	104.44
485.772	103.44
485.99	112.44
486.209	85.44
486.427	79.44
486.645	89.44
486.863	98.44
487.081	88.44
487.299	104.44
487.517	105.44
487.735	126.44
487.953	165.44
488.171	160.44
488.389	96.44
488.607	92.44
488.825	83.44
489.043	99.44
489.261	90.44
489.479	88.44
489.696	80.44
489.914	84.44
490.132	94.44
490.35	85.44
490.568	91.44
490.786	90.44
491.003	100.44
491.221	100.44
491.439	86.44
491.657	89.44
491.874	92.44
492.092	95.44
492.31	102.44
492.527	101.44
492.745	88.44
492.963	73.44
493.18	100.44
493.398	98.44
493.615	105.44
493.833	105.44
494.05	98.44
494.268	78.44
494.485	88.44
494.703	94.44
494.92	75.44
495.138	92.44
495.355	104.44
495.573	94.44
495.79	97.44
496.008	98.44
496.225	96.44
496.442	101.44
496.66	104.44
496.877	100.44
497.094	90.44
497.312	94.44
497.529	94.44
497.746	101.44
497.963	90.44
498.181	102.44
498.398	108.44
498.615	86.44
498.832	84.44
499.049	91.44
499.267	100.44
499.484	93.44
499.701	92.44
499.918	98.44
500.135	85.44
500.352	106.44
500.569	87.44
500.786	103.44
501.003	93.44
501.22	99.44
501.437	103.44
501.654	92.44
501.871	86.44
502.088	74.44
502.305	90.44
502.522	89.44
502.739	88.44
502.956	70.44
503.172	82.44
503.389	92.44
503.606	89.44
503.823	93.44
504.04	115.44
504.256	134.44
504.473	137.44
504.69	96.44
504.907	100.44
505.123	98.44
505.34	79.44
505.557	113.44
505.773	98.44
505.99	78.44
506.207	86.44
506.423	92.44
506.64	93.44
506.856	97.44
507.073	80.44
507.289	97.44
507.506	72.44
507.722	90.44
507.939	84.44
508.155	86.44
508.372	100.44
508.588	94.44
508.805	106.44
509.021	79.44
509.238	101.44
509.454	91.44
509.67	82.44
509.887	82.44
510.103	89.44
510.319	91.44
510.536	92.44
510.752	87.44
510.968	89.44
511.184	83.44
511.401	83.44
511.617	109.44
511.833	85.44
512.049	92.44
512.265	79.44
512.481	81.44
512.698	83.44
512.914	93.44
513.13	90.44
513.346	92.44
513.562	105.44
513.778	85.44
513.994	93.44
514.21	88.44
514.426	81.44
514.642	100.44
514.858	96.44
515.074	83.44
515.29	96.44
515.506	96.44
515.721	77.44
515.937	91.44
516.153	90.44
516.369	84.44
516.585	92.44
516.801	100.44
517.016	112.44
