Data from 237_3_HRD10591_00020.txt Node
Date: Mon Jan 19 14:13:04 EST 2026
User: Yrep
Spectrometer: HR+D1059
Trigger mode: 1
Integration Time (sec): 1.000000E-1
Scans to average: 1
Electric dark correction enabled: true
Nonlinearity correction enabled: false
Boxcar width: 0
XAxis mode: Wavelengths
Number of Pixels in Spectrum: 2048
>>>>>Begin Spectral Data<<<<<
223.165	-13.94
223.4	-13.94
223.635	-13.94
223.869	-29.94
224.104	-14.94
224.338	-23.94
224.573	-16.94
224.808	0.06
225.042	5.06
225.277	-6.94
225.511	10.06
225.746	1.06
225.98	10.06
226.215	11.06
226.449	12.06
226.683	16.06
226.918	23.06
227.152	18.06
227.387	33.06
227.621	40.06
227.856	48.06
228.09	48.06
228.324	55.06
228.559	62.06
228.793	56.06
229.027	69.06
229.262	62.06
229.496	69.06
229.73	64.06
229.964	79.06
230.199	71.06
230.433	70.06
230.667	80.06
230.901	76.06
231.136	82.06
231.37	73.06
231.604	82.06
231.838	65.06
232.072	83.06
232.306	74.06
232.541	78.06
232.775	81.06
233.009	68.06
233.243	75.06
233.477	78.06
233.711	80.06
233.945	80.06
234.179	78.06
234.413	69.06
234.647	86.06
234.881	69.06
235.115	78.06
235.349	89.06
235.583	78.06
235.817	83.06
236.051	80.06
236.285	89.06
236.519	71.06
236.753	60.06
236.987	71.06
237.221	78.06
237.455	77.06
237.689	67.06
237.922	73.06
238.156	81.06
238.39	86.06
238.624	84.06
238.858	79.06
239.091	68.06
239.325	66.06
239.559	69.06
239.793	54.06
240.027	68.06
240.26	82.06
240.494	77.06
240.728	62.06
240.961	64.06
241.195	70.06
241.429	75.06
241.662	80.06
241.896	60.06
242.13	71.06
242.363	72.06
242.597	70.06
242.83	77.06
243.064	71.06
243.298	73.06
243.531	87.06
243.765	77.06
243.998	57.06
244.232	77.06
244.465	91.06
244.699	78.06
244.932	61.06
245.166	81.06
245.399	78.06
245.633	67.06
245.866	79.06
246.099	60.06
246.333	79.06
246.566	72.06
246.8	87.06
247.033	74.06
247.266	90.06
247.5	77.06
247.733	75.06
247.966	70.06
248.2	87.06
248.433	74.06
248.666	67.06
248.899	81.06
249.133	69.06
249.366	84.06
249.599	77.06
249.832	82.06
250.066	80.06
250.299	62.06
250.532	80.06
250.765	73.06
250.998	68.06
251.231	64.06
251.465	75.06
251.698	84.06
251.931	72.06
252.164	78.06
252.397	82.06
252.63	81.06
252.863	74.06
253.096	90.06
253.329	96.06
253.562	84.06
253.795	78.06
254.028	72.06
254.261	61.06
254.494	64.06
254.727	76.06
254.96	78.06
255.193	78.06
255.426	88.06
255.659	86.06
255.892	61.06
256.124	76.06
256.357	80.06
256.59	78.06
256.823	75.06
257.056	75.06
257.289	79.06
257.521	70.06
257.754	81.06
257.987	69.06
258.22	85.06
258.452	76.06
258.685	72.06
258.918	71.06
259.151	65.06
259.383	86.06
259.616	78.06
259.849	68.06
260.081	81.06
260.314	77.06
260.547	74.06
260.779	76.06
261.012	74.06
261.244	90.06
261.477	75.06
261.71	76.06
261.942	82.06
262.175	69.06
262.407	71.06
262.64	77.06
262.872	68.06
263.105	68.06
263.337	75.06
263.57	82.06
263.802	69.06
264.035	88.06
264.267	76.06
264.499	86.06
264.732	93.06
264.964	84.06
265.197	77.06
265.429	80.06
265.661	74.06
265.894	77.06
266.126	89.06
266.358	82.06
266.591	73.06
266.823	80.06
267.055	68.06
267.287	88.06
267.52	66.06
267.752	82.06
267.984	81.06
268.216	86.06
268.448	71.06
268.681	86.06
268.913	85.06
269.145	86.06
269.377	78.06
269.609	88.06
269.841	79.06
270.073	84.06
270.306	82.06
270.538	86.06
270.77	86.06
271.002	81.06
271.234	82.06
271.466	80.06
271.698	92.06
271.93	75.06
272.162	82.06
272.394	85.06
272.626	87.06
272.858	77.06
273.09	79.06
273.322	81.06
273.553	81.06
273.785	90.06
274.017	80.06
274.249	81.06
274.481	90.06
274.713	75.06
274.945	84.06
275.176	84.06
275.408	92.06
275.64	95.06
275.872	82.06
276.104	90.06
276.335	74.06
276.567	86.06
276.799	71.06
277.031	85.06
277.262	70.06
277.494	89.06
277.726	78.06
277.957	86.06
278.189	88.06
278.421	80.06
278.652	81.06
278.884	73.06
279.115	81.06
279.347	69.06
279.579	93.06
279.81	92.06
280.042	68.06
280.273	67.06
280.505	87.06
280.736	64.06
280.968	75.06
281.199	82.06
281.431	93.06
281.662	80.06
281.894	85.06
282.125	67.06
282.356	74.06
282.588	83.06
282.819	97.06
283.051	80.06
283.282	84.06
283.513	89.06
283.745	80.06
283.976	85.06
284.207	75.06
284.439	87.06
284.67	90.06
284.901	93.06
285.132	84.06
285.364	72.06
285.595	85.06
285.826	83.06
286.057	72.06
286.288	101.06
286.52	84.06
286.751	72.06
286.982	71.06
287.213	93.06
287.444	84.06
287.675	88.06
287.906	90.06
288.138	71.06
288.369	75.06
288.6	82.06
288.831	81.06
289.062	90.06
289.293	92.06
289.524	95.06
289.755	75.06
289.986	84.06
290.217	86.06
290.448	88.06
290.679	75.06
290.91	76.06
291.141	86.06
291.371	83.06
291.602	75.06
291.833	102.06
292.064	84.06
292.295	71.06
292.526	88.06
292.757	80.06
292.987	69.06
293.218	75.06
293.449	72.06
293.68	82.06
293.91	88.06
294.141	72.06
294.372	78.06
294.603	84.06
294.833	89.06
295.064	96.06
295.295	83.06
295.525	86.06
295.756	72.06
295.987	82.06
296.217	85.06
296.448	80.06
296.679	70.06
296.909	97.06
297.14	88.06
297.37	92.06
297.601	83.06
297.831	84.06
298.062	74.06
298.292	79.06
298.523	76.06
298.753	58.06
298.984	74.06
299.214	81.06
299.445	80.06
299.675	98.06
299.905	79.06
300.136	83.06
300.366	99.06
300.597	85.06
300.827	88.06
301.057	86.06
301.288	65.06
301.518	81.06
301.748	71.06
301.979	93.06
302.209	88.06
302.439	84.06
302.669	73.06
302.9	83.06
303.13	78.06
303.36	80.06
303.59	97.06
303.82	94.06
304.051	86.06
304.281	88.06
304.511	92.06
304.741	70.06
304.971	88.06
305.201	72.06
305.431	82.06
305.661	90.06
305.891	80.06
306.121	85.06
306.352	68.06
306.582	75.06
306.812	76.06
307.042	78.06
307.272	71.06
307.502	86.06
307.731	96.06
307.961	85.06
308.191	87.06
308.421	91.06
308.651	87.06
308.881	99.06
309.111	82.06
309.341	90.06
309.571	79.06
309.8	92.06
310.03	80.06
310.26	95.06
310.49	90.06
310.72	86.06
310.949	81.06
311.179	88.06
311.409	81.06
311.639	71.06
311.868	92.06
312.098	94.06
312.328	78.06
312.557	83.06
312.787	82.06
313.017	82.06
313.246	86.06
313.476	83.06
313.706	60.06
313.935	88.06
314.165	87.06
314.394	75.06
314.624	82.06
314.853	82.06
315.083	80.06
315.312	94.06
315.542	88.06
315.771	76.06
316.001	94.06
316.23	91.06
316.46	66.06
316.689	84.06
316.919	108.06
317.148	78.06
317.377	97.06
317.607	74.06
317.836	74.06
318.065	81.06
318.295	92.06
318.524	68.06
318.753	85.06
318.983	93.06
319.212	73.06
319.441	65.06
319.67	78.06
319.9	78.06
320.129	92.06
320.358	93.06
320.587	96.06
320.816	97.06
321.046	78.06
321.275	86.06
321.504	75.06
321.733	80.06
321.962	80.06
322.191	86.06
322.42	82.06
322.649	89.06
322.878	84.06
323.108	79.06
323.337	80.06
323.566	87.06
323.795	75.06
324.024	93.06
324.253	89.06
324.482	84.06
324.71	86.06
324.939	84.06
325.168	83.06
325.397	80.06
325.626	77.06
325.855	95.06
326.084	83.06
326.313	77.06
326.542	87.06
326.77	93.06
326.999	81.06
327.228	80.06
327.457	70.06
327.686	86.06
327.914	88.06
328.143	80.06
328.372	82.06
328.6	104.06
328.829	85.06
329.058	69.06
329.287	72.06
329.515	84.06
329.744	94.06
329.972	85.06
330.201	78.06
330.43	90.06
330.658	94.06
330.887	78.06
331.115	84.06
331.344	94.06
331.572	78.06
331.801	85.06
332.03	84.06
332.258	90.06
332.486	88.06
332.715	74.06
332.943	97.06
333.172	78.06
333.4	81.06
333.629	84.06
333.857	88.06
334.085	85.06
334.314	90.06
334.542	85.06
334.771	79.06
334.999	89.06
335.227	82.06
335.455	82.06
335.684	97.06
335.912	94.06
336.14	70.06
336.369	97.06
336.597	73.06
336.825	93.06
337.053	77.06
337.281	75.06
337.51	74.06
337.738	100.06
337.966	84.06
338.194	85.06
338.422	80.06
338.65	73.06
338.878	92.06
339.106	78.06
339.334	94.06
339.562	78.06
339.79	80.06
340.018	81.06
340.246	89.06
340.474	81.06
340.702	77.06
340.93	97.06
341.158	80.06
341.386	84.06
341.614	90.06
341.842	86.06
342.07	79.06
342.298	83.06
342.526	61.06
342.754	83.06
342.981	85.06
343.209	78.06
343.437	92.06
343.665	87.06
343.893	87.06
344.12	72.06
344.348	74.06
344.576	83.06
344.804	82.06
345.031	73.06
345.259	76.06
345.487	91.06
345.714	86.06
345.942	86.06
346.17	79.06
346.397	77.06
346.625	96.06
346.853	92.06
347.08	82.06
347.308	92.06
347.535	84.06
347.763	81.06
347.99	76.06
348.218	78.06
348.445	77.06
348.673	86.06
348.9	102.06
349.128	78.06
349.355	83.06
349.583	66.06
349.81	62.06
350.037	91.06
350.265	78.06
350.492	73.06
350.72	90.06
350.947	78.06
351.174	74.06
351.402	83.06
351.629	78.06
351.856	79.06
352.083	80.06
352.311	82.06
352.538	86.06
352.765	80.06
352.992	102.06
353.22	78.06
353.447	74.06
353.674	90.06
353.901	89.06
354.128	80.06
354.355	80.06
354.583	78.06
354.81	86.06
355.037	86.06
355.264	88.06
355.491	82.06
355.718	81.06
355.945	69.06
356.172	78.06
356.399	72.06
356.626	97.06
356.853	86.06
357.08	93.06
357.307	88.06
357.534	86.06
357.761	87.06
357.988	101.06
358.215	96.06
358.441	81.06
358.668	83.06
358.895	85.06
359.122	82.06
359.349	85.06
359.576	86.06
359.802	70.06
360.029	76.06
360.256	105.06
360.483	94.06
360.709	95.06
360.936	89.06
361.163	85.06
361.39	82.06
361.616	83.06
361.843	86.06
362.07	96.06
362.296	105.06
362.523	78.06
362.749	103.06
362.976	85.06
363.203	111.06
363.429	89.06
363.656	90.06
363.882	78.06
364.109	108.06
364.335	110.06
364.562	138.06
364.788	105.06
365.015	95.06
365.241	84.06
365.468	92.06
365.694	72.06
365.92	78.06
366.147	88.06
366.373	88.06
366.599	83.06
366.826	89.06
367.052	86.06
367.278	76.06
367.505	93.06
367.731	85.06
367.957	89.06
368.184	93.06
368.41	80.06
368.636	88.06
368.862	83.06
369.089	83.06
369.315	80.06
369.541	89.06
369.767	85.06
369.993	95.06
370.219	92.06
370.445	85.06
370.672	70.06
370.898	64.06
371.124	72.06
371.35	87.06
371.576	74.06
371.802	84.06
372.028	66.06
372.254	90.06
372.48	84.06
372.706	84.06
372.932	75.06
373.158	80.06
373.384	74.06
373.61	102.06
373.835	82.06
374.061	82.06
374.287	96.06
374.513	92.06
374.739	90.06
374.965	87.06
375.191	97.06
375.416	100.06
375.642	70.06
375.868	84.06
376.094	89.06
376.319	82.06
376.545	102.06
376.771	81.06
376.997	86.06
377.222	75.06
377.448	76.06
377.674	76.06
377.899	70.06
378.125	89.06
378.35	100.06
378.576	88.06
378.802	80.06
379.027	71.06
379.253	78.06
379.478	84.06
379.704	75.06
379.929	84.06
380.155	79.06
380.38	72.06
380.606	70.06
380.831	78.06
381.057	81.06
381.282	85.06
381.507	84.06
381.733	83.06
381.958	98.06
382.184	78.06
382.409	86.06
382.634	98.06
382.86	78.06
383.085	79.06
383.31	90.06
383.535	91.06
383.761	84.06
383.986	88.06
384.211	97.06
384.436	90.06
384.662	79.06
384.887	91.06
385.112	77.06
385.337	79.06
385.562	85.06
385.787	80.06
386.013	76.06
386.238	85.06
386.463	82.06
386.688	101.06
386.913	84.06
387.138	88.06
387.363	86.06
387.588	86.06
387.813	108.06
388.038	87.06
388.263	84.06
388.488	78.06
388.713	82.06
388.938	72.06
389.163	79.06
389.387	82.06
389.612	90.06
389.837	85.06
390.062	103.06
390.287	87.06
390.512	88.06
390.736	88.06
390.961	90.06
391.186	78.06
391.411	78.06
391.636	77.06
391.86	82.06
392.085	90.06
392.31	96.06
392.534	96.06
392.759	111.06
392.984	116.06
393.208	185.06
393.433	260.06
393.658	192.06
393.882	108.06
394.107	95.06
394.331	104.06
394.556	104.06
394.78	90.06
395.005	89.06
395.229	82.06
395.454	94.06
395.678	87.06
395.903	111.06
396.127	126.06
396.352	134.06
396.576	149.06
396.801	191.06
397.025	205.06
397.249	150.06
397.474	114.06
397.698	103.06
397.922	85.06
398.147	86.06
398.371	100.06
398.595	93.06
398.82	94.06
399.044	79.06
399.268	89.06
399.492	86.06
399.717	77.06
399.941	75.06
400.165	76.06
400.389	74.06
400.613	91.06
400.837	88.06
401.062	68.06
401.286	91.06
401.51	73.06
401.734	86.06
401.958	80.06
402.182	105.06
402.406	89.06
402.63	80.06
402.854	92.06
403.078	85.06
403.302	101.06
403.526	89.06
403.75	93.06
403.974	96.06
404.198	100.06
404.422	93.06
404.645	114.06
404.869	112.06
405.093	108.06
405.317	96.06
405.541	75.06
405.765	84.06
405.988	74.06
406.212	95.06
406.436	80.06
406.66	82.06
406.883	78.06
407.107	86.06
407.331	95.06
407.555	100.06
407.778	87.06
408.002	94.06
408.226	85.06
408.449	95.06
408.673	82.06
408.896	82.06
409.12	79.06
409.344	84.06
409.567	105.06
409.791	91.06
410.014	97.06
410.238	83.06
410.461	93.06
410.685	79.06
410.908	73.06
411.132	93.06
411.355	84.06
411.578	83.06
411.802	85.06
412.025	87.06
412.249	93.06
412.472	75.06
412.695	65.06
412.919	82.06
413.142	84.06
413.365	78.06
413.589	74.06
413.812	90.06
414.035	81.06
414.258	75.06
414.482	75.06
414.705	77.06
414.928	78.06
415.151	77.06
415.374	91.06
415.597	80.06
415.821	76.06
416.044	74.06
416.267	66.06
416.49	89.06
416.713	86.06
416.936	92.06
417.159	86.06
417.382	81.06
417.605	77.06
417.828	79.06
418.051	88.06
418.274	85.06
418.497	71.06
418.72	81.06
418.943	74.06
419.166	90.06
419.389	83.06
419.611	82.06
419.834	83.06
420.057	87.06
420.28	85.06
420.503	83.06
420.726	89.06
420.948	96.06
421.171	94.06
421.394	101.06
421.617	109.06
421.839	121.06
422.062	124.06
422.285	158.06
422.507	259.06
422.73	374.06
422.953	339.06
423.175	195.06
423.398	128.06
423.621	108.06
423.843	97.06
424.066	105.06
424.288	99.06
424.511	81.06
424.733	95.06
424.956	93.06
425.178	86.06
425.401	88.06
425.623	81.06
425.846	89.06
426.068	83.06
426.291	105.06
426.513	97.06
426.735	88.06
426.958	80.06
427.18	85.06
427.402	80.06
427.625	77.06
427.847	80.06
428.069	85.06
428.292	130.06
428.514	119.06
428.736	113.06
428.958	131.06
429.181	130.06
429.403	95.06
429.625	98.06
429.847	128.06
430.069	154.06
430.292	186.06
430.514	153.06
430.736	138.06
430.958	133.06
431.18	111.06
431.402	95.06
431.624	91.06
431.846	122.06
432.068	130.06
432.29	100.06
432.512	79.06
432.734	87.06
432.956	76.06
433.178	99.06
433.4	86.06
433.622	79.06
433.844	78.06
434.066	73.06
434.287	92.06
434.509	81.06
434.731	78.06
434.953	86.06
435.175	90.06
435.397	84.06
435.618	104.06
435.84	94.06
436.062	82.06
436.284	78.06
436.505	77.06
436.727	73.06
436.949	84.06
437.17	75.06
437.392	68.06
437.614	81.06
437.835	69.06
438.057	85.06
438.278	83.06
438.5	80.06
438.721	82.06
438.943	74.06
439.165	82.06
439.386	74.06
439.608	80.06
439.829	86.06
440.05	81.06
440.272	87.06
440.493	85.06
440.715	89.06
440.936	82.06
441.158	84.06
441.379	63.06
441.6	97.06
441.822	79.06
442.043	97.06
442.264	94.06
442.486	119.06
442.707	163.06
442.928	111.06
443.149	111.06
443.371	148.06
443.592	233.06
443.813	230.06
444.034	121.06
444.255	84.06
444.476	102.06
444.698	111.06
444.919	91.06
445.14	194.06
445.361	196.06
445.582	298.06
445.803	253.06
446.024	106.06
446.245	92.06
446.466	94.06
446.687	83.06
446.908	92.06
447.129	76.06
447.35	69.06
447.571	68.06
447.792	75.06
448.013	81.06
448.234	75.06
448.455	73.06
448.675	87.06
448.896	80.06
449.117	81.06
449.338	84.06
449.559	84.06
449.779	75.06
450	92.06
450.221	78.06
450.442	82.06
450.662	79.06
450.883	76.06
451.104	95.06
451.324	87.06
451.545	75.06
451.766	74.06
451.986	78.06
452.207	93.06
452.428	87.06
452.648	88.06
452.869	102.06
453.089	98.06
453.31	82.06
453.53	88.06
453.751	91.06
453.971	93.06
454.192	80.06
454.412	78.06
454.633	89.06
454.853	94.06
455.073	75.06
455.294	78.06
455.514	80.06
455.734	61.06
455.955	84.06
456.175	98.06
456.395	81.06
456.616	77.06
456.836	76.06
457.056	97.06
457.276	86.06
457.497	77.06
457.717	79.06
457.937	92.06
458.157	110.06
458.377	105.06
458.598	110.06
458.818	118.06
459.038	89.06
459.258	80.06
459.478	64.06
459.698	78.06
459.918	89.06
460.138	95.06
460.358	78.06
460.578	80.06
460.798	111.06
461.018	104.06
461.238	81.06
461.458	80.06
461.678	82.06
461.898	97.06
462.118	82.06
462.338	84.06
462.558	86.06
462.777	79.06
462.997	79.06
463.217	74.06
463.437	78.06
463.657	81.06
463.876	85.06
464.096	84.06
464.316	74.06
464.536	73.06
464.755	88.06
464.975	80.06
465.195	85.06
465.414	84.06
465.634	70.06
465.854	73.06
466.073	87.06
466.293	80.06
466.512	87.06
466.732	82.06
466.951	84.06
467.171	75.06
467.391	85.06
467.61	84.06
467.829	83.06
468.049	73.06
468.268	80.06
468.488	80.06
468.707	81.06
468.927	89.06
469.146	67.06
469.365	80.06
469.585	66.06
469.804	76.06
470.023	94.06
470.243	73.06
470.462	82.06
470.681	89.06
470.901	69.06
471.12	84.06
471.339	86.06
471.558	81.06
471.777	76.06
471.997	78.06
472.216	75.06
472.435	79.06
472.654	92.06
472.873	86.06
473.092	88.06
473.311	73.06
473.53	73.06
473.749	78.06
473.968	87.06
474.187	88.06
474.406	81.06
474.625	84.06
474.844	90.06
475.063	73.06
475.282	97.06
475.501	74.06
475.72	84.06
475.939	86.06
476.158	93.06
476.377	88.06
476.596	92.06
476.814	76.06
477.033	80.06
477.252	78.06
477.471	69.06
477.69	78.06
477.908	77.06
478.127	84.06
478.346	87.06
478.564	93.06
478.783	95.06
479.002	63.06
479.22	90.06
479.439	69.06
479.658	84.06
479.876	79.06
480.095	82.06
480.313	90.06
480.532	78.06
480.751	77.06
480.969	81.06
481.188	78.06
481.406	99.06
481.624	66.06
481.843	86.06
482.061	81.06
482.28	88.06
482.498	87.06
482.717	80.06
482.935	81.06
483.153	79.06
483.372	71.06
483.59	82.06
483.808	81.06
484.027	99.06
484.245	91.06
484.463	87.06
484.681	82.06
484.9	86.06
485.118	76.06
485.336	74.06
485.554	90.06
485.772	89.06
485.99	79.06
486.209	86.06
486.427	82.06
486.645	75.06
486.863	88.06
487.081	89.06
487.299	80.06
487.517	100.06
487.735	101.06
487.953	157.06
488.171	142.06
488.389	104.06
488.607	79.06
488.825	88.06
489.043	81.06
489.261	95.06
489.479	97.06
489.696	84.06
489.914	84.06
490.132	87.06
490.35	92.06
490.568	82.06
490.786	87.06
491.003	78.06
491.221	82.06
491.439	77.06
491.657	79.06
491.874	92.06
492.092	89.06
492.31	80.06
492.527	85.06
492.745	80.06
492.963	80.06
493.18	88.06
493.398	92.06
493.615	89.06
493.833	77.06
494.05	85.06
494.268	79.06
494.485	74.06
494.703	77.06
494.92	100.06
495.138	92.06
495.355	98.06
495.573	80.06
495.79	92.06
496.008	87.06
496.225	92.06
496.442	86.06
496.66	96.06
496.877	95.06
497.094	96.06
497.312	103.06
497.529	84.06
497.746	85.06
497.963	90.06
498.181	84.06
498.398	100.06
498.615	92.06
498.832	80.06
499.049	96.06
499.267	82.06
499.484	80.06
499.701	84.06
499.918	88.06
500.135	88.06
500.352	93.06
500.569	96.06
500.786	90.06
501.003	83.06
501.22	73.06
501.437	89.06
501.654	90.06
501.871	88.06
502.088	87.06
502.305	78.06
502.522	83.06
502.739	84.06
502.956	86.06
503.172	88.06
503.389	92.06
503.606	92.06
503.823	89.06
504.04	95.06
504.256	124.06
504.473	128.06
504.69	101.06
504.907	81.06
505.123	75.06
505.34	85.06
505.557	84.06
505.773	77.06
505.99	96.06
506.207	104.06
506.423	92.06
506.64	84.06
506.856	84.06
507.073	81.06
507.289	77.06
507.506	82.06
507.722	86.06
507.939	86.06
508.155	85.06
508.372	86.06
508.588	77.06
508.805	91.06
509.021	85.06
509.238	68.06
509.454	95.06
509.67	96.06
509.887	91.06
510.103	84.06
510.319	89.06
510.536	78.06
510.752	93.06
510.968	70.06
511.184	75.06
511.401	76.06
511.617	75.06
511.833	83.06
512.049	90.06
512.265	84.06
512.481	95.06
512.698	92.06
512.914	88.06
513.13	74.06
513.346	93.06
513.562	86.06
513.778	86.06
513.994	95.06
514.21	96.06
514.426	83.06
514.642	90.06
514.858	87.06
515.074	86.06
515.29	82.06
515.506	81.06
515.721	87.06
515.937	100.06
516.153	102.06
516.369	87.06
516.585	99.06
516.801	82.06
517.016	87.06
517.232	85.06
517.448	96.06
517.664	88.06
517.879	93.06
518.095	90.06
518.311	104.06
518.527	116.06
518.742	109.06
