Data from 237_3_HRD10591_00024.txt Node
Date: Mon Jan 19 14:13:06 EST 2026
User: Yrep
Spectrometer: HR+D1059
Trigger mode: 1
Integration Time (sec): 1.000000E-1
Scans to average: 1
Electric dark correction enabled: true
Nonlinearity correction enabled: false
Boxcar width: 0
XAxis mode: Wavelengths
Number of Pixels in Spectrum: 2048
>>>>>Begin Spectral Data<<<<<
223.165	-9.5
223.4	-9.5
223.635	-9.5
223.869	-31.5
224.104	-6.5
224.338	-9.5
224.573	-18.5
224.808	-13.5
225.042	-9.5
225.277	-1.5
225.511	0.5
225.746	11.5
225.98	6.5
226.215	1.5
226.449	14.5
226.683	9.5
226.918	20.5
227.152	35.5
227.387	43.5
227.621	35.5
227.856	42.5
228.09	38.5
228.324	47.5
228.559	57.5
228.793	64.5
229.027	53.5
229.262	66.5
229.496	85.5
229.73	70.5
229.964	74.5
230.199	78.5
230.433	68.5
230.667	65.5
230.901	85.5
231.136	74.5
231.37	85.5
231.604	86.5
231.838	89.5
232.072	72.5
232.306	81.5
232.541	85.5
232.775	89.5
233.009	85.5
233.243	77.5
233.477	79.5
233.711	90.5
233.945	88.5
234.179	91.5
234.413	91.5
234.647	77.5
234.881	87.5
235.115	73.5
235.349	81.5
235.583	79.5
235.817	73.5
236.051	77.5
236.285	74.5
236.519	88.5
236.753	63.5
236.987	73.5
237.221	81.5
237.455	77.5
237.689	89.5
237.922	75.5
238.156	77.5
238.39	69.5
238.624	74.5
238.858	78.5
239.091	83.5
239.325	78.5
239.559	68.5
239.793	85.5
240.027	61.5
240.26	59.5
240.494	84.5
240.728	78.5
240.961	84.5
241.195	77.5
241.429	63.5
241.662	72.5
241.896	64.5
242.13	59.5
242.363	67.5
242.597	81.5
242.83	83.5
243.064	84.5
243.298	91.5
243.531	72.5
243.765	75.5
243.998	80.5
244.232	89.5
244.465	87.5
244.699	81.5
244.932	84.5
245.166	81.5
245.399	67.5
245.633	55.5
245.866	83.5
246.099	76.5
246.333	71.5
246.566	78.5
246.8	71.5
247.033	73.5
247.266	82.5
247.5	84.5
247.733	74.5
247.966	71.5
248.2	76.5
248.433	82.5
248.666	87.5
248.899	75.5
249.133	79.5
249.366	80.5
249.599	84.5
249.832	76.5
250.066	84.5
250.299	91.5
250.532	93.5
250.765	81.5
250.998	92.5
251.231	76.5
251.465	79.5
251.698	74.5
251.931	84.5
252.164	87.5
252.397	86.5
252.63	87.5
252.863	87.5
253.096	80.5
253.329	95.5
253.562	80.5
253.795	89.5
254.028	81.5
254.261	80.5
254.494	80.5
254.727	80.5
254.96	75.5
255.193	73.5
255.426	67.5
255.659	84.5
255.892	79.5
256.124	64.5
256.357	81.5
256.59	79.5
256.823	87.5
257.056	81.5
257.289	80.5
257.521	82.5
257.754	89.5
257.987	80.5
258.22	78.5
258.452	85.5
258.685	95.5
258.918	82.5
259.151	95.5
259.383	83.5
259.616	78.5
259.849	69.5
260.081	70.5
260.314	82.5
260.547	91.5
260.779	74.5
261.012	84.5
261.244	87.5
261.477	75.5
261.71	85.5
261.942	85.5
262.175	71.5
262.407	73.5
262.64	69.5
262.872	82.5
263.105	81.5
263.337	95.5
263.57	74.5
263.802	71.5
264.035	71.5
264.267	86.5
264.499	82.5
264.732	80.5
264.964	65.5
265.197	87.5
265.429	87.5
265.661	74.5
265.894	86.5
266.126	89.5
266.358	83.5
266.591	80.5
266.823	80.5
267.055	85.5
267.287	95.5
267.52	80.5
267.752	77.5
267.984	77.5
268.216	80.5
268.448	77.5
268.681	78.5
268.913	81.5
269.145	99.5
269.377	92.5
269.609	74.5
269.841	84.5
270.073	69.5
270.306	80.5
270.538	89.5
270.77	83.5
271.002	97.5
271.234	77.5
271.466	96.5
271.698	89.5
271.93	81.5
272.162	93.5
272.394	104.5
272.626	74.5
272.858	83.5
273.09	76.5
273.322	84.5
273.553	69.5
273.785	73.5
274.017	72.5
274.249	79.5
274.481	84.5
274.713	74.5
274.945	92.5
275.176	83.5
275.408	72.5
275.64	96.5
275.872	91.5
276.104	97.5
276.335	81.5
276.567	90.5
276.799	88.5
277.031	84.5
277.262	76.5
277.494	67.5
277.726	86.5
277.957	80.5
278.189	84.5
278.421	85.5
278.652	70.5
278.884	83.5
279.115	91.5
279.347	83.5
279.579	82.5
279.81	99.5
280.042	83.5
280.273	87.5
280.505	89.5
280.736	86.5
280.968	83.5
281.199	74.5
281.431	90.5
281.662	85.5
281.894	85.5
282.125	89.5
282.356	89.5
282.588	89.5
282.819	86.5
283.051	88.5
283.282	78.5
283.513	96.5
283.745	80.5
283.976	85.5
284.207	84.5
284.439	89.5
284.67	91.5
284.901	89.5
285.132	94.5
285.364	87.5
285.595	98.5
285.826	84.5
286.057	74.5
286.288	74.5
286.52	76.5
286.751	77.5
286.982	89.5
287.213	93.5
287.444	78.5
287.675	75.5
287.906	90.5
288.138	87.5
288.369	93.5
288.6	97.5
288.831	83.5
289.062	81.5
289.293	75.5
289.524	79.5
289.755	85.5
289.986	74.5
290.217	86.5
290.448	100.5
290.679	92.5
290.91	84.5
291.141	87.5
291.371	85.5
291.602	92.5
291.833	83.5
292.064	96.5
292.295	74.5
292.526	87.5
292.757	87.5
292.987	67.5
293.218	81.5
293.449	93.5
293.68	72.5
293.91	82.5
294.141	85.5
294.372	85.5
294.603	84.5
294.833	78.5
295.064	88.5
295.295	86.5
295.525	87.5
295.756	99.5
295.987	84.5
296.217	75.5
296.448	90.5
296.679	68.5
296.909	86.5
297.14	89.5
297.37	91.5
297.601	84.5
297.831	85.5
298.062	91.5
298.292	91.5
298.523	86.5
298.753	91.5
298.984	87.5
299.214	77.5
299.445	101.5
299.675	88.5
299.905	95.5
300.136	83.5
300.366	88.5
300.597	86.5
300.827	92.5
301.057	93.5
301.288	76.5
301.518	97.5
301.748	79.5
301.979	79.5
302.209	90.5
302.439	91.5
302.669	76.5
302.9	87.5
303.13	87.5
303.36	89.5
303.59	87.5
303.82	86.5
304.051	86.5
304.281	97.5
304.511	89.5
304.741	101.5
304.971	65.5
305.201	78.5
305.431	86.5
305.661	83.5
305.891	87.5
306.121	79.5
306.352	95.5
306.582	88.5
306.812	96.5
307.042	89.5
307.272	93.5
307.502	83.5
307.731	91.5
307.961	95.5
308.191	90.5
308.421	92.5
308.651	91.5
308.881	67.5
309.111	92.5
309.341	92.5
309.571	81.5
309.8	88.5
310.03	84.5
310.26	89.5
310.49	91.5
310.72	93.5
310.949	77.5
311.179	87.5
311.409	90.5
311.639	87.5
311.868	90.5
312.098	83.5
312.328	83.5
312.557	81.5
312.787	85.5
313.017	81.5
313.246	95.5
313.476	81.5
313.706	85.5
313.935	94.5
314.165	79.5
314.394	75.5
314.624	91.5
314.853	83.5
315.083	99.5
315.312	98.5
315.542	88.5
315.771	83.5
316.001	82.5
316.23	103.5
316.46	81.5
316.689	92.5
316.919	92.5
317.148	80.5
317.377	97.5
317.607	77.5
317.836	94.5
318.065	100.5
318.295	93.5
318.524	99.5
318.753	76.5
318.983	82.5
319.212	88.5
319.441	90.5
319.67	89.5
319.9	69.5
320.129	84.5
320.358	99.5
320.587	102.5
320.816	80.5
321.046	80.5
321.275	81.5
321.504	80.5
321.733	93.5
321.962	96.5
322.191	91.5
322.42	95.5
322.649	77.5
322.878	89.5
323.108	96.5
323.337	95.5
323.566	90.5
323.795	90.5
324.024	95.5
324.253	95.5
324.482	76.5
324.71	79.5
324.939	102.5
325.168	95.5
325.397	88.5
325.626	85.5
325.855	87.5
326.084	74.5
326.313	84.5
326.542	91.5
326.77	95.5
326.999	78.5
327.228	77.5
327.457	98.5
327.686	93.5
327.914	84.5
328.143	96.5
328.372	70.5
328.6	82.5
328.829	79.5
329.058	96.5
329.287	85.5
329.515	77.5
329.744	85.5
329.972	86.5
330.201	92.5
330.43	92.5
330.658	96.5
330.887	77.5
331.115	81.5
331.344	82.5
331.572	90.5
331.801	106.5
332.03	96.5
332.258	90.5
332.486	78.5
332.715	75.5
332.943	84.5
333.172	89.5
333.4	87.5
333.629	88.5
333.857	88.5
334.085	98.5
334.314	94.5
334.542	81.5
334.771	86.5
334.999	94.5
335.227	97.5
335.455	88.5
335.684	107.5
335.912	87.5
336.14	102.5
336.369	91.5
336.597	96.5
336.825	71.5
337.053	85.5
337.281	97.5
337.51	83.5
337.738	93.5
337.966	90.5
338.194	86.5
338.422	81.5
338.65	95.5
338.878	83.5
339.106	86.5
339.334	87.5
339.562	68.5
339.79	94.5
340.018	93.5
340.246	85.5
340.474	81.5
340.702	88.5
340.93	74.5
341.158	81.5
341.386	85.5
341.614	94.5
341.842	74.5
342.07	95.5
342.298	91.5
342.526	99.5
342.754	85.5
342.981	97.5
343.209	96.5
343.437	108.5
343.665	84.5
343.893	90.5
344.12	106.5
344.348	86.5
344.576	89.5
344.804	99.5
345.031	95.5
345.259	84.5
345.487	90.5
345.714	96.5
345.942	95.5
346.17	85.5
346.397	83.5
346.625	93.5
346.853	91.5
347.08	89.5
347.308	88.5
347.535	101.5
347.763	83.5
347.99	89.5
348.218	95.5
348.445	85.5
348.673	90.5
348.9	101.5
349.128	93.5
349.355	79.5
349.583	81.5
349.81	82.5
350.037	83.5
350.265	79.5
350.492	90.5
350.72	83.5
350.947	83.5
351.174	79.5
351.402	78.5
351.629	85.5
351.856	85.5
352.083	84.5
352.311	91.5
352.538	95.5
352.765	87.5
352.992	81.5
353.22	95.5
353.447	84.5
353.674	89.5
353.901	81.5
354.128	93.5
354.355	83.5
354.583	92.5
354.81	82.5
355.037	90.5
355.264	102.5
355.491	91.5
355.718	89.5
355.945	93.5
356.172	92.5
356.399	84.5
356.626	98.5
356.853	93.5
357.08	96.5
357.307	87.5
357.534	92.5
357.761	101.5
357.988	103.5
358.215	103.5
358.441	93.5
358.668	86.5
358.895	89.5
359.122	87.5
359.349	83.5
359.576	87.5
359.802	86.5
360.029	91.5
360.256	101.5
360.483	87.5
360.709	85.5
360.936	91.5
361.163	95.5
361.39	68.5
361.616	83.5
361.843	101.5
362.07	100.5
362.296	86.5
362.523	102.5
362.749	108.5
362.976	119.5
363.203	117.5
363.429	96.5
363.656	96.5
363.882	78.5
364.109	103.5
364.335	128.5
364.562	135.5
364.788	96.5
365.015	81.5
365.241	92.5
365.468	84.5
365.694	97.5
365.92	73.5
366.147	85.5
366.373	79.5
366.599	80.5
366.826	99.5
367.052	75.5
367.278	105.5
367.505	87.5
367.731	97.5
367.957	92.5
368.184	96.5
368.41	88.5
368.636	73.5
368.862	103.5
369.089	83.5
369.315	92.5
369.541	87.5
369.767	87.5
369.993	101.5
370.219	84.5
370.445	88.5
370.672	85.5
370.898	84.5
371.124	90.5
371.35	97.5
371.576	94.5
371.802	103.5
372.028	103.5
372.254	98.5
372.48	102.5
372.706	93.5
372.932	89.5
373.158	105.5
373.384	93.5
373.61	95.5
373.835	105.5
374.061	96.5
374.287	97.5
374.513	98.5
374.739	107.5
374.965	94.5
375.191	97.5
375.416	85.5
375.642	89.5
375.868	92.5
376.094	88.5
376.319	97.5
376.545	92.5
376.771	95.5
376.997	101.5
377.222	81.5
377.448	96.5
377.674	97.5
377.899	81.5
378.125	85.5
378.35	77.5
378.576	98.5
378.802	100.5
379.027	84.5
379.253	81.5
379.478	90.5
379.704	82.5
379.929	86.5
380.155	89.5
380.38	98.5
380.606	102.5
380.831	81.5
381.057	80.5
381.282	95.5
381.507	107.5
381.733	103.5
381.958	97.5
382.184	97.5
382.409	100.5
382.634	99.5
382.86	95.5
383.085	106.5
383.31	105.5
383.535	96.5
383.761	103.5
383.986	89.5
384.211	90.5
384.436	88.5
384.662	88.5
384.887	87.5
385.112	77.5
385.337	86.5
385.562	100.5
385.787	81.5
386.013	106.5
386.238	96.5
386.463	89.5
386.688	104.5
386.913	92.5
387.138	91.5
387.363	85.5
387.588	103.5
387.813	91.5
388.038	107.5
388.263	106.5
388.488	90.5
388.713	102.5
388.938	93.5
389.163	89.5
389.387	85.5
389.612	100.5
389.837	86.5
390.062	85.5
390.287	94.5
390.512	97.5
390.736	92.5
390.961	85.5
391.186	82.5
391.411	92.5
391.636	79.5
391.86	71.5
392.085	92.5
392.31	89.5
392.534	107.5
392.759	121.5
392.984	149.5
393.208	216.5
393.433	301.5
393.658	243.5
393.882	118.5
394.107	121.5
394.331	109.5
394.556	117.5
394.78	106.5
395.005	106.5
395.229	96.5
395.454	97.5
395.678	90.5
395.903	110.5
396.127	128.5
396.352	146.5
396.576	156.5
396.801	226.5
397.025	269.5
397.249	154.5
397.474	140.5
397.698	111.5
397.922	91.5
398.147	85.5
398.371	89.5
398.595	115.5
398.82	81.5
399.044	104.5
399.268	92.5
399.492	94.5
399.717	79.5
399.941	97.5
400.165	96.5
400.389	89.5
400.613	83.5
400.837	83.5
401.062	93.5
401.286	96.5
401.51	98.5
401.734	107.5
401.958	94.5
402.182	83.5
402.406	77.5
402.63	88.5
402.854	88.5
403.078	90.5
403.302	96.5
403.526	93.5
403.75	91.5
403.974	97.5
404.198	115.5
404.422	134.5
404.645	148.5
404.869	144.5
405.093	115.5
405.317	89.5
405.541	104.5
405.765	98.5
405.988	104.5
406.212	87.5
406.436	74.5
406.66	85.5
406.883	91.5
407.107	69.5
407.331	103.5
407.555	97.5
407.778	114.5
408.002	114.5
408.226	96.5
408.449	79.5
408.673	91.5
408.896	93.5
409.12	83.5
409.344	98.5
409.567	89.5
409.791	103.5
410.014	109.5
410.238	100.5
410.461	88.5
410.685	96.5
410.908	85.5
411.132	95.5
411.355	100.5
411.578	84.5
411.802	87.5
412.025	91.5
412.249	84.5
412.472	77.5
412.695	78.5
412.919	91.5
413.142	101.5
413.365	102.5
413.589	91.5
413.812	89.5
414.035	91.5
414.258	89.5
414.482	96.5
414.705	89.5
414.928	99.5
415.151	78.5
415.374	78.5
415.597	74.5
415.821	80.5
416.044	86.5
416.267	81.5
416.49	85.5
416.713	80.5
416.936	89.5
417.159	84.5
417.382	96.5
417.605	81.5
417.828	86.5
418.051	92.5
418.274	79.5
418.497	63.5
418.72	77.5
418.943	92.5
419.166	88.5
419.389	101.5
419.611	83.5
419.834	85.5
420.057	87.5
420.28	103.5
420.503	88.5
420.726	96.5
420.948	97.5
421.171	92.5
421.394	93.5
421.617	118.5
421.839	118.5
422.062	136.5
422.285	210.5
422.507	328.5
422.73	547.5
422.953	481.5
423.175	268.5
423.398	154.5
423.621	127.5
423.843	109.5
424.066	111.5
424.288	102.5
424.511	100.5
424.733	102.5
424.956	111.5
425.178	93.5
425.401	97.5
425.623	95.5
425.846	86.5
426.068	100.5
426.291	96.5
426.513	87.5
426.735	98.5
426.958	93.5
427.18	99.5
427.402	101.5
427.625	93.5
427.847	118.5
428.069	102.5
428.292	131.5
428.514	150.5
428.736	124.5
428.958	135.5
429.181	157.5
429.403	110.5
429.625	99.5
429.847	143.5
430.069	175.5
430.292	200.5
430.514	194.5
430.736	143.5
430.958	148.5
431.18	118.5
431.402	106.5
431.624	92.5
431.846	124.5
432.068	151.5
432.29	104.5
432.512	96.5
432.734	97.5
432.956	91.5
433.178	79.5
433.4	93.5
433.622	92.5
433.844	84.5
434.066	89.5
434.287	79.5
434.509	84.5
434.731	89.5
434.953	89.5
435.175	81.5
435.397	85.5
435.618	99.5
435.84	82.5
436.062	93.5
436.284	95.5
436.505	81.5
436.727	86.5
436.949	65.5
437.17	80.5
437.392	95.5
437.614	98.5
437.835	96.5
438.057	95.5
438.278	96.5
438.5	101.5
438.721	92.5
438.943	89.5
439.165	88.5
439.386	87.5
439.608	80.5
439.829	80.5
440.05	82.5
440.272	88.5
440.493	91.5
440.715	91.5
440.936	89.5
441.158	84.5
441.379	86.5
441.6	89.5
441.822	95.5
442.043	85.5
442.264	100.5
442.486	155.5
442.707	199.5
442.928	130.5
443.149	110.5
443.371	147.5
443.592	301.5
443.813	252.5
444.034	115.5
444.255	98.5
444.476	104.5
444.698	95.5
444.919	101.5
445.14	197.5
445.361	226.5
445.582	332.5
445.803	290.5
446.024	138.5
446.245	105.5
446.466	95.5
446.687	96.5
446.908	90.5
447.129	93.5
447.35	87.5
447.571	92.5
447.792	83.5
448.013	77.5
448.234	86.5
448.455	84.5
448.675	80.5
448.896	78.5
449.117	82.5
449.338	103.5
449.559	95.5
449.779	82.5
450	83.5
450.221	89.5
450.442	91.5
450.662	87.5
450.883	92.5
451.104	85.5
451.324	88.5
451.545	83.5
451.766	91.5
451.986	91.5
452.207	88.5
452.428	98.5
452.648	95.5
452.869	96.5
453.089	93.5
453.31	88.5
453.53	95.5
453.751	88.5
453.971	89.5
454.192	94.5
454.412	95.5
454.633	89.5
454.853	84.5
455.073	83.5
455.294	95.5
455.514	111.5
455.734	92.5
455.955	92.5
456.175	90.5
456.395	82.5
456.616	88.5
456.836	77.5
457.056	83.5
457.276	85.5
457.497	90.5
457.717	103.5
457.937	121.5
458.157	129.5
458.377	127.5
458.598	126.5
458.818	128.5
459.038	108.5
459.258	92.5
459.478	83.5
459.698	80.5
459.918	99.5
460.138	95.5
460.358	91.5
460.578	112.5
460.798	136.5
461.018	134.5
461.238	84.5
461.458	89.5
461.678	96.5
461.898	91.5
462.118	91.5
462.338	95.5
462.558	78.5
462.777	93.5
462.997	85.5
463.217	90.5
463.437	90.5
463.657	105.5
463.876	99.5
464.096	85.5
464.316	93.5
464.536	84.5
464.755	78.5
464.975	93.5
465.195	91.5
465.414	85.5
465.634	87.5
465.854	89.5
466.073	82.5
466.293	99.5
466.512	74.5
466.732	83.5
466.951	91.5
467.171	76.5
467.391	95.5
467.61	81.5
467.829	87.5
468.049	78.5
468.268	92.5
468.488	72.5
468.707	91.5
468.927	93.5
469.146	94.5
469.365	92.5
469.585	79.5
469.804	90.5
470.023	88.5
470.243	78.5
470.462	81.5
470.681	84.5
470.901	73.5
471.12	69.5
471.339	85.5
471.558	81.5
471.777	87.5
471.997	88.5
472.216	85.5
472.435	88.5
472.654	93.5
472.873	95.5
473.092	90.5
473.311	91.5
473.53	81.5
473.749	90.5
473.968	91.5
474.187	92.5
474.406	75.5
474.625	97.5
474.844	88.5
475.063	74.5
475.282	87.5
475.501	97.5
475.72	98.5
475.939	90.5
476.158	95.5
476.377	79.5
476.596	89.5
476.814	86.5
477.033	76.5
477.252	95.5
477.471	85.5
477.69	74.5
477.908	90.5
478.127	82.5
478.346	93.5
478.564	78.5
478.783	73.5
479.002	91.5
479.22	82.5
479.439	95.5
479.658	90.5
479.876	95.5
480.095	99.5
480.313	102.5
480.532	94.5
480.751	85.5
480.969	88.5
481.188	100.5
481.406	85.5
481.624	95.5
481.843	95.5
482.061	86.5
482.28	100.5
482.498	99.5
482.717	93.5
482.935	87.5
483.153	87.5
483.372	83.5
483.59	91.5
483.808	88.5
484.027	102.5
484.245	82.5
484.463	92.5
484.681	101.5
484.9	88.5
485.118	100.5
485.336	74.5
485.554	90.5
485.772	83.5
485.99	96.5
486.209	109.5
486.427	84.5
486.645	90.5
486.863	93.5
487.081	104.5
487.299	93.5
487.517	100.5
487.735	134.5
487.953	170.5
488.171	137.5
488.389	104.5
488.607	94.5
488.825	95.5
489.043	87.5
489.261	88.5
489.479	101.5
489.696	103.5
489.914	83.5
490.132	83.5
490.35	70.5
490.568	103.5
490.786	92.5
491.003	89.5
491.221	91.5
491.439	98.5
491.657	76.5
491.874	95.5
492.092	86.5
492.31	95.5
492.527	86.5
492.745	79.5
492.963	96.5
493.18	99.5
493.398	90.5
493.615	93.5
493.833	76.5
494.05	101.5
494.268	75.5
494.485	92.5
494.703	84.5
494.92	85.5
495.138	96.5
495.355	99.5
495.573	84.5
495.79	106.5
496.008	91.5
496.225	99.5
496.442	97.5
496.66	109.5
496.877	106.5
497.094	89.5
497.312	91.5
497.529	97.5
497.746	109.5
497.963	90.5
498.181	103.5
498.398	95.5
498.615	85.5
498.832	90.5
499.049	98.5
499.267	102.5
499.484	96.5
499.701	98.5
499.918	99.5
500.135	97.5
500.352	89.5
500.569	102.5
500.786	84.5
501.003	91.5
501.22	89.5
501.437	77.5
501.654	84.5
501.871	85.5
502.088	104.5
502.305	85.5
502.522	99.5
502.739	100.5
502.956	88.5
503.172	88.5
503.389	85.5
503.606	97.5
503.823	106.5
504.04	95.5
504.256	116.5
504.473	141.5
504.69	97.5
504.907	97.5
505.123	97.5
505.34	92.5
505.557	93.5
505.773	91.5
505.99	95.5
506.207	80.5
506.423	92.5
506.64	91.5
506.856	87.5
507.073	76.5
507.289	82.5
507.506	74.5
507.722	90.5
507.939	98.5
508.155	103.5
508.372	87.5
508.588	88.5
508.805	91.5
509.021	99.5
509.238	92.5
509.454	92.5
509.67	103.5
509.887	81.5
510.103	96.5
510.319	107.5
510.536	96.5
510.752	108.5
510.968	101.5
511.184	90.5
511.401	92.5
511.617	93.5
511.833	97.5
512.049	90.5
512.265	105.5
512.481	83.5
512.698	96.5
512.914	97.5
513.13	97.5
513.346	80.5
513.562	104.5
513.778	97.5
513.994	107.5
514.21	99.5
514.426	86.5
514.642	79.5
514.858	84.5
515.074	82.5
515.29	93.5
515.506	87.5
515.721	83.5
515.937	88.5
516.153	98.5
516.369	96.5
516.585	95.5
516.801	90.5
517.016	92.5
517.232	89.5
517.448	97.5
517.664	90.5
517.879	90.5
518.095	95.5
518.311	109.5
518.527	99.5
518.742	117.5
518.958	148.5
519.173	166.5
519.389	111.5
519.605	97.5
519.82	95.5
520.036	101.5
520.251	89.5
520.467	78.5
520.682	79.5
520.898	112.5
521.113	97.5
521.329	102.5
521.544	83.5
521.76	68.5
521.975	90.5
522.19	99.5
522.406	107.5
522.621	107.5
522.836	95.5
523.052	94.5
523.267	83.5
523.482	106.5
523.698	101.5
523.913	98.5
524.128	98.5
524.343	106.5
524.559	105.5
524.774	90.5
524.989	108.5
525.204	97.5
525.419	103.5
525.634	92.5
525.849	99.5
526.064	112.5
526.28	227.5
526.495	333.5
526.71	348.5
526.925	251.5
527.14	334.5
527.355	277.5
527.57	119.5
527.785	92.5
527.999	104.5
528.214	100.5
528.429	94.5
528.644	109.5
528.859	92.5
529.074	93.5
529.289	88.5
529.503	102.5
529.718	103.5
529.933	91.5
530.148	88.5
530.363	97.5
530.577	99.5
530.792	87.5
531.007	90.5
531.221	90.5
531.436	105.5
531.651	91.5
531.865	105.5
532.08	99.5
532.295	106.5
532.509	100.5
532.724	111.5
532.938	88.5
533.153	93.5
533.367	108.5
533.582	109.5
533.796	97.5
534.011	99.5
534.225	115.5
534.44	119.5
534.654	116.5
534.868	117.5
535.083	172.5
535.297	141.5
535.511	99.5
535.726	97.5
535.94	111.5
536.154	117.5
536.369	124.5
536.583	103.5
536.797	127.5
537.011	111.5
