Data from 237_3_HRD10591_00002.txt Node
Date: Mon Jan 19 14:12:55 EST 2026
User: Yrep
Spectrometer: HR+D1059
Trigger mode: 1
Integration Time (sec): 1.000000E-1
Scans to average: 1
Electric dark correction enabled: true
Nonlinearity correction enabled: false
Boxcar width: 0
XAxis mode: Wavelengths
Number of Pixels in Spectrum: 2048
>>>>>Begin Spectral Data<<<<<
223.165	-13.5
223.4	-13.5
223.635	-13.5
223.869	-25.5
224.104	-25.5
224.338	-10.5
224.573	-13.5
224.808	0.5
225.042	1.5
225.277	-9.5
225.511	10.5
225.746	-6.5
225.98	-0.5
226.215	-2.5
226.449	7.5
226.683	19.5
226.918	32.5
227.152	35.5
227.387	35.5
227.621	43.5
227.856	58.5
228.09	46.5
228.324	48.5
228.559	57.5
228.793	63.5
229.027	65.5
229.262	59.5
229.496	59.5
229.73	70.5
229.964	75.5
230.199	67.5
230.433	62.5
230.667	95.5
230.901	82.5
231.136	77.5
231.37	77.5
231.604	77.5
231.838	94.5
232.072	82.5
232.306	76.5
232.541	76.5
232.775	89.5
233.009	81.5
233.243	80.5
233.477	80.5
233.711	85.5
233.945	72.5
234.179	64.5
234.413	76.5
234.647	71.5
234.881	82.5
235.115	95.5
235.349	71.5
235.583	83.5
235.817	87.5
236.051	74.5
236.285	71.5
236.519	67.5
236.753	85.5
236.987	74.5
237.221	72.5
237.455	86.5
237.689	73.5
237.922	73.5
238.156	68.5
238.39	62.5
238.624	71.5
238.858	79.5
239.091	67.5
239.325	86.5
239.559	79.5
239.793	68.5
240.027	75.5
240.26	79.5
240.494	83.5
240.728	67.5
240.961	73.5
241.195	79.5
241.429	83.5
241.662	80.5
241.896	98.5
242.13	90.5
242.363	73.5
242.597	77.5
242.83	73.5
243.064	79.5
243.298	72.5
243.531	67.5
243.765	60.5
243.998	74.5
244.232	74.5
244.465	76.5
244.699	83.5
244.932	73.5
245.166	75.5
245.399	85.5
245.633	68.5
245.866	80.5
246.099	70.5
246.333	77.5
246.566	81.5
246.8	83.5
247.033	93.5
247.266	86.5
247.5	81.5
247.733	65.5
247.966	67.5
248.2	82.5
248.433	70.5
248.666	73.5
248.899	91.5
249.133	84.5
249.366	64.5
249.599	69.5
249.832	87.5
250.066	73.5
250.299	61.5
250.532	81.5
250.765	88.5
250.998	72.5
251.231	81.5
251.465	80.5
251.698	63.5
251.931	84.5
252.164	87.5
252.397	81.5
252.63	83.5
252.863	76.5
253.096	80.5
253.329	89.5
253.562	94.5
253.795	80.5
254.028	71.5
254.261	71.5
254.494	75.5
254.727	93.5
254.96	75.5
255.193	58.5
255.426	68.5
255.659	73.5
255.892	78.5
256.124	83.5
256.357	72.5
256.59	85.5
256.823	83.5
257.056	85.5
257.289	98.5
257.521	81.5
257.754	88.5
257.987	85.5
258.22	75.5
258.452	61.5
258.685	74.5
258.918	65.5
259.151	73.5
259.383	72.5
259.616	85.5
259.849	66.5
260.081	76.5
260.314	82.5
260.547	75.5
260.779	87.5
261.012	85.5
261.244	69.5
261.477	85.5
261.71	81.5
261.942	80.5
262.175	83.5
262.407	84.5
262.64	73.5
262.872	85.5
263.105	90.5
263.337	81.5
263.57	81.5
263.802	90.5
264.035	79.5
264.267	79.5
264.499	59.5
264.732	89.5
264.964	86.5
265.197	86.5
265.429	74.5
265.661	98.5
265.894	81.5
266.126	85.5
266.358	78.5
266.591	86.5
266.823	80.5
267.055	81.5
267.287	83.5
267.52	85.5
267.752	69.5
267.984	87.5
268.216	81.5
268.448	76.5
268.681	79.5
268.913	81.5
269.145	71.5
269.377	79.5
269.609	86.5
269.841	95.5
270.073	101.5
270.306	85.5
270.538	81.5
270.77	81.5
271.002	75.5
271.234	79.5
271.466	85.5
271.698	83.5
271.93	92.5
272.162	90.5
272.394	77.5
272.626	75.5
272.858	72.5
273.09	91.5
273.322	87.5
273.553	83.5
273.785	92.5
274.017	78.5
274.249	81.5
274.481	81.5
274.713	70.5
274.945	81.5
275.176	75.5
275.408	89.5
275.64	71.5
275.872	73.5
276.104	87.5
276.335	91.5
276.567	74.5
276.799	66.5
277.031	80.5
277.262	89.5
277.494	92.5
277.726	76.5
277.957	82.5
278.189	90.5
278.421	75.5
278.652	93.5
278.884	75.5
279.115	93.5
279.347	81.5
279.579	75.5
279.81	79.5
280.042	79.5
280.273	86.5
280.505	72.5
280.736	84.5
280.968	98.5
281.199	87.5
281.431	82.5
281.662	91.5
281.894	83.5
282.125	76.5
282.356	87.5
282.588	83.5
282.819	82.5
283.051	78.5
283.282	82.5
283.513	92.5
283.745	91.5
283.976	81.5
284.207	82.5
284.439	67.5
284.67	82.5
284.901	106.5
285.132	81.5
285.364	84.5
285.595	79.5
285.826	88.5
286.057	72.5
286.288	86.5
286.52	83.5
286.751	74.5
286.982	84.5
287.213	90.5
287.444	81.5
287.675	81.5
287.906	86.5
288.138	74.5
288.369	86.5
288.6	94.5
288.831	81.5
289.062	74.5
289.293	83.5
289.524	66.5
289.755	90.5
289.986	65.5
290.217	87.5
290.448	94.5
290.679	72.5
290.91	77.5
291.141	85.5
291.371	91.5
291.602	74.5
291.833	87.5
292.064	97.5
292.295	87.5
292.526	74.5
292.757	82.5
292.987	88.5
293.218	99.5
293.449	83.5
293.68	84.5
293.91	89.5
294.141	73.5
294.372	83.5
294.603	86.5
294.833	74.5
295.064	94.5
295.295	81.5
295.525	73.5
295.756	75.5
295.987	85.5
296.217	94.5
296.448	76.5
296.679	86.5
296.909	76.5
297.14	81.5
297.37	92.5
297.601	78.5
297.831	92.5
298.062	88.5
298.292	79.5
298.523	81.5
298.753	72.5
298.984	80.5
299.214	79.5
299.445	94.5
299.675	95.5
299.905	98.5
300.136	98.5
300.366	98.5
300.597	95.5
300.827	104.5
301.057	90.5
301.288	86.5
301.518	93.5
301.748	91.5
301.979	95.5
302.209	89.5
302.439	98.5
302.669	89.5
302.9	86.5
303.13	95.5
303.36	86.5
303.59	78.5
303.82	83.5
304.051	93.5
304.281	98.5
304.511	91.5
304.741	91.5
304.971	86.5
305.201	89.5
305.431	94.5
305.661	88.5
305.891	89.5
306.121	85.5
306.352	84.5
306.582	83.5
306.812	101.5
307.042	89.5
307.272	75.5
307.502	77.5
307.731	89.5
307.961	97.5
308.191	90.5
308.421	99.5
308.651	69.5
308.881	81.5
309.111	93.5
309.341	103.5
309.571	100.5
309.8	92.5
310.03	88.5
310.26	91.5
310.49	85.5
310.72	94.5
310.949	71.5
311.179	67.5
311.409	90.5
311.639	83.5
311.868	81.5
312.098	89.5
312.328	79.5
312.557	89.5
312.787	80.5
313.017	100.5
313.246	82.5
313.476	99.5
313.706	91.5
313.935	90.5
314.165	86.5
314.394	86.5
314.624	66.5
314.853	102.5
315.083	82.5
315.312	93.5
315.542	99.5
315.771	72.5
316.001	100.5
316.23	89.5
316.46	86.5
316.689	84.5
316.919	87.5
317.148	90.5
317.377	83.5
317.607	113.5
317.836	90.5
318.065	93.5
318.295	99.5
318.524	94.5
318.753	94.5
318.983	85.5
319.212	95.5
319.441	97.5
319.67	95.5
319.9	85.5
320.129	88.5
320.358	98.5
320.587	84.5
320.816	69.5
321.046	81.5
321.275	86.5
321.504	89.5
321.733	87.5
321.962	92.5
322.191	89.5
322.42	94.5
322.649	73.5
322.878	88.5
323.108	88.5
323.337	82.5
323.566	73.5
323.795	96.5
324.024	96.5
324.253	85.5
324.482	91.5
324.71	91.5
324.939	93.5
325.168	89.5
325.397	93.5
325.626	90.5
325.855	79.5
326.084	95.5
326.313	82.5
326.542	75.5
326.77	93.5
326.999	95.5
327.228	102.5
327.457	75.5
327.686	86.5
327.914	94.5
328.143	76.5
328.372	86.5
328.6	98.5
328.829	97.5
329.058	96.5
329.287	83.5
329.515	84.5
329.744	94.5
329.972	86.5
330.201	89.5
330.43	85.5
330.658	78.5
330.887	93.5
331.115	93.5
331.344	90.5
331.572	79.5
331.801	88.5
332.03	96.5
332.258	94.5
332.486	105.5
332.715	87.5
332.943	89.5
333.172	84.5
333.4	82.5
333.629	77.5
333.857	82.5
334.085	90.5
334.314	95.5
334.542	87.5
334.771	103.5
334.999	97.5
335.227	89.5
335.455	83.5
335.684	109.5
335.912	93.5
336.14	101.5
336.369	85.5
336.597	80.5
336.825	87.5
337.053	96.5
337.281	84.5
337.51	86.5
337.738	89.5
337.966	99.5
338.194	101.5
338.422	83.5
338.65	91.5
338.878	90.5
339.106	85.5
339.334	89.5
339.562	75.5
339.79	95.5
340.018	76.5
340.246	71.5
340.474	89.5
340.702	94.5
340.93	77.5
341.158	93.5
341.386	90.5
341.614	88.5
341.842	90.5
342.07	76.5
342.298	75.5
342.526	72.5
342.754	79.5
342.981	91.5
343.209	81.5
343.437	101.5
343.665	97.5
343.893	81.5
344.12	109.5
344.348	96.5
344.576	83.5
344.804	65.5
345.031	92.5
345.259	88.5
345.487	88.5
345.714	82.5
345.942	74.5
346.17	78.5
346.397	90.5
346.625	89.5
346.853	89.5
347.08	91.5
347.308	88.5
347.535	94.5
347.763	81.5
347.99	92.5
348.218	86.5
348.445	85.5
348.673	97.5
348.9	99.5
349.128	101.5
349.355	113.5
349.583	93.5
349.81	75.5
350.037	91.5
350.265	88.5
350.492	86.5
350.72	88.5
350.947	80.5
351.174	83.5
351.402	89.5
351.629	64.5
351.856	83.5
352.083	82.5
352.311	75.5
352.538	88.5
352.765	81.5
352.992	89.5
353.22	94.5
353.447	73.5
353.674	89.5
353.901	86.5
354.128	83.5
354.355	79.5
354.583	80.5
354.81	85.5
355.037	71.5
355.264	93.5
355.491	84.5
355.718	90.5
355.945	90.5
356.172	85.5
356.399	79.5
356.626	90.5
356.853	93.5
357.08	85.5
357.307	92.5
357.534	85.5
357.761	83.5
357.988	90.5
358.215	114.5
358.441	98.5
358.668	106.5
358.895	94.5
359.122	81.5
359.349	90.5
359.576	93.5
359.802	100.5
360.029	94.5
360.256	93.5
360.483	75.5
360.709	83.5
360.936	98.5
361.163	79.5
361.39	97.5
361.616	87.5
361.843	95.5
362.07	96.5
362.296	96.5
362.523	106.5
362.749	124.5
362.976	121.5
363.203	135.5
363.429	120.5
363.656	114.5
363.882	105.5
364.109	122.5
364.335	145.5
364.562	153.5
364.788	127.5
365.015	97.5
365.241	92.5
365.468	98.5
365.694	90.5
365.92	90.5
366.147	91.5
366.373	79.5
366.599	85.5
366.826	87.5
367.052	87.5
367.278	105.5
367.505	83.5
367.731	87.5
367.957	95.5
368.184	92.5
368.41	91.5
368.636	92.5
368.862	91.5
369.089	83.5
369.315	87.5
369.541	94.5
369.767	92.5
369.993	100.5
370.219	114.5
370.445	81.5
370.672	96.5
370.898	89.5
371.124	83.5
371.35	88.5
371.576	86.5
371.802	83.5
372.028	91.5
372.254	114.5
372.48	99.5
372.706	103.5
372.932	100.5
373.158	97.5
373.384	89.5
373.61	113.5
373.835	121.5
374.061	103.5
374.287	90.5
374.513	113.5
374.739	111.5
374.965	104.5
375.191	99.5
375.416	113.5
375.642	94.5
375.868	104.5
376.094	109.5
376.319	95.5
376.545	93.5
376.771	99.5
376.997	111.5
377.222	99.5
377.448	82.5
377.674	91.5
377.899	97.5
378.125	86.5
378.35	93.5
378.576	86.5
378.802	86.5
379.027	96.5
379.253	83.5
379.478	93.5
379.704	103.5
379.929	85.5
380.155	83.5
380.38	99.5
380.606	90.5
380.831	89.5
381.057	99.5
381.282	106.5
381.507	95.5
381.733	98.5
381.958	99.5
382.184	89.5
382.409	106.5
382.634	133.5
382.86	110.5
383.085	107.5
383.31	96.5
383.535	98.5
383.761	102.5
383.986	106.5
384.211	104.5
384.436	82.5
384.662	100.5
384.887	104.5
385.112	103.5
385.337	93.5
385.562	105.5
385.787	112.5
386.013	106.5
386.238	118.5
386.463	109.5
386.688	110.5
386.913	109.5
387.138	102.5
387.363	104.5
387.588	115.5
387.813	100.5
388.038	125.5
388.263	114.5
388.488	101.5
388.713	91.5
388.938	100.5
389.163	98.5
389.387	88.5
389.612	100.5
389.837	89.5
390.062	91.5
390.287	106.5
390.512	101.5
390.736	103.5
390.961	101.5
391.186	113.5
391.411	88.5
391.636	93.5
391.86	102.5
392.085	104.5
392.31	108.5
392.534	118.5
392.759	133.5
392.984	174.5
393.208	294.5
393.433	401.5
393.658	325.5
393.882	171.5
394.107	127.5
394.331	130.5
394.556	154.5
394.78	125.5
395.005	104.5
395.229	105.5
395.454	106.5
395.678	117.5
395.903	137.5
396.127	144.5
396.352	170.5
396.576	197.5
396.801	303.5
397.025	311.5
397.249	186.5
397.474	137.5
397.698	123.5
397.922	106.5
398.147	89.5
398.371	115.5
398.595	100.5
398.82	83.5
399.044	113.5
399.268	93.5
399.492	83.5
399.717	83.5
399.941	91.5
400.165	89.5
400.389	78.5
400.613	82.5
400.837	90.5
401.062	85.5
401.286	82.5
401.51	91.5
401.734	89.5
401.958	79.5
402.182	97.5
402.406	88.5
402.63	88.5
402.854	87.5
403.078	93.5
403.302	103.5
403.526	97.5
403.75	86.5
403.974	94.5
404.198	117.5
404.422	157.5
404.645	175.5
404.869	134.5
405.093	119.5
405.317	95.5
405.541	92.5
405.765	97.5
405.988	104.5
406.212	102.5
406.436	89.5
406.66	85.5
406.883	85.5
407.107	96.5
407.331	99.5
407.555	105.5
407.778	113.5
408.002	110.5
408.226	99.5
408.449	91.5
408.673	81.5
408.896	97.5
409.12	96.5
409.344	117.5
409.567	109.5
409.791	104.5
410.014	104.5
410.238	103.5
410.461	97.5
410.685	89.5
410.908	81.5
411.132	108.5
411.355	89.5
411.578	93.5
411.802	88.5
412.025	81.5
412.249	85.5
412.472	82.5
412.695	104.5
412.919	85.5
413.142	86.5
413.365	93.5
413.589	77.5
413.812	97.5
414.035	87.5
414.258	94.5
414.482	87.5
414.705	102.5
414.928	85.5
415.151	93.5
415.374	102.5
415.597	85.5
415.821	89.5
416.044	88.5
416.267	88.5
416.49	88.5
416.713	87.5
416.936	86.5
417.159	97.5
417.382	93.5
417.605	80.5
417.828	102.5
418.051	88.5
418.274	79.5
418.497	85.5
418.72	81.5
418.943	85.5
419.166	91.5
419.389	80.5
419.611	99.5
419.834	92.5
420.057	88.5
420.28	99.5
420.503	105.5
420.726	90.5
420.948	104.5
421.171	110.5
421.394	117.5
421.617	123.5
421.839	131.5
422.062	145.5
422.285	221.5
422.507	371.5
422.73	507.5
422.953	470.5
423.175	296.5
423.398	174.5
423.621	151.5
423.843	125.5
424.066	111.5
424.288	111.5
424.511	104.5
424.733	98.5
424.956	102.5
425.178	98.5
425.401	89.5
425.623	99.5
425.846	107.5
426.068	94.5
426.291	93.5
426.513	94.5
426.735	99.5
426.958	81.5
427.18	90.5
427.402	100.5
427.625	94.5
427.847	98.5
428.069	103.5
428.292	159.5
428.514	168.5
428.736	129.5
428.958	158.5
429.181	155.5
429.403	103.5
429.625	124.5
429.847	144.5
430.069	209.5
430.292	258.5
430.514	232.5
430.736	181.5
430.958	175.5
431.18	119.5
431.402	101.5
431.624	130.5
431.846	135.5
432.068	168.5
432.29	119.5
432.512	113.5
432.734	89.5
432.956	94.5
433.178	89.5
433.4	83.5
433.622	75.5
433.844	95.5
434.066	89.5
434.287	81.5
434.509	88.5
434.731	84.5
434.953	84.5
435.175	90.5
435.397	101.5
435.618	98.5
435.84	94.5
436.062	101.5
436.284	97.5
436.505	92.5
436.727	89.5
436.949	78.5
437.17	89.5
437.392	101.5
437.614	102.5
437.835	96.5
438.057	81.5
438.278	99.5
438.5	104.5
438.721	102.5
438.943	92.5
439.165	81.5
439.386	81.5
439.608	103.5
439.829	81.5
440.05	83.5
440.272	85.5
440.493	93.5
440.715	91.5
440.936	83.5
441.158	99.5
441.379	97.5
441.6	93.5
441.822	94.5
442.043	99.5
442.264	107.5
442.486	181.5
442.707	217.5
442.928	165.5
443.149	140.5
443.371	200.5
443.592	371.5
443.813	313.5
444.034	131.5
444.255	101.5
444.476	93.5
444.698	103.5
444.919	111.5
445.14	219.5
445.361	272.5
445.582	429.5
445.803	382.5
446.024	163.5
446.245	94.5
446.466	88.5
446.687	89.5
446.908	93.5
447.129	88.5
447.35	86.5
447.571	89.5
447.792	73.5
448.013	89.5
448.234	95.5
448.455	76.5
448.675	79.5
448.896	80.5
449.117	88.5
449.338	96.5
449.559	89.5
449.779	86.5
450	83.5
450.221	91.5
450.442	88.5
450.662	82.5
450.883	76.5
451.104	94.5
451.324	71.5
451.545	87.5
451.766	92.5
451.986	86.5
452.207	89.5
452.428	85.5
452.648	110.5
452.869	102.5
453.089	101.5
453.31	91.5
453.53	119.5
453.751	96.5
453.971	96.5
454.192	90.5
454.412	74.5
454.633	84.5
454.853	91.5
455.073	81.5
455.294	80.5
455.514	105.5
455.734	97.5
455.955	87.5
456.175	99.5
456.395	74.5
456.616	91.5
456.836	89.5
457.056	91.5
457.276	102.5
457.497	105.5
457.717	116.5
457.937	122.5
458.157	145.5
458.377	147.5
458.598	137.5
458.818	166.5
459.038	103.5
459.258	99.5
459.478	90.5
459.698	77.5
459.918	110.5
460.138	93.5
460.358	79.5
460.578	100.5
460.798	133.5
461.018	125.5
461.238	105.5
461.458	103.5
461.678	91.5
461.898	84.5
462.118	81.5
462.338	96.5
462.558	85.5
462.777	75.5
462.997	89.5
463.217	93.5
463.437	89.5
463.657	84.5
463.876	78.5
464.096	90.5
464.316	105.5
464.536	88.5
464.755	95.5
464.975	85.5
465.195	96.5
465.414	86.5
465.634	89.5
465.854	89.5
466.073	90.5
466.293	96.5
466.512	99.5
466.732	106.5
466.951	101.5
467.171	96.5
467.391	97.5
467.61	89.5
467.829	98.5
468.049	83.5
468.268	86.5
468.488	104.5
468.707	87.5
468.927	109.5
469.146	105.5
469.365	97.5
469.585	93.5
469.804	99.5
470.023	80.5
470.243	93.5
470.462	94.5
470.681	80.5
470.901	86.5
471.12	97.5
471.339	94.5
471.558	101.5
471.777	91.5
471.997	94.5
472.216	85.5
472.435	81.5
472.654	67.5
472.873	81.5
473.092	77.5
473.311	97.5
473.53	90.5
473.749	95.5
473.968	109.5
474.187	89.5
474.406	95.5
474.625	100.5
474.844	84.5
475.063	89.5
475.282	91.5
475.501	92.5
475.72	101.5
475.939	84.5
476.158	90.5
476.377	88.5
476.596	91.5
476.814	95.5
477.033	96.5
477.252	81.5
477.471	85.5
477.69	76.5
477.908	100.5
478.127	87.5
478.346	91.5
478.564	105.5
478.783	90.5
479.002	89.5
479.22	77.5
479.439	81.5
479.658	93.5
479.876	95.5
480.095	93.5
480.313	88.5
480.532	81.5
480.751	85.5
480.969	86.5
481.188	98.5
481.406	104.5
481.624	90.5
481.843	91.5
482.061	105.5
482.28	95.5
482.498	84.5
482.717	81.5
482.935	97.5
483.153	101.5
483.372	109.5
483.59	98.5
483.808	97.5
484.027	109.5
484.245	105.5
484.463	96.5
484.681	106.5
484.9	84.5
485.118	103.5
485.336	90.5
485.554	89.5
485.772	82.5
485.99	87.5
486.209	98.5
486.427	89.5
486.645	94.5
486.863	83.5
487.081	94.5
487.299	102.5
487.517	117.5
487.735	133.5
487.953	218.5
488.171	195.5
488.389	106.5
488.607	89.5
488.825	93.5
489.043	96.5
489.261	104.5
489.479	104.5
489.696	106.5
489.914	83.5
490.132	109.5
490.35	102.5
490.568	95.5
490.786	84.5
491.003	94.5
491.221	105.5
491.439	105.5
491.657	88.5
491.874	81.5
492.092	97.5
492.31	106.5
492.527	83.5
492.745	97.5
492.963	96.5
493.18	119.5
493.398	107.5
493.615	107.5
493.833	89.5
494.05	87.5
494.268	97.5
494.485	96.5
494.703	97.5
494.92	92.5
495.138	102.5
495.355	91.5
495.573	100.5
495.79	100.5
496.008	113.5
496.225	85.5
496.442	105.5
496.66	113.5
496.877	104.5
497.094	97.5
497.312	95.5
497.529	103.5
497.746	115.5
497.963	91.5
498.181	109.5
498.398	136.5
498.615	101.5
498.832	93.5
499.049	95.5
499.267	121.5
499.484	107.5
499.701	105.5
499.918	103.5
500.135	113.5
500.352	114.5
500.569	100.5
500.786	117.5
501.003	98.5
501.22	100.5
501.437	112.5
501.654	102.5
501.871	115.5
502.088	97.5
502.305	115.5
502.522	113.5
502.739	100.5
502.956	113.5
503.172	110.5
503.389	92.5
503.606	113.5
503.823	118.5
504.04	107.5
504.256	160.5
504.473	159.5
504.69	107.5
504.907	98.5
505.123	106.5
505.34	101.5
505.557	94.5
505.773	104.5
505.99	113.5
506.207	96.5
506.423	85.5
506.64	106.5
506.856	105.5
507.073	94.5
507.289	102.5
507.506	98.5
507.722	93.5
507.939	97.5
508.155	98.5
508.372	107.5
508.588	95.5
508.805	98.5
509.021	93.5
509.238	102.5
509.454	119.5
509.67	101.5
509.887	88.5
510.103	110.5
510.319	95.5
510.536	95.5
510.752	104.5
510.968	97.5
511.184	113.5
511.401	117.5
511.617	100.5
511.833	96.5
512.049	95.5
512.265	102.5
512.481	109.5
512.698	110.5
512.914	94.5
513.13	109.5
513.346	93.5
513.562	88.5
513.778	93.5
513.994	90.5
514.21	90.5
514.426	102.5
514.642	98.5
514.858	86.5
515.074	106.5
515.29	104.5
515.506	107.5
515.721	93.5
515.937	112.5
516.153	106.5
516.369	99.5
516.585	104.5
516.801	105.5
517.016	93.5
517.232	108.5
517.448	128.5
517.664	109.5
517.879	96.5
518.095	94.5
518.311	105.5
518.527	131.5
518.742	137.5
518.958	201.5
519.173	198.5
519.389	133.5
519.605	129.5
519.82	111.5
520.036	91.5
520.251	93.5
520.467	99.5
520.682	99.5
520.898	109.5
521.113	117.5
521.329	103.5
521.544	111.5
521.76	97.5
521.975	107.5
522.19	95.5
522.406	112.5
522.621	99.5
522.836	103.5
523.052	109.5
523.267	89.5
523.482	112.5
523.698	87.5
523.913	83.5
524.128	102.5
524.343	103.5
524.559	109.5
524.774	111.5
524.989	110.5
525.204	102.5
525.419	94.5
525.634	107.5
525.849	112.5
526.064	166.5
526.28	326.5
526.495	458.5
526.71	488.5
526.925	328.5
527.14	407.5
527.355	376.5
527.57	148.5
527.785	113.5
527.999	114.5
528.214	103.5
528.429	103.5
528.644	112.5
528.859	107.5
529.074	84.5
529.289	104.5
529.503	106.5
529.718	91.5
529.933	97.5
530.148	94.5
530.363	94.5
530.577	106.5
530.792	105.5
531.007	106.5
531.221	113.5
531.436	106.5
531.651	99.5
531.865	100.5
532.08	115.5
532.295	113.5
532.509	115.5
532.724	115.5
532.938	114.5
533.153	124.5
533.367	101.5
533.582	102.5
533.796	107.5
534.011	111.5
534.225	109.5
534.44	129.5
534.654	139.5
534.868	133.5
