Data from 237_3_HRD10591_00036.txt Node
Date: Mon Jan 19 14:13:12 EST 2026
User: Yrep
Spectrometer: HR+D1059
Trigger mode: 1
Integration Time (sec): 1.000000E-1
Scans to average: 1
Electric dark correction enabled: true
Nonlinearity correction enabled: false
Boxcar width: 0
XAxis mode: Wavelengths
Number of Pixels in Spectrum: 2048
>>>>>Begin Spectral Data<<<<<
223.165	-22
223.4	-22
223.635	-22
223.869	-15
224.104	-30
224.338	-9
224.573	-3
224.808	-15
225.042	-3
225.277	-8
225.511	-7
225.746	7
225.98	-5
226.215	17
226.449	-5
226.683	17
226.918	33
227.152	48
227.387	45
227.621	27
227.856	43
228.09	52
228.324	58
228.559	49
228.793	63
229.027	64
229.262	75
229.496	73
229.73	65
229.964	68
230.199	63
230.433	74
230.667	83
230.901	67
231.136	72
231.37	81
231.604	73
231.838	93
232.072	85
232.306	82
232.541	82
232.775	91
233.009	78
233.243	83
233.477	71
233.711	66
233.945	95
234.179	78
234.413	65
234.647	83
234.881	78
235.115	71
235.349	68
235.583	85
235.817	82
236.051	87
236.285	82
236.519	74
236.753	65
236.987	80
237.221	82
237.455	70
237.689	58
237.922	71
238.156	73
238.39	71
238.624	58
238.858	88
239.091	89
239.325	73
239.559	76
239.793	69
240.027	81
240.26	76
240.494	86
240.728	79
240.961	67
241.195	95
241.429	74
241.662	63
241.896	75
242.13	65
242.363	76
242.597	79
242.83	63
243.064	79
243.298	68
243.531	59
243.765	75
243.998	81
244.232	90
244.465	79
244.699	78
244.932	78
245.166	82
245.399	80
245.633	78
245.866	87
246.099	75
246.333	65
246.566	67
246.8	80
247.033	64
247.266	84
247.5	82
247.733	60
247.966	87
248.2	77
248.433	73
248.666	79
248.899	72
249.133	85
249.366	93
249.599	80
249.832	80
250.066	94
250.299	79
250.532	72
250.765	81
250.998	71
251.231	88
251.465	81
251.698	81
251.931	81
252.164	90
252.397	77
252.63	71
252.863	71
253.096	76
253.329	79
253.562	75
253.795	80
254.028	78
254.261	82
254.494	78
254.727	81
254.96	75
255.193	93
255.426	100
255.659	81
255.892	65
256.124	78
256.357	81
256.59	91
256.823	78
257.056	85
257.289	75
257.521	79
257.754	88
257.987	69
258.22	78
258.452	91
258.685	85
258.918	80
259.151	65
259.383	79
259.616	71
259.849	85
260.081	82
260.314	65
260.547	83
260.779	79
261.012	75
261.244	69
261.477	82
261.71	79
261.942	79
262.175	82
262.407	74
262.64	68
262.872	83
263.105	86
263.337	81
263.57	83
263.802	81
264.035	95
264.267	75
264.499	79
264.732	72
264.964	73
265.197	66
265.429	86
265.661	83
265.894	59
266.126	77
266.358	82
266.591	77
266.823	75
267.055	77
267.287	75
267.52	78
267.752	85
267.984	87
268.216	78
268.448	79
268.681	67
268.913	91
269.145	84
269.377	65
269.609	77
269.841	76
270.073	77
270.306	86
270.538	81
270.77	69
271.002	79
271.234	81
271.466	69
271.698	75
271.93	72
272.162	90
272.394	79
272.626	75
272.858	82
273.09	83
273.322	76
273.553	82
273.785	81
274.017	79
274.249	70
274.481	80
274.713	99
274.945	85
275.176	93
275.408	89
275.64	86
275.872	80
276.104	84
276.335	80
276.567	85
276.799	87
277.031	72
277.262	69
277.494	79
277.726	80
277.957	90
278.189	84
278.421	86
278.652	83
278.884	105
279.115	83
279.347	91
279.579	82
279.81	85
280.042	80
280.273	80
280.505	72
280.736	87
280.968	85
281.199	86
281.431	88
281.662	90
281.894	87
282.125	77
282.356	87
282.588	85
282.819	83
283.051	94
283.282	79
283.513	86
283.745	74
283.976	79
284.207	81
284.439	86
284.67	95
284.901	78
285.132	90
285.364	84
285.595	81
285.826	79
286.057	77
286.288	85
286.52	75
286.751	81
286.982	77
287.213	89
287.444	90
287.675	85
287.906	80
288.138	87
288.369	79
288.6	91
288.831	73
289.062	88
289.293	75
289.524	89
289.755	82
289.986	85
290.217	92
290.448	75
290.679	66
290.91	89
291.141	79
291.371	79
291.602	90
291.833	89
292.064	74
292.295	84
292.526	69
292.757	89
292.987	96
293.218	81
293.449	92
293.68	92
293.91	83
294.141	92
294.372	91
294.603	90
294.833	81
295.064	77
295.295	76
295.525	100
295.756	86
295.987	90
296.217	81
296.448	88
296.679	98
296.909	79
297.14	99
297.37	85
297.601	85
297.831	89
298.062	94
298.292	93
298.523	98
298.753	85
298.984	93
299.214	97
299.445	75
299.675	80
299.905	87
300.136	81
300.366	71
300.597	67
300.827	82
301.057	81
301.288	80
301.518	89
301.748	71
301.979	100
302.209	81
302.439	78
302.669	93
302.9	93
303.13	93
303.36	87
303.59	81
303.82	89
304.051	86
304.281	100
304.511	82
304.741	76
304.971	71
305.201	86
305.431	88
305.661	70
305.891	84
306.121	79
306.352	86
306.582	85
306.812	83
307.042	86
307.272	73
307.502	58
307.731	75
307.961	76
308.191	91
308.421	73
308.651	81
308.881	86
309.111	79
309.341	93
309.571	87
309.8	92
310.03	81
310.26	81
310.49	95
310.72	85
310.949	86
311.179	74
311.409	88
311.639	80
311.868	85
312.098	85
312.328	78
312.557	85
312.787	80
313.017	89
313.246	94
313.476	73
313.706	90
313.935	86
314.165	73
314.394	87
314.624	88
314.853	88
315.083	89
315.312	74
315.542	80
315.771	74
316.001	85
316.23	80
316.46	83
316.689	79
316.919	83
317.148	84
317.377	93
317.607	84
317.836	71
318.065	81
318.295	73
318.524	73
318.753	88
318.983	87
319.212	89
319.441	71
319.67	82
319.9	90
320.129	96
320.358	87
320.587	74
320.816	85
321.046	87
321.275	78
321.504	85
321.733	69
321.962	92
322.191	87
322.42	102
322.649	87
322.878	97
323.108	82
323.337	82
323.566	90
323.795	101
324.024	81
324.253	92
324.482	93
324.71	80
324.939	91
325.168	86
325.397	78
325.626	82
325.855	89
326.084	85
326.313	83
326.542	85
326.77	91
326.999	68
327.228	71
327.457	82
327.686	83
327.914	96
328.143	82
328.372	88
328.6	91
328.829	74
329.058	87
329.287	68
329.515	70
329.744	74
329.972	75
330.201	80
330.43	98
330.658	91
330.887	76
331.115	77
331.344	79
331.572	94
331.801	77
332.03	86
332.258	84
332.486	72
332.715	80
332.943	88
333.172	75
333.4	76
333.629	74
333.857	69
334.085	94
334.314	71
334.542	83
334.771	70
334.999	85
335.227	73
335.455	85
335.684	84
335.912	81
336.14	81
336.369	91
336.597	86
336.825	80
337.053	64
337.281	84
337.51	81
337.738	66
337.966	80
338.194	75
338.422	75
338.65	81
338.878	89
339.106	80
339.334	78
339.562	78
339.79	82
340.018	76
340.246	81
340.474	81
340.702	82
340.93	81
341.158	76
341.386	81
341.614	81
341.842	82
342.07	71
342.298	90
342.526	96
342.754	78
342.981	81
343.209	84
343.437	90
343.665	83
343.893	75
344.12	83
344.348	72
344.576	88
344.804	90
345.031	78
345.259	72
345.487	90
345.714	94
345.942	79
346.17	92
346.397	89
346.625	72
346.853	88
347.08	76
347.308	71
347.535	97
347.763	65
347.99	80
348.218	82
348.445	74
348.673	81
348.9	80
349.128	80
349.355	72
349.583	81
349.81	83
350.037	87
350.265	79
350.492	73
350.72	70
350.947	77
351.174	93
351.402	86
351.629	92
351.856	85
352.083	73
352.311	82
352.538	92
352.765	80
352.992	92
353.22	74
353.447	71
353.674	84
353.901	89
354.128	90
354.355	86
354.583	78
354.81	86
355.037	88
355.264	76
355.491	82
355.718	88
355.945	88
356.172	82
356.399	83
356.626	85
356.853	81
357.08	76
357.307	82
357.534	88
357.761	76
357.988	71
358.215	88
358.441	98
358.668	70
358.895	82
359.122	78
359.349	80
359.576	83
359.802	82
360.029	86
360.256	76
360.483	83
360.709	86
360.936	86
361.163	75
361.39	77
361.616	78
361.843	72
362.07	85
362.296	86
362.523	84
362.749	98
362.976	109
363.203	95
363.429	105
363.656	79
363.882	76
364.109	71
364.335	69
364.562	82
364.788	90
365.015	101
365.241	80
365.468	79
365.694	75
365.92	83
366.147	68
366.373	97
366.599	82
366.826	76
367.052	82
367.278	84
367.505	76
367.731	78
367.957	80
368.184	66
368.41	81
368.636	81
368.862	80
369.089	103
369.315	83
369.541	79
369.767	87
369.993	73
370.219	73
370.445	76
370.672	79
370.898	75
371.124	78
371.35	75
371.576	81
371.802	79
372.028	71
372.254	72
372.48	84
372.706	75
372.932	89
373.158	74
373.384	81
373.61	86
373.835	73
374.061	70
374.287	86
374.513	79
374.739	81
374.965	81
375.191	96
375.416	85
375.642	82
375.868	75
376.094	70
376.319	77
376.545	80
376.771	83
376.997	85
377.222	82
377.448	81
377.674	81
377.899	93
378.125	87
378.35	89
378.576	86
378.802	75
379.027	73
379.253	100
379.478	83
379.704	76
379.929	88
380.155	75
380.38	78
380.606	67
380.831	89
381.057	89
381.282	90
381.507	80
381.733	87
381.958	77
382.184	85
382.409	85
382.634	76
382.86	89
383.085	88
383.31	98
383.535	83
383.761	70
383.986	81
384.211	78
384.436	78
384.662	86
384.887	76
385.112	86
385.337	75
385.562	83
385.787	81
386.013	87
386.238	82
386.463	83
386.688	96
386.913	71
387.138	81
387.363	84
387.588	81
387.813	83
388.038	85
388.263	76
388.488	72
388.713	71
388.938	74
389.163	83
389.387	81
389.612	74
389.837	88
390.062	80
390.287	83
390.512	61
390.736	75
390.961	87
391.186	94
391.411	72
391.636	68
391.86	69
392.085	82
392.31	71
392.534	89
392.759	84
392.984	85
393.208	99
393.433	125
393.658	122
393.882	97
394.107	93
394.331	90
394.556	87
394.78	81
395.005	90
395.229	91
395.454	95
395.678	93
395.903	99
396.127	86
396.352	80
396.576	98
396.801	106
397.025	108
397.249	80
397.474	86
397.698	83
397.922	74
398.147	86
398.371	83
398.595	72
398.82	78
399.044	63
399.268	86
399.492	72
399.717	83
399.941	91
400.165	84
400.389	96
400.613	95
400.837	74
401.062	89
401.286	82
401.51	85
401.734	76
401.958	68
402.182	75
402.406	86
402.63	78
402.854	80
403.078	74
403.302	80
403.526	96
403.75	87
403.974	85
404.198	89
404.422	85
404.645	97
404.869	91
405.093	84
405.317	66
405.541	73
405.765	92
405.988	90
406.212	81
406.436	69
406.66	63
406.883	73
407.107	81
407.331	67
407.555	88
407.778	89
408.002	82
408.226	76
408.449	74
408.673	90
408.896	68
409.12	75
409.344	87
409.567	75
409.791	77
410.014	77
410.238	70
410.461	79
410.685	80
410.908	75
411.132	89
411.355	78
411.578	74
411.802	81
412.025	81
412.249	61
412.472	62
412.695	87
412.919	66
413.142	81
413.365	68
413.589	81
413.812	76
414.035	92
414.258	72
414.482	67
414.705	62
414.928	75
415.151	79
415.374	69
415.597	78
415.821	70
416.044	81
416.267	81
416.49	73
416.713	79
416.936	93
417.159	76
417.382	81
417.605	91
417.828	83
418.051	76
418.274	73
418.497	93
418.72	69
418.943	81
419.166	86
419.389	80
419.611	73
419.834	70
420.057	83
420.28	80
420.503	84
420.726	81
420.948	90
421.171	90
421.394	82
421.617	88
421.839	86
422.062	93
422.285	98
422.507	134
422.73	186
422.953	165
423.175	115
423.398	96
423.621	77
423.843	73
424.066	82
424.288	88
424.511	75
424.733	83
424.956	91
425.178	84
425.401	74
425.623	63
425.846	88
426.068	90
426.291	87
426.513	77
426.735	81
426.958	62
427.18	92
427.402	72
427.625	73
427.847	89
428.069	87
428.292	83
428.514	91
428.736	81
428.958	94
429.181	85
429.403	88
429.625	77
429.847	88
430.069	104
430.292	105
430.514	105
430.736	105
430.958	87
431.18	89
431.402	90
431.624	78
431.846	90
432.068	94
432.29	90
432.512	88
432.734	84
432.956	89
433.178	87
433.4	74
433.622	83
433.844	85
434.066	85
434.287	84
434.509	89
434.731	79
434.953	79
435.175	89
435.397	84
435.618	88
435.84	82
436.062	88
436.284	78
436.505	89
436.727	79
436.949	82
437.17	89
437.392	85
437.614	80
437.835	79
438.057	79
438.278	93
438.5	88
438.721	93
438.943	97
439.165	70
439.386	87
439.608	79
439.829	68
440.05	84
440.272	84
440.493	89
440.715	85
440.936	79
441.158	87
441.379	73
441.6	75
441.822	81
442.043	86
442.264	81
442.486	86
442.707	94
442.928	85
443.149	93
443.371	92
443.592	126
443.813	113
444.034	83
444.255	77
444.476	86
444.698	76
444.919	90
445.14	170
445.361	128
445.582	105
445.803	106
446.024	85
446.245	76
446.466	81
446.687	79
446.908	79
447.129	74
447.35	95
447.571	93
447.792	90
448.013	75
448.234	66
448.455	86
448.675	77
448.896	84
449.117	73
449.338	86
449.559	78
449.779	89
450	80
450.221	77
450.442	80
450.662	94
450.883	72
451.104	90
451.324	85
451.545	79
451.766	82
451.986	73
452.207	65
452.428	81
452.648	85
452.869	73
453.089	73
453.31	91
453.53	89
453.751	76
453.971	81
454.192	63
454.412	66
454.633	80
454.853	86
455.073	79
455.294	81
455.514	86
455.734	71
455.955	69
456.175	68
456.395	80
456.616	56
456.836	80
457.056	81
457.276	64
457.497	85
457.717	81
457.937	81
458.157	73
458.377	75
458.598	85
458.818	91
459.038	87
459.258	102
459.478	86
459.698	88
459.918	85
460.138	75
460.358	74
460.578	73
460.798	86
461.018	81
461.238	89
461.458	80
461.678	89
461.898	79
462.118	79
462.338	81
462.558	84
462.777	84
462.997	74
463.217	85
463.437	66
463.657	75
463.876	85
464.096	72
464.316	79
464.536	65
464.755	81
464.975	82
465.195	74
465.414	82
465.634	81
465.854	81
466.073	80
466.293	82
466.512	85
466.732	90
466.951	75
467.171	83
467.391	85
467.61	81
467.829	90
468.049	79
468.268	76
468.488	84
468.707	85
468.927	68
469.146	77
469.365	77
469.585	62
469.804	84
470.023	76
470.243	74
470.462	90
470.681	84
470.901	82
471.12	87
471.339	78
471.558	86
471.777	78
471.997	81
472.216	72
472.435	70
472.654	81
472.873	81
473.092	73
473.311	72
473.53	80
473.749	79
473.968	79
474.187	78
474.406	92
474.625	91
474.844	80
475.063	79
475.282	88
475.501	85
475.72	87
475.939	74
476.158	87
476.377	75
476.596	82
476.814	78
477.033	73
477.252	75
477.471	80
477.69	79
477.908	85
478.127	80
478.346	80
478.564	73
478.783	74
479.002	79
479.22	98
479.439	87
479.658	90
479.876	82
480.095	87
480.313	85
480.532	94
480.751	81
480.969	88
481.188	78
481.406	86
481.624	80
481.843	77
482.061	82
482.28	83
482.498	86
482.717	85
482.935	73
483.153	74
483.372	71
483.59	77
483.808	73
484.027	78
484.245	79
484.463	74
484.681	87
484.9	87
485.118	99
485.336	82
485.554	85
485.772	81
485.99	70
486.209	71
486.427	88
486.645	76
486.863	85
487.081	89
487.299	94
487.517	92
487.735	81
487.953	94
488.171	103
488.389	73
488.607	81
488.825	73
489.043	84
489.261	78
489.479	84
489.696	73
489.914	78
490.132	93
490.35	87
490.568	92
490.786	75
491.003	81
491.221	84
491.439	86
491.657	86
491.874	79
492.092	93
492.31	92
492.527	89
492.745	101
492.963	81
493.18	77
493.398	89
493.615	80
493.833	79
494.05	77
494.268	76
494.485	91
494.703	93
494.92	94
495.138	86
495.355	88
495.573	78
495.79	81
496.008	82
496.225	94
496.442	89
496.66	84
496.877	70
497.094	85
497.312	87
497.529	71
497.746	84
497.963	86
498.181	91
498.398	82
498.615	73
498.832	70
499.049	78
499.267	93
499.484	93
499.701	85
499.918	86
500.135	84
500.352	93
500.569	83
500.786	90
501.003	85
501.22	93
501.437	93
501.654	82
501.871	70
502.088	69
502.305	75
502.522	82
502.739	76
502.956	81
503.172	97
503.389	77
503.606	92
503.823	85
504.04	76
504.256	82
504.473	85
504.69	77
504.907	89
505.123	72
505.34	75
505.557	79
505.773	64
505.99	75
506.207	82
506.423	84
506.64	89
506.856	87
507.073	89
507.289	89
507.506	80
507.722	73
507.939	79
508.155	81
508.372	82
508.588	79
508.805	82
509.021	81
509.238	92
509.454	77
509.67	85
509.887	80
510.103	83
510.319	84
510.536	89
510.752	84
510.968	81
511.184	82
511.401	86
511.617	81
511.833	79
512.049	89
512.265	78
512.481	77
512.698	85
512.914	81
513.13	80
513.346	76
513.562	94
513.778	79
513.994	94
514.21	87
514.426	79
514.642	73
514.858	68
515.074	88
515.29	82
515.506	76
515.721	82
515.937	91
516.153	91
516.369	93
516.585	107
516.801	83
517.016	75
517.232	93
517.448	87
517.664	63
517.879	79
518.095	71
518.311	80
518.527	84
518.742	74
518.958	86
519.173	102
519.389	82
519.605	79
519.82	87
520.036	80
520.251	79
520.467	87
520.682	64
520.898	71
521.113	70
521.329	85
521.544	85
521.76	87
521.975	89
522.19	79
522.406	79
522.621	85
522.836	79
523.052	77
523.267	72
523.482	87
523.698	85
523.913	80
524.128	93
524.343	83
524.559	96
524.774	80
524.989	100
525.204	75
525.419	74
525.634	73
525.849	76
526.064	85
526.28	102
526.495	114
526.71	125
526.925	106
527.14	109
527.355	101
527.57	86
527.785	89
527.999	70
528.214	76
528.429	87
528.644	88
528.859	83
529.074	81
529.289	85
529.503	107
529.718	77
529.933	82
530.148	83
530.363	87
530.577	88
530.792	99
531.007	79
531.221	82
531.436	90
531.651	89
531.865	85
532.08	94
532.295	91
532.509	90
532.724	88
532.938	70
533.153	81
533.367	83
533.582	87
533.796	94
534.011	85
534.225	87
534.44	79
534.654	91
534.868	97
535.083	102
535.297	92
535.511	77
535.726	86
535.94	85
536.154	90
536.369	75
536.583	79
536.797	77
537.011	86
537.225	85
537.44	98
537.654	94
537.868	83
538.082	81
538.296	90
538.51	82
538.724	78
538.938	93
539.153	97
539.367	79
539.581	88
539.795	73
540.009	98
540.222	98
540.436	90
540.65	81
540.864	75
541.078	81
541.292	85
541.506	75
541.72	85
541.934	71
542.147	83
542.361	93
542.575	70
542.789	78
543.002	71
543.216	85
543.43	83
543.644	79
543.857	93
544.071	97
544.285	105
544.498	88
544.712	85
544.925	74
545.139	82
545.352	87
545.566	95
545.779	89
545.993	80
546.206	89
546.42	94
546.633	90
546.847	96
547.06	79
547.274	128
547.487	109
547.7	114
547.914	107
548.127	112
548.34	113
548.554	113
548.767	111
548.98	114
549.193	120
549.407	107
549.62	123
549.833	121
550.046	112
550.259	128
550.473	136
550.686	146
550.899	135
551.112	151
551.325	153
551.538	151
551.751	148
551.964	146
552.177	141
552.39	139
552.603	134
552.816	120
553.029	119
553.242	136
553.455	144
553.667	148
553.88	171
554.093	163
554.306	154
554.519	153
554.732	153
554.944	146
555.157	152
555.37	140
555.583	146
555.795	131
556.008	121
556.221	119
556.433	125
556.646	117
556.859	100
557.071	122
557.284	109
557.496	106
557.709	120
557.921	118
558.134	108
558.346	117
558.559	109
558.771	112
558.984	136
559.196	156
559.409	129
559.621	142
559.833	121
560.046	115
560.258	122
560.47	102
560.683	88
560.895	87
561.107	74
561.32	75
561.532	98
561.744	97
561.956	95
562.168	90
562.381	83
562.593	96
562.805	87
563.017	99
563.229	101
563.441	89
563.653	91
563.865	111
564.077	79
564.289	81
564.501	92
564.713	94
564.925	88
565.137	95
565.349	86
565.561	84
565.773	91
565.985	89
566.197	87
566.408	82
566.62	79
566.832	86
567.044	102
567.255	98
567.467	74
567.679	101
567.891	87
568.102	89
568.314	98
568.526	85
568.737	82
568.949	91
569.161	86
569.372	94
569.584	81
569.795	96
570.007	98
570.218	80
570.43	87
570.641	87
570.853	95
571.064	95
571.276	80
571.487	83
571.698	98
571.91	92
572.121	87
572.333	93
572.544	92
572.755	96
572.966	83
573.178	81
573.389	85
573.6	86
573.811	88
574.023	83
574.234	87
574.445	90
574.656	95
574.867	81
575.078	78
575.289	75
575.501	95
575.712	87
575.923	83
576.134	83
576.345	109
576.556	77
576.767	83
576.978	79
577.188	85
577.399	83
577.61	85
577.821	88
578.032	80
578.243	76
578.454	80
578.665	80
578.875	76
579.086	101
579.297	98
579.508	74
579.718	82
579.929	79
580.14	84
580.35	89
580.561	85
580.772	82
580.982	99
581.193	97
581.403	97
581.614	93
581.825	88
582.035	79
582.246	89
582.456	81
582.667	89
582.877	90
583.087	84
583.298	91
583.508	90
583.719	89
583.929	89
584.139	91
584.35	81
584.56	76
584.77	84
584.981	90
585.191	78
585.401	73
585.611	68
585.821	92
586.032	100
586.242	114
586.452	77
586.662	86
586.872	83
587.082	94
587.292	87
587.502	84
587.713	81
587.923	83
588.133	89
588.343	84
588.553	100
588.762	104
588.972	154
