Data from 237_3_HRD10591_00022.txt Node
Date: Mon Jan 19 14:13:05 EST 2026
User: Yrep
Spectrometer: HR+D1059
Trigger mode: 1
Integration Time (sec): 1.000000E-1
Scans to average: 1
Electric dark correction enabled: true
Nonlinearity correction enabled: false
Boxcar width: 0
XAxis mode: Wavelengths
Number of Pixels in Spectrum: 2048
>>>>>Begin Spectral Data<<<<<
223.165	-16.25
223.4	-16.25
223.635	-16.25
223.869	-28.25
224.104	-22.25
224.338	-16.25
224.573	-35.25
224.808	-11.25
225.042	-1.25
225.277	-4.25
225.511	1.75
225.746	3.75
225.98	9.75
226.215	19.75
226.449	22.75
226.683	16.75
226.918	30.75
227.152	29.75
227.387	25.75
227.621	20.75
227.856	48.75
228.09	46.75
228.324	40.75
228.559	55.75
228.793	56.75
229.027	61.75
229.262	68.75
229.496	74.75
229.73	85.75
229.964	62.75
230.199	83.75
230.433	75.75
230.667	71.75
230.901	74.75
231.136	68.75
231.37	62.75
231.604	72.75
231.838	80.75
232.072	72.75
232.306	68.75
232.541	76.75
232.775	94.75
233.009	73.75
233.243	79.75
233.477	74.75
233.711	68.75
233.945	78.75
234.179	76.75
234.413	74.75
234.647	69.75
234.881	74.75
235.115	70.75
235.349	64.75
235.583	78.75
235.817	70.75
236.051	79.75
236.285	60.75
236.519	74.75
236.753	91.75
236.987	84.75
237.221	68.75
237.455	80.75
237.689	63.75
237.922	73.75
238.156	68.75
238.39	69.75
238.624	88.75
238.858	65.75
239.091	82.75
239.325	88.75
239.559	60.75
239.793	79.75
240.027	70.75
240.26	71.75
240.494	59.75
240.728	65.75
240.961	73.75
241.195	69.75
241.429	64.75
241.662	60.75
241.896	63.75
242.13	71.75
242.363	80.75
242.597	79.75
242.83	74.75
243.064	63.75
243.298	73.75
243.531	70.75
243.765	62.75
243.998	82.75
244.232	73.75
244.465	68.75
244.699	73.75
244.932	81.75
245.166	71.75
245.399	72.75
245.633	72.75
245.866	72.75
246.099	66.75
246.333	80.75
246.566	82.75
246.8	65.75
247.033	81.75
247.266	62.75
247.5	74.75
247.733	77.75
247.966	69.75
248.2	80.75
248.433	76.75
248.666	72.75
248.899	58.75
249.133	74.75
249.366	78.75
249.599	72.75
249.832	69.75
250.066	72.75
250.299	80.75
250.532	71.75
250.765	85.75
250.998	76.75
251.231	74.75
251.465	80.75
251.698	78.75
251.931	87.75
252.164	72.75
252.397	64.75
252.63	77.75
252.863	62.75
253.096	75.75
253.329	76.75
253.562	68.75
253.795	74.75
254.028	79.75
254.261	82.75
254.494	86.75
254.727	87.75
254.96	83.75
255.193	71.75
255.426	62.75
255.659	74.75
255.892	66.75
256.124	66.75
256.357	78.75
256.59	71.75
256.823	100.75
257.056	80.75
257.289	78.75
257.521	80.75
257.754	89.75
257.987	78.75
258.22	79.75
258.452	78.75
258.685	73.75
258.918	70.75
259.151	78.75
259.383	81.75
259.616	82.75
259.849	82.75
260.081	86.75
260.314	75.75
260.547	80.75
260.779	64.75
261.012	88.75
261.244	70.75
261.477	80.75
261.71	72.75
261.942	71.75
262.175	86.75
262.407	73.75
262.64	73.75
262.872	87.75
263.105	81.75
263.337	88.75
263.57	84.75
263.802	88.75
264.035	67.75
264.267	66.75
264.499	88.75
264.732	76.75
264.964	95.75
265.197	72.75
265.429	80.75
265.661	74.75
265.894	92.75
266.126	86.75
266.358	80.75
266.591	75.75
266.823	73.75
267.055	74.75
267.287	87.75
267.52	82.75
267.752	69.75
267.984	95.75
268.216	73.75
268.448	73.75
268.681	72.75
268.913	85.75
269.145	80.75
269.377	84.75
269.609	81.75
269.841	73.75
270.073	69.75
270.306	74.75
270.538	81.75
270.77	83.75
271.002	86.75
271.234	92.75
271.466	85.75
271.698	88.75
271.93	85.75
272.162	85.75
272.394	80.75
272.626	78.75
272.858	79.75
273.09	82.75
273.322	101.75
273.553	78.75
273.785	73.75
274.017	82.75
274.249	87.75
274.481	85.75
274.713	80.75
274.945	77.75
275.176	72.75
275.408	69.75
275.64	74.75
275.872	76.75
276.104	90.75
276.335	74.75
276.567	88.75
276.799	78.75
277.031	80.75
277.262	78.75
277.494	96.75
277.726	66.75
277.957	72.75
278.189	69.75
278.421	70.75
278.652	81.75
278.884	86.75
279.115	73.75
279.347	80.75
279.579	74.75
279.81	68.75
280.042	79.75
280.273	85.75
280.505	67.75
280.736	81.75
280.968	77.75
281.199	80.75
281.431	82.75
281.662	87.75
281.894	74.75
282.125	82.75
282.356	73.75
282.588	77.75
282.819	79.75
283.051	77.75
283.282	82.75
283.513	97.75
283.745	92.75
283.976	78.75
284.207	96.75
284.439	94.75
284.67	92.75
284.901	91.75
285.132	81.75
285.364	79.75
285.595	96.75
285.826	72.75
286.057	56.75
286.288	75.75
286.52	74.75
286.751	94.75
286.982	90.75
287.213	77.75
287.444	66.75
287.675	88.75
287.906	78.75
288.138	80.75
288.369	71.75
288.6	75.75
288.831	67.75
289.062	88.75
289.293	91.75
289.524	75.75
289.755	81.75
289.986	70.75
290.217	72.75
290.448	84.75
290.679	87.75
290.91	81.75
291.141	77.75
291.371	88.75
291.602	74.75
291.833	81.75
292.064	92.75
292.295	85.75
292.526	89.75
292.757	76.75
292.987	87.75
293.218	93.75
293.449	86.75
293.68	79.75
293.91	84.75
294.141	78.75
294.372	81.75
294.603	79.75
294.833	81.75
295.064	84.75
295.295	80.75
295.525	81.75
295.756	86.75
295.987	69.75
296.217	66.75
296.448	95.75
296.679	97.75
296.909	82.75
297.14	89.75
297.37	87.75
297.601	78.75
297.831	87.75
298.062	91.75
298.292	81.75
298.523	79.75
298.753	69.75
298.984	75.75
299.214	84.75
299.445	86.75
299.675	84.75
299.905	88.75
300.136	86.75
300.366	89.75
300.597	89.75
300.827	86.75
301.057	77.75
301.288	70.75
301.518	62.75
301.748	80.75
301.979	98.75
302.209	95.75
302.439	88.75
302.669	81.75
302.9	80.75
303.13	74.75
303.36	82.75
303.59	94.75
303.82	76.75
304.051	87.75
304.281	85.75
304.511	84.75
304.741	87.75
304.971	94.75
305.201	89.75
305.431	83.75
305.661	74.75
305.891	71.75
306.121	83.75
306.352	96.75
306.582	72.75
306.812	85.75
307.042	80.75
307.272	69.75
307.502	88.75
307.731	92.75
307.961	88.75
308.191	82.75
308.421	92.75
308.651	96.75
308.881	81.75
309.111	91.75
309.341	88.75
309.571	90.75
309.8	74.75
310.03	69.75
310.26	85.75
310.49	89.75
310.72	84.75
310.949	94.75
311.179	81.75
311.409	83.75
311.639	79.75
311.868	82.75
312.098	66.75
312.328	62.75
312.557	99.75
312.787	81.75
313.017	82.75
313.246	83.75
313.476	71.75
313.706	80.75
313.935	94.75
314.165	88.75
314.394	97.75
314.624	72.75
314.853	90.75
315.083	89.75
315.312	103.75
315.542	83.75
315.771	81.75
316.001	84.75
316.23	81.75
316.46	91.75
316.689	85.75
316.919	85.75
317.148	95.75
317.377	74.75
317.607	92.75
317.836	88.75
318.065	96.75
318.295	81.75
318.524	85.75
318.753	79.75
318.983	66.75
319.212	67.75
319.441	80.75
319.67	96.75
319.9	74.75
320.129	88.75
320.358	91.75
320.587	96.75
320.816	87.75
321.046	82.75
321.275	102.75
321.504	85.75
321.733	70.75
321.962	93.75
322.191	75.75
322.42	89.75
322.649	75.75
322.878	87.75
323.108	80.75
323.337	99.75
323.566	86.75
323.795	82.75
324.024	76.75
324.253	92.75
324.482	80.75
324.71	94.75
324.939	80.75
325.168	94.75
325.397	89.75
325.626	71.75
325.855	79.75
326.084	84.75
326.313	89.75
326.542	85.75
326.77	91.75
326.999	88.75
327.228	87.75
327.457	86.75
327.686	94.75
327.914	82.75
328.143	89.75
328.372	71.75
328.6	69.75
328.829	70.75
329.058	86.75
329.287	87.75
329.515	82.75
329.744	77.75
329.972	82.75
330.201	90.75
330.43	92.75
330.658	96.75
330.887	96.75
331.115	85.75
331.344	88.75
331.572	92.75
331.801	84.75
332.03	69.75
332.258	65.75
332.486	88.75
332.715	87.75
332.943	78.75
333.172	84.75
333.4	73.75
333.629	96.75
333.857	84.75
334.085	86.75
334.314	101.75
334.542	86.75
334.771	87.75
334.999	102.75
335.227	94.75
335.455	96.75
335.684	98.75
335.912	90.75
336.14	92.75
336.369	96.75
336.597	73.75
336.825	84.75
337.053	87.75
337.281	84.75
337.51	85.75
337.738	95.75
337.966	85.75
338.194	100.75
338.422	84.75
338.65	85.75
338.878	81.75
339.106	89.75
339.334	88.75
339.562	78.75
339.79	77.75
340.018	88.75
340.246	101.75
340.474	88.75
340.702	64.75
340.93	76.75
341.158	89.75
341.386	79.75
341.614	74.75
341.842	102.75
342.07	88.75
342.298	77.75
342.526	92.75
342.754	82.75
342.981	87.75
343.209	93.75
343.437	100.75
343.665	89.75
343.893	96.75
344.12	109.75
344.348	95.75
344.576	92.75
344.804	80.75
345.031	85.75
345.259	90.75
345.487	86.75
345.714	84.75
345.942	78.75
346.17	78.75
346.397	80.75
346.625	90.75
346.853	83.75
347.08	73.75
347.308	85.75
347.535	99.75
347.763	80.75
347.99	67.75
348.218	73.75
348.445	95.75
348.673	90.75
348.9	105.75
349.128	67.75
349.355	94.75
349.583	82.75
349.81	86.75
350.037	84.75
350.265	77.75
350.492	96.75
350.72	85.75
350.947	84.75
351.174	85.75
351.402	94.75
351.629	96.75
351.856	90.75
352.083	88.75
352.311	91.75
352.538	70.75
352.765	81.75
352.992	98.75
353.22	93.75
353.447	82.75
353.674	89.75
353.901	93.75
354.128	90.75
354.355	81.75
354.583	90.75
354.81	65.75
355.037	73.75
355.264	69.75
355.491	89.75
355.718	82.75
355.945	100.75
356.172	84.75
356.399	78.75
356.626	100.75
356.853	82.75
357.08	96.75
357.307	92.75
357.534	77.75
357.761	93.75
357.988	97.75
358.215	87.75
358.441	96.75
358.668	81.75
358.895	79.75
359.122	81.75
359.349	86.75
359.576	78.75
359.802	87.75
360.029	86.75
360.256	89.75
360.483	84.75
360.709	85.75
360.936	88.75
361.163	93.75
361.39	74.75
361.616	95.75
361.843	88.75
362.07	100.75
362.296	109.75
362.523	124.75
362.749	109.75
362.976	115.75
363.203	129.75
363.429	112.75
363.656	100.75
363.882	104.75
364.109	114.75
364.335	131.75
364.562	161.75
364.788	131.75
365.015	110.75
365.241	87.75
365.468	82.75
365.694	72.75
365.92	99.75
366.147	88.75
366.373	97.75
366.599	78.75
366.826	83.75
367.052	79.75
367.278	68.75
367.505	92.75
367.731	78.75
367.957	94.75
368.184	98.75
368.41	88.75
368.636	87.75
368.862	90.75
369.089	87.75
369.315	75.75
369.541	93.75
369.767	82.75
369.993	82.75
370.219	96.75
370.445	97.75
370.672	92.75
370.898	81.75
371.124	95.75
371.35	85.75
371.576	84.75
371.802	92.75
372.028	79.75
372.254	91.75
372.48	102.75
372.706	100.75
372.932	88.75
373.158	82.75
373.384	105.75
373.61	114.75
373.835	115.75
374.061	95.75
374.287	97.75
374.513	110.75
374.739	94.75
374.965	98.75
375.191	108.75
375.416	90.75
375.642	96.75
375.868	90.75
376.094	82.75
376.319	91.75
376.545	96.75
376.771	87.75
376.997	84.75
377.222	72.75
377.448	83.75
377.674	96.75
377.899	88.75
378.125	80.75
378.35	96.75
378.576	72.75
378.802	90.75
379.027	89.75
379.253	88.75
379.478	92.75
379.704	97.75
379.929	74.75
380.155	85.75
380.38	88.75
380.606	89.75
380.831	91.75
381.057	88.75
381.282	98.75
381.507	91.75
381.733	85.75
381.958	85.75
382.184	90.75
382.409	91.75
382.634	96.75
382.86	96.75
383.085	94.75
383.31	89.75
383.535	97.75
383.761	92.75
383.986	84.75
384.211	92.75
384.436	88.75
384.662	89.75
384.887	95.75
385.112	97.75
385.337	88.75
385.562	86.75
385.787	96.75
386.013	98.75
386.238	98.75
386.463	97.75
386.688	109.75
386.913	82.75
387.138	77.75
387.363	85.75
387.588	96.75
387.813	97.75
388.038	81.75
388.263	101.75
388.488	94.75
388.713	93.75
388.938	90.75
389.163	100.75
389.387	87.75
389.612	86.75
389.837	78.75
390.062	86.75
390.287	90.75
390.512	96.75
390.736	87.75
390.961	89.75
391.186	88.75
391.411	100.75
391.636	100.75
391.86	103.75
392.085	109.75
392.31	90.75
392.534	96.75
392.759	124.75
392.984	157.75
393.208	269.75
393.433	355.75
393.658	281.75
393.882	139.75
394.107	115.75
394.331	126.75
394.556	133.75
394.78	113.75
395.005	95.75
395.229	101.75
395.454	105.75
395.678	109.75
395.903	147.75
396.127	151.75
396.352	188.75
396.576	173.75
396.801	256.75
397.025	300.75
397.249	175.75
397.474	131.75
397.698	110.75
397.922	96.75
398.147	85.75
398.371	81.75
398.595	83.75
398.82	94.75
399.044	88.75
399.268	73.75
399.492	93.75
399.717	89.75
399.941	84.75
400.165	88.75
400.389	90.75
400.613	93.75
400.837	86.75
401.062	89.75
401.286	100.75
401.51	88.75
401.734	81.75
401.958	95.75
402.182	81.75
402.406	79.75
402.63	84.75
402.854	82.75
403.078	89.75
403.302	90.75
403.526	97.75
403.75	85.75
403.974	102.75
404.198	114.75
404.422	143.75
404.645	146.75
404.869	137.75
405.093	103.75
405.317	94.75
405.541	90.75
405.765	83.75
405.988	92.75
406.212	84.75
406.436	101.75
406.66	93.75
406.883	88.75
407.107	88.75
407.331	92.75
407.555	98.75
407.778	113.75
408.002	112.75
408.226	97.75
408.449	94.75
408.673	90.75
408.896	88.75
409.12	87.75
409.344	102.75
409.567	120.75
409.791	118.75
410.014	104.75
410.238	89.75
410.461	99.75
410.685	73.75
410.908	90.75
411.132	90.75
411.355	75.75
411.578	80.75
411.802	85.75
412.025	80.75
412.249	80.75
412.472	68.75
412.695	83.75
412.919	92.75
413.142	94.75
413.365	91.75
413.589	84.75
413.812	77.75
414.035	94.75
414.258	94.75
414.482	101.75
414.705	103.75
414.928	94.75
415.151	83.75
415.374	85.75
415.597	87.75
415.821	79.75
416.044	84.75
416.267	90.75
416.49	86.75
416.713	79.75
416.936	88.75
417.159	93.75
417.382	86.75
417.605	87.75
417.828	87.75
418.051	83.75
418.274	98.75
418.497	76.75
418.72	96.75
418.943	105.75
419.166	101.75
419.389	85.75
419.611	88.75
419.834	95.75
420.057	87.75
420.28	87.75
420.503	81.75
420.726	109.75
420.948	112.75
421.171	92.75
421.394	112.75
421.617	135.75
421.839	143.75
422.062	147.75
422.285	234.75
422.507	416.75
422.73	592.75
422.953	553.75
423.175	308.75
423.398	168.75
423.621	148.75
423.843	118.75
424.066	104.75
424.288	125.75
424.511	88.75
424.733	84.75
424.956	98.75
425.178	92.75
425.401	82.75
425.623	88.75
425.846	78.75
426.068	86.75
426.291	102.75
426.513	82.75
426.735	87.75
426.958	82.75
427.18	86.75
427.402	96.75
427.625	100.75
427.847	100.75
428.069	99.75
428.292	148.75
428.514	169.75
428.736	136.75
428.958	143.75
429.181	154.75
429.403	106.75
429.625	105.75
429.847	137.75
430.069	208.75
430.292	238.75
430.514	217.75
430.736	138.75
430.958	164.75
431.18	112.75
431.402	107.75
431.624	109.75
431.846	148.75
432.068	170.75
432.29	111.75
432.512	93.75
432.734	83.75
432.956	76.75
433.178	93.75
433.4	92.75
433.622	83.75
433.844	81.75
434.066	89.75
434.287	78.75
434.509	96.75
434.731	90.75
434.953	82.75
435.175	85.75
435.397	103.75
435.618	93.75
435.84	91.75
436.062	99.75
436.284	102.75
436.505	93.75
436.727	89.75
436.949	89.75
437.17	76.75
437.392	89.75
437.614	84.75
437.835	86.75
438.057	80.75
438.278	102.75
438.5	97.75
438.721	75.75
438.943	88.75
439.165	99.75
439.386	87.75
439.608	93.75
439.829	92.75
440.05	80.75
440.272	83.75
440.493	100.75
440.715	89.75
440.936	84.75
441.158	80.75
441.379	85.75
441.6	85.75
441.822	89.75
442.043	100.75
442.264	120.75
442.486	140.75
442.707	209.75
442.928	147.75
443.149	125.75
443.371	187.75
443.592	342.75
443.813	294.75
444.034	134.75
444.255	104.75
444.476	97.75
444.698	102.75
444.919	94.75
445.14	202.75
445.361	252.75
445.582	420.75
445.803	356.75
446.024	150.75
446.245	108.75
446.466	109.75
446.687	92.75
446.908	88.75
447.129	95.75
447.35	77.75
447.571	89.75
447.792	87.75
448.013	84.75
448.234	82.75
448.455	96.75
448.675	83.75
448.896	87.75
449.117	96.75
449.338	92.75
449.559	86.75
449.779	86.75
450	85.75
450.221	86.75
450.442	66.75
450.662	74.75
450.883	76.75
451.104	98.75
451.324	88.75
451.545	69.75
451.766	70.75
451.986	86.75
452.207	93.75
452.428	91.75
452.648	85.75
452.869	96.75
453.089	84.75
453.31	92.75
453.53	84.75
453.751	96.75
453.971	87.75
454.192	84.75
454.412	95.75
454.633	85.75
454.853	84.75
455.073	69.75
455.294	81.75
455.514	102.75
455.734	72.75
455.955	72.75
456.175	66.75
456.395	64.75
456.616	82.75
456.836	77.75
457.056	86.75
457.276	92.75
457.497	67.75
457.717	102.75
457.937	111.75
458.157	161.75
458.377	143.75
458.598	149.75
458.818	140.75
459.038	111.75
459.258	99.75
459.478	81.75
459.698	83.75
459.918	88.75
460.138	74.75
460.358	85.75
460.578	89.75
460.798	136.75
461.018	143.75
461.238	94.75
461.458	81.75
461.678	79.75
461.898	87.75
462.118	88.75
462.338	86.75
462.558	85.75
462.777	99.75
462.997	89.75
463.217	94.75
463.437	95.75
463.657	78.75
463.876	78.75
464.096	85.75
464.316	69.75
464.536	92.75
464.755	92.75
464.975	84.75
465.195	85.75
465.414	73.75
465.634	78.75
465.854	82.75
466.073	85.75
466.293	80.75
466.512	69.75
466.732	82.75
466.951	84.75
467.171	98.75
467.391	90.75
467.61	92.75
467.829	75.75
468.049	90.75
468.268	79.75
468.488	73.75
468.707	94.75
468.927	89.75
469.146	73.75
469.365	96.75
469.585	99.75
469.804	103.75
470.023	95.75
470.243	81.75
470.462	85.75
470.681	101.75
470.901	78.75
471.12	72.75
471.339	86.75
471.558	93.75
471.777	86.75
471.997	90.75
472.216	80.75
472.435	85.75
472.654	75.75
472.873	89.75
473.092	95.75
473.311	100.75
473.53	88.75
473.749	87.75
473.968	85.75
474.187	84.75
474.406	99.75
474.625	87.75
474.844	89.75
475.063	72.75
475.282	82.75
475.501	86.75
475.72	91.75
475.939	82.75
476.158	98.75
476.377	97.75
476.596	81.75
476.814	86.75
477.033	96.75
477.252	97.75
477.471	83.75
477.69	85.75
477.908	87.75
478.127	91.75
478.346	89.75
478.564	98.75
478.783	85.75
479.002	95.75
479.22	78.75
479.439	74.75
479.658	79.75
479.876	72.75
480.095	80.75
480.313	84.75
480.532	84.75
480.751	94.75
480.969	82.75
481.188	76.75
481.406	104.75
481.624	90.75
481.843	83.75
482.061	84.75
482.28	87.75
482.498	84.75
482.717	97.75
482.935	84.75
483.153	84.75
483.372	89.75
483.59	90.75
483.808	89.75
484.027	87.75
484.245	98.75
484.463	86.75
484.681	95.75
484.9	82.75
485.118	96.75
485.336	85.75
485.554	80.75
485.772	81.75
485.99	85.75
486.209	88.75
486.427	89.75
486.645	87.75
486.863	105.75
487.081	85.75
487.299	101.75
487.517	89.75
487.735	127.75
487.953	198.75
488.171	171.75
488.389	110.75
488.607	89.75
488.825	90.75
489.043	87.75
489.261	93.75
489.479	86.75
489.696	87.75
489.914	91.75
490.132	85.75
490.35	74.75
490.568	72.75
490.786	80.75
491.003	89.75
491.221	74.75
491.439	93.75
491.657	92.75
491.874	92.75
492.092	84.75
492.31	76.75
492.527	94.75
492.745	85.75
492.963	89.75
493.18	71.75
493.398	88.75
493.615	84.75
493.833	86.75
494.05	91.75
494.268	96.75
494.485	90.75
494.703	85.75
494.92	93.75
495.138	86.75
495.355	82.75
495.573	96.75
495.79	88.75
496.008	105.75
496.225	87.75
496.442	101.75
496.66	92.75
496.877	92.75
497.094	86.75
497.312	86.75
497.529	85.75
497.746	88.75
497.963	95.75
498.181	94.75
498.398	100.75
498.615	97.75
498.832	89.75
499.049	93.75
499.267	106.75
499.484	90.75
499.701	90.75
499.918	94.75
500.135	108.75
500.352	92.75
500.569	97.75
500.786	100.75
501.003	90.75
501.22	86.75
501.437	94.75
501.654	94.75
501.871	84.75
502.088	88.75
502.305	99.75
502.522	92.75
502.739	98.75
502.956	96.75
503.172	93.75
503.389	94.75
503.606	98.75
503.823	96.75
504.04	107.75
504.256	167.75
504.473	154.75
504.69	97.75
504.907	98.75
505.123	89.75
505.34	76.75
505.557	89.75
505.773	97.75
505.99	97.75
506.207	94.75
506.423	66.75
506.64	85.75
506.856	94.75
507.073	84.75
507.289	74.75
507.506	79.75
507.722	88.75
507.939	95.75
508.155	86.75
508.372	100.75
508.588	81.75
508.805	87.75
509.021	83.75
509.238	99.75
509.454	84.75
509.67	90.75
509.887	95.75
510.103	96.75
510.319	84.75
510.536	91.75
510.752	89.75
510.968	80.75
511.184	86.75
511.401	85.75
511.617	103.75
511.833	93.75
512.049	88.75
512.265	96.75
512.481	98.75
512.698	98.75
512.914	81.75
513.13	80.75
513.346	86.75
513.562	87.75
513.778	105.75
513.994	83.75
514.21	94.75
514.426	95.75
514.642	98.75
514.858	97.75
515.074	94.75
515.29	84.75
515.506	97.75
515.721	79.75
515.937	95.75
516.153	90.75
516.369	99.75
516.585	73.75
516.801	87.75
517.016	91.75
517.232	78.75
517.448	112.75
517.664	114.75
517.879	106.75
