Data from 237_3_HRD10591_00010.txt Node
Date: Mon Jan 19 14:12:59 EST 2026
User: Yrep
Spectrometer: HR+D1059
Trigger mode: 1
Integration Time (sec): 1.000000E-1
Scans to average: 1
Electric dark correction enabled: true
Nonlinearity correction enabled: false
Boxcar width: 0
XAxis mode: Wavelengths
Number of Pixels in Spectrum: 2048
>>>>>Begin Spectral Data<<<<<
223.165	-21.94
223.4	-21.94
223.635	-21.94
223.869	-23.94
224.104	-27.94
224.338	-20.94
224.573	-13.94
224.808	-9.94
225.042	1.06
225.277	1.06
225.511	12.06
225.746	-2.94
225.98	9.06
226.215	12.06
226.449	15.06
226.683	18.06
226.918	27.06
227.152	26.06
227.387	23.06
227.621	24.06
227.856	40.06
228.09	36.06
228.324	42.06
228.559	55.06
228.793	54.06
229.027	58.06
229.262	74.06
229.496	58.06
229.73	64.06
229.964	84.06
230.199	76.06
230.433	76.06
230.667	73.06
230.901	90.06
231.136	85.06
231.37	82.06
231.604	84.06
231.838	95.06
232.072	82.06
232.306	75.06
232.541	92.06
232.775	86.06
233.009	78.06
233.243	83.06
233.477	72.06
233.711	77.06
233.945	83.06
234.179	82.06
234.413	60.06
234.647	97.06
234.881	76.06
235.115	81.06
235.349	77.06
235.583	82.06
235.817	80.06
236.051	82.06
236.285	75.06
236.519	79.06
236.753	97.06
236.987	68.06
237.221	69.06
237.455	56.06
237.689	74.06
237.922	66.06
238.156	83.06
238.39	66.06
238.624	69.06
238.858	84.06
239.091	89.06
239.325	81.06
239.559	88.06
239.793	78.06
240.027	71.06
240.26	66.06
240.494	73.06
240.728	68.06
240.961	77.06
241.195	72.06
241.429	74.06
241.662	77.06
241.896	72.06
242.13	68.06
242.363	73.06
242.597	65.06
242.83	71.06
243.064	66.06
243.298	70.06
243.531	74.06
243.765	76.06
243.998	77.06
244.232	71.06
244.465	83.06
244.699	76.06
244.932	69.06
245.166	74.06
245.399	62.06
245.633	60.06
245.866	86.06
246.099	66.06
246.333	71.06
246.566	71.06
246.8	74.06
247.033	88.06
247.266	78.06
247.5	81.06
247.733	67.06
247.966	69.06
248.2	84.06
248.433	64.06
248.666	80.06
248.899	94.06
249.133	78.06
249.366	73.06
249.599	92.06
249.832	87.06
250.066	84.06
250.299	80.06
250.532	82.06
250.765	86.06
250.998	74.06
251.231	75.06
251.465	63.06
251.698	87.06
251.931	81.06
252.164	75.06
252.397	84.06
252.63	71.06
252.863	88.06
253.096	86.06
253.329	80.06
253.562	79.06
253.795	94.06
254.028	71.06
254.261	71.06
254.494	70.06
254.727	72.06
254.96	70.06
255.193	87.06
255.426	87.06
255.659	82.06
255.892	82.06
256.124	76.06
256.357	81.06
256.59	88.06
256.823	72.06
257.056	72.06
257.289	83.06
257.521	82.06
257.754	79.06
257.987	75.06
258.22	86.06
258.452	78.06
258.685	67.06
258.918	64.06
259.151	99.06
259.383	82.06
259.616	71.06
259.849	60.06
260.081	71.06
260.314	73.06
260.547	66.06
260.779	78.06
261.012	83.06
261.244	70.06
261.477	78.06
261.71	66.06
261.942	67.06
262.175	82.06
262.407	76.06
262.64	68.06
262.872	64.06
263.105	75.06
263.337	79.06
263.57	92.06
263.802	91.06
264.035	77.06
264.267	82.06
264.499	83.06
264.732	77.06
264.964	83.06
265.197	83.06
265.429	72.06
265.661	70.06
265.894	79.06
266.126	95.06
266.358	82.06
266.591	76.06
266.823	79.06
267.055	80.06
267.287	81.06
267.52	90.06
267.752	75.06
267.984	94.06
268.216	74.06
268.448	80.06
268.681	66.06
268.913	82.06
269.145	76.06
269.377	84.06
269.609	86.06
269.841	71.06
270.073	80.06
270.306	74.06
270.538	74.06
270.77	75.06
271.002	72.06
271.234	79.06
271.466	70.06
271.698	88.06
271.93	80.06
272.162	87.06
272.394	86.06
272.626	74.06
272.858	89.06
273.09	70.06
273.322	79.06
273.553	76.06
273.785	73.06
274.017	71.06
274.249	73.06
274.481	79.06
274.713	75.06
274.945	82.06
275.176	75.06
275.408	90.06
275.64	82.06
275.872	84.06
276.104	87.06
276.335	91.06
276.567	91.06
276.799	65.06
277.031	84.06
277.262	84.06
277.494	90.06
277.726	73.06
277.957	84.06
278.189	85.06
278.421	82.06
278.652	80.06
278.884	80.06
279.115	82.06
279.347	87.06
279.579	91.06
279.81	79.06
280.042	89.06
280.273	83.06
280.505	77.06
280.736	83.06
280.968	86.06
281.199	74.06
281.431	86.06
281.662	85.06
281.894	91.06
282.125	86.06
282.356	74.06
282.588	81.06
282.819	80.06
283.051	95.06
283.282	74.06
283.513	74.06
283.745	83.06
283.976	82.06
284.207	84.06
284.439	67.06
284.67	86.06
284.901	87.06
285.132	71.06
285.364	89.06
285.595	89.06
285.826	83.06
286.057	78.06
286.288	84.06
286.52	84.06
286.751	90.06
286.982	83.06
287.213	84.06
287.444	86.06
287.675	91.06
287.906	81.06
288.138	84.06
288.369	74.06
288.6	76.06
288.831	74.06
289.062	83.06
289.293	68.06
289.524	65.06
289.755	85.06
289.986	91.06
290.217	78.06
290.448	73.06
290.679	79.06
290.91	84.06
291.141	91.06
291.371	71.06
291.602	64.06
291.833	80.06
292.064	88.06
292.295	92.06
292.526	82.06
292.757	79.06
292.987	96.06
293.218	87.06
293.449	74.06
293.68	92.06
293.91	67.06
294.141	82.06
294.372	72.06
294.603	82.06
294.833	91.06
295.064	68.06
295.295	78.06
295.525	89.06
295.756	93.06
295.987	83.06
296.217	83.06
296.448	101.06
296.679	90.06
296.909	94.06
297.14	71.06
297.37	83.06
297.601	80.06
297.831	79.06
298.062	84.06
298.292	98.06
298.523	91.06
298.753	85.06
298.984	80.06
299.214	80.06
299.445	76.06
299.675	97.06
299.905	84.06
300.136	85.06
300.366	90.06
300.597	96.06
300.827	86.06
301.057	90.06
301.288	68.06
301.518	68.06
301.748	94.06
301.979	107.06
302.209	94.06
302.439	84.06
302.669	96.06
302.9	86.06
303.13	86.06
303.36	81.06
303.59	82.06
303.82	80.06
304.051	81.06
304.281	89.06
304.511	78.06
304.741	90.06
304.971	83.06
305.201	84.06
305.431	88.06
305.661	73.06
305.891	86.06
306.121	87.06
306.352	78.06
306.582	79.06
306.812	75.06
307.042	86.06
307.272	72.06
307.502	88.06
307.731	92.06
307.961	104.06
308.191	86.06
308.421	97.06
308.651	88.06
308.881	85.06
309.111	92.06
309.341	101.06
309.571	73.06
309.8	62.06
310.03	79.06
310.26	86.06
310.49	99.06
310.72	88.06
310.949	90.06
311.179	78.06
311.409	91.06
311.639	85.06
311.868	87.06
312.098	88.06
312.328	87.06
312.557	85.06
312.787	86.06
313.017	88.06
313.246	94.06
313.476	106.06
313.706	82.06
313.935	86.06
314.165	76.06
314.394	62.06
314.624	89.06
314.853	98.06
315.083	93.06
315.312	73.06
315.542	89.06
315.771	84.06
316.001	83.06
316.23	77.06
316.46	87.06
316.689	75.06
316.919	96.06
317.148	86.06
317.377	82.06
317.607	91.06
317.836	94.06
318.065	86.06
318.295	90.06
318.524	72.06
318.753	90.06
318.983	94.06
319.212	88.06
319.441	86.06
319.67	90.06
319.9	84.06
320.129	71.06
320.358	73.06
320.587	82.06
320.816	84.06
321.046	76.06
321.275	99.06
321.504	84.06
321.733	84.06
321.962	91.06
322.191	94.06
322.42	87.06
322.649	91.06
322.878	91.06
323.108	107.06
323.337	91.06
323.566	82.06
323.795	100.06
324.024	83.06
324.253	102.06
324.482	81.06
324.71	90.06
324.939	74.06
325.168	91.06
325.397	74.06
325.626	94.06
325.855	82.06
326.084	83.06
326.313	71.06
326.542	90.06
326.77	100.06
326.999	81.06
327.228	84.06
327.457	91.06
327.686	91.06
327.914	94.06
328.143	86.06
328.372	83.06
328.6	79.06
328.829	73.06
329.058	77.06
329.287	99.06
329.515	94.06
329.744	88.06
329.972	96.06
330.201	97.06
330.43	86.06
330.658	91.06
330.887	84.06
331.115	82.06
331.344	84.06
331.572	93.06
331.801	82.06
332.03	86.06
332.258	91.06
332.486	85.06
332.715	94.06
332.943	91.06
333.172	84.06
333.4	94.06
333.629	103.06
333.857	99.06
334.085	90.06
334.314	110.06
334.542	91.06
334.771	96.06
334.999	87.06
335.227	96.06
335.455	88.06
335.684	107.06
335.912	94.06
336.14	121.06
336.369	82.06
336.597	88.06
336.825	82.06
337.053	75.06
337.281	86.06
337.51	94.06
337.738	86.06
337.966	87.06
338.194	87.06
338.422	90.06
338.65	73.06
338.878	89.06
339.106	90.06
339.334	92.06
339.562	100.06
339.79	91.06
340.018	88.06
340.246	95.06
340.474	85.06
340.702	80.06
340.93	86.06
341.158	64.06
341.386	98.06
341.614	71.06
341.842	88.06
342.07	82.06
342.298	101.06
342.526	95.06
342.754	96.06
342.981	91.06
343.209	88.06
343.437	90.06
343.665	89.06
343.893	88.06
344.12	99.06
344.348	95.06
344.576	102.06
344.804	94.06
345.031	92.06
345.259	76.06
345.487	71.06
345.714	77.06
345.942	90.06
346.17	84.06
346.397	77.06
346.625	85.06
346.853	84.06
347.08	91.06
347.308	93.06
347.535	86.06
347.763	90.06
347.99	83.06
348.218	102.06
348.445	83.06
348.673	88.06
348.9	96.06
349.128	85.06
349.355	75.06
349.583	86.06
349.81	72.06
350.037	82.06
350.265	82.06
350.492	99.06
350.72	80.06
350.947	82.06
351.174	82.06
351.402	89.06
351.629	82.06
351.856	83.06
352.083	84.06
352.311	90.06
352.538	87.06
352.765	92.06
352.992	90.06
353.22	89.06
353.447	71.06
353.674	82.06
353.901	87.06
354.128	79.06
354.355	88.06
354.583	72.06
354.81	76.06
355.037	89.06
355.264	90.06
355.491	83.06
355.718	71.06
355.945	87.06
356.172	94.06
356.399	96.06
356.626	86.06
356.853	92.06
357.08	92.06
357.307	86.06
357.534	87.06
357.761	83.06
357.988	90.06
358.215	86.06
358.441	94.06
358.668	85.06
358.895	75.06
359.122	80.06
359.349	76.06
359.576	84.06
359.802	81.06
360.029	70.06
360.256	94.06
360.483	89.06
360.709	83.06
360.936	87.06
361.163	94.06
361.39	90.06
361.616	90.06
361.843	94.06
362.07	98.06
362.296	95.06
362.523	98.06
362.749	103.06
362.976	120.06
363.203	129.06
363.429	101.06
363.656	89.06
363.882	94.06
364.109	98.06
364.335	125.06
364.562	131.06
364.788	111.06
365.015	92.06
365.241	96.06
365.468	105.06
365.694	82.06
365.92	102.06
366.147	77.06
366.373	89.06
366.599	76.06
366.826	74.06
367.052	80.06
367.278	84.06
367.505	89.06
367.731	102.06
367.957	79.06
368.184	73.06
368.41	82.06
368.636	78.06
368.862	83.06
369.089	86.06
369.315	91.06
369.541	81.06
369.767	88.06
369.993	82.06
370.219	89.06
370.445	77.06
370.672	99.06
370.898	76.06
371.124	104.06
371.35	93.06
371.576	100.06
371.802	98.06
372.028	86.06
372.254	77.06
372.48	98.06
372.706	82.06
372.932	89.06
373.158	82.06
373.384	89.06
373.61	92.06
373.835	96.06
374.061	98.06
374.287	81.06
374.513	96.06
374.739	88.06
374.965	99.06
375.191	87.06
375.416	96.06
375.642	100.06
375.868	84.06
376.094	92.06
376.319	80.06
376.545	77.06
376.771	94.06
376.997	87.06
377.222	79.06
377.448	95.06
377.674	78.06
377.899	87.06
378.125	83.06
378.35	76.06
378.576	92.06
378.802	92.06
379.027	89.06
379.253	93.06
379.478	78.06
379.704	86.06
379.929	91.06
380.155	101.06
380.38	79.06
380.606	80.06
380.831	96.06
381.057	91.06
381.282	88.06
381.507	88.06
381.733	98.06
381.958	95.06
382.184	96.06
382.409	99.06
382.634	89.06
382.86	103.06
383.085	96.06
383.31	98.06
383.535	88.06
383.761	98.06
383.986	112.06
384.211	94.06
384.436	76.06
384.662	83.06
384.887	99.06
385.112	89.06
385.337	88.06
385.562	91.06
385.787	90.06
386.013	110.06
386.238	98.06
386.463	96.06
386.688	99.06
386.913	107.06
387.138	89.06
387.363	91.06
387.588	87.06
387.813	76.06
388.038	99.06
388.263	90.06
388.488	97.06
388.713	78.06
388.938	78.06
389.163	89.06
389.387	88.06
389.612	88.06
389.837	88.06
390.062	83.06
390.287	86.06
390.512	94.06
390.736	86.06
390.961	85.06
391.186	86.06
391.411	91.06
391.636	94.06
391.86	87.06
392.085	92.06
392.31	112.06
392.534	99.06
392.759	120.06
392.984	138.06
393.208	183.06
393.433	259.06
393.658	201.06
393.882	106.06
394.107	101.06
394.331	98.06
394.556	99.06
394.78	108.06
395.005	94.06
395.229	90.06
395.454	99.06
395.678	108.06
395.903	104.06
396.127	127.06
396.352	140.06
396.576	141.06
396.801	199.06
397.025	234.06
397.249	150.06
397.474	115.06
397.698	104.06
397.922	82.06
398.147	92.06
398.371	105.06
398.595	84.06
398.82	92.06
399.044	94.06
399.268	93.06
399.492	85.06
399.717	92.06
399.941	90.06
400.165	105.06
400.389	86.06
400.613	85.06
400.837	88.06
401.062	91.06
401.286	80.06
401.51	85.06
401.734	83.06
401.958	76.06
402.182	78.06
402.406	94.06
402.63	72.06
402.854	74.06
403.078	95.06
403.302	94.06
403.526	84.06
403.75	78.06
403.974	95.06
404.198	94.06
404.422	109.06
404.645	105.06
404.869	107.06
405.093	83.06
405.317	89.06
405.541	101.06
405.765	81.06
405.988	94.06
406.212	99.06
406.436	82.06
406.66	81.06
406.883	87.06
407.107	80.06
407.331	97.06
407.555	91.06
407.778	106.06
408.002	96.06
408.226	83.06
408.449	93.06
408.673	83.06
408.896	98.06
409.12	87.06
409.344	102.06
409.567	94.06
409.791	89.06
410.014	116.06
410.238	96.06
410.461	80.06
410.685	92.06
410.908	89.06
411.132	91.06
411.355	96.06
411.578	95.06
411.802	83.06
412.025	92.06
412.249	77.06
412.472	91.06
412.695	75.06
412.919	95.06
413.142	95.06
413.365	100.06
413.589	78.06
413.812	99.06
414.035	80.06
414.258	94.06
414.482	93.06
414.705	91.06
414.928	85.06
415.151	76.06
415.374	89.06
415.597	92.06
415.821	88.06
416.044	94.06
416.267	88.06
416.49	86.06
416.713	93.06
416.936	84.06
417.159	78.06
417.382	84.06
417.605	83.06
417.828	84.06
418.051	98.06
418.274	89.06
418.497	84.06
418.72	82.06
418.943	87.06
419.166	77.06
419.389	74.06
419.611	80.06
419.834	94.06
420.057	90.06
420.28	107.06
420.503	94.06
420.726	94.06
420.948	97.06
421.171	105.06
421.394	106.06
421.617	104.06
421.839	130.06
422.062	132.06
422.285	170.06
422.507	241.06
422.73	296.06
422.953	268.06
423.175	199.06
423.398	149.06
423.621	106.06
423.843	110.06
424.066	95.06
424.288	92.06
424.511	90.06
424.733	99.06
424.956	90.06
425.178	94.06
425.401	85.06
425.623	102.06
425.846	84.06
426.068	99.06
426.291	99.06
426.513	102.06
426.735	100.06
426.958	99.06
427.18	108.06
427.402	104.06
427.625	86.06
427.847	100.06
428.069	95.06
428.292	108.06
428.514	128.06
428.736	108.06
428.958	134.06
429.181	134.06
429.403	95.06
429.625	92.06
429.847	111.06
430.069	144.06
430.292	169.06
430.514	165.06
430.736	127.06
430.958	137.06
431.18	100.06
431.402	104.06
431.624	95.06
431.846	118.06
432.068	120.06
432.29	94.06
432.512	94.06
432.734	98.06
432.956	92.06
433.178	86.06
433.4	77.06
433.622	70.06
433.844	84.06
434.066	82.06
434.287	80.06
434.509	85.06
434.731	99.06
434.953	84.06
435.175	71.06
435.397	91.06
435.618	88.06
435.84	92.06
436.062	85.06
436.284	98.06
436.505	81.06
436.727	82.06
436.949	83.06
437.17	91.06
437.392	87.06
437.614	68.06
437.835	88.06
438.057	87.06
438.278	103.06
438.5	98.06
438.721	98.06
438.943	87.06
439.165	80.06
439.386	95.06
439.608	70.06
439.829	78.06
440.05	85.06
440.272	84.06
440.493	82.06
440.715	92.06
440.936	88.06
441.158	86.06
441.379	89.06
441.6	88.06
441.822	82.06
442.043	93.06
442.264	98.06
442.486	141.06
442.707	158.06
442.928	114.06
443.149	100.06
443.371	160.06
443.592	236.06
443.813	206.06
444.034	102.06
444.255	88.06
444.476	98.06
444.698	91.06
444.919	92.06
445.14	161.06
445.361	187.06
445.582	245.06
445.803	221.06
446.024	126.06
446.245	93.06
446.466	100.06
446.687	91.06
446.908	87.06
447.129	91.06
447.35	81.06
447.571	80.06
447.792	96.06
448.013	83.06
448.234	75.06
448.455	74.06
448.675	79.06
448.896	88.06
449.117	80.06
449.338	76.06
449.559	84.06
449.779	84.06
450	89.06
450.221	79.06
450.442	92.06
450.662	95.06
450.883	87.06
451.104	100.06
451.324	82.06
451.545	102.06
451.766	92.06
451.986	91.06
452.207	81.06
452.428	104.06
452.648	85.06
452.869	103.06
453.089	87.06
453.31	83.06
453.53	105.06
453.751	93.06
453.971	84.06
454.192	81.06
454.412	90.06
454.633	75.06
454.853	72.06
455.073	104.06
455.294	89.06
455.514	88.06
455.734	99.06
455.955	89.06
456.175	86.06
456.395	96.06
456.616	84.06
456.836	86.06
457.056	96.06
457.276	89.06
457.497	86.06
457.717	97.06
457.937	114.06
458.157	120.06
458.377	110.06
458.598	105.06
458.818	120.06
459.038	94.06
459.258	86.06
459.478	93.06
459.698	84.06
459.918	83.06
460.138	95.06
460.358	94.06
460.578	100.06
460.798	113.06
461.018	108.06
461.238	83.06
461.458	75.06
461.678	80.06
461.898	73.06
462.118	75.06
462.338	87.06
462.558	103.06
462.777	75.06
462.997	78.06
463.217	86.06
463.437	90.06
463.657	99.06
463.876	86.06
464.096	82.06
464.316	86.06
464.536	105.06
464.755	78.06
464.975	103.06
465.195	96.06
465.414	91.06
465.634	90.06
465.854	78.06
466.073	79.06
466.293	93.06
466.512	86.06
466.732	77.06
466.951	87.06
467.171	88.06
467.391	83.06
467.61	90.06
467.829	84.06
468.049	97.06
468.268	94.06
468.488	83.06
468.707	97.06
468.927	103.06
469.146	88.06
469.365	91.06
469.585	75.06
469.804	62.06
470.023	84.06
470.243	96.06
470.462	83.06
470.681	99.06
470.901	81.06
471.12	86.06
471.339	91.06
471.558	96.06
471.777	76.06
471.997	92.06
472.216	86.06
472.435	95.06
472.654	95.06
472.873	107.06
473.092	94.06
473.311	82.06
473.53	96.06
473.749	103.06
473.968	100.06
474.187	92.06
474.406	86.06
474.625	90.06
474.844	82.06
475.063	88.06
475.282	86.06
475.501	83.06
475.72	81.06
475.939	94.06
476.158	94.06
476.377	88.06
476.596	91.06
476.814	99.06
477.033	86.06
477.252	78.06
477.471	75.06
477.69	83.06
477.908	83.06
478.127	89.06
478.346	80.06
478.564	98.06
478.783	91.06
479.002	80.06
479.22	101.06
479.439	88.06
479.658	75.06
479.876	96.06
480.095	76.06
480.313	74.06
480.532	83.06
480.751	84.06
480.969	83.06
481.188	73.06
481.406	94.06
481.624	96.06
481.843	81.06
482.061	89.06
482.28	93.06
482.498	97.06
482.717	105.06
482.935	92.06
483.153	91.06
483.372	72.06
483.59	89.06
483.808	99.06
484.027	81.06
484.245	102.06
484.463	94.06
484.681	82.06
484.9	97.06
485.118	104.06
485.336	89.06
485.554	88.06
485.772	96.06
485.99	87.06
486.209	88.06
486.427	103.06
486.645	94.06
486.863	91.06
487.081	104.06
487.299	99.06
487.517	89.06
487.735	117.06
487.953	174.06
488.171	162.06
488.389	103.06
488.607	88.06
488.825	94.06
489.043	89.06
489.261	103.06
489.479	88.06
489.696	105.06
489.914	94.06
490.132	80.06
490.35	96.06
490.568	87.06
490.786	91.06
491.003	97.06
491.221	87.06
491.439	100.06
491.657	106.06
491.874	85.06
492.092	96.06
492.31	90.06
492.527	99.06
492.745	86.06
492.963	90.06
493.18	89.06
493.398	96.06
493.615	108.06
493.833	82.06
494.05	88.06
494.268	95.06
494.485	96.06
494.703	96.06
494.92	89.06
495.138	84.06
495.355	91.06
495.573	86.06
495.79	98.06
496.008	92.06
496.225	101.06
496.442	84.06
496.66	84.06
496.877	90.06
497.094	86.06
497.312	86.06
497.529	97.06
497.746	82.06
497.963	76.06
498.181	88.06
498.398	101.06
498.615	104.06
498.832	97.06
499.049	94.06
499.267	97.06
499.484	97.06
499.701	87.06
499.918	88.06
500.135	101.06
500.352	85.06
500.569	76.06
500.786	97.06
501.003	100.06
501.22	94.06
501.437	90.06
501.654	89.06
501.871	94.06
502.088	86.06
502.305	85.06
502.522	96.06
502.739	96.06
502.956	80.06
503.172	99.06
503.389	87.06
503.606	93.06
503.823	94.06
504.04	97.06
504.256	136.06
504.473	131.06
504.69	95.06
504.907	103.06
505.123	86.06
505.34	98.06
505.557	87.06
505.773	100.06
505.99	86.06
506.207	98.06
506.423	86.06
506.64	98.06
506.856	88.06
507.073	89.06
507.289	82.06
507.506	86.06
507.722	93.06
507.939	91.06
508.155	98.06
508.372	87.06
508.588	94.06
508.805	90.06
509.021	95.06
509.238	86.06
509.454	72.06
509.67	80.06
509.887	74.06
510.103	88.06
510.319	92.06
510.536	100.06
510.752	95.06
510.968	108.06
511.184	89.06
511.401	105.06
511.617	92.06
511.833	89.06
512.049	80.06
512.265	87.06
512.481	95.06
512.698	91.06
512.914	95.06
513.13	102.06
513.346	81.06
513.562	89.06
513.778	107.06
513.994	87.06
514.21	101.06
514.426	100.06
514.642	91.06
514.858	91.06
515.074	90.06
515.29	89.06
515.506	101.06
515.721	84.06
515.937	110.06
516.153	84.06
516.369	94.06
516.585	91.06
516.801	96.06
517.016	84.06
517.232	102.06
517.448	103.06
517.664	97.06
517.879	102.06
