Data from 237_3_HRD10591_00012.txt Node
Date: Mon Jan 19 14:13:00 EST 2026
User: Yrep
Spectrometer: HR+D1059
Trigger mode: 1
Integration Time (sec): 1.000000E-1
Scans to average: 1
Electric dark correction enabled: true
Nonlinearity correction enabled: false
Boxcar width: 0
XAxis mode: Wavelengths
Number of Pixels in Spectrum: 2048
>>>>>Begin Spectral Data<<<<<
223.165	-21.12
223.4	-21.12
223.635	-21.12
223.869	-16.12
224.104	-25.12
224.338	-4.12
224.573	-5.12
224.808	-23.12
225.042	-1.12
225.277	-10.12
225.511	-4.12
225.746	-8.12
225.98	-1.12
226.215	5.88
226.449	34.88
226.683	31.88
226.918	18.88
227.152	27.88
227.387	26.88
227.621	35.88
227.856	51.88
228.09	38.88
228.324	50.88
228.559	54.88
228.793	59.88
229.027	56.88
229.262	53.88
229.496	63.88
229.73	66.88
229.964	69.88
230.199	64.88
230.433	74.88
230.667	76.88
230.901	74.88
231.136	75.88
231.37	89.88
231.604	48.88
231.838	84.88
232.072	72.88
232.306	94.88
232.541	87.88
232.775	75.88
233.009	78.88
233.243	66.88
233.477	75.88
233.711	76.88
233.945	78.88
234.179	80.88
234.413	66.88
234.647	84.88
234.881	74.88
235.115	66.88
235.349	84.88
235.583	92.88
235.817	72.88
236.051	76.88
236.285	67.88
236.519	89.88
236.753	77.88
236.987	68.88
237.221	69.88
237.455	67.88
237.689	81.88
237.922	62.88
238.156	78.88
238.39	75.88
238.624	74.88
238.858	82.88
239.091	83.88
239.325	97.88
239.559	76.88
239.793	86.88
240.027	74.88
240.26	77.88
240.494	72.88
240.728	79.88
240.961	76.88
241.195	73.88
241.429	63.88
241.662	68.88
241.896	79.88
242.13	64.88
242.363	76.88
242.597	70.88
242.83	73.88
243.064	83.88
243.298	73.88
243.531	87.88
243.765	67.88
243.998	66.88
244.232	84.88
244.465	85.88
244.699	81.88
244.932	88.88
245.166	79.88
245.399	72.88
245.633	75.88
245.866	75.88
246.099	73.88
246.333	66.88
246.566	59.88
246.8	78.88
247.033	86.88
247.266	82.88
247.5	69.88
247.733	83.88
247.966	69.88
248.2	76.88
248.433	78.88
248.666	93.88
248.899	71.88
249.133	76.88
249.366	91.88
249.599	72.88
249.832	84.88
250.066	66.88
250.299	81.88
250.532	82.88
250.765	73.88
250.998	88.88
251.231	72.88
251.465	74.88
251.698	74.88
251.931	76.88
252.164	85.88
252.397	82.88
252.63	87.88
252.863	68.88
253.096	66.88
253.329	70.88
253.562	69.88
253.795	82.88
254.028	79.88
254.261	91.88
254.494	83.88
254.727	88.88
254.96	75.88
255.193	82.88
255.426	68.88
255.659	80.88
255.892	78.88
256.124	88.88
256.357	69.88
256.59	68.88
256.823	77.88
257.056	80.88
257.289	65.88
257.521	82.88
257.754	91.88
257.987	77.88
258.22	72.88
258.452	64.88
258.685	80.88
258.918	71.88
259.151	81.88
259.383	70.88
259.616	91.88
259.849	78.88
260.081	76.88
260.314	87.88
260.547	77.88
260.779	89.88
261.012	98.88
261.244	81.88
261.477	96.88
261.71	68.88
261.942	84.88
262.175	75.88
262.407	66.88
262.64	99.88
262.872	84.88
263.105	79.88
263.337	81.88
263.57	75.88
263.802	87.88
264.035	90.88
264.267	80.88
264.499	82.88
264.732	80.88
264.964	75.88
265.197	82.88
265.429	90.88
265.661	84.88
265.894	82.88
266.126	83.88
266.358	73.88
266.591	77.88
266.823	78.88
267.055	77.88
267.287	78.88
267.52	79.88
267.752	97.88
267.984	90.88
268.216	82.88
268.448	71.88
268.681	94.88
268.913	90.88
269.145	73.88
269.377	76.88
269.609	85.88
269.841	82.88
270.073	77.88
270.306	85.88
270.538	82.88
270.77	69.88
271.002	82.88
271.234	78.88
271.466	99.88
271.698	76.88
271.93	77.88
272.162	80.88
272.394	94.88
272.626	78.88
272.858	87.88
273.09	92.88
273.322	75.88
273.553	76.88
273.785	88.88
274.017	73.88
274.249	73.88
274.481	69.88
274.713	76.88
274.945	73.88
275.176	84.88
275.408	91.88
275.64	71.88
275.872	80.88
276.104	72.88
276.335	79.88
276.567	72.88
276.799	72.88
277.031	97.88
277.262	94.88
277.494	81.88
277.726	91.88
277.957	92.88
278.189	89.88
278.421	84.88
278.652	71.88
278.884	76.88
279.115	82.88
279.347	70.88
279.579	74.88
279.81	84.88
280.042	85.88
280.273	84.88
280.505	73.88
280.736	76.88
280.968	83.88
281.199	85.88
281.431	92.88
281.662	90.88
281.894	80.88
282.125	90.88
282.356	87.88
282.588	84.88
282.819	81.88
283.051	89.88
283.282	83.88
283.513	74.88
283.745	86.88
283.976	79.88
284.207	70.88
284.439	88.88
284.67	88.88
284.901	74.88
285.132	83.88
285.364	88.88
285.595	84.88
285.826	88.88
286.057	93.88
286.288	86.88
286.52	86.88
286.751	75.88
286.982	72.88
287.213	81.88
287.444	82.88
287.675	77.88
287.906	82.88
288.138	79.88
288.369	92.88
288.6	92.88
288.831	82.88
289.062	74.88
289.293	83.88
289.524	93.88
289.755	90.88
289.986	76.88
290.217	82.88
290.448	82.88
290.679	67.88
290.91	87.88
291.141	84.88
291.371	86.88
291.602	81.88
291.833	89.88
292.064	85.88
292.295	64.88
292.526	67.88
292.757	87.88
292.987	83.88
293.218	90.88
293.449	86.88
293.68	83.88
293.91	76.88
294.141	85.88
294.372	88.88
294.603	90.88
294.833	87.88
295.064	75.88
295.295	75.88
295.525	62.88
295.756	82.88
295.987	77.88
296.217	78.88
296.448	71.88
296.679	78.88
296.909	85.88
297.14	76.88
297.37	93.88
297.601	84.88
297.831	77.88
298.062	88.88
298.292	85.88
298.523	79.88
298.753	91.88
298.984	87.88
299.214	80.88
299.445	87.88
299.675	83.88
299.905	84.88
300.136	94.88
300.366	82.88
300.597	91.88
300.827	79.88
301.057	69.88
301.288	90.88
301.518	72.88
301.748	75.88
301.979	92.88
302.209	85.88
302.439	83.88
302.669	92.88
302.9	77.88
303.13	91.88
303.36	73.88
303.59	82.88
303.82	76.88
304.051	77.88
304.281	77.88
304.511	83.88
304.741	68.88
304.971	67.88
305.201	77.88
305.431	83.88
305.661	90.88
305.891	101.88
306.121	82.88
306.352	77.88
306.582	81.88
306.812	83.88
307.042	85.88
307.272	76.88
307.502	78.88
307.731	77.88
307.961	82.88
308.191	84.88
308.421	74.88
308.651	82.88
308.881	78.88
309.111	80.88
309.341	82.88
309.571	88.88
309.8	74.88
310.03	84.88
310.26	84.88
310.49	80.88
310.72	88.88
310.949	80.88
311.179	84.88
311.409	78.88
311.639	87.88
311.868	74.88
312.098	72.88
312.328	79.88
312.557	83.88
312.787	82.88
313.017	85.88
313.246	85.88
313.476	87.88
313.706	69.88
313.935	89.88
314.165	92.88
314.394	84.88
314.624	82.88
314.853	91.88
315.083	85.88
315.312	86.88
315.542	83.88
315.771	75.88
316.001	68.88
316.23	62.88
316.46	75.88
316.689	82.88
316.919	88.88
317.148	81.88
317.377	93.88
317.607	90.88
317.836	84.88
318.065	86.88
318.295	89.88
318.524	75.88
318.753	66.88
318.983	82.88
319.212	88.88
319.441	85.88
319.67	67.88
319.9	88.88
320.129	82.88
320.358	89.88
320.587	85.88
320.816	84.88
321.046	88.88
321.275	83.88
321.504	86.88
321.733	96.88
321.962	90.88
322.191	88.88
322.42	85.88
322.649	78.88
322.878	88.88
323.108	78.88
323.337	89.88
323.566	87.88
323.795	79.88
324.024	72.88
324.253	72.88
324.482	81.88
324.71	96.88
324.939	90.88
325.168	82.88
325.397	81.88
325.626	86.88
325.855	95.88
326.084	100.88
326.313	87.88
326.542	82.88
326.77	88.88
326.999	72.88
327.228	83.88
327.457	83.88
327.686	91.88
327.914	85.88
328.143	87.88
328.372	87.88
328.6	97.88
328.829	84.88
329.058	83.88
329.287	75.88
329.515	85.88
329.744	99.88
329.972	81.88
330.201	76.88
330.43	103.88
330.658	79.88
330.887	79.88
331.115	86.88
331.344	84.88
331.572	90.88
331.801	82.88
332.03	86.88
332.258	72.88
332.486	71.88
332.715	77.88
332.943	82.88
333.172	87.88
333.4	86.88
333.629	85.88
333.857	90.88
334.085	89.88
334.314	90.88
334.542	91.88
334.771	82.88
334.999	92.88
335.227	82.88
335.455	74.88
335.684	94.88
335.912	102.88
336.14	97.88
336.369	74.88
336.597	91.88
336.825	67.88
337.053	72.88
337.281	99.88
337.51	81.88
337.738	74.88
337.966	71.88
338.194	80.88
338.422	80.88
338.65	85.88
338.878	81.88
339.106	86.88
339.334	80.88
339.562	85.88
339.79	75.88
340.018	89.88
340.246	73.88
340.474	75.88
340.702	89.88
340.93	78.88
341.158	91.88
341.386	95.88
341.614	98.88
341.842	78.88
342.07	82.88
342.298	85.88
342.526	81.88
342.754	79.88
342.981	83.88
343.209	96.88
343.437	103.88
343.665	73.88
343.893	82.88
344.12	79.88
344.348	99.88
344.576	91.88
344.804	84.88
345.031	85.88
345.259	80.88
345.487	72.88
345.714	80.88
345.942	67.88
346.17	75.88
346.397	85.88
346.625	94.88
346.853	80.88
347.08	95.88
347.308	94.88
347.535	70.88
347.763	74.88
347.99	91.88
348.218	86.88
348.445	87.88
348.673	68.88
348.9	94.88
349.128	80.88
349.355	79.88
349.583	91.88
349.81	92.88
350.037	82.88
350.265	80.88
350.492	99.88
350.72	86.88
350.947	77.88
351.174	85.88
351.402	75.88
351.629	83.88
351.856	82.88
352.083	80.88
352.311	86.88
352.538	80.88
352.765	88.88
352.992	89.88
353.22	83.88
353.447	90.88
353.674	81.88
353.901	79.88
354.128	76.88
354.355	86.88
354.583	79.88
354.81	77.88
355.037	86.88
355.264	92.88
355.491	85.88
355.718	88.88
355.945	91.88
356.172	95.88
356.399	89.88
356.626	86.88
356.853	64.88
357.08	77.88
357.307	86.88
357.534	73.88
357.761	88.88
357.988	98.88
358.215	85.88
358.441	82.88
358.668	80.88
358.895	93.88
359.122	95.88
359.349	88.88
359.576	94.88
359.802	88.88
360.029	97.88
360.256	79.88
360.483	86.88
360.709	74.88
360.936	81.88
361.163	82.88
361.39	83.88
361.616	78.88
361.843	81.88
362.07	84.88
362.296	74.88
362.523	92.88
362.749	80.88
362.976	93.88
363.203	97.88
363.429	104.88
363.656	96.88
363.882	104.88
364.109	92.88
364.335	104.88
364.562	103.88
364.788	88.88
365.015	98.88
365.241	85.88
365.468	90.88
365.694	85.88
365.92	80.88
366.147	86.88
366.373	91.88
366.599	75.88
366.826	90.88
367.052	104.88
367.278	104.88
367.505	75.88
367.731	97.88
367.957	104.88
368.184	76.88
368.41	91.88
368.636	94.88
368.862	80.88
369.089	75.88
369.315	88.88
369.541	86.88
369.767	81.88
369.993	77.88
370.219	73.88
370.445	74.88
370.672	81.88
370.898	78.88
371.124	80.88
371.35	85.88
371.576	80.88
371.802	82.88
372.028	98.88
372.254	82.88
372.48	77.88
372.706	77.88
372.932	83.88
373.158	80.88
373.384	102.88
373.61	93.88
373.835	87.88
374.061	77.88
374.287	94.88
374.513	92.88
374.739	90.88
374.965	91.88
375.191	84.88
375.416	83.88
375.642	85.88
375.868	81.88
376.094	78.88
376.319	83.88
376.545	84.88
376.771	96.88
376.997	73.88
377.222	84.88
377.448	84.88
377.674	84.88
377.899	91.88
378.125	81.88
378.35	81.88
378.576	61.88
378.802	80.88
379.027	95.88
379.253	88.88
379.478	67.88
379.704	90.88
379.929	105.88
380.155	90.88
380.38	71.88
380.606	88.88
380.831	76.88
381.057	74.88
381.282	76.88
381.507	77.88
381.733	86.88
381.958	82.88
382.184	83.88
382.409	78.88
382.634	84.88
382.86	78.88
383.085	79.88
383.31	80.88
383.535	92.88
383.761	74.88
383.986	94.88
384.211	76.88
384.436	90.88
384.662	87.88
384.887	81.88
385.112	89.88
385.337	87.88
385.562	67.88
385.787	88.88
386.013	86.88
386.238	86.88
386.463	75.88
386.688	89.88
386.913	70.88
387.138	91.88
387.363	87.88
387.588	84.88
387.813	87.88
388.038	94.88
388.263	94.88
388.488	83.88
388.713	92.88
388.938	96.88
389.163	84.88
389.387	63.88
389.612	77.88
389.837	81.88
390.062	87.88
390.287	89.88
390.512	70.88
390.736	78.88
390.961	82.88
391.186	95.88
391.411	101.88
391.636	86.88
391.86	94.88
392.085	86.88
392.31	82.88
392.534	86.88
392.759	76.88
392.984	92.88
393.208	126.88
393.433	153.88
393.658	143.88
393.882	106.88
394.107	100.88
394.331	91.88
394.556	99.88
394.78	89.88
395.005	83.88
395.229	86.88
395.454	91.88
395.678	84.88
395.903	113.88
396.127	104.88
396.352	102.88
396.576	108.88
396.801	125.88
397.025	137.88
397.249	106.88
397.474	91.88
397.698	91.88
397.922	100.88
398.147	85.88
398.371	83.88
398.595	79.88
398.82	65.88
399.044	76.88
399.268	80.88
399.492	96.88
399.717	89.88
399.941	80.88
400.165	83.88
400.389	71.88
400.613	88.88
400.837	97.88
401.062	73.88
401.286	79.88
401.51	79.88
401.734	81.88
401.958	73.88
402.182	89.88
402.406	92.88
402.63	76.88
402.854	95.88
403.078	77.88
403.302	83.88
403.526	82.88
403.75	80.88
403.974	75.88
404.198	83.88
404.422	94.88
404.645	105.88
404.869	77.88
405.093	91.88
405.317	82.88
405.541	82.88
405.765	81.88
405.988	93.88
406.212	76.88
406.436	89.88
406.66	80.88
406.883	88.88
407.107	81.88
407.331	83.88
407.555	86.88
407.778	94.88
408.002	98.88
408.226	83.88
408.449	83.88
408.673	81.88
408.896	86.88
409.12	86.88
409.344	96.88
409.567	98.88
409.791	84.88
410.014	87.88
410.238	88.88
410.461	85.88
410.685	91.88
410.908	87.88
411.132	93.88
411.355	86.88
411.578	86.88
411.802	88.88
412.025	90.88
412.249	89.88
412.472	98.88
412.695	84.88
412.919	75.88
413.142	80.88
413.365	89.88
413.589	85.88
413.812	76.88
414.035	91.88
414.258	79.88
414.482	86.88
414.705	82.88
414.928	86.88
415.151	82.88
415.374	74.88
415.597	79.88
415.821	72.88
416.044	84.88
416.267	82.88
416.49	84.88
416.713	89.88
416.936	88.88
417.159	94.88
417.382	86.88
417.605	76.88
417.828	106.88
418.051	80.88
418.274	91.88
418.497	87.88
418.72	86.88
418.943	99.88
419.166	87.88
419.389	88.88
419.611	88.88
419.834	83.88
420.057	82.88
420.28	77.88
420.503	86.88
420.726	94.88
420.948	92.88
421.171	92.88
421.394	88.88
421.617	91.88
421.839	84.88
422.062	98.88
422.285	113.88
422.507	169.88
422.73	191.88
422.953	173.88
423.175	147.88
423.398	98.88
423.621	100.88
423.843	79.88
424.066	87.88
424.288	85.88
424.511	88.88
424.733	86.88
424.956	87.88
425.178	97.88
425.401	81.88
425.623	76.88
425.846	96.88
426.068	87.88
426.291	79.88
426.513	90.88
426.735	95.88
426.958	88.88
427.18	82.88
427.402	104.88
427.625	68.88
427.847	74.88
428.069	83.88
428.292	105.88
428.514	124.88
428.736	88.88
428.958	100.88
429.181	98.88
429.403	91.88
429.625	78.88
429.847	91.88
430.069	119.88
430.292	115.88
430.514	103.88
430.736	99.88
430.958	106.88
431.18	102.88
431.402	81.88
431.624	84.88
431.846	98.88
432.068	87.88
432.29	91.88
432.512	86.88
432.734	82.88
432.956	94.88
433.178	90.88
433.4	86.88
433.622	75.88
433.844	78.88
434.066	97.88
434.287	60.88
434.509	72.88
434.731	76.88
434.953	73.88
435.175	83.88
435.397	80.88
435.618	80.88
435.84	76.88
436.062	84.88
436.284	89.88
436.505	78.88
436.727	78.88
436.949	77.88
437.17	83.88
437.392	83.88
437.614	69.88
437.835	87.88
438.057	76.88
438.278	84.88
438.5	82.88
438.721	80.88
438.943	88.88
439.165	88.88
439.386	77.88
439.608	98.88
439.829	77.88
440.05	84.88
440.272	76.88
440.493	89.88
440.715	71.88
440.936	84.88
441.158	95.88
441.379	79.88
441.6	88.88
441.822	79.88
442.043	73.88
442.264	84.88
442.486	95.88
442.707	113.88
442.928	94.88
443.149	100.88
443.371	113.88
443.592	159.88
443.813	150.88
444.034	104.88
444.255	83.88
444.476	86.88
444.698	84.88
444.919	83.88
445.14	146.88
445.361	146.88
445.582	162.88
445.803	141.88
446.024	95.88
446.245	88.88
446.466	79.88
446.687	88.88
446.908	81.88
447.129	97.88
447.35	73.88
447.571	96.88
447.792	92.88
448.013	92.88
448.234	88.88
448.455	89.88
448.675	76.88
448.896	66.88
449.117	73.88
449.338	84.88
449.559	95.88
449.779	95.88
450	71.88
450.221	97.88
450.442	78.88
450.662	78.88
450.883	83.88
451.104	85.88
451.324	72.88
451.545	91.88
451.766	83.88
451.986	77.88
452.207	92.88
452.428	84.88
452.648	84.88
452.869	83.88
453.089	83.88
453.31	79.88
453.53	88.88
453.751	65.88
453.971	72.88
454.192	83.88
454.412	79.88
454.633	80.88
454.853	90.88
455.073	91.88
455.294	95.88
455.514	85.88
455.734	82.88
455.955	80.88
456.175	89.88
456.395	78.88
456.616	75.88
456.836	80.88
457.056	78.88
457.276	101.88
457.497	80.88
457.717	82.88
457.937	80.88
458.157	84.88
458.377	81.88
458.598	82.88
458.818	88.88
459.038	75.88
459.258	88.88
459.478	82.88
459.698	91.88
459.918	96.88
460.138	84.88
460.358	75.88
460.578	82.88
460.798	107.88
461.018	86.88
461.238	85.88
461.458	103.88
461.678	70.88
461.898	82.88
462.118	96.88
462.338	85.88
462.558	83.88
462.777	84.88
462.997	83.88
463.217	81.88
463.437	77.88
463.657	82.88
463.876	80.88
464.096	80.88
464.316	84.88
464.536	81.88
464.755	100.88
464.975	79.88
465.195	79.88
465.414	94.88
465.634	68.88
465.854	73.88
466.073	75.88
466.293	86.88
466.512	98.88
466.732	89.88
466.951	94.88
467.171	73.88
467.391	91.88
467.61	97.88
467.829	77.88
468.049	86.88
468.268	79.88
468.488	88.88
468.707	77.88
468.927	95.88
469.146	88.88
469.365	86.88
469.585	80.88
469.804	78.88
470.023	86.88
470.243	80.88
470.462	100.88
470.681	102.88
470.901	80.88
471.12	95.88
471.339	83.88
471.558	86.88
471.777	91.88
471.997	80.88
472.216	76.88
472.435	101.88
472.654	84.88
472.873	79.88
473.092	77.88
473.311	81.88
473.53	74.88
473.749	93.88
473.968	70.88
474.187	70.88
474.406	83.88
474.625	91.88
474.844	83.88
475.063	92.88
475.282	94.88
475.501	84.88
475.72	79.88
475.939	102.88
476.158	68.88
476.377	90.88
476.596	88.88
476.814	85.88
477.033	74.88
477.252	73.88
477.471	68.88
477.69	82.88
477.908	87.88
478.127	84.88
478.346	71.88
478.564	84.88
478.783	86.88
479.002	89.88
479.22	84.88
479.439	81.88
479.658	82.88
479.876	69.88
480.095	76.88
480.313	73.88
480.532	78.88
480.751	88.88
480.969	92.88
481.188	84.88
481.406	89.88
481.624	88.88
481.843	76.88
482.061	75.88
482.28	74.88
482.498	80.88
482.717	88.88
482.935	77.88
483.153	90.88
483.372	90.88
483.59	91.88
483.808	98.88
484.027	94.88
484.245	87.88
484.463	77.88
484.681	87.88
484.9	82.88
485.118	87.88
485.336	88.88
485.554	88.88
485.772	84.88
485.99	82.88
486.209	79.88
486.427	88.88
486.645	86.88
486.863	91.88
487.081	86.88
487.299	88.88
487.517	84.88
487.735	76.88
487.953	111.88
488.171	111.88
488.389	82.88
488.607	89.88
488.825	100.88
489.043	74.88
489.261	97.88
489.479	82.88
489.696	95.88
489.914	96.88
490.132	80.88
490.35	80.88
490.568	84.88
490.786	86.88
491.003	80.88
491.221	88.88
491.439	83.88
491.657	88.88
491.874	86.88
492.092	89.88
492.31	87.88
492.527	85.88
492.745	95.88
492.963	83.88
493.18	88.88
493.398	74.88
493.615	92.88
493.833	88.88
494.05	80.88
494.268	86.88
494.485	82.88
494.703	81.88
494.92	83.88
495.138	86.88
495.355	94.88
495.573	84.88
495.79	84.88
496.008	80.88
496.225	86.88
496.442	87.88
496.66	98.88
496.877	81.88
497.094	82.88
497.312	92.88
497.529	73.88
497.746	83.88
497.963	84.88
498.181	77.88
498.398	87.88
498.615	85.88
498.832	94.88
499.049	89.88
499.267	94.88
499.484	68.88
499.701	84.88
499.918	96.88
500.135	91.88
500.352	88.88
500.569	97.88
500.786	94.88
501.003	89.88
501.22	85.88
501.437	82.88
501.654	86.88
501.871	83.88
502.088	74.88
502.305	80.88
502.522	90.88
502.739	73.88
502.956	73.88
503.172	97.88
503.389	95.88
503.606	93.88
503.823	89.88
504.04	89.88
504.256	100.88
504.473	96.88
504.69	82.88
504.907	95.88
505.123	88.88
505.34	84.88
505.557	87.88
505.773	74.88
505.99	74.88
506.207	88.88
506.423	84.88
506.64	68.88
506.856	93.88
507.073	82.88
507.289	111.88
507.506	101.88
507.722	96.88
507.939	93.88
508.155	97.88
508.372	92.88
508.588	96.88
508.805	86.88
509.021	93.88
509.238	83.88
509.454	66.88
509.67	82.88
509.887	65.88
510.103	79.88
510.319	86.88
510.536	83.88
510.752	86.88
510.968	76.88
511.184	88.88
511.401	87.88
511.617	87.88
511.833	80.88
512.049	81.88
512.265	102.88
512.481	88.88
512.698	96.88
512.914	87.88
513.13	74.88
513.346	81.88
513.562	77.88
513.778	82.88
513.994	72.88
514.21	80.88
514.426	84.88
514.642	97.88
514.858	79.88
515.074	74.88
515.29	105.88
515.506	84.88
515.721	74.88
515.937	80.88
516.153	88.88
516.369	86.88
516.585	92.88
516.801	78.88
517.016	86.88
517.232	92.88
517.448	80.88
517.664	90.88
517.879	82.88
518.095	87.88
518.311	76.88
518.527	88.88
518.742	92.88
518.958	117.88
519.173	98.88
519.389	88.88
