Data from 237_3_HRD10591_00019.txt Node
Date: Mon Jan 19 14:13:04 EST 2026
User: Yrep
Spectrometer: HR+D1059
Trigger mode: 1
Integration Time (sec): 1.000000E-1
Scans to average: 1
Electric dark correction enabled: true
Nonlinearity correction enabled: false
Boxcar width: 0
XAxis mode: Wavelengths
Number of Pixels in Spectrum: 2048
>>>>>Begin Spectral Data<<<<<
223.165	-13.38
223.4	-13.38
223.635	-13.38
223.869	-11.38
224.104	-22.38
224.338	-15.38
224.573	-32.38
224.808	-7.38
225.042	0.62
225.277	-6.38
225.511	1.62
225.746	0.62
225.98	12.62
226.215	15.62
226.449	6.62
226.683	13.62
226.918	23.62
227.152	33.62
227.387	33.62
227.621	34.62
227.856	19.62
228.09	52.62
228.324	58.62
228.559	54.62
228.793	50.62
229.027	50.62
229.262	63.62
229.496	83.62
229.73	60.62
229.964	58.62
230.199	65.62
230.433	77.62
230.667	78.62
230.901	67.62
231.136	75.62
231.37	70.62
231.604	72.62
231.838	81.62
232.072	91.62
232.306	73.62
232.541	97.62
232.775	91.62
233.009	85.62
233.243	80.62
233.477	90.62
233.711	73.62
233.945	86.62
234.179	74.62
234.413	74.62
234.647	70.62
234.881	93.62
235.115	93.62
235.349	74.62
235.583	69.62
235.817	61.62
236.051	90.62
236.285	76.62
236.519	67.62
236.753	75.62
236.987	66.62
237.221	70.62
237.455	72.62
237.689	84.62
237.922	77.62
238.156	60.62
238.39	80.62
238.624	86.62
238.858	70.62
239.091	62.62
239.325	73.62
239.559	79.62
239.793	62.62
240.027	70.62
240.26	69.62
240.494	82.62
240.728	74.62
240.961	79.62
241.195	72.62
241.429	65.62
241.662	73.62
241.896	69.62
242.13	81.62
242.363	80.62
242.597	71.62
242.83	72.62
243.064	78.62
243.298	70.62
243.531	71.62
243.765	80.62
243.998	80.62
244.232	73.62
244.465	65.62
244.699	69.62
244.932	71.62
245.166	70.62
245.399	82.62
245.633	78.62
245.866	78.62
246.099	71.62
246.333	73.62
246.566	68.62
246.8	73.62
247.033	67.62
247.266	65.62
247.5	80.62
247.733	78.62
247.966	84.62
248.2	93.62
248.433	69.62
248.666	74.62
248.899	67.62
249.133	68.62
249.366	82.62
249.599	84.62
249.832	81.62
250.066	91.62
250.299	79.62
250.532	73.62
250.765	68.62
250.998	84.62
251.231	70.62
251.465	86.62
251.698	84.62
251.931	73.62
252.164	80.62
252.397	71.62
252.63	71.62
252.863	74.62
253.096	85.62
253.329	74.62
253.562	87.62
253.795	80.62
254.028	78.62
254.261	81.62
254.494	72.62
254.727	81.62
254.96	84.62
255.193	75.62
255.426	74.62
255.659	80.62
255.892	81.62
256.124	90.62
256.357	67.62
256.59	72.62
256.823	68.62
257.056	66.62
257.289	92.62
257.521	83.62
257.754	77.62
257.987	79.62
258.22	74.62
258.452	74.62
258.685	85.62
258.918	72.62
259.151	68.62
259.383	88.62
259.616	74.62
259.849	73.62
260.081	74.62
260.314	84.62
260.547	78.62
260.779	70.62
261.012	74.62
261.244	72.62
261.477	77.62
261.71	85.62
261.942	95.62
262.175	84.62
262.407	82.62
262.64	82.62
262.872	80.62
263.105	81.62
263.337	73.62
263.57	76.62
263.802	78.62
264.035	70.62
264.267	73.62
264.499	72.62
264.732	98.62
264.964	85.62
265.197	81.62
265.429	86.62
265.661	72.62
265.894	84.62
266.126	76.62
266.358	77.62
266.591	84.62
266.823	74.62
267.055	70.62
267.287	88.62
267.52	80.62
267.752	87.62
267.984	75.62
268.216	74.62
268.448	74.62
268.681	80.62
268.913	81.62
269.145	80.62
269.377	79.62
269.609	81.62
269.841	78.62
270.073	69.62
270.306	83.62
270.538	85.62
270.77	74.62
271.002	73.62
271.234	74.62
271.466	84.62
271.698	74.62
271.93	60.62
272.162	84.62
272.394	79.62
272.626	79.62
272.858	81.62
273.09	86.62
273.322	80.62
273.553	83.62
273.785	84.62
274.017	82.62
274.249	60.62
274.481	71.62
274.713	78.62
274.945	85.62
275.176	79.62
275.408	93.62
275.64	82.62
275.872	78.62
276.104	84.62
276.335	78.62
276.567	87.62
276.799	63.62
277.031	73.62
277.262	76.62
277.494	74.62
277.726	70.62
277.957	78.62
278.189	72.62
278.421	81.62
278.652	78.62
278.884	88.62
279.115	79.62
279.347	59.62
279.579	86.62
279.81	82.62
280.042	88.62
280.273	80.62
280.505	64.62
280.736	85.62
280.968	88.62
281.199	76.62
281.431	70.62
281.662	63.62
281.894	86.62
282.125	75.62
282.356	68.62
282.588	82.62
282.819	91.62
283.051	81.62
283.282	93.62
283.513	72.62
283.745	83.62
283.976	81.62
284.207	82.62
284.439	72.62
284.67	84.62
284.901	78.62
285.132	78.62
285.364	89.62
285.595	88.62
285.826	68.62
286.057	77.62
286.288	68.62
286.52	92.62
286.751	87.62
286.982	78.62
287.213	84.62
287.444	73.62
287.675	78.62
287.906	85.62
288.138	81.62
288.369	83.62
288.6	86.62
288.831	63.62
289.062	72.62
289.293	79.62
289.524	92.62
289.755	93.62
289.986	77.62
290.217	81.62
290.448	92.62
290.679	89.62
290.91	84.62
291.141	84.62
291.371	90.62
291.602	86.62
291.833	77.62
292.064	77.62
292.295	90.62
292.526	76.62
292.757	91.62
292.987	88.62
293.218	78.62
293.449	81.62
293.68	86.62
293.91	77.62
294.141	111.62
294.372	79.62
294.603	88.62
294.833	90.62
295.064	80.62
295.295	69.62
295.525	68.62
295.756	74.62
295.987	76.62
296.217	89.62
296.448	85.62
296.679	74.62
296.909	87.62
297.14	81.62
297.37	82.62
297.601	94.62
297.831	84.62
298.062	84.62
298.292	88.62
298.523	81.62
298.753	78.62
298.984	77.62
299.214	83.62
299.445	72.62
299.675	79.62
299.905	71.62
300.136	93.62
300.366	80.62
300.597	85.62
300.827	100.62
301.057	88.62
301.288	86.62
301.518	73.62
301.748	72.62
301.979	104.62
302.209	77.62
302.439	88.62
302.669	92.62
302.9	83.62
303.13	85.62
303.36	89.62
303.59	89.62
303.82	73.62
304.051	68.62
304.281	82.62
304.511	88.62
304.741	89.62
304.971	75.62
305.201	88.62
305.431	80.62
305.661	79.62
305.891	83.62
306.121	87.62
306.352	76.62
306.582	85.62
306.812	78.62
307.042	85.62
307.272	94.62
307.502	83.62
307.731	86.62
307.961	81.62
308.191	83.62
308.421	62.62
308.651	84.62
308.881	90.62
309.111	98.62
309.341	73.62
309.571	100.62
309.8	90.62
310.03	74.62
310.26	84.62
310.49	78.62
310.72	71.62
310.949	88.62
311.179	88.62
311.409	97.62
311.639	81.62
311.868	65.62
312.098	74.62
312.328	89.62
312.557	73.62
312.787	78.62
313.017	82.62
313.246	80.62
313.476	86.62
313.706	77.62
313.935	90.62
314.165	80.62
314.394	73.62
314.624	90.62
314.853	71.62
315.083	97.62
315.312	77.62
315.542	79.62
315.771	71.62
316.001	99.62
316.23	76.62
316.46	83.62
316.689	98.62
316.919	75.62
317.148	85.62
317.377	89.62
317.607	86.62
317.836	95.62
318.065	85.62
318.295	88.62
318.524	83.62
318.753	81.62
318.983	79.62
319.212	67.62
319.441	90.62
319.67	88.62
319.9	81.62
320.129	69.62
320.358	64.62
320.587	78.62
320.816	88.62
321.046	75.62
321.275	82.62
321.504	83.62
321.733	87.62
321.962	75.62
322.191	72.62
322.42	68.62
322.649	95.62
322.878	78.62
323.108	92.62
323.337	84.62
323.566	80.62
323.795	84.62
324.024	97.62
324.253	94.62
324.482	80.62
324.71	95.62
324.939	89.62
325.168	84.62
325.397	70.62
325.626	93.62
325.855	82.62
326.084	90.62
326.313	89.62
326.542	84.62
326.77	84.62
326.999	79.62
327.228	83.62
327.457	74.62
327.686	94.62
327.914	96.62
328.143	100.62
328.372	86.62
328.6	81.62
328.829	80.62
329.058	74.62
329.287	72.62
329.515	86.62
329.744	90.62
329.972	65.62
330.201	64.62
330.43	84.62
330.658	96.62
330.887	76.62
331.115	67.62
331.344	72.62
331.572	84.62
331.801	72.62
332.03	91.62
332.258	82.62
332.486	87.62
332.715	72.62
332.943	77.62
333.172	74.62
333.4	87.62
333.629	88.62
333.857	89.62
334.085	90.62
334.314	89.62
334.542	82.62
334.771	86.62
334.999	94.62
335.227	81.62
335.455	67.62
335.684	71.62
335.912	88.62
336.14	92.62
336.369	82.62
336.597	94.62
336.825	85.62
337.053	82.62
337.281	83.62
337.51	76.62
337.738	86.62
337.966	82.62
338.194	81.62
338.422	68.62
338.65	90.62
338.878	88.62
339.106	83.62
339.334	80.62
339.562	78.62
339.79	93.62
340.018	74.62
340.246	77.62
340.474	67.62
340.702	81.62
340.93	91.62
341.158	76.62
341.386	92.62
341.614	82.62
341.842	88.62
342.07	96.62
342.298	67.62
342.526	84.62
342.754	82.62
342.981	72.62
343.209	83.62
343.437	84.62
343.665	96.62
343.893	73.62
344.12	92.62
344.348	94.62
344.576	63.62
344.804	89.62
345.031	86.62
345.259	96.62
345.487	94.62
345.714	80.62
345.942	91.62
346.17	87.62
346.397	72.62
346.625	90.62
346.853	75.62
347.08	87.62
347.308	88.62
347.535	80.62
347.763	89.62
347.99	81.62
348.218	72.62
348.445	86.62
348.673	81.62
348.9	87.62
349.128	86.62
349.355	78.62
349.583	78.62
349.81	69.62
350.037	61.62
350.265	94.62
350.492	78.62
350.72	67.62
350.947	81.62
351.174	93.62
351.402	80.62
351.629	81.62
351.856	82.62
352.083	66.62
352.311	80.62
352.538	82.62
352.765	89.62
352.992	72.62
353.22	96.62
353.447	75.62
353.674	86.62
353.901	86.62
354.128	95.62
354.355	82.62
354.583	82.62
354.81	80.62
355.037	85.62
355.264	70.62
355.491	76.62
355.718	70.62
355.945	70.62
356.172	74.62
356.399	88.62
356.626	80.62
356.853	96.62
357.08	81.62
357.307	84.62
357.534	76.62
357.761	89.62
357.988	77.62
358.215	83.62
358.441	72.62
358.668	86.62
358.895	86.62
359.122	79.62
359.349	82.62
359.576	96.62
359.802	71.62
360.029	92.62
360.256	89.62
360.483	87.62
360.709	84.62
360.936	101.62
361.163	98.62
361.39	78.62
361.616	99.62
361.843	68.62
362.07	78.62
362.296	84.62
362.523	80.62
362.749	96.62
362.976	97.62
363.203	105.62
363.429	87.62
363.656	80.62
363.882	89.62
364.109	86.62
364.335	100.62
364.562	105.62
364.788	101.62
365.015	86.62
365.241	85.62
365.468	86.62
365.694	88.62
365.92	84.62
366.147	79.62
366.373	76.62
366.599	75.62
366.826	85.62
367.052	91.62
367.278	84.62
367.505	82.62
367.731	89.62
367.957	68.62
368.184	80.62
368.41	90.62
368.636	89.62
368.862	90.62
369.089	82.62
369.315	71.62
369.541	73.62
369.767	74.62
369.993	93.62
370.219	80.62
370.445	78.62
370.672	87.62
370.898	96.62
371.124	80.62
371.35	82.62
371.576	80.62
371.802	97.62
372.028	81.62
372.254	88.62
372.48	76.62
372.706	86.62
372.932	85.62
373.158	87.62
373.384	93.62
373.61	100.62
373.835	90.62
374.061	75.62
374.287	74.62
374.513	74.62
374.739	88.62
374.965	87.62
375.191	92.62
375.416	80.62
375.642	78.62
375.868	86.62
376.094	86.62
376.319	92.62
376.545	72.62
376.771	88.62
376.997	72.62
377.222	66.62
377.448	77.62
377.674	66.62
377.899	84.62
378.125	94.62
378.35	76.62
378.576	62.62
378.802	73.62
379.027	80.62
379.253	76.62
379.478	80.62
379.704	72.62
379.929	85.62
380.155	66.62
380.38	79.62
380.606	73.62
380.831	82.62
381.057	81.62
381.282	79.62
381.507	88.62
381.733	71.62
381.958	93.62
382.184	83.62
382.409	82.62
382.634	98.62
382.86	84.62
383.085	68.62
383.31	95.62
383.535	91.62
383.761	81.62
383.986	86.62
384.211	89.62
384.436	70.62
384.662	74.62
384.887	85.62
385.112	80.62
385.337	73.62
385.562	93.62
385.787	71.62
386.013	82.62
386.238	93.62
386.463	77.62
386.688	93.62
386.913	95.62
387.138	81.62
387.363	82.62
387.588	84.62
387.813	85.62
388.038	83.62
388.263	93.62
388.488	93.62
388.713	82.62
388.938	83.62
389.163	72.62
389.387	82.62
389.612	85.62
389.837	93.62
390.062	80.62
390.287	88.62
390.512	70.62
390.736	76.62
390.961	78.62
391.186	76.62
391.411	78.62
391.636	80.62
391.86	83.62
392.085	72.62
392.31	71.62
392.534	80.62
392.759	86.62
392.984	93.62
393.208	125.62
393.433	156.62
393.658	141.62
393.882	90.62
394.107	98.62
394.331	97.62
394.556	93.62
394.78	85.62
395.005	92.62
395.229	86.62
395.454	90.62
395.678	94.62
395.903	94.62
396.127	99.62
396.352	102.62
396.576	100.62
396.801	119.62
397.025	148.62
397.249	115.62
397.474	104.62
397.698	83.62
397.922	85.62
398.147	84.62
398.371	72.62
398.595	86.62
398.82	78.62
399.044	74.62
399.268	70.62
399.492	75.62
399.717	96.62
399.941	84.62
400.165	94.62
400.389	72.62
400.613	74.62
400.837	81.62
401.062	68.62
401.286	90.62
401.51	82.62
401.734	67.62
401.958	84.62
402.182	86.62
402.406	85.62
402.63	68.62
402.854	85.62
403.078	84.62
403.302	75.62
403.526	84.62
403.75	88.62
403.974	85.62
404.198	85.62
404.422	92.62
404.645	99.62
404.869	86.62
405.093	92.62
405.317	92.62
405.541	77.62
405.765	77.62
405.988	85.62
406.212	79.62
406.436	90.62
406.66	97.62
406.883	70.62
407.107	72.62
407.331	80.62
407.555	91.62
407.778	104.62
408.002	82.62
408.226	74.62
408.449	67.62
408.673	76.62
408.896	89.62
409.12	73.62
409.344	75.62
409.567	78.62
409.791	95.62
410.014	88.62
410.238	85.62
410.461	77.62
410.685	72.62
410.908	82.62
411.132	98.62
411.355	84.62
411.578	91.62
411.802	82.62
412.025	89.62
412.249	75.62
412.472	92.62
412.695	78.62
412.919	80.62
413.142	89.62
413.365	83.62
413.589	84.62
413.812	86.62
414.035	87.62
414.258	82.62
414.482	76.62
414.705	65.62
414.928	90.62
415.151	70.62
415.374	72.62
415.597	96.62
415.821	92.62
416.044	90.62
416.267	81.62
416.49	72.62
416.713	90.62
416.936	86.62
417.159	92.62
417.382	80.62
417.605	82.62
417.828	89.62
418.051	81.62
418.274	85.62
418.497	82.62
418.72	82.62
418.943	81.62
419.166	84.62
419.389	78.62
419.611	77.62
419.834	86.62
420.057	98.62
420.28	93.62
420.503	78.62
420.726	101.62
420.948	84.62
421.171	66.62
421.394	84.62
421.617	92.62
421.839	104.62
422.062	91.62
422.285	114.62
422.507	167.62
422.73	216.62
422.953	195.62
423.175	145.62
423.398	118.62
423.621	80.62
423.843	78.62
424.066	96.62
424.288	101.62
424.511	78.62
424.733	97.62
424.956	79.62
425.178	74.62
425.401	78.62
425.623	84.62
425.846	78.62
426.068	80.62
426.291	71.62
426.513	87.62
426.735	103.62
426.958	81.62
427.18	81.62
427.402	87.62
427.625	76.62
427.847	82.62
428.069	97.62
428.292	107.62
428.514	106.62
428.736	97.62
428.958	110.62
429.181	100.62
429.403	80.62
429.625	77.62
429.847	97.62
430.069	117.62
430.292	119.62
430.514	133.62
430.736	94.62
430.958	108.62
431.18	86.62
431.402	90.62
431.624	87.62
431.846	83.62
432.068	100.62
432.29	95.62
432.512	75.62
432.734	66.62
432.956	74.62
433.178	78.62
433.4	79.62
433.622	88.62
433.844	92.62
434.066	72.62
434.287	78.62
434.509	80.62
434.731	77.62
434.953	92.62
435.175	80.62
435.397	74.62
435.618	90.62
435.84	66.62
436.062	80.62
436.284	84.62
436.505	76.62
436.727	92.62
436.949	80.62
437.17	78.62
437.392	69.62
437.614	95.62
437.835	78.62
438.057	84.62
438.278	74.62
438.5	80.62
438.721	86.62
438.943	101.62
439.165	87.62
439.386	73.62
439.608	82.62
439.829	72.62
440.05	95.62
440.272	77.62
440.493	75.62
440.715	90.62
440.936	84.62
441.158	69.62
441.379	73.62
441.6	80.62
441.822	88.62
442.043	82.62
442.264	97.62
442.486	90.62
442.707	120.62
442.928	98.62
443.149	102.62
443.371	113.62
443.592	165.62
443.813	150.62
444.034	87.62
444.255	74.62
444.476	102.62
444.698	97.62
444.919	82.62
445.14	181.62
445.361	168.62
445.582	176.62
445.803	158.62
446.024	105.62
446.245	91.62
446.466	79.62
446.687	98.62
446.908	100.62
447.129	92.62
447.35	80.62
447.571	74.62
447.792	81.62
448.013	82.62
448.234	88.62
448.455	84.62
448.675	80.62
448.896	77.62
449.117	68.62
449.338	87.62
449.559	91.62
449.779	106.62
450	89.62
450.221	87.62
450.442	77.62
450.662	86.62
450.883	80.62
451.104	86.62
451.324	75.62
451.545	92.62
451.766	85.62
451.986	87.62
452.207	84.62
452.428	78.62
452.648	89.62
452.869	97.62
453.089	81.62
453.31	86.62
453.53	74.62
453.751	88.62
453.971	72.62
454.192	93.62
454.412	68.62
454.633	82.62
454.853	68.62
455.073	80.62
455.294	80.62
455.514	75.62
455.734	80.62
455.955	72.62
456.175	80.62
456.395	85.62
456.616	85.62
456.836	93.62
457.056	74.62
457.276	89.62
457.497	77.62
457.717	75.62
457.937	91.62
458.157	103.62
458.377	92.62
458.598	88.62
458.818	103.62
459.038	97.62
459.258	86.62
459.478	76.62
459.698	79.62
459.918	72.62
460.138	76.62
460.358	71.62
460.578	88.62
460.798	88.62
461.018	105.62
461.238	83.62
461.458	84.62
461.678	70.62
461.898	89.62
462.118	87.62
462.338	84.62
462.558	76.62
462.777	86.62
462.997	79.62
463.217	98.62
463.437	81.62
463.657	92.62
463.876	84.62
464.096	81.62
464.316	78.62
464.536	76.62
464.755	70.62
464.975	78.62
465.195	80.62
465.414	90.62
465.634	75.62
465.854	66.62
466.073	70.62
466.293	72.62
466.512	74.62
466.732	94.62
466.951	74.62
467.171	86.62
467.391	82.62
467.61	82.62
467.829	81.62
468.049	69.62
468.268	80.62
468.488	76.62
468.707	99.62
468.927	85.62
469.146	99.62
469.365	86.62
469.585	73.62
469.804	82.62
470.023	58.62
470.243	73.62
470.462	64.62
470.681	77.62
470.901	76.62
471.12	94.62
471.339	73.62
471.558	81.62
471.777	75.62
471.997	92.62
472.216	86.62
472.435	88.62
472.654	73.62
472.873	80.62
473.092	80.62
473.311	97.62
473.53	83.62
473.749	80.62
473.968	76.62
474.187	78.62
474.406	80.62
474.625	90.62
474.844	75.62
475.063	83.62
475.282	87.62
475.501	83.62
475.72	87.62
475.939	79.62
476.158	75.62
476.377	92.62
476.596	76.62
476.814	94.62
477.033	86.62
477.252	77.62
477.471	78.62
477.69	79.62
477.908	82.62
478.127	85.62
478.346	88.62
478.564	77.62
478.783	70.62
479.002	78.62
479.22	74.62
479.439	72.62
479.658	83.62
479.876	83.62
480.095	84.62
480.313	84.62
480.532	86.62
480.751	84.62
480.969	78.62
481.188	85.62
481.406	89.62
481.624	76.62
481.843	84.62
482.061	66.62
482.28	88.62
482.498	83.62
482.717	73.62
482.935	91.62
483.153	84.62
483.372	84.62
483.59	82.62
483.808	86.62
484.027	82.62
484.245	85.62
484.463	74.62
484.681	94.62
484.9	87.62
485.118	75.62
485.336	86.62
485.554	83.62
485.772	90.62
485.99	78.62
486.209	87.62
486.427	103.62
486.645	88.62
486.863	73.62
487.081	73.62
487.299	93.62
487.517	85.62
487.735	101.62
487.953	126.62
488.171	114.62
488.389	91.62
488.607	76.62
488.825	74.62
489.043	82.62
489.261	79.62
489.479	89.62
489.696	82.62
489.914	86.62
490.132	90.62
490.35	85.62
490.568	84.62
490.786	77.62
491.003	94.62
491.221	91.62
491.439	78.62
491.657	81.62
491.874	93.62
492.092	82.62
492.31	92.62
492.527	88.62
492.745	80.62
492.963	91.62
493.18	78.62
493.398	69.62
493.615	77.62
493.833	76.62
494.05	87.62
494.268	75.62
494.485	85.62
494.703	92.62
494.92	94.62
495.138	84.62
495.355	82.62
495.573	87.62
495.79	95.62
496.008	88.62
496.225	91.62
496.442	81.62
496.66	92.62
496.877	84.62
497.094	93.62
497.312	76.62
497.529	83.62
497.746	75.62
497.963	92.62
498.181	97.62
498.398	81.62
498.615	79.62
498.832	69.62
499.049	87.62
499.267	84.62
499.484	85.62
499.701	81.62
499.918	70.62
500.135	91.62
500.352	80.62
500.569	82.62
500.786	94.62
501.003	93.62
501.22	91.62
501.437	94.62
501.654	93.62
501.871	85.62
502.088	89.62
502.305	88.62
502.522	90.62
502.739	77.62
502.956	94.62
503.172	74.62
503.389	71.62
503.606	75.62
503.823	71.62
504.04	84.62
504.256	105.62
504.473	98.62
504.69	103.62
504.907	90.62
505.123	80.62
505.34	84.62
505.557	92.62
505.773	72.62
505.99	83.62
506.207	88.62
506.423	78.62
506.64	100.62
506.856	88.62
507.073	73.62
507.289	92.62
507.506	78.62
507.722	85.62
507.939	72.62
508.155	80.62
508.372	102.62
508.588	90.62
508.805	94.62
509.021	78.62
509.238	101.62
509.454	80.62
509.67	88.62
509.887	86.62
510.103	90.62
510.319	89.62
510.536	88.62
510.752	78.62
510.968	90.62
511.184	96.62
511.401	78.62
511.617	91.62
511.833	84.62
512.049	87.62
512.265	83.62
512.481	88.62
512.698	78.62
512.914	79.62
513.13	82.62
513.346	88.62
513.562	82.62
513.778	86.62
513.994	77.62
514.21	84.62
514.426	94.62
514.642	77.62
514.858	78.62
515.074	93.62
515.29	81.62
515.506	85.62
515.721	79.62
515.937	77.62
516.153	82.62
516.369	88.62
516.585	86.62
516.801	83.62
517.016	89.62
517.232	88.62
517.448	87.62
517.664	101.62
517.879	93.62
518.095	95.62
518.311	86.62
518.527	91.62
518.742	87.62
518.958	109.62
519.173	132.62
519.389	90.62
