Data from 237_3_HRD10591_00004.txt Node
Date: Mon Jan 19 14:12:56 EST 2026
User: Yrep
Spectrometer: HR+D1059
Trigger mode: 1
Integration Time (sec): 1.000000E-1
Scans to average: 1
Electric dark correction enabled: true
Nonlinearity correction enabled: false
Boxcar width: 0
XAxis mode: Wavelengths
Number of Pixels in Spectrum: 2048
>>>>>Begin Spectral Data<<<<<
223.165	-17.38
223.4	-17.38
223.635	-17.38
223.869	-22.38
224.104	-19.38
224.338	-0.38
224.573	-20.38
224.808	-16.38
225.042	-12.38
225.277	-2.38
225.511	3.62
225.746	3.62
225.98	11.62
226.215	11.62
226.449	11.62
226.683	17.62
226.918	20.62
227.152	30.62
227.387	33.62
227.621	56.62
227.856	42.62
228.09	47.62
228.324	63.62
228.559	58.62
228.793	59.62
229.027	67.62
229.262	84.62
229.496	79.62
229.73	49.62
229.964	76.62
230.199	70.62
230.433	76.62
230.667	75.62
230.901	75.62
231.136	87.62
231.37	85.62
231.604	74.62
231.838	83.62
232.072	82.62
232.306	84.62
232.541	80.62
232.775	82.62
233.009	91.62
233.243	76.62
233.477	94.62
233.711	83.62
233.945	89.62
234.179	71.62
234.413	87.62
234.647	83.62
234.881	78.62
235.115	80.62
235.349	70.62
235.583	75.62
235.817	72.62
236.051	88.62
236.285	68.62
236.519	71.62
236.753	74.62
236.987	83.62
237.221	95.62
237.455	91.62
237.689	83.62
237.922	86.62
238.156	76.62
238.39	79.62
238.624	90.62
238.858	65.62
239.091	76.62
239.325	68.62
239.559	66.62
239.793	77.62
240.027	84.62
240.26	74.62
240.494	74.62
240.728	70.62
240.961	79.62
241.195	74.62
241.429	82.62
241.662	69.62
241.896	66.62
242.13	80.62
242.363	82.62
242.597	70.62
242.83	73.62
243.064	84.62
243.298	79.62
243.531	73.62
243.765	68.62
243.998	64.62
244.232	78.62
244.465	72.62
244.699	89.62
244.932	71.62
245.166	82.62
245.399	75.62
245.633	75.62
245.866	83.62
246.099	87.62
246.333	89.62
246.566	68.62
246.8	80.62
247.033	71.62
247.266	83.62
247.5	74.62
247.733	80.62
247.966	66.62
248.2	70.62
248.433	90.62
248.666	74.62
248.899	58.62
249.133	90.62
249.366	81.62
249.599	83.62
249.832	68.62
250.066	97.62
250.299	78.62
250.532	75.62
250.765	75.62
250.998	77.62
251.231	72.62
251.465	91.62
251.698	81.62
251.931	78.62
252.164	77.62
252.397	92.62
252.63	82.62
252.863	73.62
253.096	85.62
253.329	75.62
253.562	87.62
253.795	86.62
254.028	86.62
254.261	89.62
254.494	76.62
254.727	80.62
254.96	80.62
255.193	81.62
255.426	76.62
255.659	73.62
255.892	77.62
256.124	77.62
256.357	72.62
256.59	76.62
256.823	75.62
257.056	85.62
257.289	86.62
257.521	75.62
257.754	68.62
257.987	97.62
258.22	83.62
258.452	78.62
258.685	84.62
258.918	82.62
259.151	89.62
259.383	79.62
259.616	71.62
259.849	80.62
260.081	86.62
260.314	94.62
260.547	76.62
260.779	70.62
261.012	84.62
261.244	82.62
261.477	77.62
261.71	76.62
261.942	82.62
262.175	69.62
262.407	86.62
262.64	75.62
262.872	86.62
263.105	97.62
263.337	72.62
263.57	91.62
263.802	91.62
264.035	72.62
264.267	78.62
264.499	77.62
264.732	82.62
264.964	87.62
265.197	90.62
265.429	74.62
265.661	90.62
265.894	68.62
266.126	76.62
266.358	84.62
266.591	72.62
266.823	78.62
267.055	80.62
267.287	75.62
267.52	75.62
267.752	71.62
267.984	89.62
268.216	60.62
268.448	78.62
268.681	86.62
268.913	91.62
269.145	71.62
269.377	94.62
269.609	85.62
269.841	79.62
270.073	84.62
270.306	81.62
270.538	99.62
270.77	88.62
271.002	90.62
271.234	78.62
271.466	77.62
271.698	79.62
271.93	84.62
272.162	75.62
272.394	82.62
272.626	83.62
272.858	80.62
273.09	81.62
273.322	88.62
273.553	92.62
273.785	68.62
274.017	81.62
274.249	85.62
274.481	88.62
274.713	92.62
274.945	96.62
275.176	79.62
275.408	95.62
275.64	81.62
275.872	87.62
276.104	79.62
276.335	91.62
276.567	67.62
276.799	71.62
277.031	75.62
277.262	87.62
277.494	92.62
277.726	95.62
277.957	70.62
278.189	83.62
278.421	84.62
278.652	87.62
278.884	80.62
279.115	86.62
279.347	77.62
279.579	79.62
279.81	95.62
280.042	81.62
280.273	79.62
280.505	93.62
280.736	88.62
280.968	101.62
281.199	96.62
281.431	91.62
281.662	94.62
281.894	83.62
282.125	73.62
282.356	96.62
282.588	94.62
282.819	76.62
283.051	87.62
283.282	74.62
283.513	82.62
283.745	74.62
283.976	71.62
284.207	80.62
284.439	78.62
284.67	93.62
284.901	75.62
285.132	94.62
285.364	86.62
285.595	87.62
285.826	94.62
286.057	82.62
286.288	87.62
286.52	79.62
286.751	72.62
286.982	85.62
287.213	75.62
287.444	77.62
287.675	76.62
287.906	78.62
288.138	82.62
288.369	83.62
288.6	89.62
288.831	84.62
289.062	90.62
289.293	87.62
289.524	85.62
289.755	86.62
289.986	81.62
290.217	88.62
290.448	101.62
290.679	86.62
290.91	91.62
291.141	89.62
291.371	82.62
291.602	94.62
291.833	75.62
292.064	82.62
292.295	66.62
292.526	89.62
292.757	91.62
292.987	91.62
293.218	85.62
293.449	67.62
293.68	94.62
293.91	86.62
294.141	87.62
294.372	77.62
294.603	85.62
294.833	79.62
295.064	79.62
295.295	73.62
295.525	84.62
295.756	92.62
295.987	97.62
296.217	86.62
296.448	90.62
296.679	88.62
296.909	85.62
297.14	83.62
297.37	82.62
297.601	103.62
297.831	97.62
298.062	87.62
298.292	90.62
298.523	82.62
298.753	78.62
298.984	76.62
299.214	94.62
299.445	86.62
299.675	81.62
299.905	72.62
300.136	89.62
300.366	84.62
300.597	90.62
300.827	92.62
301.057	99.62
301.288	78.62
301.518	76.62
301.748	79.62
301.979	102.62
302.209	87.62
302.439	94.62
302.669	92.62
302.9	99.62
303.13	83.62
303.36	85.62
303.59	97.62
303.82	76.62
304.051	70.62
304.281	88.62
304.511	101.62
304.741	83.62
304.971	87.62
305.201	84.62
305.431	74.62
305.661	89.62
305.891	96.62
306.121	92.62
306.352	88.62
306.582	85.62
306.812	79.62
307.042	95.62
307.272	87.62
307.502	80.62
307.731	98.62
307.961	85.62
308.191	102.62
308.421	72.62
308.651	93.62
308.881	93.62
309.111	78.62
309.341	77.62
309.571	81.62
309.8	91.62
310.03	97.62
310.26	82.62
310.49	96.62
310.72	86.62
310.949	76.62
311.179	91.62
311.409	88.62
311.639	81.62
311.868	86.62
312.098	91.62
312.328	94.62
312.557	77.62
312.787	81.62
313.017	90.62
313.246	110.62
313.476	85.62
313.706	102.62
313.935	84.62
314.165	94.62
314.394	80.62
314.624	77.62
314.853	79.62
315.083	74.62
315.312	92.62
315.542	71.62
315.771	84.62
316.001	84.62
316.23	87.62
316.46	91.62
316.689	76.62
316.919	86.62
317.148	92.62
317.377	91.62
317.607	89.62
317.836	79.62
318.065	80.62
318.295	75.62
318.524	90.62
318.753	86.62
318.983	89.62
319.212	80.62
319.441	84.62
319.67	70.62
319.9	90.62
320.129	76.62
320.358	84.62
320.587	98.62
320.816	84.62
321.046	95.62
321.275	84.62
321.504	82.62
321.733	100.62
321.962	101.62
322.191	98.62
322.42	86.62
322.649	80.62
322.878	86.62
323.108	82.62
323.337	79.62
323.566	78.62
323.795	90.62
324.024	93.62
324.253	83.62
324.482	88.62
324.71	70.62
324.939	83.62
325.168	83.62
325.397	95.62
325.626	87.62
325.855	90.62
326.084	87.62
326.313	80.62
326.542	96.62
326.77	99.62
326.999	87.62
327.228	74.62
327.457	80.62
327.686	77.62
327.914	78.62
328.143	80.62
328.372	91.62
328.6	77.62
328.829	90.62
329.058	88.62
329.287	82.62
329.515	77.62
329.744	82.62
329.972	93.62
330.201	74.62
330.43	76.62
330.658	91.62
330.887	92.62
331.115	83.62
331.344	74.62
331.572	91.62
331.801	86.62
332.03	79.62
332.258	86.62
332.486	84.62
332.715	89.62
332.943	82.62
333.172	80.62
333.4	78.62
333.629	81.62
333.857	73.62
334.085	89.62
334.314	90.62
334.542	76.62
334.771	90.62
334.999	87.62
335.227	76.62
335.455	84.62
335.684	90.62
335.912	94.62
336.14	95.62
336.369	81.62
336.597	105.62
336.825	84.62
337.053	98.62
337.281	86.62
337.51	87.62
337.738	89.62
337.966	79.62
338.194	89.62
338.422	88.62
338.65	88.62
338.878	76.62
339.106	89.62
339.334	86.62
339.562	80.62
339.79	76.62
340.018	83.62
340.246	83.62
340.474	71.62
340.702	89.62
340.93	88.62
341.158	83.62
341.386	77.62
341.614	82.62
341.842	104.62
342.07	84.62
342.298	102.62
342.526	86.62
342.754	90.62
342.981	83.62
343.209	91.62
343.437	107.62
343.665	76.62
343.893	85.62
344.12	89.62
344.348	85.62
344.576	91.62
344.804	96.62
345.031	88.62
345.259	79.62
345.487	81.62
345.714	90.62
345.942	83.62
346.17	70.62
346.397	85.62
346.625	81.62
346.853	98.62
347.08	88.62
347.308	87.62
347.535	89.62
347.763	89.62
347.99	92.62
348.218	70.62
348.445	74.62
348.673	87.62
348.9	95.62
349.128	88.62
349.355	85.62
349.583	78.62
349.81	70.62
350.037	82.62
350.265	87.62
350.492	94.62
350.72	92.62
350.947	87.62
351.174	81.62
351.402	82.62
351.629	80.62
351.856	97.62
352.083	89.62
352.311	88.62
352.538	79.62
352.765	76.62
352.992	98.62
353.22	79.62
353.447	75.62
353.674	72.62
353.901	82.62
354.128	89.62
354.355	80.62
354.583	93.62
354.81	81.62
355.037	80.62
355.264	80.62
355.491	88.62
355.718	78.62
355.945	81.62
356.172	72.62
356.399	86.62
356.626	90.62
356.853	84.62
357.08	87.62
357.307	84.62
357.534	86.62
357.761	90.62
357.988	93.62
358.215	88.62
358.441	74.62
358.668	78.62
358.895	92.62
359.122	76.62
359.349	79.62
359.576	89.62
359.802	79.62
360.029	99.62
360.256	89.62
360.483	86.62
360.709	80.62
360.936	100.62
361.163	79.62
361.39	92.62
361.616	94.62
361.843	94.62
362.07	98.62
362.296	84.62
362.523	88.62
362.749	91.62
362.976	92.62
363.203	114.62
363.429	91.62
363.656	86.62
363.882	78.62
364.109	99.62
364.335	112.62
364.562	111.62
364.788	94.62
365.015	84.62
365.241	67.62
365.468	92.62
365.694	89.62
365.92	89.62
366.147	88.62
366.373	74.62
366.599	86.62
366.826	84.62
367.052	80.62
367.278	88.62
367.505	82.62
367.731	96.62
367.957	82.62
368.184	98.62
368.41	90.62
368.636	95.62
368.862	70.62
369.089	84.62
369.315	88.62
369.541	89.62
369.767	96.62
369.993	84.62
370.219	74.62
370.445	89.62
370.672	74.62
370.898	81.62
371.124	70.62
371.35	90.62
371.576	76.62
371.802	82.62
372.028	100.62
372.254	93.62
372.48	85.62
372.706	96.62
372.932	84.62
373.158	88.62
373.384	90.62
373.61	98.62
373.835	86.62
374.061	88.62
374.287	91.62
374.513	89.62
374.739	77.62
374.965	80.62
375.191	88.62
375.416	89.62
375.642	88.62
375.868	94.62
376.094	86.62
376.319	91.62
376.545	81.62
376.771	88.62
376.997	71.62
377.222	75.62
377.448	79.62
377.674	90.62
377.899	86.62
378.125	87.62
378.35	90.62
378.576	80.62
378.802	84.62
379.027	90.62
379.253	82.62
379.478	90.62
379.704	88.62
379.929	95.62
380.155	83.62
380.38	78.62
380.606	90.62
380.831	92.62
381.057	96.62
381.282	84.62
381.507	86.62
381.733	84.62
381.958	87.62
382.184	97.62
382.409	89.62
382.634	97.62
382.86	84.62
383.085	96.62
383.31	83.62
383.535	95.62
383.761	102.62
383.986	106.62
384.211	91.62
384.436	84.62
384.662	76.62
384.887	74.62
385.112	79.62
385.337	85.62
385.562	101.62
385.787	89.62
386.013	77.62
386.238	95.62
386.463	96.62
386.688	90.62
386.913	102.62
387.138	90.62
387.363	85.62
387.588	88.62
387.813	83.62
388.038	80.62
388.263	91.62
388.488	100.62
388.713	86.62
388.938	88.62
389.163	91.62
389.387	86.62
389.612	91.62
389.837	81.62
390.062	92.62
390.287	84.62
390.512	111.62
390.736	85.62
390.961	74.62
391.186	102.62
391.411	96.62
391.636	84.62
391.86	100.62
392.085	85.62
392.31	92.62
392.534	95.62
392.759	96.62
392.984	109.62
393.208	166.62
393.433	202.62
393.658	163.62
393.882	112.62
394.107	110.62
394.331	100.62
394.556	99.62
394.78	83.62
395.005	79.62
395.229	86.62
395.454	92.62
395.678	100.62
395.903	125.62
396.127	115.62
396.352	127.62
396.576	129.62
396.801	156.62
397.025	176.62
397.249	106.62
397.474	103.62
397.698	90.62
397.922	95.62
398.147	88.62
398.371	99.62
398.595	96.62
398.82	85.62
399.044	94.62
399.268	95.62
399.492	89.62
399.717	87.62
399.941	103.62
400.165	86.62
400.389	77.62
400.613	98.62
400.837	85.62
401.062	97.62
401.286	76.62
401.51	89.62
401.734	86.62
401.958	91.62
402.182	87.62
402.406	87.62
402.63	70.62
402.854	79.62
403.078	87.62
403.302	96.62
403.526	75.62
403.75	91.62
403.974	88.62
404.198	75.62
404.422	129.62
404.645	133.62
404.869	100.62
405.093	97.62
405.317	87.62
405.541	77.62
405.765	93.62
405.988	107.62
406.212	83.62
406.436	92.62
406.66	93.62
406.883	82.62
407.107	91.62
407.331	84.62
407.555	93.62
407.778	80.62
408.002	92.62
408.226	84.62
408.449	97.62
408.673	79.62
408.896	80.62
409.12	107.62
409.344	89.62
409.567	92.62
409.791	102.62
410.014	110.62
410.238	93.62
410.461	78.62
410.685	87.62
410.908	83.62
411.132	87.62
411.355	88.62
411.578	83.62
411.802	81.62
412.025	80.62
412.249	90.62
412.472	76.62
412.695	89.62
412.919	82.62
413.142	95.62
413.365	73.62
413.589	92.62
413.812	100.62
414.035	88.62
414.258	91.62
414.482	96.62
414.705	86.62
414.928	85.62
415.151	89.62
415.374	82.62
415.597	98.62
415.821	76.62
416.044	86.62
416.267	81.62
416.49	82.62
416.713	94.62
416.936	75.62
417.159	86.62
417.382	85.62
417.605	84.62
417.828	74.62
418.051	82.62
418.274	94.62
418.497	94.62
418.72	80.62
418.943	96.62
419.166	82.62
419.389	89.62
419.611	92.62
419.834	73.62
420.057	83.62
420.28	90.62
420.503	94.62
420.726	87.62
420.948	92.62
421.171	89.62
421.394	98.62
421.617	112.62
421.839	122.62
422.062	110.62
422.285	154.62
422.507	259.62
422.73	314.62
422.953	303.62
423.175	186.62
423.398	121.62
423.621	110.62
423.843	104.62
424.066	88.62
424.288	98.62
424.511	100.62
424.733	97.62
424.956	95.62
425.178	87.62
425.401	77.62
425.623	98.62
425.846	81.62
426.068	85.62
426.291	97.62
426.513	86.62
426.735	86.62
426.958	80.62
427.18	79.62
427.402	79.62
427.625	80.62
427.847	97.62
428.069	105.62
428.292	110.62
428.514	134.62
428.736	98.62
428.958	119.62
429.181	123.62
429.403	86.62
429.625	93.62
429.847	115.62
430.069	140.62
430.292	152.62
430.514	139.62
430.736	110.62
430.958	135.62
431.18	86.62
431.402	87.62
431.624	78.62
431.846	111.62
432.068	107.62
432.29	94.62
432.512	74.62
432.734	79.62
432.956	98.62
433.178	91.62
433.4	72.62
433.622	73.62
433.844	89.62
434.066	87.62
434.287	75.62
434.509	88.62
434.731	84.62
434.953	76.62
435.175	88.62
435.397	88.62
435.618	91.62
435.84	87.62
436.062	87.62
436.284	89.62
436.505	76.62
436.727	89.62
436.949	77.62
437.17	71.62
437.392	79.62
437.614	88.62
437.835	87.62
438.057	98.62
438.278	76.62
438.5	80.62
438.721	86.62
438.943	89.62
439.165	89.62
439.386	85.62
439.608	91.62
439.829	97.62
440.05	83.62
440.272	76.62
440.493	92.62
440.715	89.62
440.936	96.62
441.158	105.62
441.379	85.62
441.6	101.62
441.822	94.62
442.043	80.62
442.264	97.62
442.486	122.62
442.707	142.62
442.928	114.62
443.149	95.62
443.371	114.62
443.592	209.62
443.813	180.62
444.034	98.62
444.255	94.62
444.476	83.62
444.698	100.62
444.919	96.62
445.14	199.62
445.361	183.62
445.582	234.62
445.803	195.62
446.024	115.62
446.245	94.62
446.466	99.62
446.687	82.62
446.908	84.62
447.129	83.62
447.35	87.62
447.571	91.62
447.792	83.62
448.013	76.62
448.234	100.62
448.455	82.62
448.675	81.62
448.896	95.62
449.117	71.62
449.338	74.62
449.559	85.62
449.779	84.62
450	88.62
450.221	94.62
450.442	93.62
450.662	93.62
450.883	84.62
451.104	75.62
451.324	91.62
451.545	88.62
451.766	87.62
451.986	94.62
452.207	88.62
452.428	79.62
452.648	100.62
452.869	99.62
453.089	103.62
453.31	83.62
453.53	104.62
453.751	94.62
453.971	83.62
454.192	89.62
454.412	96.62
454.633	87.62
454.853	78.62
455.073	86.62
455.294	82.62
455.514	103.62
455.734	80.62
455.955	94.62
456.175	82.62
456.395	72.62
456.616	78.62
456.836	79.62
457.056	88.62
457.276	85.62
457.497	84.62
457.717	88.62
457.937	97.62
458.157	104.62
458.377	120.62
458.598	116.62
458.818	132.62
459.038	96.62
459.258	94.62
459.478	85.62
459.698	70.62
459.918	83.62
460.138	79.62
460.358	82.62
460.578	80.62
460.798	102.62
461.018	104.62
461.238	86.62
461.458	101.62
461.678	96.62
461.898	82.62
462.118	85.62
462.338	83.62
462.558	88.62
462.777	79.62
462.997	97.62
463.217	85.62
463.437	87.62
463.657	73.62
463.876	90.62
464.096	89.62
464.316	81.62
464.536	101.62
464.755	99.62
464.975	87.62
465.195	81.62
465.414	83.62
465.634	87.62
465.854	84.62
466.073	90.62
466.293	74.62
466.512	88.62
466.732	76.62
466.951	90.62
467.171	86.62
467.391	82.62
467.61	81.62
467.829	88.62
468.049	86.62
468.268	76.62
468.488	102.62
468.707	78.62
468.927	84.62
469.146	92.62
469.365	95.62
469.585	80.62
469.804	82.62
470.023	76.62
470.243	66.62
470.462	97.62
470.681	90.62
470.901	83.62
471.12	82.62
471.339	90.62
471.558	91.62
471.777	90.62
471.997	84.62
472.216	88.62
472.435	86.62
472.654	82.62
472.873	91.62
473.092	87.62
473.311	89.62
473.53	77.62
473.749	80.62
473.968	81.62
474.187	92.62
474.406	83.62
474.625	94.62
474.844	90.62
475.063	95.62
475.282	83.62
475.501	77.62
475.72	91.62
475.939	79.62
476.158	73.62
476.377	91.62
476.596	89.62
476.814	87.62
477.033	100.62
477.252	86.62
477.471	94.62
477.69	84.62
477.908	87.62
478.127	88.62
478.346	90.62
478.564	81.62
478.783	88.62
479.002	82.62
479.22	82.62
479.439	87.62
479.658	76.62
479.876	94.62
480.095	84.62
480.313	97.62
480.532	103.62
480.751	95.62
480.969	79.62
481.188	79.62
481.406	84.62
481.624	100.62
481.843	88.62
482.061	81.62
482.28	96.62
482.498	93.62
482.717	100.62
482.935	95.62
483.153	77.62
483.372	82.62
483.59	86.62
483.808	82.62
484.027	101.62
484.245	96.62
484.463	81.62
484.681	83.62
484.9	87.62
485.118	84.62
485.336	88.62
485.554	99.62
485.772	80.62
485.99	86.62
486.209	74.62
486.427	85.62
486.645	98.62
486.863	102.62
487.081	84.62
487.299	92.62
487.517	98.62
487.735	116.62
487.953	138.62
488.171	135.62
488.389	86.62
488.607	93.62
488.825	78.62
489.043	98.62
489.261	88.62
489.479	87.62
489.696	75.62
489.914	82.62
490.132	86.62
490.35	95.62
490.568	80.62
490.786	84.62
491.003	91.62
491.221	75.62
491.439	92.62
491.657	85.62
491.874	88.62
492.092	87.62
492.31	101.62
492.527	92.62
492.745	86.62
492.963	96.62
493.18	97.62
493.398	101.62
493.615	85.62
493.833	98.62
494.05	71.62
494.268	86.62
494.485	80.62
494.703	90.62
494.92	98.62
495.138	88.62
495.355	87.62
495.573	92.62
495.79	88.62
496.008	83.62
496.225	82.62
496.442	114.62
496.66	101.62
496.877	88.62
497.094	92.62
497.312	85.62
497.529	90.62
497.746	84.62
497.963	85.62
498.181	93.62
498.398	100.62
498.615	87.62
498.832	79.62
499.049	80.62
499.267	91.62
499.484	95.62
499.701	75.62
499.918	92.62
500.135	82.62
500.352	90.62
500.569	82.62
500.786	88.62
501.003	78.62
501.22	87.62
501.437	92.62
501.654	96.62
501.871	100.62
502.088	86.62
502.305	106.62
502.522	93.62
502.739	92.62
502.956	88.62
503.172	89.62
503.389	94.62
503.606	77.62
503.823	91.62
504.04	104.62
504.256	120.62
504.473	122.62
504.69	97.62
504.907	98.62
505.123	90.62
505.34	93.62
505.557	96.62
505.773	85.62
505.99	93.62
506.207	79.62
506.423	70.62
506.64	80.62
506.856	85.62
507.073	101.62
507.289	94.62
507.506	94.62
507.722	88.62
507.939	76.62
508.155	93.62
508.372	86.62
508.588	82.62
508.805	97.62
509.021	87.62
509.238	82.62
509.454	89.62
509.67	87.62
509.887	85.62
510.103	87.62
510.319	86.62
510.536	95.62
510.752	87.62
510.968	84.62
511.184	97.62
511.401	92.62
511.617	94.62
511.833	88.62
512.049	94.62
512.265	88.62
512.481	89.62
512.698	92.62
512.914	81.62
513.13	96.62
513.346	90.62
513.562	93.62
513.778	89.62
513.994	89.62
514.21	85.62
514.426	80.62
514.642	95.62
514.858	98.62
515.074	85.62
515.29	80.62
515.506	82.62
515.721	84.62
515.937	103.62
516.153	79.62
516.369	97.62
516.585	83.62
516.801	82.62
517.016	93.62
517.232	97.62
517.448	98.62
517.664	97.62
517.879	77.62
518.095	80.62
518.311	78.62
518.527	112.62
