Data from 237_3_HRD10591_00009.txt Node
Date: Mon Jan 19 14:12:59 EST 2026
User: Yrep
Spectrometer: HR+D1059
Trigger mode: 1
Integration Time (sec): 1.000000E-1
Scans to average: 1
Electric dark correction enabled: true
Nonlinearity correction enabled: false
Boxcar width: 0
XAxis mode: Wavelengths
Number of Pixels in Spectrum: 2048
>>>>>Begin Spectral Data<<<<<
223.165	-8.5
223.4	-8.5
223.635	-8.5
223.869	-17.5
224.104	-25.5
224.338	-18.5
224.573	-14.5
224.808	-20.5
225.042	-1.5
225.277	-3.5
225.511	-2.5
225.746	4.5
225.98	5.5
226.215	8.5
226.449	16.5
226.683	31.5
226.918	27.5
227.152	18.5
227.387	30.5
227.621	36.5
227.856	43.5
228.09	40.5
228.324	48.5
228.559	44.5
228.793	51.5
229.027	57.5
229.262	68.5
229.496	70.5
229.73	69.5
229.964	74.5
230.199	72.5
230.433	71.5
230.667	65.5
230.901	83.5
231.136	75.5
231.37	75.5
231.604	89.5
231.838	84.5
232.072	78.5
232.306	90.5
232.541	69.5
232.775	74.5
233.009	87.5
233.243	88.5
233.477	84.5
233.711	87.5
233.945	91.5
234.179	76.5
234.413	73.5
234.647	75.5
234.881	100.5
235.115	79.5
235.349	75.5
235.583	83.5
235.817	83.5
236.051	88.5
236.285	88.5
236.519	83.5
236.753	72.5
236.987	75.5
237.221	95.5
237.455	92.5
237.689	83.5
237.922	77.5
238.156	88.5
238.39	77.5
238.624	68.5
238.858	78.5
239.091	72.5
239.325	79.5
239.559	59.5
239.793	80.5
240.027	66.5
240.26	81.5
240.494	73.5
240.728	67.5
240.961	69.5
241.195	76.5
241.429	85.5
241.662	85.5
241.896	82.5
242.13	83.5
242.363	80.5
242.597	62.5
242.83	83.5
243.064	74.5
243.298	81.5
243.531	68.5
243.765	77.5
243.998	82.5
244.232	73.5
244.465	95.5
244.699	76.5
244.932	79.5
245.166	75.5
245.399	89.5
245.633	91.5
245.866	81.5
246.099	84.5
246.333	75.5
246.566	73.5
246.8	79.5
247.033	89.5
247.266	79.5
247.5	73.5
247.733	76.5
247.966	73.5
248.2	72.5
248.433	81.5
248.666	75.5
248.899	72.5
249.133	76.5
249.366	85.5
249.599	83.5
249.832	83.5
250.066	77.5
250.299	63.5
250.532	83.5
250.765	92.5
250.998	77.5
251.231	77.5
251.465	83.5
251.698	90.5
251.931	90.5
252.164	85.5
252.397	73.5
252.63	75.5
252.863	68.5
253.096	67.5
253.329	76.5
253.562	76.5
253.795	84.5
254.028	87.5
254.261	87.5
254.494	91.5
254.727	69.5
254.96	73.5
255.193	83.5
255.426	90.5
255.659	85.5
255.892	80.5
256.124	82.5
256.357	80.5
256.59	84.5
256.823	96.5
257.056	76.5
257.289	78.5
257.521	80.5
257.754	69.5
257.987	86.5
258.22	76.5
258.452	86.5
258.685	88.5
258.918	82.5
259.151	77.5
259.383	83.5
259.616	79.5
259.849	77.5
260.081	75.5
260.314	74.5
260.547	89.5
260.779	78.5
261.012	93.5
261.244	85.5
261.477	84.5
261.71	77.5
261.942	75.5
262.175	86.5
262.407	81.5
262.64	73.5
262.872	67.5
263.105	80.5
263.337	95.5
263.57	85.5
263.802	92.5
264.035	74.5
264.267	78.5
264.499	89.5
264.732	89.5
264.964	75.5
265.197	76.5
265.429	75.5
265.661	76.5
265.894	81.5
266.126	81.5
266.358	68.5
266.591	85.5
266.823	84.5
267.055	87.5
267.287	89.5
267.52	84.5
267.752	92.5
267.984	99.5
268.216	79.5
268.448	87.5
268.681	75.5
268.913	77.5
269.145	92.5
269.377	87.5
269.609	84.5
269.841	94.5
270.073	86.5
270.306	96.5
270.538	76.5
270.77	83.5
271.002	79.5
271.234	92.5
271.466	77.5
271.698	83.5
271.93	97.5
272.162	83.5
272.394	91.5
272.626	95.5
272.858	75.5
273.09	84.5
273.322	99.5
273.553	82.5
273.785	85.5
274.017	92.5
274.249	75.5
274.481	89.5
274.713	74.5
274.945	76.5
275.176	89.5
275.408	90.5
275.64	82.5
275.872	96.5
276.104	88.5
276.335	76.5
276.567	87.5
276.799	87.5
277.031	81.5
277.262	76.5
277.494	79.5
277.726	91.5
277.957	70.5
278.189	83.5
278.421	84.5
278.652	81.5
278.884	90.5
279.115	93.5
279.347	82.5
279.579	84.5
279.81	86.5
280.042	89.5
280.273	100.5
280.505	101.5
280.736	94.5
280.968	73.5
281.199	87.5
281.431	96.5
281.662	105.5
281.894	97.5
282.125	89.5
282.356	77.5
282.588	75.5
282.819	74.5
283.051	69.5
283.282	88.5
283.513	104.5
283.745	98.5
283.976	79.5
284.207	93.5
284.439	86.5
284.67	78.5
284.901	75.5
285.132	84.5
285.364	88.5
285.595	85.5
285.826	74.5
286.057	85.5
286.288	99.5
286.52	85.5
286.751	67.5
286.982	76.5
287.213	85.5
287.444	82.5
287.675	106.5
287.906	90.5
288.138	88.5
288.369	84.5
288.6	91.5
288.831	74.5
289.062	107.5
289.293	83.5
289.524	83.5
289.755	79.5
289.986	87.5
290.217	92.5
290.448	93.5
290.679	80.5
290.91	84.5
291.141	90.5
291.371	81.5
291.602	81.5
291.833	71.5
292.064	96.5
292.295	89.5
292.526	91.5
292.757	70.5
292.987	76.5
293.218	96.5
293.449	95.5
293.68	93.5
293.91	92.5
294.141	99.5
294.372	79.5
294.603	81.5
294.833	69.5
295.064	80.5
295.295	85.5
295.525	103.5
295.756	85.5
295.987	91.5
296.217	81.5
296.448	90.5
296.679	73.5
296.909	85.5
297.14	77.5
297.37	89.5
297.601	82.5
297.831	88.5
298.062	74.5
298.292	99.5
298.523	103.5
298.753	76.5
298.984	75.5
299.214	87.5
299.445	74.5
299.675	88.5
299.905	86.5
300.136	93.5
300.366	68.5
300.597	89.5
300.827	92.5
301.057	83.5
301.288	97.5
301.518	91.5
301.748	85.5
301.979	92.5
302.209	82.5
302.439	83.5
302.669	95.5
302.9	98.5
303.13	93.5
303.36	77.5
303.59	82.5
303.82	87.5
304.051	92.5
304.281	90.5
304.511	93.5
304.741	89.5
304.971	94.5
305.201	89.5
305.431	82.5
305.661	83.5
305.891	79.5
306.121	85.5
306.352	72.5
306.582	77.5
306.812	86.5
307.042	75.5
307.272	79.5
307.502	83.5
307.731	85.5
307.961	85.5
308.191	94.5
308.421	75.5
308.651	84.5
308.881	89.5
309.111	83.5
309.341	81.5
309.571	71.5
309.8	85.5
310.03	79.5
310.26	67.5
310.49	79.5
310.72	91.5
310.949	92.5
311.179	89.5
311.409	92.5
311.639	75.5
311.868	98.5
312.098	88.5
312.328	80.5
312.557	85.5
312.787	85.5
313.017	77.5
313.246	95.5
313.476	90.5
313.706	85.5
313.935	90.5
314.165	60.5
314.394	88.5
314.624	89.5
314.853	92.5
315.083	85.5
315.312	76.5
315.542	83.5
315.771	81.5
316.001	94.5
316.23	75.5
316.46	85.5
316.689	81.5
316.919	84.5
317.148	91.5
317.377	92.5
317.607	95.5
317.836	80.5
318.065	88.5
318.295	81.5
318.524	87.5
318.753	72.5
318.983	75.5
319.212	81.5
319.441	91.5
319.67	84.5
319.9	75.5
320.129	79.5
320.358	81.5
320.587	102.5
320.816	85.5
321.046	77.5
321.275	78.5
321.504	85.5
321.733	97.5
321.962	92.5
322.191	75.5
322.42	95.5
322.649	83.5
322.878	81.5
323.108	91.5
323.337	96.5
323.566	89.5
323.795	87.5
324.024	92.5
324.253	100.5
324.482	84.5
324.71	89.5
324.939	76.5
325.168	86.5
325.397	79.5
325.626	99.5
325.855	83.5
326.084	82.5
326.313	81.5
326.542	83.5
326.77	91.5
326.999	82.5
327.228	82.5
327.457	87.5
327.686	77.5
327.914	88.5
328.143	99.5
328.372	108.5
328.6	82.5
328.829	86.5
329.058	77.5
329.287	89.5
329.515	69.5
329.744	91.5
329.972	98.5
330.201	97.5
330.43	89.5
330.658	85.5
330.887	84.5
331.115	90.5
331.344	99.5
331.572	103.5
331.801	89.5
332.03	92.5
332.258	92.5
332.486	98.5
332.715	95.5
332.943	93.5
333.172	85.5
333.4	84.5
333.629	97.5
333.857	87.5
334.085	92.5
334.314	79.5
334.542	81.5
334.771	83.5
334.999	83.5
335.227	78.5
335.455	97.5
335.684	97.5
335.912	91.5
336.14	75.5
336.369	89.5
336.597	86.5
336.825	90.5
337.053	81.5
337.281	96.5
337.51	65.5
337.738	77.5
337.966	88.5
338.194	87.5
338.422	85.5
338.65	86.5
338.878	83.5
339.106	73.5
339.334	88.5
339.562	91.5
339.79	88.5
340.018	86.5
340.246	99.5
340.474	95.5
340.702	86.5
340.93	90.5
341.158	84.5
341.386	77.5
341.614	89.5
341.842	73.5
342.07	100.5
342.298	86.5
342.526	82.5
342.754	93.5
342.981	93.5
343.209	97.5
343.437	101.5
343.665	84.5
343.893	89.5
344.12	85.5
344.348	82.5
344.576	83.5
344.804	77.5
345.031	71.5
345.259	84.5
345.487	98.5
345.714	95.5
345.942	85.5
346.17	84.5
346.397	87.5
346.625	93.5
346.853	84.5
347.08	85.5
347.308	70.5
347.535	103.5
347.763	88.5
347.99	74.5
348.218	89.5
348.445	109.5
348.673	80.5
348.9	100.5
349.128	89.5
349.355	92.5
349.583	77.5
349.81	81.5
350.037	96.5
350.265	83.5
350.492	98.5
350.72	84.5
350.947	88.5
351.174	76.5
351.402	88.5
351.629	95.5
351.856	87.5
352.083	87.5
352.311	90.5
352.538	103.5
352.765	74.5
352.992	90.5
353.22	85.5
353.447	94.5
353.674	87.5
353.901	83.5
354.128	73.5
354.355	92.5
354.583	93.5
354.81	91.5
355.037	96.5
355.264	92.5
355.491	83.5
355.718	87.5
355.945	93.5
356.172	91.5
356.399	86.5
356.626	83.5
356.853	89.5
357.08	89.5
357.307	93.5
357.534	97.5
357.761	87.5
357.988	84.5
358.215	81.5
358.441	76.5
358.668	87.5
358.895	89.5
359.122	89.5
359.349	83.5
359.576	76.5
359.802	89.5
360.029	84.5
360.256	79.5
360.483	74.5
360.709	71.5
360.936	109.5
361.163	97.5
361.39	99.5
361.616	97.5
361.843	91.5
362.07	91.5
362.296	88.5
362.523	97.5
362.749	87.5
362.976	93.5
363.203	118.5
363.429	75.5
363.656	77.5
363.882	80.5
364.109	81.5
364.335	94.5
364.562	99.5
364.788	88.5
365.015	85.5
365.241	94.5
365.468	93.5
365.694	70.5
365.92	69.5
366.147	87.5
366.373	77.5
366.599	67.5
366.826	74.5
367.052	89.5
367.278	77.5
367.505	90.5
367.731	91.5
367.957	78.5
368.184	79.5
368.41	81.5
368.636	87.5
368.862	91.5
369.089	79.5
369.315	80.5
369.541	87.5
369.767	71.5
369.993	82.5
370.219	95.5
370.445	95.5
370.672	74.5
370.898	75.5
371.124	98.5
371.35	72.5
371.576	90.5
371.802	85.5
372.028	84.5
372.254	81.5
372.48	84.5
372.706	96.5
372.932	84.5
373.158	84.5
373.384	87.5
373.61	85.5
373.835	96.5
374.061	77.5
374.287	86.5
374.513	102.5
374.739	104.5
374.965	88.5
375.191	90.5
375.416	72.5
375.642	89.5
375.868	100.5
376.094	81.5
376.319	87.5
376.545	80.5
376.771	84.5
376.997	75.5
377.222	72.5
377.448	88.5
377.674	87.5
377.899	96.5
378.125	89.5
378.35	80.5
378.576	88.5
378.802	81.5
379.027	84.5
379.253	82.5
379.478	101.5
379.704	83.5
379.929	85.5
380.155	71.5
380.38	87.5
380.606	85.5
380.831	75.5
381.057	97.5
381.282	91.5
381.507	95.5
381.733	73.5
381.958	78.5
382.184	83.5
382.409	78.5
382.634	75.5
382.86	82.5
383.085	91.5
383.31	81.5
383.535	97.5
383.761	102.5
383.986	87.5
384.211	82.5
384.436	93.5
384.662	78.5
384.887	74.5
385.112	91.5
385.337	86.5
385.562	75.5
385.787	88.5
386.013	79.5
386.238	92.5
386.463	68.5
386.688	107.5
386.913	92.5
387.138	78.5
387.363	83.5
387.588	103.5
387.813	91.5
388.038	82.5
388.263	96.5
388.488	91.5
388.713	94.5
388.938	93.5
389.163	81.5
389.387	77.5
389.612	83.5
389.837	88.5
390.062	89.5
390.287	91.5
390.512	85.5
390.736	75.5
390.961	81.5
391.186	90.5
391.411	75.5
391.636	79.5
391.86	85.5
392.085	88.5
392.31	91.5
392.534	84.5
392.759	99.5
392.984	108.5
393.208	132.5
393.433	127.5
393.658	133.5
393.882	84.5
394.107	87.5
394.331	99.5
394.556	103.5
394.78	86.5
395.005	96.5
395.229	75.5
395.454	92.5
395.678	101.5
395.903	87.5
396.127	88.5
396.352	103.5
396.576	104.5
396.801	123.5
397.025	143.5
397.249	105.5
397.474	84.5
397.698	91.5
397.922	95.5
398.147	82.5
398.371	99.5
398.595	73.5
398.82	100.5
399.044	82.5
399.268	89.5
399.492	80.5
399.717	93.5
399.941	79.5
400.165	85.5
400.389	81.5
400.613	96.5
400.837	85.5
401.062	82.5
401.286	91.5
401.51	78.5
401.734	77.5
401.958	88.5
402.182	85.5
402.406	83.5
402.63	75.5
402.854	88.5
403.078	88.5
403.302	74.5
403.526	76.5
403.75	88.5
403.974	74.5
404.198	84.5
404.422	89.5
404.645	100.5
404.869	87.5
405.093	77.5
405.317	81.5
405.541	92.5
405.765	81.5
405.988	87.5
406.212	79.5
406.436	94.5
406.66	87.5
406.883	82.5
407.107	82.5
407.331	69.5
407.555	97.5
407.778	102.5
408.002	90.5
408.226	84.5
408.449	79.5
408.673	103.5
408.896	75.5
409.12	76.5
409.344	86.5
409.567	74.5
409.791	84.5
410.014	91.5
410.238	72.5
410.461	83.5
410.685	79.5
410.908	99.5
411.132	93.5
411.355	66.5
411.578	76.5
411.802	73.5
412.025	91.5
412.249	80.5
412.472	90.5
412.695	87.5
412.919	88.5
413.142	73.5
413.365	81.5
413.589	88.5
413.812	84.5
414.035	83.5
414.258	89.5
414.482	90.5
414.705	84.5
414.928	86.5
415.151	96.5
415.374	77.5
415.597	84.5
415.821	75.5
416.044	90.5
416.267	91.5
416.49	87.5
416.713	85.5
416.936	95.5
417.159	85.5
417.382	70.5
417.605	87.5
417.828	86.5
418.051	86.5
418.274	96.5
418.497	91.5
418.72	81.5
418.943	100.5
419.166	77.5
419.389	72.5
419.611	81.5
419.834	67.5
420.057	92.5
420.28	78.5
420.503	87.5
420.726	80.5
420.948	88.5
421.171	86.5
421.394	73.5
421.617	91.5
421.839	84.5
422.062	102.5
422.285	107.5
422.507	155.5
422.73	178.5
422.953	179.5
423.175	113.5
423.398	101.5
423.621	83.5
423.843	99.5
424.066	95.5
424.288	72.5
424.511	90.5
424.733	90.5
424.956	84.5
425.178	82.5
425.401	84.5
425.623	76.5
425.846	77.5
426.068	69.5
426.291	81.5
426.513	87.5
426.735	84.5
426.958	86.5
427.18	86.5
427.402	82.5
427.625	84.5
427.847	85.5
428.069	98.5
428.292	99.5
428.514	92.5
428.736	92.5
428.958	92.5
429.181	92.5
429.403	80.5
429.625	97.5
429.847	100.5
430.069	102.5
430.292	97.5
430.514	108.5
430.736	85.5
430.958	96.5
431.18	86.5
431.402	78.5
431.624	95.5
431.846	93.5
432.068	95.5
432.29	84.5
432.512	97.5
432.734	98.5
432.956	95.5
433.178	89.5
433.4	76.5
433.622	77.5
433.844	80.5
434.066	99.5
434.287	90.5
434.509	93.5
434.731	100.5
434.953	79.5
435.175	93.5
435.397	89.5
435.618	91.5
435.84	93.5
436.062	96.5
436.284	93.5
436.505	87.5
436.727	84.5
436.949	111.5
437.17	85.5
437.392	75.5
437.614	89.5
437.835	78.5
438.057	77.5
438.278	88.5
438.5	86.5
438.721	89.5
438.943	86.5
439.165	77.5
439.386	85.5
439.608	102.5
439.829	90.5
440.05	96.5
440.272	87.5
440.493	97.5
440.715	86.5
440.936	93.5
441.158	95.5
441.379	85.5
441.6	83.5
441.822	88.5
442.043	78.5
442.264	82.5
442.486	92.5
442.707	97.5
442.928	95.5
443.149	89.5
443.371	122.5
443.592	136.5
443.813	115.5
444.034	83.5
444.255	88.5
444.476	91.5
444.698	90.5
444.919	83.5
445.14	153.5
445.361	125.5
445.582	139.5
445.803	131.5
446.024	108.5
446.245	82.5
446.466	86.5
446.687	86.5
446.908	82.5
447.129	90.5
447.35	77.5
447.571	81.5
447.792	85.5
448.013	100.5
448.234	81.5
448.455	84.5
448.675	88.5
448.896	74.5
449.117	78.5
449.338	90.5
449.559	92.5
449.779	88.5
450	95.5
450.221	83.5
450.442	90.5
450.662	85.5
450.883	86.5
451.104	92.5
451.324	84.5
451.545	83.5
451.766	84.5
451.986	81.5
452.207	74.5
452.428	92.5
452.648	79.5
452.869	77.5
453.089	81.5
453.31	78.5
453.53	78.5
453.751	84.5
453.971	100.5
454.192	85.5
454.412	73.5
454.633	85.5
454.853	96.5
455.073	85.5
455.294	85.5
455.514	94.5
455.734	79.5
455.955	82.5
456.175	95.5
456.395	85.5
456.616	87.5
456.836	91.5
457.056	88.5
457.276	85.5
457.497	91.5
457.717	95.5
457.937	94.5
458.157	91.5
458.377	91.5
458.598	89.5
458.818	92.5
459.038	69.5
459.258	77.5
459.478	70.5
459.698	86.5
459.918	88.5
460.138	70.5
460.358	80.5
460.578	101.5
460.798	113.5
461.018	95.5
461.238	84.5
461.458	86.5
461.678	76.5
461.898	99.5
462.118	86.5
462.338	90.5
462.558	89.5
462.777	87.5
462.997	77.5
463.217	85.5
463.437	93.5
463.657	96.5
463.876	81.5
464.096	87.5
464.316	97.5
464.536	95.5
464.755	83.5
464.975	75.5
465.195	82.5
465.414	84.5
465.634	94.5
465.854	88.5
466.073	85.5
466.293	81.5
466.512	84.5
466.732	73.5
466.951	92.5
467.171	93.5
467.391	71.5
467.61	70.5
467.829	80.5
468.049	78.5
468.268	87.5
468.488	69.5
468.707	81.5
468.927	102.5
469.146	85.5
469.365	81.5
469.585	84.5
469.804	80.5
470.023	71.5
470.243	81.5
470.462	85.5
470.681	74.5
470.901	90.5
471.12	86.5
471.339	98.5
471.558	76.5
471.777	86.5
471.997	74.5
472.216	98.5
472.435	90.5
472.654	77.5
472.873	81.5
473.092	83.5
473.311	89.5
473.53	99.5
473.749	78.5
473.968	98.5
474.187	91.5
474.406	84.5
474.625	87.5
474.844	91.5
475.063	76.5
475.282	81.5
475.501	85.5
475.72	98.5
475.939	75.5
476.158	83.5
476.377	96.5
476.596	78.5
476.814	91.5
477.033	92.5
477.252	82.5
477.471	83.5
477.69	90.5
477.908	88.5
478.127	85.5
478.346	94.5
478.564	83.5
478.783	87.5
479.002	90.5
479.22	82.5
479.439	71.5
479.658	63.5
479.876	71.5
480.095	73.5
480.313	69.5
480.532	90.5
480.751	96.5
480.969	91.5
481.188	85.5
481.406	80.5
481.624	96.5
481.843	83.5
482.061	78.5
482.28	84.5
482.498	87.5
482.717	101.5
482.935	90.5
483.153	92.5
483.372	97.5
483.59	91.5
483.808	79.5
484.027	86.5
484.245	76.5
484.463	97.5
484.681	98.5
484.9	99.5
485.118	87.5
485.336	95.5
485.554	94.5
485.772	80.5
485.99	94.5
486.209	86.5
486.427	99.5
486.645	85.5
486.863	75.5
487.081	102.5
487.299	102.5
487.517	97.5
487.735	93.5
487.953	111.5
488.171	103.5
488.389	79.5
488.607	83.5
488.825	87.5
489.043	74.5
489.261	99.5
489.479	88.5
489.696	91.5
489.914	89.5
490.132	90.5
490.35	83.5
490.568	90.5
490.786	84.5
491.003	89.5
491.221	75.5
491.439	81.5
491.657	71.5
491.874	87.5
492.092	84.5
492.31	77.5
492.527	85.5
492.745	87.5
492.963	100.5
493.18	81.5
493.398	83.5
493.615	76.5
493.833	76.5
494.05	92.5
494.268	81.5
494.485	92.5
494.703	88.5
494.92	89.5
495.138	107.5
495.355	76.5
495.573	97.5
495.79	80.5
496.008	79.5
496.225	72.5
496.442	77.5
496.66	89.5
496.877	82.5
497.094	101.5
497.312	102.5
497.529	91.5
497.746	89.5
497.963	95.5
498.181	100.5
498.398	97.5
498.615	79.5
498.832	97.5
499.049	90.5
499.267	95.5
499.484	82.5
499.701	85.5
499.918	86.5
500.135	101.5
500.352	87.5
500.569	65.5
500.786	84.5
501.003	89.5
501.22	88.5
501.437	76.5
501.654	89.5
501.871	82.5
502.088	67.5
502.305	81.5
502.522	87.5
502.739	90.5
502.956	87.5
503.172	91.5
503.389	77.5
503.606	95.5
503.823	101.5
504.04	104.5
504.256	106.5
504.473	108.5
504.69	87.5
504.907	85.5
505.123	84.5
505.34	91.5
505.557	88.5
505.773	75.5
505.99	89.5
506.207	83.5
506.423	88.5
506.64	87.5
506.856	88.5
507.073	82.5
507.289	88.5
507.506	69.5
507.722	84.5
507.939	85.5
508.155	87.5
508.372	96.5
508.588	94.5
508.805	91.5
509.021	79.5
509.238	90.5
509.454	84.5
509.67	83.5
509.887	95.5
510.103	97.5
510.319	80.5
510.536	93.5
510.752	93.5
510.968	87.5
511.184	111.5
511.401	79.5
511.617	87.5
511.833	80.5
512.049	77.5
512.265	84.5
512.481	89.5
512.698	96.5
512.914	92.5
513.13	89.5
513.346	81.5
513.562	84.5
513.778	75.5
513.994	91.5
514.21	72.5
514.426	87.5
514.642	99.5
514.858	77.5
515.074	94.5
515.29	99.5
515.506	75.5
515.721	105.5
515.937	98.5
516.153	77.5
516.369	99.5
516.585	91.5
516.801	82.5
517.016	81.5
517.232	81.5
517.448	95.5
517.664	81.5
517.879	75.5
518.095	77.5
518.311	85.5
518.527	92.5
518.742	97.5
518.958	115.5
519.173	109.5
519.389	97.5
519.605	83.5
519.82	75.5
520.036	79.5
520.251	73.5
520.467	82.5
520.682	85.5
520.898	83.5
521.113	96.5
521.329	92.5
521.544	105.5
521.76	87.5
521.975	88.5
522.19	86.5
522.406	88.5
522.621	92.5
522.836	81.5
523.052	96.5
523.267	76.5
523.482	84.5
523.698	73.5
523.913	89.5
524.128	90.5
524.343	80.5
524.559	91.5
524.774	87.5
524.989	89.5
525.204	84.5
525.419	96.5
525.634	85.5
525.849	87.5
526.064	119.5
526.28	127.5
526.495	149.5
526.71	149.5
526.925	137.5
527.14	136.5
527.355	139.5
527.57	106.5
527.785	108.5
527.999	77.5
528.214	94.5
528.429	105.5
528.644	92.5
528.859	94.5
529.074	89.5
529.289	81.5
529.503	85.5
529.718	88.5
529.933	87.5
530.148	96.5
530.363	93.5
530.577	79.5
530.792	101.5
531.007	87.5
531.221	90.5
531.436	74.5
531.651	91.5
531.865	95.5
532.08	114.5
532.295	98.5
532.509	89.5
532.724	103.5
532.938	100.5
533.153	83.5
533.367	83.5
533.582	91.5
533.796	89.5
534.011	90.5
534.225	83.5
534.44	93.5
534.654	89.5
534.868	100.5
535.083	109.5
535.297	98.5
535.511	90.5
535.726	88.5
535.94	104.5
536.154	101.5
536.369	105.5
536.583	105.5
536.797	95.5
537.011	90.5
537.225	86.5
537.44	102.5
537.654	86.5
537.868	89.5
538.082	92.5
538.296	100.5
538.51	106.5
538.724	92.5
538.938	89.5
539.153	94.5
