Data from 237_3_HRD10591_00014.txt Node
Date: Mon Jan 19 14:13:01 EST 2026
User: Yrep
Spectrometer: HR+D1059
Trigger mode: 1
Integration Time (sec): 1.000000E-1
Scans to average: 1
Electric dark correction enabled: true
Nonlinearity correction enabled: false
Boxcar width: 0
XAxis mode: Wavelengths
Number of Pixels in Spectrum: 2048
>>>>>Begin Spectral Data<<<<<
223.165	-25.56
223.4	-25.56
223.635	-25.56
223.869	-17.56
224.104	-10.56
224.338	-7.56
224.573	-10.56
224.808	-18.56
225.042	-11.56
225.277	1.44
225.511	-7.56
225.746	-0.56
225.98	20.44
226.215	-6.56
226.449	22.44
226.683	17.44
226.918	33.44
227.152	21.44
227.387	40.44
227.621	38.44
227.856	36.44
228.09	55.44
228.324	47.44
228.559	45.44
228.793	68.44
229.027	60.44
229.262	62.44
229.496	64.44
229.73	73.44
229.964	65.44
230.199	71.44
230.433	63.44
230.667	66.44
230.901	64.44
231.136	73.44
231.37	83.44
231.604	94.44
231.838	67.44
232.072	87.44
232.306	74.44
232.541	81.44
232.775	76.44
233.009	83.44
233.243	63.44
233.477	77.44
233.711	75.44
233.945	83.44
234.179	71.44
234.413	89.44
234.647	72.44
234.881	71.44
235.115	103.44
235.349	77.44
235.583	79.44
235.817	77.44
236.051	71.44
236.285	77.44
236.519	65.44
236.753	73.44
236.987	79.44
237.221	67.44
237.455	68.44
237.689	71.44
237.922	86.44
238.156	61.44
238.39	73.44
238.624	79.44
238.858	77.44
239.091	87.44
239.325	71.44
239.559	70.44
239.793	76.44
240.027	82.44
240.26	79.44
240.494	68.44
240.728	63.44
240.961	93.44
241.195	69.44
241.429	77.44
241.662	70.44
241.896	57.44
242.13	71.44
242.363	73.44
242.597	66.44
242.83	69.44
243.064	83.44
243.298	82.44
243.531	72.44
243.765	81.44
243.998	65.44
244.232	68.44
244.465	62.44
244.699	74.44
244.932	71.44
245.166	73.44
245.399	59.44
245.633	72.44
245.866	65.44
246.099	83.44
246.333	74.44
246.566	73.44
246.8	82.44
247.033	53.44
247.266	71.44
247.5	67.44
247.733	67.44
247.966	79.44
248.2	70.44
248.433	91.44
248.666	72.44
248.899	69.44
249.133	82.44
249.366	73.44
249.599	73.44
249.832	64.44
250.066	79.44
250.299	73.44
250.532	74.44
250.765	71.44
250.998	85.44
251.231	72.44
251.465	69.44
251.698	70.44
251.931	66.44
252.164	66.44
252.397	82.44
252.63	83.44
252.863	72.44
253.096	69.44
253.329	77.44
253.562	72.44
253.795	80.44
254.028	86.44
254.261	80.44
254.494	86.44
254.727	75.44
254.96	77.44
255.193	77.44
255.426	73.44
255.659	72.44
255.892	94.44
256.124	71.44
256.357	55.44
256.59	83.44
256.823	79.44
257.056	85.44
257.289	87.44
257.521	83.44
257.754	83.44
257.987	72.44
258.22	63.44
258.452	70.44
258.685	61.44
258.918	57.44
259.151	68.44
259.383	99.44
259.616	77.44
259.849	67.44
260.081	79.44
260.314	71.44
260.547	84.44
260.779	81.44
261.012	93.44
261.244	72.44
261.477	82.44
261.71	64.44
261.942	79.44
262.175	79.44
262.407	72.44
262.64	89.44
262.872	77.44
263.105	83.44
263.337	79.44
263.57	84.44
263.802	82.44
264.035	83.44
264.267	70.44
264.499	75.44
264.732	85.44
264.964	72.44
265.197	76.44
265.429	66.44
265.661	83.44
265.894	90.44
266.126	73.44
266.358	83.44
266.591	72.44
266.823	94.44
267.055	83.44
267.287	81.44
267.52	82.44
267.752	87.44
267.984	81.44
268.216	78.44
268.448	69.44
268.681	67.44
268.913	77.44
269.145	69.44
269.377	97.44
269.609	77.44
269.841	81.44
270.073	79.44
270.306	72.44
270.538	73.44
270.77	81.44
271.002	81.44
271.234	79.44
271.466	79.44
271.698	86.44
271.93	74.44
272.162	83.44
272.394	84.44
272.626	86.44
272.858	83.44
273.09	75.44
273.322	79.44
273.553	72.44
273.785	85.44
274.017	64.44
274.249	70.44
274.481	84.44
274.713	67.44
274.945	87.44
275.176	80.44
275.408	87.44
275.64	73.44
275.872	86.44
276.104	80.44
276.335	74.44
276.567	82.44
276.799	85.44
277.031	78.44
277.262	73.44
277.494	81.44
277.726	81.44
277.957	71.44
278.189	77.44
278.421	75.44
278.652	77.44
278.884	79.44
279.115	77.44
279.347	93.44
279.579	86.44
279.81	86.44
280.042	76.44
280.273	63.44
280.505	80.44
280.736	83.44
280.968	83.44
281.199	82.44
281.431	87.44
281.662	86.44
281.894	93.44
282.125	84.44
282.356	93.44
282.588	67.44
282.819	83.44
283.051	77.44
283.282	90.44
283.513	85.44
283.745	82.44
283.976	68.44
284.207	73.44
284.439	80.44
284.67	74.44
284.901	80.44
285.132	77.44
285.364	72.44
285.595	91.44
285.826	89.44
286.057	76.44
286.288	77.44
286.52	84.44
286.751	81.44
286.982	80.44
287.213	69.44
287.444	82.44
287.675	84.44
287.906	84.44
288.138	80.44
288.369	83.44
288.6	71.44
288.831	80.44
289.062	73.44
289.293	78.44
289.524	97.44
289.755	79.44
289.986	84.44
290.217	89.44
290.448	87.44
290.679	98.44
290.91	72.44
291.141	83.44
291.371	79.44
291.602	88.44
291.833	68.44
292.064	79.44
292.295	80.44
292.526	97.44
292.757	76.44
292.987	91.44
293.218	95.44
293.449	78.44
293.68	72.44
293.91	79.44
294.141	86.44
294.372	88.44
294.603	88.44
294.833	88.44
295.064	75.44
295.295	79.44
295.525	96.44
295.756	102.44
295.987	72.44
296.217	70.44
296.448	74.44
296.679	87.44
296.909	88.44
297.14	76.44
297.37	68.44
297.601	77.44
297.831	83.44
298.062	73.44
298.292	88.44
298.523	82.44
298.753	83.44
298.984	90.44
299.214	81.44
299.445	73.44
299.675	84.44
299.905	88.44
300.136	87.44
300.366	93.44
300.597	79.44
300.827	80.44
301.057	71.44
301.288	79.44
301.518	92.44
301.748	72.44
301.979	89.44
302.209	93.44
302.439	91.44
302.669	89.44
302.9	81.44
303.13	79.44
303.36	95.44
303.59	82.44
303.82	81.44
304.051	94.44
304.281	94.44
304.511	80.44
304.741	82.44
304.971	89.44
305.201	92.44
305.431	83.44
305.661	77.44
305.891	71.44
306.121	89.44
306.352	73.44
306.582	79.44
306.812	79.44
307.042	93.44
307.272	79.44
307.502	79.44
307.731	104.44
307.961	78.44
308.191	86.44
308.421	80.44
308.651	94.44
308.881	81.44
309.111	80.44
309.341	78.44
309.571	82.44
309.8	77.44
310.03	68.44
310.26	85.44
310.49	85.44
310.72	83.44
310.949	90.44
311.179	69.44
311.409	70.44
311.639	77.44
311.868	72.44
312.098	79.44
312.328	89.44
312.557	81.44
312.787	79.44
313.017	86.44
313.246	73.44
313.476	92.44
313.706	82.44
313.935	89.44
314.165	69.44
314.394	83.44
314.624	82.44
314.853	84.44
315.083	88.44
315.312	96.44
315.542	77.44
315.771	73.44
316.001	77.44
316.23	67.44
316.46	87.44
316.689	79.44
316.919	94.44
317.148	83.44
317.377	81.44
317.607	88.44
317.836	89.44
318.065	66.44
318.295	87.44
318.524	79.44
318.753	81.44
318.983	72.44
319.212	92.44
319.441	77.44
319.67	84.44
319.9	82.44
320.129	81.44
320.358	72.44
320.587	79.44
320.816	65.44
321.046	69.44
321.275	83.44
321.504	73.44
321.733	97.44
321.962	91.44
322.191	77.44
322.42	70.44
322.649	79.44
322.878	74.44
323.108	77.44
323.337	90.44
323.566	93.44
323.795	71.44
324.024	83.44
324.253	75.44
324.482	79.44
324.71	74.44
324.939	96.44
325.168	83.44
325.397	79.44
325.626	77.44
325.855	93.44
326.084	88.44
326.313	84.44
326.542	76.44
326.77	79.44
326.999	75.44
327.228	75.44
327.457	88.44
327.686	75.44
327.914	81.44
328.143	94.44
328.372	77.44
328.6	79.44
328.829	74.44
329.058	82.44
329.287	84.44
329.515	94.44
329.744	83.44
329.972	79.44
330.201	74.44
330.43	79.44
330.658	76.44
330.887	83.44
331.115	76.44
331.344	70.44
331.572	79.44
331.801	91.44
332.03	72.44
332.258	81.44
332.486	77.44
332.715	89.44
332.943	79.44
333.172	83.44
333.4	82.44
333.629	99.44
333.857	87.44
334.085	68.44
334.314	82.44
334.542	78.44
334.771	74.44
334.999	94.44
335.227	78.44
335.455	78.44
335.684	92.44
335.912	75.44
336.14	81.44
336.369	77.44
336.597	83.44
336.825	86.44
337.053	88.44
337.281	70.44
337.51	86.44
337.738	73.44
337.966	86.44
338.194	72.44
338.422	87.44
338.65	84.44
338.878	81.44
339.106	73.44
339.334	69.44
339.562	83.44
339.79	81.44
340.018	91.44
340.246	71.44
340.474	81.44
340.702	87.44
340.93	73.44
341.158	77.44
341.386	82.44
341.614	70.44
341.842	83.44
342.07	82.44
342.298	92.44
342.526	89.44
342.754	78.44
342.981	92.44
343.209	74.44
343.437	90.44
343.665	82.44
343.893	81.44
344.12	96.44
344.348	81.44
344.576	97.44
344.804	90.44
345.031	72.44
345.259	81.44
345.487	72.44
345.714	79.44
345.942	80.44
346.17	66.44
346.397	75.44
346.625	69.44
346.853	88.44
347.08	72.44
347.308	89.44
347.535	75.44
347.763	78.44
347.99	85.44
348.218	80.44
348.445	82.44
348.673	72.44
348.9	87.44
349.128	91.44
349.355	82.44
349.583	76.44
349.81	87.44
350.037	83.44
350.265	73.44
350.492	73.44
350.72	82.44
350.947	73.44
351.174	79.44
351.402	81.44
351.629	75.44
351.856	81.44
352.083	90.44
352.311	81.44
352.538	100.44
352.765	86.44
352.992	102.44
353.22	82.44
353.447	83.44
353.674	77.44
353.901	75.44
354.128	74.44
354.355	72.44
354.583	80.44
354.81	76.44
355.037	73.44
355.264	86.44
355.491	91.44
355.718	72.44
355.945	78.44
356.172	80.44
356.399	85.44
356.626	94.44
356.853	97.44
357.08	80.44
357.307	74.44
357.534	72.44
357.761	81.44
357.988	87.44
358.215	83.44
358.441	79.44
358.668	72.44
358.895	75.44
359.122	74.44
359.349	70.44
359.576	75.44
359.802	73.44
360.029	73.44
360.256	85.44
360.483	92.44
360.709	86.44
360.936	88.44
361.163	71.44
361.39	89.44
361.616	84.44
361.843	65.44
362.07	86.44
362.296	79.44
362.523	89.44
362.749	90.44
362.976	88.44
363.203	97.44
363.429	77.44
363.656	89.44
363.882	80.44
364.109	85.44
364.335	69.44
364.562	96.44
364.788	74.44
365.015	95.44
365.241	89.44
365.468	88.44
365.694	73.44
365.92	87.44
366.147	81.44
366.373	85.44
366.599	87.44
366.826	87.44
367.052	79.44
367.278	77.44
367.505	91.44
367.731	81.44
367.957	78.44
368.184	70.44
368.41	69.44
368.636	66.44
368.862	87.44
369.089	80.44
369.315	76.44
369.541	79.44
369.767	84.44
369.993	79.44
370.219	83.44
370.445	73.44
370.672	86.44
370.898	78.44
371.124	71.44
371.35	85.44
371.576	84.44
371.802	86.44
372.028	76.44
372.254	92.44
372.48	87.44
372.706	79.44
372.932	68.44
373.158	84.44
373.384	91.44
373.61	81.44
373.835	75.44
374.061	73.44
374.287	86.44
374.513	73.44
374.739	85.44
374.965	89.44
375.191	80.44
375.416	79.44
375.642	91.44
375.868	88.44
376.094	78.44
376.319	84.44
376.545	55.44
376.771	81.44
376.997	79.44
377.222	91.44
377.448	77.44
377.674	83.44
377.899	73.44
378.125	86.44
378.35	84.44
378.576	82.44
378.802	94.44
379.027	72.44
379.253	80.44
379.478	75.44
379.704	72.44
379.929	81.44
380.155	79.44
380.38	80.44
380.606	54.44
380.831	78.44
381.057	77.44
381.282	82.44
381.507	88.44
381.733	90.44
381.958	82.44
382.184	77.44
382.409	72.44
382.634	89.44
382.86	70.44
383.085	79.44
383.31	85.44
383.535	87.44
383.761	77.44
383.986	69.44
384.211	72.44
384.436	77.44
384.662	69.44
384.887	85.44
385.112	87.44
385.337	78.44
385.562	75.44
385.787	80.44
386.013	79.44
386.238	75.44
386.463	66.44
386.688	94.44
386.913	79.44
387.138	77.44
387.363	84.44
387.588	101.44
387.813	89.44
388.038	80.44
388.263	78.44
388.488	88.44
388.713	88.44
388.938	79.44
389.163	71.44
389.387	82.44
389.612	84.44
389.837	82.44
390.062	83.44
390.287	87.44
390.512	90.44
390.736	75.44
390.961	79.44
391.186	84.44
391.411	82.44
391.636	87.44
391.86	83.44
392.085	83.44
392.31	69.44
392.534	72.44
392.759	90.44
392.984	91.44
393.208	95.44
393.433	119.44
393.658	112.44
393.882	88.44
394.107	85.44
394.331	98.44
394.556	85.44
394.78	84.44
395.005	77.44
395.229	81.44
395.454	89.44
395.678	82.44
395.903	84.44
396.127	99.44
396.352	89.44
396.576	88.44
396.801	94.44
397.025	109.44
397.249	95.44
397.474	83.44
397.698	74.44
397.922	79.44
398.147	87.44
398.371	85.44
398.595	87.44
398.82	69.44
399.044	78.44
399.268	68.44
399.492	81.44
399.717	88.44
399.941	84.44
400.165	83.44
400.389	84.44
400.613	78.44
400.837	77.44
401.062	78.44
401.286	84.44
401.51	87.44
401.734	77.44
401.958	82.44
402.182	81.44
402.406	73.44
402.63	77.44
402.854	72.44
403.078	93.44
403.302	78.44
403.526	78.44
403.75	83.44
403.974	77.44
404.198	89.44
404.422	98.44
404.645	83.44
404.869	88.44
405.093	88.44
405.317	87.44
405.541	76.44
405.765	82.44
405.988	80.44
406.212	86.44
406.436	97.44
406.66	92.44
406.883	73.44
407.107	73.44
407.331	73.44
407.555	95.44
407.778	77.44
408.002	82.44
408.226	75.44
408.449	91.44
408.673	85.44
408.896	68.44
409.12	78.44
409.344	59.44
409.567	79.44
409.791	79.44
410.014	69.44
410.238	75.44
410.461	86.44
410.685	86.44
410.908	71.44
411.132	85.44
411.355	67.44
411.578	83.44
411.802	73.44
412.025	81.44
412.249	75.44
412.472	82.44
412.695	84.44
412.919	84.44
413.142	92.44
413.365	93.44
413.589	91.44
413.812	83.44
414.035	74.44
414.258	80.44
414.482	72.44
414.705	80.44
414.928	87.44
415.151	68.44
415.374	64.44
415.597	69.44
415.821	86.44
416.044	86.44
416.267	85.44
416.49	67.44
416.713	82.44
416.936	73.44
417.159	75.44
417.382	85.44
417.605	88.44
417.828	89.44
418.051	83.44
418.274	73.44
418.497	85.44
418.72	67.44
418.943	79.44
419.166	64.44
419.389	81.44
419.611	81.44
419.834	77.44
420.057	81.44
420.28	80.44
420.503	76.44
420.726	77.44
420.948	94.44
421.171	75.44
421.394	85.44
421.617	85.44
421.839	75.44
422.062	90.44
422.285	102.44
422.507	129.44
422.73	155.44
422.953	154.44
423.175	120.44
423.398	78.44
423.621	88.44
423.843	77.44
424.066	79.44
424.288	82.44
424.511	94.44
424.733	79.44
424.956	71.44
425.178	62.44
425.401	87.44
425.623	83.44
425.846	74.44
426.068	76.44
426.291	77.44
426.513	79.44
426.735	81.44
426.958	65.44
427.18	72.44
427.402	73.44
427.625	74.44
427.847	87.44
428.069	82.44
428.292	91.44
428.514	91.44
428.736	75.44
428.958	97.44
429.181	91.44
429.403	83.44
429.625	70.44
429.847	95.44
430.069	107.44
430.292	87.44
430.514	94.44
430.736	79.44
430.958	85.44
431.18	91.44
431.402	86.44
431.624	75.44
431.846	100.44
432.068	87.44
432.29	84.44
432.512	93.44
432.734	75.44
432.956	90.44
433.178	86.44
433.4	85.44
433.622	95.44
433.844	78.44
434.066	70.44
434.287	77.44
434.509	73.44
434.731	79.44
434.953	81.44
435.175	87.44
435.397	87.44
435.618	86.44
435.84	83.44
436.062	89.44
436.284	72.44
436.505	84.44
436.727	71.44
436.949	79.44
437.17	79.44
437.392	92.44
437.614	72.44
437.835	75.44
438.057	85.44
438.278	79.44
438.5	88.44
438.721	86.44
438.943	84.44
439.165	70.44
439.386	78.44
439.608	87.44
439.829	79.44
440.05	77.44
440.272	82.44
440.493	75.44
440.715	83.44
440.936	85.44
441.158	86.44
441.379	82.44
441.6	84.44
441.822	80.44
442.043	79.44
442.264	72.44
442.486	101.44
442.707	104.44
442.928	83.44
443.149	91.44
443.371	97.44
443.592	131.44
443.813	107.44
444.034	89.44
444.255	89.44
444.476	79.44
444.698	82.44
444.919	91.44
445.14	145.44
445.361	124.44
445.582	147.44
445.803	114.44
446.024	84.44
446.245	82.44
446.466	77.44
446.687	82.44
446.908	81.44
447.129	80.44
447.35	69.44
447.571	79.44
447.792	79.44
448.013	85.44
448.234	80.44
448.455	65.44
448.675	83.44
448.896	81.44
449.117	60.44
449.338	68.44
449.559	91.44
449.779	83.44
450	90.44
450.221	67.44
450.442	93.44
450.662	91.44
450.883	74.44
451.104	86.44
451.324	88.44
451.545	79.44
451.766	73.44
451.986	69.44
452.207	95.44
452.428	77.44
452.648	90.44
452.869	92.44
453.089	88.44
453.31	88.44
453.53	86.44
453.751	84.44
453.971	75.44
454.192	81.44
454.412	82.44
454.633	87.44
454.853	91.44
455.073	71.44
455.294	65.44
455.514	77.44
455.734	88.44
455.955	81.44
456.175	80.44
456.395	74.44
456.616	84.44
456.836	89.44
457.056	83.44
457.276	84.44
457.497	68.44
457.717	82.44
457.937	77.44
458.157	97.44
458.377	90.44
458.598	99.44
458.818	77.44
459.038	89.44
459.258	75.44
459.478	79.44
459.698	80.44
459.918	75.44
460.138	85.44
460.358	72.44
460.578	87.44
460.798	91.44
461.018	69.44
461.238	99.44
461.458	87.44
461.678	82.44
461.898	88.44
462.118	71.44
462.338	72.44
462.558	68.44
462.777	71.44
462.997	76.44
463.217	83.44
463.437	75.44
463.657	77.44
463.876	66.44
464.096	77.44
464.316	70.44
464.536	61.44
464.755	71.44
464.975	71.44
465.195	76.44
465.414	79.44
465.634	72.44
465.854	77.44
466.073	76.44
466.293	72.44
466.512	77.44
466.732	87.44
466.951	89.44
467.171	67.44
467.391	71.44
467.61	87.44
467.829	77.44
468.049	72.44
468.268	74.44
468.488	79.44
468.707	91.44
468.927	90.44
469.146	82.44
469.365	82.44
469.585	84.44
469.804	91.44
470.023	81.44
470.243	90.44
470.462	81.44
470.681	79.44
470.901	86.44
471.12	81.44
471.339	79.44
471.558	95.44
471.777	71.44
471.997	59.44
472.216	70.44
472.435	91.44
472.654	82.44
472.873	77.44
473.092	90.44
473.311	85.44
473.53	78.44
473.749	79.44
473.968	76.44
474.187	71.44
474.406	81.44
474.625	86.44
474.844	94.44
475.063	86.44
475.282	77.44
475.501	73.44
475.72	96.44
475.939	81.44
476.158	79.44
476.377	75.44
476.596	96.44
476.814	95.44
477.033	66.44
477.252	83.44
477.471	80.44
477.69	73.44
477.908	94.44
478.127	92.44
478.346	73.44
478.564	76.44
478.783	73.44
479.002	87.44
479.22	83.44
479.439	87.44
479.658	82.44
479.876	87.44
480.095	83.44
480.313	90.44
480.532	77.44
480.751	88.44
480.969	68.44
481.188	81.44
481.406	83.44
481.624	80.44
481.843	95.44
482.061	77.44
482.28	93.44
482.498	77.44
482.717	89.44
482.935	77.44
483.153	85.44
483.372	89.44
483.59	95.44
483.808	71.44
484.027	79.44
484.245	74.44
484.463	64.44
484.681	91.44
484.9	73.44
485.118	73.44
485.336	86.44
485.554	83.44
485.772	86.44
485.99	83.44
486.209	70.44
486.427	78.44
486.645	83.44
486.863	89.44
487.081	80.44
487.299	70.44
487.517	87.44
487.735	98.44
487.953	113.44
488.171	92.44
488.389	73.44
488.607	76.44
488.825	75.44
489.043	73.44
489.261	77.44
489.479	87.44
489.696	91.44
489.914	86.44
490.132	91.44
490.35	74.44
490.568	83.44
490.786	71.44
491.003	80.44
491.221	75.44
491.439	78.44
491.657	94.44
491.874	88.44
492.092	82.44
492.31	89.44
492.527	77.44
492.745	77.44
492.963	63.44
493.18	86.44
493.398	89.44
493.615	62.44
493.833	71.44
494.05	66.44
494.268	89.44
494.485	91.44
494.703	79.44
494.92	84.44
495.138	80.44
495.355	87.44
495.573	86.44
495.79	79.44
496.008	80.44
496.225	80.44
496.442	74.44
496.66	84.44
496.877	87.44
497.094	79.44
497.312	92.44
497.529	85.44
497.746	88.44
497.963	72.44
498.181	78.44
498.398	81.44
498.615	75.44
498.832	81.44
499.049	86.44
499.267	67.44
499.484	83.44
499.701	89.44
499.918	84.44
500.135	84.44
500.352	74.44
500.569	84.44
500.786	98.44
501.003	91.44
501.22	85.44
501.437	87.44
501.654	79.44
501.871	80.44
502.088	71.44
502.305	87.44
502.522	91.44
502.739	79.44
502.956	73.44
503.172	83.44
503.389	88.44
503.606	81.44
503.823	80.44
504.04	90.44
504.256	96.44
504.473	107.44
504.69	83.44
504.907	93.44
505.123	93.44
505.34	82.44
505.557	71.44
505.773	66.44
505.99	73.44
506.207	84.44
506.423	95.44
506.64	91.44
506.856	87.44
507.073	88.44
507.289	72.44
507.506	99.44
507.722	79.44
507.939	76.44
508.155	81.44
508.372	86.44
508.588	81.44
508.805	85.44
509.021	74.44
509.238	88.44
509.454	89.44
509.67	81.44
509.887	74.44
510.103	69.44
510.319	79.44
510.536	92.44
510.752	93.44
510.968	99.44
511.184	84.44
511.401	69.44
511.617	84.44
511.833	80.44
512.049	87.44
512.265	82.44
512.481	92.44
512.698	82.44
512.914	83.44
513.13	97.44
513.346	88.44
513.562	63.44
513.778	61.44
513.994	82.44
514.21	73.44
514.426	84.44
514.642	85.44
514.858	90.44
515.074	76.44
515.29	78.44
515.506	100.44
515.721	66.44
515.937	83.44
516.153	70.44
516.369	99.44
516.585	88.44
516.801	73.44
517.016	83.44
517.232	95.44
517.448	93.44
517.664	87.44
517.879	66.44
518.095	98.44
518.311	92.44
518.527	84.44
518.742	81.44
518.958	102.44
519.173	93.44
519.389	96.44
519.605	79.44
519.82	91.44
