Data from 237_3_HRD10591_00005.txt Node
Date: Mon Jan 19 14:12:57 EST 2026
User: Yrep
Spectrometer: HR+D1059
Trigger mode: 1
Integration Time (sec): 1.000000E-1
Scans to average: 1
Electric dark correction enabled: true
Nonlinearity correction enabled: false
Boxcar width: 0
XAxis mode: Wavelengths
Number of Pixels in Spectrum: 2048
>>>>>Begin Spectral Data<<<<<
223.165	-10
223.4	-10
223.635	-10
223.869	-17
224.104	-18
224.338	-13
224.573	-30
224.808	-13
225.042	-24
225.277	-4
225.511	3
225.746	17
225.98	-1
226.215	8
226.449	16
226.683	24
226.918	23
227.152	39
227.387	36
227.621	49
227.856	43
228.09	59
228.324	61
228.559	44
228.793	55
229.027	71
229.262	49
229.496	69
229.73	63
229.964	69
230.199	85
230.433	83
230.667	68
230.901	78
231.136	80
231.37	73
231.604	73
231.838	84
232.072	92
232.306	89
232.541	68
232.775	84
233.009	75
233.243	73
233.477	81
233.711	83
233.945	66
234.179	88
234.413	82
234.647	91
234.881	78
235.115	91
235.349	80
235.583	96
235.817	96
236.051	75
236.285	71
236.519	86
236.753	75
236.987	73
237.221	66
237.455	87
237.689	85
237.922	90
238.156	54
238.39	72
238.624	79
238.858	85
239.091	81
239.325	73
239.559	73
239.793	71
240.027	83
240.26	62
240.494	70
240.728	78
240.961	78
241.195	83
241.429	86
241.662	82
241.896	73
242.13	74
242.363	80
242.597	71
242.83	75
243.064	61
243.298	69
243.531	75
243.765	68
243.998	83
244.232	85
244.465	70
244.699	86
244.932	89
245.166	73
245.399	72
245.633	75
245.866	86
246.099	87
246.333	78
246.566	86
246.8	83
247.033	85
247.266	65
247.5	81
247.733	81
247.966	74
248.2	71
248.433	85
248.666	61
248.899	75
249.133	83
249.366	77
249.599	80
249.832	81
250.066	79
250.299	72
250.532	92
250.765	72
250.998	84
251.231	86
251.465	75
251.698	83
251.931	71
252.164	78
252.397	86
252.63	77
252.863	83
253.096	87
253.329	88
253.562	87
253.795	80
254.028	80
254.261	73
254.494	84
254.727	81
254.96	74
255.193	85
255.426	83
255.659	78
255.892	80
256.124	79
256.357	71
256.59	84
256.823	71
257.056	89
257.289	85
257.521	83
257.754	80
257.987	78
258.22	79
258.452	75
258.685	69
258.918	80
259.151	77
259.383	82
259.616	87
259.849	85
260.081	76
260.314	93
260.547	86
260.779	77
261.012	89
261.244	84
261.477	88
261.71	64
261.942	93
262.175	78
262.407	71
262.64	85
262.872	76
263.105	92
263.337	75
263.57	82
263.802	92
264.035	97
264.267	87
264.499	85
264.732	76
264.964	84
265.197	81
265.429	77
265.661	74
265.894	82
266.126	84
266.358	82
266.591	87
266.823	91
267.055	92
267.287	82
267.52	89
267.752	69
267.984	90
268.216	83
268.448	82
268.681	82
268.913	72
269.145	69
269.377	92
269.609	89
269.841	80
270.073	96
270.306	97
270.538	87
270.77	75
271.002	92
271.234	79
271.466	92
271.698	71
271.93	81
272.162	97
272.394	82
272.626	82
272.858	74
273.09	97
273.322	79
273.553	99
273.785	95
274.017	83
274.249	85
274.481	85
274.713	86
274.945	80
275.176	83
275.408	91
275.64	88
275.872	94
276.104	84
276.335	87
276.567	80
276.799	97
277.031	85
277.262	100
277.494	97
277.726	100
277.957	70
278.189	87
278.421	73
278.652	85
278.884	88
279.115	87
279.347	84
279.579	85
279.81	85
280.042	90
280.273	87
280.505	95
280.736	88
280.968	90
281.199	104
281.431	88
281.662	81
281.894	91
282.125	104
282.356	76
282.588	80
282.819	85
283.051	89
283.282	86
283.513	96
283.745	61
283.976	84
284.207	70
284.439	85
284.67	77
284.901	95
285.132	92
285.364	93
285.595	86
285.826	87
286.057	83
286.288	78
286.52	83
286.751	82
286.982	88
287.213	95
287.444	88
287.675	99
287.906	89
288.138	97
288.369	88
288.6	88
288.831	94
289.062	93
289.293	69
289.524	88
289.755	77
289.986	83
290.217	92
290.448	75
290.679	84
290.91	83
291.141	79
291.371	87
291.602	84
291.833	91
292.064	77
292.295	95
292.526	85
292.757	99
292.987	91
293.218	88
293.449	97
293.68	87
293.91	82
294.141	94
294.372	70
294.603	83
294.833	68
295.064	95
295.295	99
295.525	95
295.756	90
295.987	101
296.217	95
296.448	81
296.679	81
296.909	98
297.14	88
297.37	101
297.601	90
297.831	87
298.062	76
298.292	96
298.523	88
298.753	93
298.984	84
299.214	88
299.445	93
299.675	100
299.905	104
300.136	95
300.366	102
300.597	93
300.827	93
301.057	99
301.288	92
301.518	91
301.748	84
301.979	91
302.209	92
302.439	103
302.669	97
302.9	78
303.13	79
303.36	79
303.59	87
303.82	88
304.051	89
304.281	83
304.511	71
304.741	90
304.971	96
305.201	107
305.431	101
305.661	87
305.891	79
306.121	105
306.352	91
306.582	94
306.812	92
307.042	95
307.272	87
307.502	79
307.731	73
307.961	102
308.191	107
308.421	99
308.651	99
308.881	102
309.111	107
309.341	114
309.571	88
309.8	95
310.03	88
310.26	83
310.49	85
310.72	85
310.949	103
311.179	89
311.409	92
311.639	86
311.868	84
312.098	85
312.328	83
312.557	90
312.787	82
313.017	89
313.246	96
313.476	88
313.706	102
313.935	93
314.165	89
314.394	93
314.624	81
314.853	87
315.083	72
315.312	91
315.542	87
315.771	83
316.001	97
316.23	97
316.46	84
316.689	86
316.919	96
317.148	96
317.377	90
317.607	90
317.836	103
318.065	102
318.295	84
318.524	78
318.753	92
318.983	89
319.212	93
319.441	89
319.67	91
319.9	96
320.129	101
320.358	92
320.587	80
320.816	91
321.046	90
321.275	91
321.504	97
321.733	108
321.962	88
322.191	96
322.42	94
322.649	77
322.878	86
323.108	106
323.337	83
323.566	93
323.795	82
324.024	85
324.253	88
324.482	83
324.71	93
324.939	94
325.168	99
325.397	93
325.626	91
325.855	90
326.084	99
326.313	99
326.542	97
326.77	87
326.999	76
327.228	93
327.457	100
327.686	91
327.914	81
328.143	84
328.372	82
328.6	95
328.829	90
329.058	81
329.287	90
329.515	95
329.744	81
329.972	95
330.201	85
330.43	97
330.658	105
330.887	88
331.115	97
331.344	88
331.572	89
331.801	96
332.03	90
332.258	89
332.486	99
332.715	89
332.943	98
333.172	86
333.4	87
333.629	92
333.857	92
334.085	90
334.314	96
334.542	107
334.771	102
334.999	104
335.227	110
335.455	116
335.684	113
335.912	111
336.14	103
336.369	111
336.597	93
336.825	88
337.053	83
337.281	94
337.51	94
337.738	96
337.966	94
338.194	72
338.422	92
338.65	76
338.878	84
339.106	93
339.334	101
339.562	90
339.79	96
340.018	87
340.246	89
340.474	100
340.702	90
340.93	104
341.158	89
341.386	87
341.614	91
341.842	83
342.07	80
342.298	87
342.526	93
342.754	107
342.981	91
343.209	93
343.437	99
343.665	90
343.893	104
344.12	106
344.348	107
344.576	97
344.804	104
345.031	103
345.259	101
345.487	91
345.714	100
345.942	90
346.17	80
346.397	90
346.625	98
346.853	93
347.08	104
347.308	109
347.535	98
347.763	97
347.99	89
348.218	89
348.445	94
348.673	101
348.9	91
349.128	107
349.355	94
349.583	85
349.81	80
350.037	101
350.265	91
350.492	107
350.72	95
350.947	87
351.174	88
351.402	91
351.629	94
351.856	97
352.083	96
352.311	83
352.538	90
352.765	87
352.992	84
353.22	93
353.447	107
353.674	99
353.901	93
354.128	84
354.355	78
354.583	90
354.81	108
355.037	80
355.264	96
355.491	95
355.718	89
355.945	90
356.172	81
356.399	87
356.626	99
356.853	99
357.08	109
357.307	100
357.534	97
357.761	105
357.988	105
358.215	116
358.441	105
358.668	92
358.895	91
359.122	89
359.349	100
359.576	89
359.802	87
360.029	93
360.256	95
360.483	75
360.709	96
360.936	111
361.163	99
361.39	89
361.616	96
361.843	106
362.07	113
362.296	117
362.523	130
362.749	138
362.976	162
363.203	161
363.429	136
363.656	115
363.882	125
364.109	166
364.335	183
364.562	181
364.788	135
365.015	117
365.241	108
365.468	129
365.694	103
365.92	85
366.147	93
366.373	98
366.599	100
366.826	87
367.052	91
367.278	83
367.505	103
367.731	104
367.957	107
368.184	89
368.41	98
368.636	88
368.862	100
369.089	79
369.315	96
369.541	84
369.767	99
369.993	89
370.219	99
370.445	91
370.672	83
370.898	107
371.124	105
371.35	89
371.576	95
371.802	89
372.028	99
372.254	101
372.48	104
372.706	93
372.932	101
373.158	93
373.384	120
373.61	125
373.835	116
374.061	105
374.287	92
374.513	125
374.739	129
374.965	113
375.191	120
375.416	88
375.642	101
375.868	109
376.094	98
376.319	97
376.545	78
376.771	101
376.997	83
377.222	91
377.448	96
377.674	109
377.899	99
378.125	90
378.35	98
378.576	99
378.802	98
379.027	101
379.253	91
379.478	98
379.704	96
379.929	104
380.155	91
380.38	89
380.606	84
380.831	93
381.057	111
381.282	96
381.507	90
381.733	109
381.958	112
382.184	95
382.409	105
382.634	118
382.86	109
383.085	99
383.31	98
383.535	114
383.761	100
383.986	122
384.211	113
384.436	106
384.662	75
384.887	83
385.112	97
385.337	100
385.562	106
385.787	107
386.013	114
386.238	106
386.463	103
386.688	102
386.913	100
387.138	95
387.363	112
387.588	113
387.813	114
388.038	114
388.263	109
388.488	99
388.713	95
388.938	108
389.163	94
389.387	85
389.612	89
389.837	100
390.062	93
390.287	105
390.512	97
390.736	105
390.961	96
391.186	106
391.411	86
391.636	91
391.86	102
392.085	113
392.31	111
392.534	124
392.759	150
392.984	205
393.208	328
393.433	465
393.658	360
393.882	185
394.107	140
394.331	132
394.556	135
394.78	117
395.005	121
395.229	108
395.454	107
395.678	138
395.903	151
396.127	172
396.352	208
396.576	221
396.801	337
397.025	396
397.249	217
397.474	155
397.698	120
397.922	104
398.147	106
398.371	125
398.595	105
398.82	99
399.044	117
399.268	85
399.492	88
399.717	89
399.941	93
400.165	92
400.389	95
400.613	97
400.837	85
401.062	87
401.286	78
401.51	93
401.734	79
401.958	83
402.182	78
402.406	88
402.63	95
402.854	95
403.078	98
403.302	92
403.526	109
403.75	100
403.974	105
404.198	117
404.422	144
404.645	165
404.869	140
405.093	108
405.317	83
405.541	79
405.765	100
405.988	99
406.212	105
406.436	98
406.66	94
406.883	96
407.107	97
407.331	92
407.555	114
407.778	125
408.002	123
408.226	96
408.449	91
408.673	91
408.896	93
409.12	99
409.344	104
409.567	124
409.791	119
410.014	128
410.238	97
410.461	102
410.685	96
410.908	112
411.132	99
411.355	79
411.578	98
411.802	89
412.025	86
412.249	88
412.472	88
412.695	108
412.919	92
413.142	98
413.365	97
413.589	105
413.812	96
414.035	104
414.258	97
414.482	108
414.705	109
414.928	86
415.151	89
415.374	87
415.597	83
415.821	97
416.044	97
416.267	91
416.49	95
416.713	95
416.936	93
417.159	91
417.382	91
417.605	91
417.828	84
418.051	83
418.274	114
418.497	86
418.72	98
418.943	78
419.166	95
419.389	85
419.611	96
419.834	109
420.057	103
420.28	88
420.503	99
420.726	96
420.948	113
421.171	102
421.394	140
421.617	148
421.839	166
422.062	177
422.285	282
422.507	442
422.73	586
422.953	580
423.175	359
423.398	214
423.621	163
423.843	135
424.066	140
424.288	115
424.511	105
424.733	108
424.956	111
425.178	112
425.401	115
425.623	103
425.846	99
426.068	103
426.291	98
426.513	97
426.735	93
426.958	111
427.18	94
427.402	111
427.625	94
427.847	120
428.069	133
428.292	167
428.514	201
428.736	144
428.958	185
429.181	180
429.403	111
429.625	113
429.847	169
430.069	226
430.292	289
430.514	258
430.736	184
430.958	199
431.18	124
431.402	97
431.624	112
431.846	154
432.068	191
432.29	109
432.512	105
432.734	112
432.956	107
433.178	97
433.4	95
433.622	99
433.844	85
434.066	86
434.287	86
434.509	77
434.731	97
434.953	93
435.175	95
435.397	97
435.618	91
435.84	100
436.062	100
436.284	85
436.505	81
436.727	81
436.949	100
437.17	91
437.392	85
437.614	94
437.835	105
438.057	83
438.278	102
438.5	114
438.721	88
438.943	112
439.165	88
439.386	80
439.608	91
439.829	86
440.05	90
440.272	105
440.493	108
440.715	97
440.936	96
441.158	99
441.379	93
441.6	114
441.822	107
442.043	102
442.264	125
442.486	187
442.707	280
442.928	174
443.149	154
443.371	256
443.592	401
443.813	357
444.034	146
444.255	130
444.476	95
444.698	111
444.919	108
445.14	215
445.361	300
445.582	508
445.803	414
446.024	176
446.245	117
446.466	104
446.687	108
446.908	98
447.129	96
447.35	84
447.571	96
447.792	84
448.013	82
448.234	95
448.455	85
448.675	97
448.896	100
449.117	91
449.338	96
449.559	83
449.779	93
450	94
450.221	90
450.442	79
450.662	83
450.883	89
451.104	93
451.324	94
451.545	90
451.766	91
451.986	101
452.207	92
452.428	96
452.648	123
452.869	109
453.089	109
453.31	115
453.53	117
453.751	128
453.971	93
454.192	83
454.412	96
454.633	103
454.853	98
455.073	83
455.294	95
455.514	100
455.734	95
455.955	91
456.175	95
456.395	93
456.616	85
456.836	96
457.056	80
457.276	92
457.497	94
457.717	109
457.937	157
458.157	193
458.377	199
458.598	191
458.818	188
459.038	101
459.258	108
459.478	87
459.698	79
459.918	83
460.138	90
460.358	97
460.578	101
460.798	151
461.018	149
461.238	100
461.458	94
461.678	88
461.898	96
462.118	91
462.338	72
462.558	89
462.777	98
462.997	68
463.217	76
463.437	87
463.657	86
463.876	90
464.096	99
464.316	93
464.536	88
464.755	92
464.975	88
465.195	96
465.414	92
465.634	91
465.854	76
466.073	84
466.293	82
466.512	97
466.732	91
466.951	97
467.171	100
467.391	79
467.61	103
467.829	89
468.049	87
468.268	91
468.488	91
468.707	92
468.927	96
469.146	98
469.365	95
469.585	107
469.804	84
470.023	77
470.243	101
470.462	93
470.681	85
470.901	90
471.12	92
471.339	98
471.558	94
471.777	86
471.997	85
472.216	108
472.435	102
472.654	89
472.873	90
473.092	91
473.311	77
473.53	91
473.749	91
473.968	99
474.187	98
474.406	92
474.625	87
474.844	87
475.063	100
475.282	102
475.501	99
475.72	100
475.939	93
476.158	99
476.377	87
476.596	82
476.814	81
477.033	95
477.252	90
477.471	82
477.69	80
477.908	90
478.127	93
478.346	98
478.564	76
478.783	78
479.002	92
479.22	94
479.439	100
479.658	97
479.876	78
480.095	90
480.313	84
480.532	81
480.751	84
480.969	91
481.188	104
481.406	115
481.624	95
481.843	82
482.061	91
482.28	97
482.498	98
482.717	92
482.935	87
483.153	93
483.372	102
483.59	103
483.808	92
484.027	97
484.245	89
484.463	99
484.681	111
484.9	99
485.118	101
485.336	108
485.554	106
485.772	87
485.99	115
486.209	91
486.427	104
486.645	97
486.863	103
487.081	112
487.299	103
487.517	123
487.735	149
487.953	273
488.171	232
488.389	111
488.607	91
488.825	99
489.043	97
489.261	96
489.479	90
489.696	101
489.914	92
490.132	89
490.35	102
490.568	92
490.786	91
491.003	106
491.221	101
491.439	91
491.657	95
491.874	93
492.092	99
492.31	103
492.527	101
492.745	92
492.963	88
493.18	103
493.398	98
493.615	91
493.833	96
494.05	85
494.268	97
494.485	99
494.703	99
494.92	101
495.138	101
495.355	96
495.573	103
495.79	84
496.008	87
496.225	87
496.442	98
496.66	97
496.877	83
497.094	91
497.312	90
497.529	81
497.746	97
497.963	114
498.181	106
498.398	131
498.615	105
498.832	98
499.049	99
499.267	114
499.484	108
499.701	99
499.918	101
500.135	121
500.352	106
500.569	83
500.786	101
501.003	104
501.22	91
501.437	108
501.654	113
501.871	97
502.088	100
502.305	99
502.522	91
502.739	102
502.956	89
503.172	94
503.389	101
503.606	92
503.823	119
504.04	137
504.256	212
504.473	225
504.69	115
504.907	97
505.123	100
505.34	101
505.557	108
505.773	96
505.99	87
506.207	91
506.423	113
506.64	87
506.856	92
507.073	84
507.289	111
507.506	91
507.722	86
507.939	93
508.155	78
508.372	102
508.588	100
508.805	101
509.021	99
509.238	88
509.454	97
509.67	83
509.887	95
510.103	101
510.319	93
510.536	104
510.752	92
510.968	107
511.184	90
511.401	95
511.617	103
511.833	88
512.049	95
512.265	99
512.481	102
512.698	85
512.914	95
513.13	95
513.346	91
513.562	93
513.778	81
513.994	95
514.21	97
514.426	93
514.642	95
514.858	90
515.074	85
515.29	104
515.506	90
515.721	103
515.937	95
516.153	89
516.369	89
516.585	85
516.801	106
517.016	113
517.232	93
517.448	122
517.664	103
517.879	101
518.095	91
518.311	99
518.527	140
518.742	154
518.958	250
519.173	291
519.389	148
519.605	119
519.82	81
520.036	92
520.251	87
520.467	91
520.682	99
520.898	106
521.113	103
521.329	111
521.544	95
521.76	97
521.975	90
522.19	118
522.406	90
522.621	105
522.836	113
523.052	103
523.267	95
523.482	99
523.698	107
523.913	96
524.128	87
524.343	92
524.559	117
524.774	113
524.989	109
525.204	102
525.419	98
525.634	107
525.849	118
526.064	178
526.28	404
526.495	604
526.71	639
526.925	395
527.14	501
527.355	459
527.57	151
527.785	106
527.999	105
528.214	99
528.429	104
528.644	106
528.859	97
529.074	111
529.289	106
529.503	86
529.718	98
529.933	95
530.148	116
530.363	102
530.577	98
530.792	113
531.007	104
531.221	105
531.436	90
531.651	96
531.865	88
532.08	102
532.295	101
532.509	101
532.724	108
532.938	107
533.153	106
533.367	105
533.582	94
533.796	83
534.011	100
534.225	123
534.44	123
534.654	122
534.868	160
535.083	269
535.297	225
535.511	117
535.726	108
535.94	129
536.154	109
536.369	128
536.583	109
536.797	115
537.011	114
537.225	116
537.44	101
537.654	109
537.868	102
538.082	99
538.296	116
538.51	121
538.724	108
538.938	115
539.153	112
539.367	110
539.581	125
539.795	105
540.009	116
540.222	111
540.436	101
540.65	111
540.864	118
541.078	106
541.292	117
541.506	107
541.72	100
541.934	119
542.147	99
542.361	100
542.575	113
542.789	109
543.002	106
543.216	106
543.43	108
543.644	103
543.857	121
544.071	107
544.285	103
544.498	121
544.712	105
544.925	112
545.139	113
545.352	116
545.566	135
545.779	135
545.993	123
546.206	114
546.42	136
546.633	123
546.847	139
547.06	151
547.274	167
547.487	196
547.7	229
547.914	231
548.127	239
548.34	240
548.554	246
548.767	251
548.98	267
549.193	252
549.407	261
549.62	262
549.833	272
550.046	316
550.259	342
550.473	319
550.686	331
550.899	351
551.112	391
551.325	428
551.538	460
551.751	401
551.964	377
552.177	373
552.39	360
552.603	359
552.816	372
553.029	361
553.242	339
553.455	385
553.667	401
553.88	391
554.093	386
554.306	385
554.519	386
554.732	372
554.944	373
555.157	371
555.37	362
555.583	351
555.795	319
556.008	322
556.221	274
556.433	294
556.646	287
556.859	243
557.071	256
557.284	236
557.496	231
557.709	213
557.921	209
558.134	219
558.346	324
558.559	289
558.771	258
558.984	523
559.196	660
559.409	359
559.621	499
559.833	387
560.046	495
560.258	423
560.47	422
560.683	206
560.895	153
561.107	142
561.32	126
561.532	120
561.744	121
561.956	127
562.168	113
562.381	107
562.593	132
562.805	116
563.017	109
563.229	115
563.441	122
563.653	97
563.865	116
564.077	121
564.289	113
564.501	115
564.713	109
564.925	108
565.137	95
565.349	106
565.561	109
565.773	107
565.985	128
566.197	125
566.408	117
566.62	122
566.832	95
567.044	107
567.255	113
567.467	119
567.679	119
567.891	117
568.102	104
568.314	113
568.526	115
568.737	127
568.949	115
569.161	132
569.372	121
569.584	122
569.795	120
570.007	127
570.218	106
570.43	107
570.641	111
570.853	111
571.064	115
571.276	106
571.487	117
571.698	111
571.91	116
572.121	103
572.333	99
572.544	120
572.755	108
572.966	113
573.178	107
573.389	119
573.6	117
573.811	106
574.023	91
574.234	102
574.445	114
574.656	120
574.867	112
575.078	104
575.289	101
575.501	107
575.712	101
575.923	101
576.134	109
576.345	88
576.556	97
576.767	114
576.978	97
577.188	108
577.399	109
577.61	94
577.821	107
578.032	97
578.243	116
578.454	107
578.665	127
578.875	122
579.086	115
579.297	102
579.508	103
579.718	89
579.929	105
580.14	117
