Data from 237_3_HRD10591_00015.txt Node
Date: Mon Jan 19 14:13:02 EST 2026
User: Yrep
Spectrometer: HR+D1059
Trigger mode: 1
Integration Time (sec): 1.000000E-1
Scans to average: 1
Electric dark correction enabled: true
Nonlinearity correction enabled: false
Boxcar width: 0
XAxis mode: Wavelengths
Number of Pixels in Spectrum: 2048
>>>>>Begin Spectral Data<<<<<
223.165	-28.88
223.4	-28.88
223.635	-28.88
223.869	-22.88
224.104	-14.88
224.338	-1.88
224.573	-9.88
224.808	-11.88
225.042	-12.88
225.277	-10.88
225.511	-9.88
225.746	6.12
225.98	5.12
226.215	10.12
226.449	17.12
226.683	28.12
226.918	25.12
227.152	32.12
227.387	42.12
227.621	23.12
227.856	52.12
228.09	58.12
228.324	49.12
228.559	59.12
228.793	59.12
229.027	62.12
229.262	63.12
229.496	71.12
229.73	68.12
229.964	88.12
230.199	76.12
230.433	78.12
230.667	84.12
230.901	77.12
231.136	90.12
231.37	83.12
231.604	93.12
231.838	85.12
232.072	76.12
232.306	74.12
232.541	90.12
232.775	80.12
233.009	83.12
233.243	74.12
233.477	87.12
233.711	69.12
233.945	70.12
234.179	86.12
234.413	90.12
234.647	80.12
234.881	87.12
235.115	86.12
235.349	77.12
235.583	70.12
235.817	74.12
236.051	65.12
236.285	83.12
236.519	93.12
236.753	66.12
236.987	83.12
237.221	85.12
237.455	69.12
237.689	69.12
237.922	68.12
238.156	71.12
238.39	84.12
238.624	76.12
238.858	79.12
239.091	73.12
239.325	95.12
239.559	75.12
239.793	73.12
240.027	78.12
240.26	73.12
240.494	63.12
240.728	86.12
240.961	80.12
241.195	89.12
241.429	80.12
241.662	68.12
241.896	87.12
242.13	65.12
242.363	65.12
242.597	85.12
242.83	70.12
243.064	77.12
243.298	65.12
243.531	86.12
243.765	83.12
243.998	63.12
244.232	88.12
244.465	85.12
244.699	82.12
244.932	68.12
245.166	83.12
245.399	91.12
245.633	96.12
245.866	70.12
246.099	86.12
246.333	79.12
246.566	71.12
246.8	80.12
247.033	83.12
247.266	67.12
247.5	72.12
247.733	76.12
247.966	86.12
248.2	77.12
248.433	76.12
248.666	84.12
248.899	84.12
249.133	92.12
249.366	86.12
249.599	63.12
249.832	83.12
250.066	82.12
250.299	82.12
250.532	82.12
250.765	84.12
250.998	82.12
251.231	88.12
251.465	81.12
251.698	91.12
251.931	68.12
252.164	80.12
252.397	93.12
252.63	76.12
252.863	55.12
253.096	85.12
253.329	77.12
253.562	83.12
253.795	103.12
254.028	83.12
254.261	85.12
254.494	82.12
254.727	76.12
254.96	85.12
255.193	85.12
255.426	91.12
255.659	75.12
255.892	80.12
256.124	74.12
256.357	95.12
256.59	83.12
256.823	77.12
257.056	71.12
257.289	84.12
257.521	72.12
257.754	81.12
257.987	89.12
258.22	93.12
258.452	87.12
258.685	86.12
258.918	84.12
259.151	96.12
259.383	85.12
259.616	81.12
259.849	84.12
260.081	85.12
260.314	83.12
260.547	84.12
260.779	66.12
261.012	83.12
261.244	76.12
261.477	92.12
261.71	77.12
261.942	89.12
262.175	86.12
262.407	82.12
262.64	74.12
262.872	86.12
263.105	85.12
263.337	62.12
263.57	93.12
263.802	74.12
264.035	91.12
264.267	83.12
264.499	89.12
264.732	90.12
264.964	82.12
265.197	71.12
265.429	79.12
265.661	86.12
265.894	89.12
266.126	79.12
266.358	92.12
266.591	86.12
266.823	81.12
267.055	83.12
267.287	78.12
267.52	77.12
267.752	77.12
267.984	90.12
268.216	77.12
268.448	83.12
268.681	80.12
268.913	88.12
269.145	81.12
269.377	86.12
269.609	79.12
269.841	83.12
270.073	83.12
270.306	72.12
270.538	83.12
270.77	94.12
271.002	86.12
271.234	91.12
271.466	90.12
271.698	76.12
271.93	83.12
272.162	75.12
272.394	103.12
272.626	94.12
272.858	85.12
273.09	83.12
273.322	82.12
273.553	85.12
273.785	79.12
274.017	73.12
274.249	97.12
274.481	92.12
274.713	81.12
274.945	83.12
275.176	86.12
275.408	80.12
275.64	81.12
275.872	89.12
276.104	93.12
276.335	77.12
276.567	97.12
276.799	85.12
277.031	98.12
277.262	78.12
277.494	94.12
277.726	71.12
277.957	85.12
278.189	90.12
278.421	88.12
278.652	95.12
278.884	86.12
279.115	87.12
279.347	89.12
279.579	83.12
279.81	89.12
280.042	73.12
280.273	78.12
280.505	84.12
280.736	83.12
280.968	83.12
281.199	73.12
281.431	86.12
281.662	89.12
281.894	83.12
282.125	91.12
282.356	85.12
282.588	99.12
282.819	83.12
283.051	81.12
283.282	69.12
283.513	91.12
283.745	88.12
283.976	105.12
284.207	92.12
284.439	89.12
284.67	75.12
284.901	94.12
285.132	76.12
285.364	85.12
285.595	88.12
285.826	89.12
286.057	94.12
286.288	77.12
286.52	83.12
286.751	89.12
286.982	80.12
287.213	92.12
287.444	90.12
287.675	79.12
287.906	67.12
288.138	81.12
288.369	87.12
288.6	82.12
288.831	93.12
289.062	81.12
289.293	79.12
289.524	94.12
289.755	75.12
289.986	78.12
290.217	83.12
290.448	85.12
290.679	73.12
290.91	86.12
291.141	94.12
291.371	94.12
291.602	88.12
291.833	93.12
292.064	85.12
292.295	83.12
292.526	76.12
292.757	103.12
292.987	93.12
293.218	72.12
293.449	93.12
293.68	81.12
293.91	78.12
294.141	89.12
294.372	88.12
294.603	94.12
294.833	95.12
295.064	89.12
295.295	70.12
295.525	75.12
295.756	91.12
295.987	84.12
296.217	80.12
296.448	71.12
296.679	86.12
296.909	80.12
297.14	82.12
297.37	79.12
297.601	78.12
297.831	84.12
298.062	77.12
298.292	92.12
298.523	82.12
298.753	90.12
298.984	77.12
299.214	79.12
299.445	74.12
299.675	98.12
299.905	90.12
300.136	88.12
300.366	99.12
300.597	87.12
300.827	82.12
301.057	62.12
301.288	94.12
301.518	75.12
301.748	73.12
301.979	87.12
302.209	100.12
302.439	85.12
302.669	79.12
302.9	84.12
303.13	87.12
303.36	93.12
303.59	92.12
303.82	72.12
304.051	93.12
304.281	85.12
304.511	84.12
304.741	98.12
304.971	95.12
305.201	99.12
305.431	97.12
305.661	89.12
305.891	76.12
306.121	95.12
306.352	97.12
306.582	77.12
306.812	83.12
307.042	92.12
307.272	71.12
307.502	87.12
307.731	84.12
307.961	78.12
308.191	93.12
308.421	85.12
308.651	92.12
308.881	95.12
309.111	101.12
309.341	87.12
309.571	104.12
309.8	100.12
310.03	77.12
310.26	93.12
310.49	75.12
310.72	92.12
310.949	86.12
311.179	100.12
311.409	91.12
311.639	77.12
311.868	88.12
312.098	85.12
312.328	79.12
312.557	79.12
312.787	80.12
313.017	86.12
313.246	88.12
313.476	91.12
313.706	93.12
313.935	91.12
314.165	80.12
314.394	82.12
314.624	84.12
314.853	105.12
315.083	100.12
315.312	79.12
315.542	92.12
315.771	93.12
316.001	88.12
316.23	87.12
316.46	97.12
316.689	83.12
316.919	109.12
317.148	88.12
317.377	94.12
317.607	78.12
317.836	77.12
318.065	81.12
318.295	90.12
318.524	93.12
318.753	83.12
318.983	82.12
319.212	84.12
319.441	78.12
319.67	97.12
319.9	94.12
320.129	85.12
320.358	84.12
320.587	76.12
320.816	102.12
321.046	83.12
321.275	92.12
321.504	85.12
321.733	92.12
321.962	93.12
322.191	97.12
322.42	99.12
322.649	75.12
322.878	81.12
323.108	83.12
323.337	73.12
323.566	78.12
323.795	89.12
324.024	79.12
324.253	94.12
324.482	93.12
324.71	95.12
324.939	85.12
325.168	95.12
325.397	87.12
325.626	80.12
325.855	95.12
326.084	83.12
326.313	82.12
326.542	79.12
326.77	85.12
326.999	67.12
327.228	84.12
327.457	82.12
327.686	85.12
327.914	82.12
328.143	76.12
328.372	86.12
328.6	83.12
328.829	92.12
329.058	72.12
329.287	73.12
329.515	94.12
329.744	77.12
329.972	71.12
330.201	89.12
330.43	103.12
330.658	97.12
330.887	95.12
331.115	81.12
331.344	103.12
331.572	114.12
331.801	81.12
332.03	81.12
332.258	89.12
332.486	93.12
332.715	99.12
332.943	88.12
333.172	95.12
333.4	92.12
333.629	96.12
333.857	95.12
334.085	93.12
334.314	78.12
334.542	92.12
334.771	78.12
334.999	92.12
335.227	87.12
335.455	90.12
335.684	89.12
335.912	73.12
336.14	95.12
336.369	106.12
336.597	68.12
336.825	93.12
337.053	92.12
337.281	77.12
337.51	88.12
337.738	89.12
337.966	85.12
338.194	78.12
338.422	75.12
338.65	97.12
338.878	90.12
339.106	79.12
339.334	70.12
339.562	79.12
339.79	85.12
340.018	98.12
340.246	91.12
340.474	65.12
340.702	85.12
340.93	88.12
341.158	81.12
341.386	100.12
341.614	83.12
341.842	93.12
342.07	93.12
342.298	92.12
342.526	73.12
342.754	92.12
342.981	80.12
343.209	93.12
343.437	104.12
343.665	92.12
343.893	93.12
344.12	98.12
344.348	85.12
344.576	86.12
344.804	89.12
345.031	76.12
345.259	84.12
345.487	99.12
345.714	99.12
345.942	78.12
346.17	88.12
346.397	89.12
346.625	85.12
346.853	97.12
347.08	88.12
347.308	74.12
347.535	89.12
347.763	85.12
347.99	92.12
348.218	99.12
348.445	89.12
348.673	79.12
348.9	86.12
349.128	87.12
349.355	85.12
349.583	80.12
349.81	86.12
350.037	75.12
350.265	78.12
350.492	92.12
350.72	103.12
350.947	88.12
351.174	87.12
351.402	77.12
351.629	74.12
351.856	77.12
352.083	91.12
352.311	93.12
352.538	86.12
352.765	85.12
352.992	98.12
353.22	88.12
353.447	90.12
353.674	89.12
353.901	87.12
354.128	86.12
354.355	89.12
354.583	83.12
354.81	75.12
355.037	84.12
355.264	85.12
355.491	90.12
355.718	86.12
355.945	73.12
356.172	85.12
356.399	89.12
356.626	97.12
356.853	99.12
357.08	89.12
357.307	83.12
357.534	86.12
357.761	95.12
357.988	84.12
358.215	107.12
358.441	99.12
358.668	90.12
358.895	91.12
359.122	95.12
359.349	78.12
359.576	80.12
359.802	90.12
360.029	79.12
360.256	85.12
360.483	80.12
360.709	85.12
360.936	84.12
361.163	75.12
361.39	95.12
361.616	89.12
361.843	83.12
362.07	95.12
362.296	94.12
362.523	93.12
362.749	83.12
362.976	84.12
363.203	106.12
363.429	81.12
363.656	73.12
363.882	92.12
364.109	91.12
364.335	101.12
364.562	97.12
364.788	94.12
365.015	83.12
365.241	79.12
365.468	110.12
365.694	82.12
365.92	80.12
366.147	83.12
366.373	75.12
366.599	92.12
366.826	91.12
367.052	92.12
367.278	77.12
367.505	82.12
367.731	85.12
367.957	80.12
368.184	92.12
368.41	85.12
368.636	85.12
368.862	101.12
369.089	90.12
369.315	76.12
369.541	87.12
369.767	79.12
369.993	93.12
370.219	80.12
370.445	86.12
370.672	82.12
370.898	85.12
371.124	97.12
371.35	84.12
371.576	95.12
371.802	81.12
372.028	92.12
372.254	92.12
372.48	76.12
372.706	89.12
372.932	97.12
373.158	86.12
373.384	90.12
373.61	83.12
373.835	101.12
374.061	95.12
374.287	77.12
374.513	80.12
374.739	86.12
374.965	88.12
375.191	70.12
375.416	98.12
375.642	86.12
375.868	95.12
376.094	97.12
376.319	87.12
376.545	82.12
376.771	89.12
376.997	101.12
377.222	95.12
377.448	89.12
377.674	87.12
377.899	100.12
378.125	87.12
378.35	98.12
378.576	82.12
378.802	81.12
379.027	80.12
379.253	82.12
379.478	94.12
379.704	93.12
379.929	73.12
380.155	88.12
380.38	86.12
380.606	83.12
380.831	77.12
381.057	94.12
381.282	84.12
381.507	94.12
381.733	94.12
381.958	90.12
382.184	99.12
382.409	78.12
382.634	84.12
382.86	97.12
383.085	85.12
383.31	102.12
383.535	87.12
383.761	87.12
383.986	101.12
384.211	88.12
384.436	86.12
384.662	95.12
384.887	86.12
385.112	69.12
385.337	83.12
385.562	86.12
385.787	94.12
386.013	80.12
386.238	97.12
386.463	91.12
386.688	95.12
386.913	95.12
387.138	84.12
387.363	69.12
387.588	79.12
387.813	74.12
388.038	85.12
388.263	81.12
388.488	80.12
388.713	95.12
388.938	87.12
389.163	89.12
389.387	92.12
389.612	98.12
389.837	87.12
390.062	92.12
390.287	74.12
390.512	99.12
390.736	79.12
390.961	83.12
391.186	90.12
391.411	78.12
391.636	80.12
391.86	92.12
392.085	99.12
392.31	93.12
392.534	89.12
392.759	87.12
392.984	91.12
393.208	102.12
393.433	122.12
393.658	121.12
393.882	103.12
394.107	99.12
394.331	92.12
394.556	82.12
394.78	76.12
395.005	91.12
395.229	74.12
395.454	85.12
395.678	95.12
395.903	93.12
396.127	90.12
396.352	111.12
396.576	108.12
396.801	117.12
397.025	124.12
397.249	97.12
397.474	89.12
397.698	92.12
397.922	71.12
398.147	90.12
398.371	96.12
398.595	78.12
398.82	95.12
399.044	85.12
399.268	69.12
399.492	87.12
399.717	89.12
399.941	80.12
400.165	77.12
400.389	93.12
400.613	83.12
400.837	89.12
401.062	95.12
401.286	78.12
401.51	81.12
401.734	90.12
401.958	102.12
402.182	100.12
402.406	89.12
402.63	89.12
402.854	82.12
403.078	82.12
403.302	98.12
403.526	92.12
403.75	90.12
403.974	71.12
404.198	101.12
404.422	91.12
404.645	102.12
404.869	91.12
405.093	94.12
405.317	69.12
405.541	85.12
405.765	100.12
405.988	84.12
406.212	79.12
406.436	85.12
406.66	89.12
406.883	78.12
407.107	91.12
407.331	77.12
407.555	101.12
407.778	85.12
408.002	95.12
408.226	83.12
408.449	91.12
408.673	99.12
408.896	81.12
409.12	98.12
409.344	83.12
409.567	79.12
409.791	87.12
410.014	87.12
410.238	93.12
410.461	86.12
410.685	82.12
410.908	99.12
411.132	83.12
411.355	88.12
411.578	98.12
411.802	89.12
412.025	82.12
412.249	95.12
412.472	93.12
412.695	96.12
412.919	100.12
413.142	87.12
413.365	70.12
413.589	88.12
413.812	89.12
414.035	84.12
414.258	90.12
414.482	86.12
414.705	94.12
414.928	77.12
415.151	87.12
415.374	90.12
415.597	77.12
415.821	91.12
416.044	92.12
416.267	87.12
416.49	89.12
416.713	80.12
416.936	95.12
417.159	77.12
417.382	84.12
417.605	82.12
417.828	82.12
418.051	86.12
418.274	93.12
418.497	75.12
418.72	77.12
418.943	82.12
419.166	89.12
419.389	102.12
419.611	89.12
419.834	77.12
420.057	95.12
420.28	83.12
420.503	86.12
420.726	93.12
420.948	89.12
421.171	87.12
421.394	94.12
421.617	96.12
421.839	94.12
422.062	104.12
422.285	115.12
422.507	147.12
422.73	171.12
422.953	157.12
423.175	127.12
423.398	109.12
423.621	98.12
423.843	92.12
424.066	102.12
424.288	101.12
424.511	84.12
424.733	84.12
424.956	82.12
425.178	77.12
425.401	88.12
425.623	93.12
425.846	88.12
426.068	84.12
426.291	86.12
426.513	82.12
426.735	79.12
426.958	72.12
427.18	98.12
427.402	81.12
427.625	77.12
427.847	82.12
428.069	94.12
428.292	88.12
428.514	110.12
428.736	97.12
428.958	87.12
429.181	93.12
429.403	84.12
429.625	95.12
429.847	95.12
430.069	109.12
430.292	121.12
430.514	106.12
430.736	105.12
430.958	99.12
431.18	84.12
431.402	70.12
431.624	94.12
431.846	88.12
432.068	94.12
432.29	84.12
432.512	103.12
432.734	96.12
432.956	84.12
433.178	91.12
433.4	87.12
433.622	83.12
433.844	74.12
434.066	71.12
434.287	90.12
434.509	85.12
434.731	89.12
434.953	76.12
435.175	102.12
435.397	90.12
435.618	85.12
435.84	76.12
436.062	91.12
436.284	77.12
436.505	90.12
436.727	79.12
436.949	86.12
437.17	91.12
437.392	94.12
437.614	71.12
437.835	77.12
438.057	84.12
438.278	98.12
438.5	81.12
438.721	91.12
438.943	76.12
439.165	88.12
439.386	78.12
439.608	94.12
439.829	91.12
440.05	89.12
440.272	87.12
440.493	81.12
440.715	94.12
440.936	90.12
441.158	91.12
441.379	84.12
441.6	89.12
441.822	87.12
442.043	73.12
442.264	85.12
442.486	89.12
442.707	108.12
442.928	100.12
443.149	98.12
443.371	98.12
443.592	127.12
443.813	115.12
444.034	91.12
444.255	79.12
444.476	99.12
444.698	89.12
444.919	97.12
445.14	154.12
445.361	136.12
445.582	144.12
445.803	146.12
446.024	98.12
446.245	100.12
446.466	91.12
446.687	86.12
446.908	89.12
447.129	105.12
447.35	92.12
447.571	83.12
447.792	89.12
448.013	95.12
448.234	79.12
448.455	85.12
448.675	90.12
448.896	84.12
449.117	92.12
449.338	86.12
449.559	95.12
449.779	96.12
450	87.12
450.221	79.12
450.442	74.12
450.662	75.12
450.883	80.12
451.104	93.12
451.324	104.12
451.545	95.12
451.766	77.12
451.986	93.12
452.207	92.12
452.428	103.12
452.648	87.12
452.869	86.12
453.089	72.12
453.31	81.12
453.53	89.12
453.751	99.12
453.971	84.12
454.192	79.12
454.412	87.12
454.633	96.12
454.853	84.12
455.073	89.12
455.294	90.12
455.514	93.12
455.734	74.12
455.955	87.12
456.175	87.12
456.395	74.12
456.616	91.12
456.836	101.12
457.056	75.12
457.276	85.12
457.497	74.12
457.717	101.12
457.937	79.12
458.157	93.12
458.377	88.12
458.598	90.12
458.818	96.12
459.038	90.12
459.258	89.12
459.478	72.12
459.698	65.12
459.918	91.12
460.138	84.12
460.358	87.12
460.578	88.12
460.798	101.12
461.018	85.12
461.238	93.12
461.458	87.12
461.678	79.12
461.898	80.12
462.118	88.12
462.338	75.12
462.558	85.12
462.777	83.12
462.997	83.12
463.217	83.12
463.437	82.12
463.657	88.12
463.876	87.12
464.096	89.12
464.316	87.12
464.536	80.12
464.755	90.12
464.975	76.12
465.195	79.12
465.414	85.12
465.634	85.12
465.854	82.12
466.073	65.12
466.293	87.12
466.512	86.12
466.732	73.12
466.951	85.12
467.171	90.12
467.391	79.12
467.61	79.12
467.829	86.12
468.049	71.12
468.268	91.12
468.488	76.12
468.707	87.12
468.927	83.12
469.146	83.12
469.365	78.12
469.585	81.12
469.804	99.12
470.023	89.12
470.243	94.12
470.462	73.12
470.681	85.12
470.901	72.12
471.12	78.12
471.339	78.12
471.558	87.12
471.777	75.12
471.997	93.12
472.216	70.12
472.435	97.12
472.654	83.12
472.873	97.12
473.092	84.12
473.311	80.12
473.53	89.12
473.749	88.12
473.968	91.12
474.187	80.12
474.406	90.12
474.625	77.12
474.844	87.12
475.063	78.12
475.282	80.12
475.501	87.12
475.72	86.12
475.939	85.12
476.158	76.12
476.377	86.12
476.596	91.12
476.814	98.12
477.033	105.12
477.252	77.12
477.471	85.12
477.69	93.12
477.908	77.12
478.127	85.12
478.346	83.12
478.564	86.12
478.783	97.12
479.002	83.12
479.22	93.12
479.439	86.12
479.658	82.12
479.876	101.12
480.095	95.12
480.313	77.12
480.532	93.12
480.751	83.12
480.969	90.12
481.188	96.12
481.406	88.12
481.624	79.12
481.843	74.12
482.061	71.12
482.28	74.12
482.498	96.12
482.717	102.12
482.935	96.12
483.153	77.12
483.372	82.12
483.59	78.12
483.808	85.12
484.027	91.12
484.245	87.12
484.463	84.12
484.681	79.12
484.9	90.12
485.118	92.12
485.336	79.12
485.554	86.12
485.772	87.12
485.99	87.12
486.209	99.12
486.427	99.12
486.645	86.12
486.863	102.12
487.081	82.12
487.299	94.12
487.517	94.12
487.735	101.12
487.953	119.12
488.171	103.12
488.389	81.12
488.607	74.12
488.825	89.12
489.043	76.12
489.261	85.12
489.479	83.12
489.696	87.12
489.914	73.12
490.132	94.12
490.35	94.12
490.568	82.12
490.786	86.12
491.003	83.12
491.221	96.12
491.439	95.12
491.657	81.12
491.874	86.12
492.092	93.12
492.31	90.12
492.527	89.12
492.745	85.12
492.963	81.12
493.18	87.12
493.398	94.12
493.615	98.12
493.833	84.12
494.05	81.12
494.268	93.12
494.485	106.12
494.703	86.12
494.92	92.12
495.138	86.12
495.355	91.12
495.573	101.12
495.79	91.12
496.008	93.12
496.225	93.12
496.442	83.12
496.66	103.12
496.877	94.12
497.094	89.12
497.312	79.12
497.529	82.12
497.746	100.12
497.963	79.12
498.181	99.12
498.398	87.12
498.615	76.12
498.832	97.12
499.049	74.12
499.267	89.12
499.484	105.12
499.701	94.12
499.918	91.12
500.135	95.12
500.352	75.12
500.569	85.12
500.786	90.12
501.003	87.12
501.22	85.12
501.437	79.12
501.654	86.12
501.871	87.12
502.088	94.12
502.305	85.12
502.522	74.12
502.739	89.12
502.956	83.12
503.172	91.12
503.389	84.12
503.606	92.12
503.823	87.12
504.04	93.12
504.256	98.12
504.473	108.12
504.69	90.12
504.907	109.12
505.123	87.12
505.34	92.12
505.557	83.12
505.773	104.12
505.99	82.12
506.207	76.12
506.423	93.12
506.64	99.12
506.856	91.12
507.073	86.12
507.289	91.12
507.506	98.12
507.722	79.12
507.939	94.12
508.155	85.12
508.372	87.12
508.588	75.12
508.805	87.12
509.021	75.12
509.238	91.12
509.454	75.12
509.67	91.12
509.887	88.12
510.103	90.12
510.319	84.12
510.536	85.12
510.752	89.12
510.968	92.12
511.184	104.12
511.401	94.12
511.617	95.12
511.833	82.12
512.049	88.12
512.265	89.12
512.481	82.12
512.698	73.12
512.914	79.12
513.13	98.12
513.346	85.12
513.562	91.12
513.778	85.12
513.994	94.12
514.21	86.12
514.426	88.12
514.642	78.12
514.858	84.12
515.074	104.12
515.29	87.12
515.506	80.12
515.721	87.12
515.937	95.12
516.153	79.12
516.369	91.12
516.585	84.12
516.801	97.12
517.016	96.12
517.232	91.12
517.448	82.12
517.664	94.12
517.879	94.12
518.095	94.12
518.311	98.12
518.527	101.12
518.742	98.12
518.958	119.12
