Data from 237_3_HRD10591_00008.txt Node
Date: Mon Jan 19 14:12:58 EST 2026
User: Yrep
Spectrometer: HR+D1059
Trigger mode: 1
Integration Time (sec): 1.000000E-1
Scans to average: 1
Electric dark correction enabled: true
Nonlinearity correction enabled: false
Boxcar width: 0
XAxis mode: Wavelengths
Number of Pixels in Spectrum: 2048
>>>>>Begin Spectral Data<<<<<
223.165	-18.44
223.4	-18.44
223.635	-18.44
223.869	-23.44
224.104	-15.44
224.338	-17.44
224.573	-26.44
224.808	-14.44
225.042	-7.44
225.277	5.56
225.511	1.56
225.746	7.56
225.98	12.56
226.215	9.56
226.449	31.56
226.683	9.56
226.918	10.56
227.152	34.56
227.387	45.56
227.621	39.56
227.856	38.56
228.09	52.56
228.324	42.56
228.559	54.56
228.793	48.56
229.027	61.56
229.262	58.56
229.496	73.56
229.73	67.56
229.964	69.56
230.199	68.56
230.433	75.56
230.667	68.56
230.901	88.56
231.136	94.56
231.37	79.56
231.604	69.56
231.838	74.56
232.072	71.56
232.306	73.56
232.541	81.56
232.775	84.56
233.009	85.56
233.243	84.56
233.477	87.56
233.711	84.56
233.945	89.56
234.179	89.56
234.413	85.56
234.647	80.56
234.881	83.56
235.115	70.56
235.349	83.56
235.583	73.56
235.817	86.56
236.051	74.56
236.285	76.56
236.519	88.56
236.753	89.56
236.987	79.56
237.221	71.56
237.455	90.56
237.689	72.56
237.922	76.56
238.156	76.56
238.39	71.56
238.624	69.56
238.858	68.56
239.091	66.56
239.325	66.56
239.559	79.56
239.793	76.56
240.027	77.56
240.26	70.56
240.494	64.56
240.728	68.56
240.961	49.56
241.195	60.56
241.429	85.56
241.662	70.56
241.896	75.56
242.13	70.56
242.363	70.56
242.597	69.56
242.83	74.56
243.064	80.56
243.298	68.56
243.531	81.56
243.765	78.56
243.998	75.56
244.232	84.56
244.465	54.56
244.699	69.56
244.932	84.56
245.166	72.56
245.399	85.56
245.633	69.56
245.866	70.56
246.099	83.56
246.333	92.56
246.566	74.56
246.8	99.56
247.033	74.56
247.266	69.56
247.5	80.56
247.733	75.56
247.966	69.56
248.2	78.56
248.433	82.56
248.666	58.56
248.899	73.56
249.133	74.56
249.366	64.56
249.599	75.56
249.832	71.56
250.066	66.56
250.299	67.56
250.532	84.56
250.765	75.56
250.998	76.56
251.231	83.56
251.465	71.56
251.698	68.56
251.931	66.56
252.164	73.56
252.397	79.56
252.63	70.56
252.863	94.56
253.096	82.56
253.329	72.56
253.562	89.56
253.795	70.56
254.028	73.56
254.261	76.56
254.494	77.56
254.727	69.56
254.96	90.56
255.193	85.56
255.426	77.56
255.659	71.56
255.892	73.56
256.124	69.56
256.357	77.56
256.59	68.56
256.823	88.56
257.056	88.56
257.289	84.56
257.521	74.56
257.754	64.56
257.987	84.56
258.22	81.56
258.452	66.56
258.685	68.56
258.918	77.56
259.151	64.56
259.383	76.56
259.616	66.56
259.849	85.56
260.081	64.56
260.314	74.56
260.547	82.56
260.779	78.56
261.012	88.56
261.244	80.56
261.477	83.56
261.71	83.56
261.942	64.56
262.175	89.56
262.407	78.56
262.64	83.56
262.872	74.56
263.105	78.56
263.337	81.56
263.57	72.56
263.802	81.56
264.035	86.56
264.267	89.56
264.499	76.56
264.732	75.56
264.964	74.56
265.197	84.56
265.429	61.56
265.661	80.56
265.894	65.56
266.126	71.56
266.358	70.56
266.591	68.56
266.823	79.56
267.055	66.56
267.287	81.56
267.52	80.56
267.752	74.56
267.984	91.56
268.216	96.56
268.448	71.56
268.681	75.56
268.913	90.56
269.145	86.56
269.377	81.56
269.609	77.56
269.841	80.56
270.073	73.56
270.306	91.56
270.538	79.56
270.77	61.56
271.002	76.56
271.234	72.56
271.466	75.56
271.698	80.56
271.93	95.56
272.162	80.56
272.394	78.56
272.626	92.56
272.858	79.56
273.09	84.56
273.322	71.56
273.553	67.56
273.785	77.56
274.017	81.56
274.249	83.56
274.481	89.56
274.713	87.56
274.945	73.56
275.176	80.56
275.408	79.56
275.64	92.56
275.872	68.56
276.104	74.56
276.335	84.56
276.567	90.56
276.799	74.56
277.031	69.56
277.262	80.56
277.494	91.56
277.726	84.56
277.957	71.56
278.189	89.56
278.421	80.56
278.652	78.56
278.884	76.56
279.115	80.56
279.347	82.56
279.579	82.56
279.81	89.56
280.042	84.56
280.273	88.56
280.505	71.56
280.736	88.56
280.968	63.56
281.199	73.56
281.431	82.56
281.662	80.56
281.894	77.56
282.125	80.56
282.356	69.56
282.588	84.56
282.819	76.56
283.051	79.56
283.282	69.56
283.513	74.56
283.745	87.56
283.976	78.56
284.207	69.56
284.439	97.56
284.67	73.56
284.901	81.56
285.132	82.56
285.364	81.56
285.595	78.56
285.826	69.56
286.057	91.56
286.288	82.56
286.52	86.56
286.751	77.56
286.982	89.56
287.213	83.56
287.444	72.56
287.675	89.56
287.906	86.56
288.138	76.56
288.369	82.56
288.6	93.56
288.831	77.56
289.062	96.56
289.293	88.56
289.524	74.56
289.755	89.56
289.986	80.56
290.217	74.56
290.448	94.56
290.679	84.56
290.91	89.56
291.141	85.56
291.371	89.56
291.602	81.56
291.833	97.56
292.064	87.56
292.295	82.56
292.526	75.56
292.757	81.56
292.987	76.56
293.218	86.56
293.449	90.56
293.68	73.56
293.91	109.56
294.141	79.56
294.372	70.56
294.603	86.56
294.833	92.56
295.064	84.56
295.295	77.56
295.525	71.56
295.756	86.56
295.987	88.56
296.217	75.56
296.448	86.56
296.679	92.56
296.909	77.56
297.14	79.56
297.37	78.56
297.601	75.56
297.831	63.56
298.062	84.56
298.292	64.56
298.523	90.56
298.753	85.56
298.984	81.56
299.214	72.56
299.445	70.56
299.675	95.56
299.905	100.56
300.136	82.56
300.366	75.56
300.597	89.56
300.827	94.56
301.057	80.56
301.288	79.56
301.518	82.56
301.748	84.56
301.979	92.56
302.209	82.56
302.439	86.56
302.669	75.56
302.9	75.56
303.13	71.56
303.36	85.56
303.59	76.56
303.82	78.56
304.051	73.56
304.281	63.56
304.511	60.56
304.741	77.56
304.971	80.56
305.201	84.56
305.431	86.56
305.661	84.56
305.891	75.56
306.121	70.56
306.352	84.56
306.582	81.56
306.812	96.56
307.042	74.56
307.272	83.56
307.502	97.56
307.731	92.56
307.961	69.56
308.191	84.56
308.421	91.56
308.651	83.56
308.881	72.56
309.111	86.56
309.341	78.56
309.571	86.56
309.8	87.56
310.03	93.56
310.26	77.56
310.49	79.56
310.72	73.56
310.949	83.56
311.179	96.56
311.409	87.56
311.639	72.56
311.868	75.56
312.098	62.56
312.328	100.56
312.557	78.56
312.787	88.56
313.017	93.56
313.246	72.56
313.476	84.56
313.706	93.56
313.935	82.56
314.165	75.56
314.394	77.56
314.624	79.56
314.853	76.56
315.083	78.56
315.312	83.56
315.542	76.56
315.771	85.56
316.001	81.56
316.23	83.56
316.46	89.56
316.689	94.56
316.919	89.56
317.148	88.56
317.377	84.56
317.607	83.56
317.836	85.56
318.065	83.56
318.295	69.56
318.524	83.56
318.753	99.56
318.983	85.56
319.212	89.56
319.441	79.56
319.67	96.56
319.9	85.56
320.129	84.56
320.358	83.56
320.587	73.56
320.816	89.56
321.046	74.56
321.275	92.56
321.504	79.56
321.733	108.56
321.962	72.56
322.191	71.56
322.42	72.56
322.649	91.56
322.878	82.56
323.108	86.56
323.337	84.56
323.566	72.56
323.795	101.56
324.024	74.56
324.253	74.56
324.482	75.56
324.71	84.56
324.939	79.56
325.168	91.56
325.397	85.56
325.626	84.56
325.855	89.56
326.084	86.56
326.313	87.56
326.542	83.56
326.77	80.56
326.999	87.56
327.228	72.56
327.457	72.56
327.686	81.56
327.914	86.56
328.143	79.56
328.372	76.56
328.6	84.56
328.829	80.56
329.058	79.56
329.287	99.56
329.515	93.56
329.744	99.56
329.972	80.56
330.201	85.56
330.43	78.56
330.658	79.56
330.887	80.56
331.115	91.56
331.344	79.56
331.572	92.56
331.801	81.56
332.03	85.56
332.258	81.56
332.486	79.56
332.715	91.56
332.943	91.56
333.172	74.56
333.4	78.56
333.629	73.56
333.857	68.56
334.085	83.56
334.314	83.56
334.542	67.56
334.771	79.56
334.999	80.56
335.227	73.56
335.455	84.56
335.684	90.56
335.912	76.56
336.14	95.56
336.369	88.56
336.597	84.56
336.825	76.56
337.053	71.56
337.281	88.56
337.51	92.56
337.738	80.56
337.966	85.56
338.194	77.56
338.422	85.56
338.65	93.56
338.878	95.56
339.106	72.56
339.334	80.56
339.562	75.56
339.79	85.56
340.018	87.56
340.246	90.56
340.474	75.56
340.702	76.56
340.93	99.56
341.158	79.56
341.386	78.56
341.614	87.56
341.842	74.56
342.07	88.56
342.298	84.56
342.526	79.56
342.754	64.56
342.981	84.56
343.209	81.56
343.437	94.56
343.665	79.56
343.893	84.56
344.12	85.56
344.348	89.56
344.576	89.56
344.804	91.56
345.031	94.56
345.259	77.56
345.487	88.56
345.714	83.56
345.942	88.56
346.17	72.56
346.397	94.56
346.625	80.56
346.853	76.56
347.08	81.56
347.308	80.56
347.535	83.56
347.763	88.56
347.99	70.56
348.218	77.56
348.445	79.56
348.673	78.56
348.9	79.56
349.128	85.56
349.355	74.56
349.583	81.56
349.81	80.56
350.037	76.56
350.265	95.56
350.492	82.56
350.72	79.56
350.947	80.56
351.174	88.56
351.402	87.56
351.629	77.56
351.856	103.56
352.083	74.56
352.311	72.56
352.538	71.56
352.765	81.56
352.992	83.56
353.22	79.56
353.447	77.56
353.674	86.56
353.901	97.56
354.128	72.56
354.355	92.56
354.583	78.56
354.81	89.56
355.037	90.56
355.264	76.56
355.491	80.56
355.718	75.56
355.945	84.56
356.172	84.56
356.399	98.56
356.626	87.56
356.853	74.56
357.08	81.56
357.307	92.56
357.534	88.56
357.761	66.56
357.988	80.56
358.215	91.56
358.441	84.56
358.668	73.56
358.895	88.56
359.122	80.56
359.349	85.56
359.576	81.56
359.802	87.56
360.029	76.56
360.256	78.56
360.483	85.56
360.709	89.56
360.936	70.56
361.163	82.56
361.39	65.56
361.616	87.56
361.843	72.56
362.07	104.56
362.296	95.56
362.523	114.56
362.749	93.56
362.976	94.56
363.203	93.56
363.429	103.56
363.656	85.56
363.882	98.56
364.109	92.56
364.335	110.56
364.562	96.56
364.788	80.56
365.015	90.56
365.241	74.56
365.468	88.56
365.694	71.56
365.92	74.56
366.147	77.56
366.373	80.56
366.599	88.56
366.826	97.56
367.052	83.56
367.278	85.56
367.505	81.56
367.731	92.56
367.957	88.56
368.184	85.56
368.41	86.56
368.636	84.56
368.862	73.56
369.089	75.56
369.315	83.56
369.541	84.56
369.767	84.56
369.993	69.56
370.219	86.56
370.445	74.56
370.672	86.56
370.898	78.56
371.124	82.56
371.35	90.56
371.576	65.56
371.802	77.56
372.028	96.56
372.254	70.56
372.48	74.56
372.706	88.56
372.932	81.56
373.158	67.56
373.384	88.56
373.61	88.56
373.835	98.56
374.061	89.56
374.287	89.56
374.513	65.56
374.739	76.56
374.965	82.56
375.191	98.56
375.416	89.56
375.642	76.56
375.868	82.56
376.094	97.56
376.319	92.56
376.545	79.56
376.771	98.56
376.997	92.56
377.222	89.56
377.448	77.56
377.674	82.56
377.899	78.56
378.125	82.56
378.35	75.56
378.576	86.56
378.802	85.56
379.027	90.56
379.253	78.56
379.478	89.56
379.704	85.56
379.929	85.56
380.155	83.56
380.38	92.56
380.606	77.56
380.831	80.56
381.057	99.56
381.282	78.56
381.507	85.56
381.733	91.56
381.958	73.56
382.184	88.56
382.409	100.56
382.634	84.56
382.86	85.56
383.085	85.56
383.31	78.56
383.535	91.56
383.761	97.56
383.986	81.56
384.211	85.56
384.436	96.56
384.662	80.56
384.887	72.56
385.112	76.56
385.337	80.56
385.562	89.56
385.787	66.56
386.013	97.56
386.238	85.56
386.463	78.56
386.688	100.56
386.913	79.56
387.138	86.56
387.363	86.56
387.588	89.56
387.813	84.56
388.038	99.56
388.263	68.56
388.488	86.56
388.713	87.56
388.938	100.56
389.163	87.56
389.387	72.56
389.612	80.56
389.837	78.56
390.062	84.56
390.287	68.56
390.512	89.56
390.736	86.56
390.961	89.56
391.186	91.56
391.411	73.56
391.636	83.56
391.86	67.56
392.085	98.56
392.31	81.56
392.534	77.56
392.759	106.56
392.984	115.56
393.208	132.56
393.433	180.56
393.658	133.56
393.882	99.56
394.107	98.56
394.331	95.56
394.556	103.56
394.78	89.56
395.005	103.56
395.229	82.56
395.454	80.56
395.678	78.56
395.903	95.56
396.127	91.56
396.352	97.56
396.576	106.56
396.801	156.56
397.025	154.56
397.249	115.56
397.474	108.56
397.698	94.56
397.922	82.56
398.147	84.56
398.371	96.56
398.595	80.56
398.82	89.56
399.044	80.56
399.268	74.56
399.492	71.56
399.717	81.56
399.941	77.56
400.165	86.56
400.389	93.56
400.613	70.56
400.837	91.56
401.062	96.56
401.286	80.56
401.51	80.56
401.734	76.56
401.958	95.56
402.182	73.56
402.406	84.56
402.63	82.56
402.854	83.56
403.078	93.56
403.302	82.56
403.526	69.56
403.75	86.56
403.974	75.56
404.198	94.56
404.422	118.56
404.645	125.56
404.869	101.56
405.093	86.56
405.317	85.56
405.541	93.56
405.765	69.56
405.988	86.56
406.212	89.56
406.436	90.56
406.66	89.56
406.883	87.56
407.107	91.56
407.331	67.56
407.555	90.56
407.778	86.56
408.002	89.56
408.226	88.56
408.449	72.56
408.673	84.56
408.896	81.56
409.12	86.56
409.344	76.56
409.567	87.56
409.791	88.56
410.014	79.56
410.238	84.56
410.461	76.56
410.685	87.56
410.908	77.56
411.132	70.56
411.355	84.56
411.578	98.56
411.802	83.56
412.025	87.56
412.249	78.56
412.472	82.56
412.695	84.56
412.919	80.56
413.142	69.56
413.365	79.56
413.589	84.56
413.812	82.56
414.035	87.56
414.258	78.56
414.482	71.56
414.705	84.56
414.928	78.56
415.151	81.56
415.374	90.56
415.597	80.56
415.821	96.56
416.044	97.56
416.267	98.56
416.49	88.56
416.713	90.56
416.936	90.56
417.159	86.56
417.382	95.56
417.605	85.56
417.828	82.56
418.051	85.56
418.274	77.56
418.497	74.56
418.72	92.56
418.943	85.56
419.166	78.56
419.389	89.56
419.611	89.56
419.834	77.56
420.057	84.56
420.28	67.56
420.503	79.56
420.726	84.56
420.948	87.56
421.171	89.56
421.394	76.56
421.617	98.56
421.839	95.56
422.062	96.56
422.285	120.56
422.507	189.56
422.73	244.56
422.953	246.56
423.175	136.56
423.398	109.56
423.621	92.56
423.843	95.56
424.066	87.56
424.288	88.56
424.511	71.56
424.733	72.56
424.956	78.56
425.178	92.56
425.401	67.56
425.623	87.56
425.846	81.56
426.068	79.56
426.291	70.56
426.513	74.56
426.735	85.56
426.958	74.56
427.18	83.56
427.402	85.56
427.625	88.56
427.847	74.56
428.069	85.56
428.292	95.56
428.514	110.56
428.736	108.56
428.958	106.56
429.181	110.56
429.403	81.56
429.625	94.56
429.847	97.56
430.069	120.56
430.292	138.56
430.514	124.56
430.736	112.56
430.958	109.56
431.18	83.56
431.402	69.56
431.624	83.56
431.846	108.56
432.068	121.56
432.29	74.56
432.512	82.56
432.734	78.56
432.956	73.56
433.178	89.56
433.4	85.56
433.622	83.56
433.844	98.56
434.066	87.56
434.287	74.56
434.509	86.56
434.731	80.56
434.953	84.56
435.175	80.56
435.397	77.56
435.618	94.56
435.84	83.56
436.062	70.56
436.284	87.56
436.505	75.56
436.727	78.56
436.949	114.56
437.17	80.56
437.392	94.56
437.614	78.56
437.835	92.56
438.057	98.56
438.278	72.56
438.5	88.56
438.721	68.56
438.943	82.56
439.165	73.56
439.386	85.56
439.608	90.56
439.829	77.56
440.05	84.56
440.272	80.56
440.493	78.56
440.715	97.56
440.936	106.56
441.158	93.56
441.379	80.56
441.6	93.56
441.822	70.56
442.043	90.56
442.264	94.56
442.486	118.56
442.707	128.56
442.928	102.56
443.149	92.56
443.371	115.56
443.592	179.56
443.813	146.56
444.034	95.56
444.255	87.56
444.476	96.56
444.698	84.56
444.919	82.56
445.14	175.56
445.361	155.56
445.582	196.56
445.803	178.56
446.024	105.56
446.245	88.56
446.466	83.56
446.687	87.56
446.908	73.56
447.129	76.56
447.35	94.56
447.571	102.56
447.792	81.56
448.013	80.56
448.234	70.56
448.455	94.56
448.675	85.56
448.896	89.56
449.117	82.56
449.338	79.56
449.559	82.56
449.779	89.56
450	93.56
450.221	73.56
450.442	78.56
450.662	83.56
450.883	77.56
451.104	84.56
451.324	72.56
451.545	78.56
451.766	72.56
451.986	98.56
452.207	79.56
452.428	89.56
452.648	87.56
452.869	89.56
453.089	85.56
453.31	91.56
453.53	74.56
453.751	72.56
453.971	88.56
454.192	70.56
454.412	77.56
454.633	74.56
454.853	82.56
455.073	90.56
455.294	91.56
455.514	76.56
455.734	98.56
455.955	82.56
456.175	78.56
456.395	79.56
456.616	82.56
456.836	72.56
457.056	70.56
457.276	76.56
457.497	75.56
457.717	88.56
457.937	98.56
458.157	93.56
458.377	111.56
458.598	95.56
458.818	105.56
459.038	80.56
459.258	84.56
459.478	90.56
459.698	86.56
459.918	90.56
460.138	77.56
460.358	82.56
460.578	90.56
460.798	82.56
461.018	87.56
461.238	70.56
461.458	88.56
461.678	87.56
461.898	86.56
462.118	82.56
462.338	79.56
462.558	96.56
462.777	73.56
462.997	73.56
463.217	83.56
463.437	78.56
463.657	80.56
463.876	80.56
464.096	93.56
464.316	89.56
464.536	80.56
464.755	78.56
464.975	70.56
465.195	92.56
465.414	86.56
465.634	92.56
465.854	62.56
466.073	70.56
466.293	80.56
466.512	78.56
466.732	83.56
466.951	77.56
467.171	73.56
467.391	91.56
467.61	81.56
467.829	79.56
468.049	74.56
468.268	76.56
468.488	72.56
468.707	87.56
468.927	79.56
469.146	74.56
469.365	67.56
469.585	84.56
469.804	88.56
470.023	65.56
470.243	79.56
470.462	77.56
470.681	81.56
470.901	87.56
471.12	71.56
471.339	87.56
471.558	81.56
471.777	76.56
471.997	86.56
472.216	84.56
472.435	81.56
472.654	70.56
472.873	89.56
473.092	82.56
473.311	88.56
473.53	89.56
473.749	74.56
473.968	90.56
474.187	80.56
474.406	89.56
474.625	79.56
474.844	87.56
475.063	75.56
475.282	83.56
475.501	85.56
475.72	82.56
475.939	75.56
476.158	82.56
476.377	76.56
476.596	81.56
476.814	77.56
477.033	70.56
477.252	87.56
477.471	75.56
477.69	92.56
477.908	87.56
478.127	92.56
478.346	92.56
478.564	83.56
478.783	93.56
479.002	89.56
479.22	92.56
479.439	84.56
479.658	89.56
479.876	86.56
480.095	83.56
480.313	80.56
480.532	76.56
480.751	85.56
480.969	77.56
481.188	88.56
481.406	81.56
481.624	94.56
481.843	78.56
482.061	84.56
482.28	75.56
482.498	86.56
482.717	73.56
482.935	70.56
483.153	80.56
483.372	84.56
483.59	70.56
483.808	87.56
484.027	86.56
484.245	80.56
484.463	86.56
484.681	81.56
484.9	81.56
485.118	92.56
485.336	90.56
485.554	66.56
485.772	89.56
485.99	94.56
486.209	91.56
486.427	89.56
486.645	84.56
486.863	91.56
487.081	89.56
487.299	93.56
487.517	95.56
487.735	83.56
487.953	110.56
488.171	98.56
488.389	86.56
488.607	91.56
488.825	74.56
489.043	78.56
489.261	86.56
489.479	64.56
489.696	92.56
489.914	92.56
490.132	89.56
490.35	82.56
490.568	82.56
490.786	79.56
491.003	84.56
491.221	72.56
491.439	83.56
491.657	94.56
491.874	93.56
492.092	79.56
492.31	78.56
492.527	99.56
492.745	94.56
492.963	80.56
493.18	83.56
493.398	73.56
493.615	94.56
493.833	86.56
494.05	98.56
494.268	89.56
494.485	86.56
494.703	84.56
494.92	92.56
495.138	97.56
495.355	99.56
495.573	81.56
495.79	89.56
496.008	87.56
496.225	92.56
496.442	81.56
496.66	70.56
496.877	81.56
497.094	84.56
497.312	78.56
497.529	105.56
497.746	91.56
497.963	77.56
498.181	80.56
498.398	65.56
498.615	77.56
498.832	85.56
499.049	81.56
499.267	80.56
499.484	80.56
499.701	91.56
499.918	85.56
500.135	96.56
500.352	80.56
500.569	79.56
500.786	81.56
501.003	89.56
501.22	77.56
501.437	89.56
501.654	90.56
501.871	69.56
502.088	90.56
502.305	90.56
502.522	85.56
502.739	80.56
502.956	82.56
503.172	94.56
503.389	89.56
503.606	90.56
503.823	88.56
504.04	103.56
504.256	110.56
504.473	100.56
504.69	97.56
504.907	84.56
505.123	86.56
505.34	90.56
505.557	98.56
505.773	97.56
505.99	83.56
506.207	65.56
506.423	72.56
506.64	78.56
506.856	74.56
507.073	80.56
507.289	86.56
507.506	93.56
507.722	75.56
507.939	87.56
508.155	95.56
508.372	76.56
508.588	96.56
508.805	79.56
509.021	82.56
509.238	76.56
509.454	85.56
509.67	93.56
509.887	81.56
510.103	97.56
510.319	85.56
510.536	94.56
510.752	84.56
510.968	73.56
511.184	84.56
511.401	69.56
511.617	77.56
511.833	100.56
512.049	79.56
512.265	89.56
512.481	93.56
512.698	85.56
512.914	80.56
513.13	92.56
513.346	83.56
513.562	84.56
513.778	87.56
513.994	87.56
514.21	85.56
514.426	84.56
514.642	80.56
514.858	80.56
515.074	91.56
515.29	93.56
515.506	93.56
515.721	89.56
515.937	81.56
516.153	95.56
516.369	83.56
516.585	85.56
516.801	77.56
517.016	91.56
517.232	84.56
517.448	99.56
517.664	96.56
517.879	86.56
518.095	91.56
518.311	87.56
518.527	76.56
518.742	99.56
518.958	112.56
519.173	105.56
519.389	82.56
