Data from HP_1_HRD10591_00048.txt Node
Date: Mon Jan 19 14:15:31 EST 2026
User: Yrep
Spectrometer: HR+D1059
Trigger mode: 1
Integration Time (sec): 1.000000E-1
Scans to average: 1
Electric dark correction enabled: true
Nonlinearity correction enabled: false
Boxcar width: 0
XAxis mode: Wavelengths
Number of Pixels in Spectrum: 2048
>>>>>Begin Spectral Data<<<<<
223.165	-15.5
223.4	-15.5
223.635	-15.5
223.869	-13.5
224.104	-8.5
224.338	-22.5
224.573	-9.5
224.808	-3.5
225.042	-7.5
225.277	2.5
225.511	-13.5
225.746	-12.5
225.98	12.5
226.215	2.5
226.449	20.5
226.683	1.5
226.918	30.5
227.152	36.5
227.387	31.5
227.621	34.5
227.856	46.5
228.09	33.5
228.324	46.5
228.559	56.5
228.793	54.5
229.027	61.5
229.262	62.5
229.496	60.5
229.73	54.5
229.964	63.5
230.199	71.5
230.433	62.5
230.667	66.5
230.901	71.5
231.136	80.5
231.37	66.5
231.604	86.5
231.838	71.5
232.072	78.5
232.306	82.5
232.541	79.5
232.775	78.5
233.009	65.5
233.243	69.5
233.477	79.5
233.711	80.5
233.945	59.5
234.179	85.5
234.413	78.5
234.647	73.5
234.881	99.5
235.115	74.5
235.349	71.5
235.583	82.5
235.817	84.5
236.051	61.5
236.285	72.5
236.519	90.5
236.753	76.5
236.987	77.5
237.221	74.5
237.455	79.5
237.689	70.5
237.922	70.5
238.156	80.5
238.39	58.5
238.624	59.5
238.858	61.5
239.091	78.5
239.325	83.5
239.559	69.5
239.793	83.5
240.027	78.5
240.26	70.5
240.494	69.5
240.728	62.5
240.961	72.5
241.195	72.5
241.429	81.5
241.662	63.5
241.896	82.5
242.13	64.5
242.363	67.5
242.597	61.5
242.83	82.5
243.064	81.5
243.298	76.5
243.531	70.5
243.765	76.5
243.998	60.5
244.232	72.5
244.465	63.5
244.699	65.5
244.932	72.5
245.166	56.5
245.399	79.5
245.633	72.5
245.866	67.5
246.099	78.5
246.333	79.5
246.566	71.5
246.8	67.5
247.033	58.5
247.266	64.5
247.5	77.5
247.733	70.5
247.966	83.5
248.2	62.5
248.433	80.5
248.666	81.5
248.899	94.5
249.133	79.5
249.366	82.5
249.599	59.5
249.832	77.5
250.066	63.5
250.299	80.5
250.532	64.5
250.765	62.5
250.998	73.5
251.231	66.5
251.465	74.5
251.698	67.5
251.931	63.5
252.164	67.5
252.397	60.5
252.63	76.5
252.863	76.5
253.096	71.5
253.329	74.5
253.562	78.5
253.795	64.5
254.028	87.5
254.261	74.5
254.494	74.5
254.727	83.5
254.96	73.5
255.193	69.5
255.426	66.5
255.659	70.5
255.892	71.5
256.124	72.5
256.357	73.5
256.59	68.5
256.823	61.5
257.056	75.5
257.289	74.5
257.521	66.5
257.754	66.5
257.987	68.5
258.22	81.5
258.452	72.5
258.685	76.5
258.918	79.5
259.151	79.5
259.383	71.5
259.616	82.5
259.849	62.5
260.081	59.5
260.314	71.5
260.547	81.5
260.779	90.5
261.012	63.5
261.244	84.5
261.477	84.5
261.71	69.5
261.942	70.5
262.175	85.5
262.407	84.5
262.64	81.5
262.872	73.5
263.105	98.5
263.337	70.5
263.57	81.5
263.802	70.5
264.035	78.5
264.267	61.5
264.499	71.5
264.732	77.5
264.964	88.5
265.197	87.5
265.429	75.5
265.661	73.5
265.894	71.5
266.126	64.5
266.358	82.5
266.591	76.5
266.823	84.5
267.055	86.5
267.287	85.5
267.52	68.5
267.752	84.5
267.984	85.5
268.216	56.5
268.448	76.5
268.681	76.5
268.913	71.5
269.145	78.5
269.377	71.5
269.609	76.5
269.841	82.5
270.073	69.5
270.306	68.5
270.538	82.5
270.77	79.5
271.002	78.5
271.234	69.5
271.466	82.5
271.698	70.5
271.93	82.5
272.162	96.5
272.394	85.5
272.626	74.5
272.858	68.5
273.09	80.5
273.322	88.5
273.553	73.5
273.785	81.5
274.017	75.5
274.249	77.5
274.481	71.5
274.713	78.5
274.945	81.5
275.176	71.5
275.408	73.5
275.64	81.5
275.872	66.5
276.104	83.5
276.335	76.5
276.567	89.5
276.799	73.5
277.031	75.5
277.262	65.5
277.494	64.5
277.726	88.5
277.957	78.5
278.189	80.5
278.421	71.5
278.652	76.5
278.884	80.5
279.115	80.5
279.347	71.5
279.579	80.5
279.81	87.5
280.042	70.5
280.273	81.5
280.505	88.5
280.736	80.5
280.968	75.5
281.199	76.5
281.431	71.5
281.662	66.5
281.894	78.5
282.125	77.5
282.356	65.5
282.588	84.5
282.819	70.5
283.051	80.5
283.282	78.5
283.513	73.5
283.745	65.5
283.976	90.5
284.207	80.5
284.439	78.5
284.67	75.5
284.901	71.5
285.132	75.5
285.364	82.5
285.595	95.5
285.826	70.5
286.057	80.5
286.288	82.5
286.52	67.5
286.751	76.5
286.982	87.5
287.213	88.5
287.444	72.5
287.675	80.5
287.906	75.5
288.138	87.5
288.369	83.5
288.6	87.5
288.831	81.5
289.062	71.5
289.293	86.5
289.524	81.5
289.755	70.5
289.986	79.5
290.217	77.5
290.448	80.5
290.679	73.5
290.91	74.5
291.141	72.5
291.371	73.5
291.602	72.5
291.833	69.5
292.064	60.5
292.295	90.5
292.526	84.5
292.757	88.5
292.987	71.5
293.218	58.5
293.449	75.5
293.68	79.5
293.91	85.5
294.141	75.5
294.372	78.5
294.603	82.5
294.833	65.5
295.064	84.5
295.295	67.5
295.525	82.5
295.756	70.5
295.987	92.5
296.217	83.5
296.448	65.5
296.679	84.5
296.909	81.5
297.14	80.5
297.37	74.5
297.601	77.5
297.831	70.5
298.062	86.5
298.292	83.5
298.523	69.5
298.753	71.5
298.984	90.5
299.214	58.5
299.445	81.5
299.675	78.5
299.905	84.5
300.136	66.5
300.366	72.5
300.597	71.5
300.827	70.5
301.057	71.5
301.288	80.5
301.518	86.5
301.748	99.5
301.979	100.5
302.209	77.5
302.439	95.5
302.669	79.5
302.9	85.5
303.13	84.5
303.36	67.5
303.59	73.5
303.82	73.5
304.051	78.5
304.281	72.5
304.511	87.5
304.741	72.5
304.971	75.5
305.201	82.5
305.431	84.5
305.661	66.5
305.891	79.5
306.121	63.5
306.352	81.5
306.582	64.5
306.812	68.5
307.042	84.5
307.272	95.5
307.502	83.5
307.731	96.5
307.961	68.5
308.191	75.5
308.421	74.5
308.651	77.5
308.881	89.5
309.111	82.5
309.341	94.5
309.571	89.5
309.8	80.5
310.03	76.5
310.26	70.5
310.49	84.5
310.72	79.5
310.949	83.5
311.179	82.5
311.409	93.5
311.639	62.5
311.868	83.5
312.098	68.5
312.328	84.5
312.557	82.5
312.787	59.5
313.017	84.5
313.246	90.5
313.476	72.5
313.706	71.5
313.935	78.5
314.165	73.5
314.394	79.5
314.624	83.5
314.853	71.5
315.083	85.5
315.312	84.5
315.542	84.5
315.771	86.5
316.001	103.5
316.23	79.5
316.46	88.5
316.689	79.5
316.919	69.5
317.148	83.5
317.377	85.5
317.607	84.5
317.836	98.5
318.065	88.5
318.295	76.5
318.524	71.5
318.753	94.5
318.983	72.5
319.212	82.5
319.441	88.5
319.67	78.5
319.9	71.5
320.129	90.5
320.358	96.5
320.587	70.5
320.816	73.5
321.046	89.5
321.275	87.5
321.504	91.5
321.733	87.5
321.962	79.5
322.191	70.5
322.42	83.5
322.649	66.5
322.878	87.5
323.108	91.5
323.337	94.5
323.566	79.5
323.795	64.5
324.024	80.5
324.253	92.5
324.482	79.5
324.71	78.5
324.939	86.5
325.168	79.5
325.397	72.5
325.626	81.5
325.855	88.5
326.084	84.5
326.313	77.5
326.542	78.5
326.77	64.5
326.999	94.5
327.228	67.5
327.457	77.5
327.686	100.5
327.914	90.5
328.143	75.5
328.372	77.5
328.6	86.5
328.829	68.5
329.058	104.5
329.287	71.5
329.515	73.5
329.744	84.5
329.972	77.5
330.201	80.5
330.43	91.5
330.658	68.5
330.887	83.5
331.115	76.5
331.344	91.5
331.572	83.5
331.801	90.5
332.03	92.5
332.258	70.5
332.486	76.5
332.715	80.5
332.943	69.5
333.172	84.5
333.4	58.5
333.629	74.5
333.857	82.5
334.085	89.5
334.314	75.5
334.542	84.5
334.771	70.5
334.999	86.5
335.227	77.5
335.455	79.5
335.684	90.5
335.912	77.5
336.14	88.5
336.369	74.5
336.597	77.5
336.825	76.5
337.053	78.5
337.281	79.5
337.51	62.5
337.738	82.5
337.966	71.5
338.194	72.5
338.422	72.5
338.65	87.5
338.878	81.5
339.106	78.5
339.334	72.5
339.562	68.5
339.79	83.5
340.018	88.5
340.246	78.5
340.474	74.5
340.702	77.5
340.93	81.5
341.158	79.5
341.386	80.5
341.614	69.5
341.842	76.5
342.07	70.5
342.298	84.5
342.526	72.5
342.754	61.5
342.981	84.5
343.209	86.5
343.437	83.5
343.665	90.5
343.893	96.5
344.12	93.5
344.348	85.5
344.576	88.5
344.804	87.5
345.031	91.5
345.259	80.5
345.487	76.5
345.714	78.5
345.942	78.5
346.17	79.5
346.397	80.5
346.625	86.5
346.853	79.5
347.08	75.5
347.308	88.5
347.535	81.5
347.763	58.5
347.99	81.5
348.218	83.5
348.445	81.5
348.673	84.5
348.9	84.5
349.128	87.5
349.355	80.5
349.583	77.5
349.81	67.5
350.037	78.5
350.265	85.5
350.492	85.5
350.72	88.5
350.947	88.5
351.174	70.5
351.402	86.5
351.629	81.5
351.856	79.5
352.083	82.5
352.311	88.5
352.538	77.5
352.765	78.5
352.992	79.5
353.22	85.5
353.447	81.5
353.674	72.5
353.901	82.5
354.128	74.5
354.355	85.5
354.583	80.5
354.81	71.5
355.037	71.5
355.264	76.5
355.491	84.5
355.718	79.5
355.945	67.5
356.172	86.5
356.399	78.5
356.626	81.5
356.853	94.5
357.08	71.5
357.307	74.5
357.534	71.5
357.761	78.5
357.988	88.5
358.215	97.5
358.441	86.5
358.668	76.5
358.895	76.5
359.122	79.5
359.349	67.5
359.576	85.5
359.802	81.5
360.029	69.5
360.256	82.5
360.483	77.5
360.709	71.5
360.936	91.5
361.163	82.5
361.39	86.5
361.616	82.5
361.843	73.5
362.07	77.5
362.296	76.5
362.523	72.5
362.749	71.5
362.976	85.5
363.203	89.5
363.429	83.5
363.656	79.5
363.882	82.5
364.109	82.5
364.335	78.5
364.562	86.5
364.788	78.5
365.015	79.5
365.241	80.5
365.468	86.5
365.694	72.5
365.92	78.5
366.147	68.5
366.373	80.5
366.599	83.5
366.826	68.5
367.052	77.5
367.278	77.5
367.505	88.5
367.731	74.5
367.957	66.5
368.184	70.5
368.41	90.5
368.636	68.5
368.862	89.5
369.089	78.5
369.315	66.5
369.541	63.5
369.767	89.5
369.993	74.5
370.219	79.5
370.445	80.5
370.672	72.5
370.898	70.5
371.124	78.5
371.35	70.5
371.576	82.5
371.802	75.5
372.028	69.5
372.254	77.5
372.48	79.5
372.706	67.5
372.932	90.5
373.158	81.5
373.384	76.5
373.61	95.5
373.835	92.5
374.061	86.5
374.287	72.5
374.513	80.5
374.739	74.5
374.965	75.5
375.191	84.5
375.416	68.5
375.642	85.5
375.868	79.5
376.094	82.5
376.319	83.5
376.545	64.5
376.771	57.5
376.997	64.5
377.222	75.5
377.448	66.5
377.674	76.5
377.899	70.5
378.125	87.5
378.35	77.5
378.576	80.5
378.802	87.5
379.027	75.5
379.253	73.5
379.478	80.5
379.704	78.5
379.929	87.5
380.155	85.5
380.38	76.5
380.606	62.5
380.831	80.5
381.057	84.5
381.282	91.5
381.507	85.5
381.733	75.5
381.958	72.5
382.184	90.5
382.409	75.5
382.634	72.5
382.86	85.5
383.085	80.5
383.31	78.5
383.535	89.5
383.761	89.5
383.986	83.5
384.211	86.5
384.436	83.5
384.662	70.5
384.887	78.5
385.112	63.5
385.337	71.5
385.562	78.5
385.787	90.5
386.013	89.5
386.238	82.5
386.463	67.5
386.688	94.5
386.913	70.5
387.138	83.5
387.363	74.5
387.588	90.5
387.813	68.5
388.038	82.5
388.263	84.5
388.488	72.5
388.713	76.5
388.938	76.5
389.163	60.5
389.387	72.5
389.612	67.5
389.837	79.5
390.062	72.5
390.287	69.5
390.512	83.5
390.736	87.5
390.961	75.5
391.186	73.5
391.411	66.5
391.636	82.5
391.86	66.5
392.085	76.5
392.31	85.5
392.534	86.5
392.759	92.5
392.984	125.5
393.208	206.5
393.433	326.5
393.658	250.5
393.882	112.5
394.107	68.5
394.331	90.5
394.556	106.5
394.78	95.5
395.005	87.5
395.229	91.5
395.454	72.5
395.678	80.5
395.903	88.5
396.127	104.5
396.352	119.5
396.576	152.5
396.801	239.5
397.025	271.5
397.249	136.5
397.474	97.5
397.698	80.5
397.922	95.5
398.147	79.5
398.371	67.5
398.595	94.5
398.82	64.5
399.044	62.5
399.268	85.5
399.492	73.5
399.717	81.5
399.941	78.5
400.165	78.5
400.389	78.5
400.613	81.5
400.837	59.5
401.062	72.5
401.286	80.5
401.51	86.5
401.734	80.5
401.958	65.5
402.182	66.5
402.406	93.5
402.63	75.5
402.854	68.5
403.078	77.5
403.302	69.5
403.526	83.5
403.75	73.5
403.974	86.5
404.198	79.5
404.422	106.5
404.645	107.5
404.869	95.5
405.093	77.5
405.317	78.5
405.541	78.5
405.765	69.5
405.988	80.5
406.212	82.5
406.436	75.5
406.66	69.5
406.883	81.5
407.107	89.5
407.331	78.5
407.555	87.5
407.778	94.5
408.002	106.5
408.226	60.5
408.449	76.5
408.673	70.5
408.896	67.5
409.12	84.5
409.344	77.5
409.567	68.5
409.791	69.5
410.014	76.5
410.238	85.5
410.461	79.5
410.685	78.5
410.908	71.5
411.132	68.5
411.355	83.5
411.578	81.5
411.802	72.5
412.025	86.5
412.249	62.5
412.472	60.5
412.695	73.5
412.919	72.5
413.142	84.5
413.365	80.5
413.589	75.5
413.812	76.5
414.035	72.5
414.258	96.5
414.482	78.5
414.705	73.5
414.928	80.5
415.151	67.5
415.374	76.5
415.597	74.5
415.821	74.5
416.044	69.5
416.267	72.5
416.49	77.5
416.713	84.5
416.936	88.5
417.159	76.5
417.382	69.5
417.605	78.5
417.828	74.5
418.051	71.5
418.274	71.5
418.497	70.5
418.72	71.5
418.943	74.5
419.166	76.5
419.389	92.5
419.611	67.5
419.834	71.5
420.057	79.5
420.28	66.5
420.503	77.5
420.726	61.5
420.948	86.5
421.171	87.5
421.394	82.5
421.617	90.5
421.839	100.5
422.062	81.5
422.285	99.5
422.507	163.5
422.73	257.5
422.953	237.5
423.175	107.5
423.398	69.5
423.621	75.5
423.843	74.5
424.066	76.5
424.288	66.5
424.511	76.5
424.733	73.5
424.956	67.5
425.178	73.5
425.401	79.5
425.623	75.5
425.846	78.5
426.068	76.5
426.291	80.5
426.513	62.5
426.735	96.5
426.958	79.5
427.18	66.5
427.402	78.5
427.625	76.5
427.847	80.5
428.069	92.5
428.292	102.5
428.514	93.5
428.736	78.5
428.958	80.5
429.181	93.5
429.403	82.5
429.625	75.5
429.847	90.5
430.069	108.5
430.292	120.5
430.514	125.5
430.736	93.5
430.958	98.5
431.18	66.5
431.402	80.5
431.624	86.5
431.846	88.5
432.068	80.5
432.29	94.5
432.512	87.5
432.734	84.5
432.956	78.5
433.178	76.5
433.4	80.5
433.622	83.5
433.844	61.5
434.066	66.5
434.287	78.5
434.509	73.5
434.731	72.5
434.953	71.5
435.175	86.5
435.397	64.5
435.618	80.5
435.84	59.5
436.062	79.5
436.284	73.5
436.505	82.5
436.727	58.5
436.949	83.5
437.17	76.5
437.392	66.5
437.614	73.5
437.835	76.5
438.057	69.5
438.278	84.5
438.5	69.5
438.721	71.5
438.943	80.5
439.165	83.5
439.386	66.5
439.608	77.5
439.829	68.5
440.05	80.5
440.272	72.5
440.493	83.5
440.715	74.5
440.936	87.5
441.158	81.5
441.379	70.5
441.6	74.5
441.822	81.5
442.043	73.5
442.264	82.5
442.486	78.5
442.707	105.5
442.928	84.5
443.149	80.5
443.371	111.5
443.592	134.5
443.813	131.5
444.034	88.5
444.255	80.5
444.476	85.5
444.698	77.5
444.919	72.5
445.14	160.5
445.361	154.5
445.582	179.5
445.803	150.5
446.024	93.5
446.245	89.5
446.466	61.5
446.687	80.5
446.908	75.5
447.129	70.5
447.35	67.5
447.571	75.5
447.792	80.5
448.013	64.5
448.234	75.5
448.455	74.5
448.675	71.5
448.896	72.5
449.117	81.5
449.338	82.5
449.559	82.5
449.779	60.5
450	68.5
450.221	84.5
450.442	89.5
450.662	84.5
450.883	81.5
451.104	62.5
451.324	62.5
451.545	72.5
451.766	75.5
451.986	80.5
452.207	82.5
452.428	80.5
452.648	75.5
452.869	78.5
453.089	88.5
453.31	81.5
453.53	72.5
453.751	87.5
453.971	75.5
454.192	63.5
454.412	77.5
454.633	80.5
454.853	70.5
455.073	71.5
455.294	78.5
455.514	90.5
455.734	71.5
455.955	84.5
456.175	68.5
456.395	73.5
456.616	68.5
456.836	69.5
457.056	79.5
457.276	64.5
457.497	74.5
457.717	76.5
457.937	77.5
458.157	82.5
458.377	95.5
458.598	79.5
458.818	81.5
459.038	74.5
459.258	75.5
459.478	87.5
459.698	71.5
459.918	83.5
460.138	77.5
460.358	70.5
460.578	84.5
460.798	98.5
461.018	90.5
461.238	72.5
461.458	75.5
461.678	87.5
461.898	76.5
462.118	74.5
462.338	81.5
462.558	88.5
462.777	86.5
462.997	85.5
463.217	76.5
463.437	80.5
463.657	78.5
463.876	61.5
464.096	63.5
464.316	71.5
464.536	64.5
464.755	78.5
464.975	82.5
465.195	66.5
465.414	75.5
465.634	70.5
465.854	69.5
466.073	70.5
466.293	72.5
466.512	71.5
466.732	80.5
466.951	82.5
467.171	98.5
467.391	77.5
467.61	66.5
467.829	90.5
468.049	75.5
468.268	76.5
468.488	90.5
468.707	75.5
468.927	78.5
469.146	82.5
469.365	81.5
469.585	76.5
469.804	78.5
470.023	80.5
470.243	83.5
470.462	82.5
470.681	71.5
470.901	68.5
471.12	74.5
471.339	82.5
471.558	78.5
471.777	81.5
471.997	83.5
472.216	71.5
472.435	73.5
472.654	80.5
472.873	84.5
473.092	90.5
473.311	82.5
473.53	71.5
473.749	72.5
473.968	87.5
474.187	87.5
474.406	81.5
474.625	70.5
474.844	72.5
475.063	62.5
475.282	73.5
475.501	83.5
475.72	82.5
475.939	68.5
476.158	71.5
476.377	81.5
476.596	66.5
476.814	72.5
477.033	69.5
477.252	81.5
477.471	62.5
477.69	62.5
477.908	83.5
478.127	84.5
478.346	79.5
478.564	77.5
478.783	63.5
479.002	87.5
479.22	96.5
479.439	78.5
479.658	78.5
479.876	74.5
480.095	76.5
480.313	91.5
480.532	91.5
480.751	85.5
480.969	83.5
481.188	89.5
481.406	85.5
481.624	77.5
481.843	80.5
482.061	80.5
482.28	78.5
482.498	68.5
482.717	78.5
482.935	69.5
483.153	78.5
483.372	83.5
483.59	72.5
483.808	88.5
484.027	78.5
484.245	78.5
484.463	76.5
484.681	68.5
484.9	83.5
485.118	79.5
485.336	83.5
485.554	75.5
485.772	82.5
485.99	79.5
486.209	59.5
486.427	73.5
486.645	79.5
486.863	94.5
487.081	88.5
487.299	72.5
487.517	67.5
487.735	94.5
487.953	102.5
488.171	89.5
488.389	79.5
488.607	66.5
488.825	87.5
489.043	86.5
489.261	80.5
489.479	63.5
489.696	87.5
489.914	73.5
490.132	70.5
490.35	71.5
490.568	86.5
490.786	82.5
491.003	79.5
491.221	74.5
491.439	83.5
491.657	72.5
491.874	72.5
492.092	82.5
492.31	76.5
492.527	78.5
492.745	78.5
492.963	75.5
493.18	94.5
493.398	91.5
493.615	79.5
493.833	82.5
494.05	78.5
494.268	67.5
494.485	84.5
494.703	76.5
494.92	92.5
495.138	77.5
495.355	75.5
495.573	89.5
495.79	83.5
496.008	84.5
496.225	72.5
496.442	76.5
496.66	85.5
496.877	83.5
497.094	74.5
497.312	79.5
497.529	73.5
497.746	85.5
497.963	86.5
498.181	71.5
498.398	90.5
498.615	74.5
498.832	90.5
499.049	86.5
499.267	86.5
499.484	72.5
499.701	82.5
499.918	78.5
500.135	86.5
500.352	71.5
500.569	93.5
500.786	76.5
501.003	76.5
501.22	87.5
501.437	77.5
501.654	77.5
501.871	83.5
502.088	83.5
502.305	83.5
502.522	87.5
502.739	75.5
502.956	84.5
503.172	71.5
503.389	79.5
503.606	75.5
503.823	69.5
504.04	90.5
504.256	79.5
504.473	95.5
504.69	83.5
504.907	76.5
505.123	90.5
505.34	88.5
505.557	86.5
505.773	63.5
505.99	71.5
506.207	86.5
506.423	76.5
506.64	84.5
506.856	82.5
507.073	68.5
507.289	78.5
507.506	88.5
507.722	80.5
507.939	79.5
508.155	88.5
508.372	82.5
508.588	77.5
508.805	76.5
509.021	70.5
509.238	92.5
509.454	83.5
509.67	80.5
509.887	84.5
510.103	67.5
510.319	75.5
510.536	90.5
510.752	71.5
510.968	74.5
511.184	84.5
511.401	81.5
511.617	79.5
511.833	79.5
512.049	71.5
512.265	73.5
512.481	63.5
512.698	73.5
512.914	69.5
513.13	80.5
513.346	80.5
513.562	91.5
513.778	80.5
513.994	74.5
514.21	73.5
514.426	76.5
514.642	86.5
514.858	79.5
515.074	76.5
515.29	88.5
515.506	83.5
515.721	71.5
515.937	79.5
516.153	82.5
516.369	90.5
516.585	74.5
516.801	92.5
517.016	78.5
517.232	81.5
517.448	76.5
517.664	85.5
517.879	83.5
518.095	65.5
518.311	85.5
518.527	88.5
518.742	82.5
518.958	101.5
519.173	96.5
519.389	84.5
519.605	69.5
519.82	79.5
520.036	82.5
520.251	67.5
520.467	75.5
520.682	81.5
520.898	85.5
521.113	94.5
521.329	67.5
521.544	79.5
521.76	84.5
521.975	82.5
522.19	65.5
522.406	77.5
522.621	75.5
522.836	67.5
523.052	70.5
523.267	82.5
523.482	72.5
523.698	77.5
523.913	77.5
524.128	79.5
524.343	61.5
524.559	73.5
524.774	68.5
524.989	88.5
525.204	73.5
525.419	94.5
525.634	83.5
525.849	76.5
526.064	90.5
526.28	104.5
526.495	133.5
526.71	155.5
526.925	127.5
527.14	146.5
527.355	144.5
527.57	79.5
527.785	75.5
527.999	68.5
528.214	76.5
528.429	87.5
528.644	76.5
528.859	86.5
529.074	75.5
529.289	80.5
529.503	65.5
529.718	91.5
529.933	85.5
530.148	72.5
530.363	65.5
530.577	64.5
530.792	78.5
531.007	75.5
531.221	84.5
531.436	68.5
531.651	64.5
531.865	73.5
532.08	74.5
532.295	83.5
532.509	72.5
532.724	58.5
532.938	75.5
533.153	70.5
533.367	80.5
533.582	70.5
533.796	69.5
534.011	86.5
534.225	81.5
534.44	76.5
534.654	90.5
534.868	90.5
535.083	103.5
535.297	91.5
535.511	84.5
535.726	84.5
535.94	77.5
536.154	87.5
536.369	80.5
536.583	91.5
536.797	77.5
537.011	81.5
537.225	89.5
537.44	80.5
537.654	91.5
537.868	86.5
538.082	84.5
538.296	81.5
538.51	90.5
538.724	80.5
538.938	83.5
539.153	84.5
539.367	78.5
539.581	70.5
539.795	75.5
540.009	67.5
