Data from HP_1_HRD10591_00044.txt Node
Date: Mon Jan 19 14:15:29 EST 2026
User: Yrep
Spectrometer: HR+D1059
Trigger mode: 1
Integration Time (sec): 1.000000E-1
Scans to average: 1
Electric dark correction enabled: true
Nonlinearity correction enabled: false
Boxcar width: 0
XAxis mode: Wavelengths
Number of Pixels in Spectrum: 2048
>>>>>Begin Spectral Data<<<<<
223.165	-16.56
223.4	-16.56
223.635	-16.56
223.869	-21.56
224.104	-23.56
224.338	-12.56
224.573	-4.56
224.808	0.44
225.042	-15.56
225.277	-10.56
225.511	6.44
225.746	8.44
225.98	11.44
226.215	4.44
226.449	10.44
226.683	28.44
226.918	11.44
227.152	23.44
227.387	30.44
227.621	47.44
227.856	41.44
228.09	43.44
228.324	56.44
228.559	56.44
228.793	64.44
229.027	52.44
229.262	50.44
229.496	62.44
229.73	54.44
229.964	65.44
230.199	63.44
230.433	81.44
230.667	88.44
230.901	82.44
231.136	78.44
231.37	81.44
231.604	79.44
231.838	82.44
232.072	74.44
232.306	94.44
232.541	74.44
232.775	87.44
233.009	69.44
233.243	70.44
233.477	72.44
233.711	76.44
233.945	84.44
234.179	80.44
234.413	93.44
234.647	70.44
234.881	68.44
235.115	82.44
235.349	68.44
235.583	81.44
235.817	76.44
236.051	72.44
236.285	74.44
236.519	80.44
236.753	79.44
236.987	78.44
237.221	83.44
237.455	67.44
237.689	72.44
237.922	71.44
238.156	70.44
238.39	69.44
238.624	82.44
238.858	84.44
239.091	60.44
239.325	70.44
239.559	75.44
239.793	80.44
240.027	95.44
240.26	82.44
240.494	71.44
240.728	65.44
240.961	73.44
241.195	66.44
241.429	78.44
241.662	84.44
241.896	77.44
242.13	71.44
242.363	69.44
242.597	63.44
242.83	86.44
243.064	82.44
243.298	82.44
243.531	76.44
243.765	79.44
243.998	74.44
244.232	71.44
244.465	66.44
244.699	74.44
244.932	86.44
245.166	73.44
245.399	67.44
245.633	84.44
245.866	63.44
246.099	92.44
246.333	74.44
246.566	80.44
246.8	76.44
247.033	86.44
247.266	78.44
247.5	92.44
247.733	67.44
247.966	72.44
248.2	90.44
248.433	75.44
248.666	82.44
248.899	76.44
249.133	85.44
249.366	77.44
249.599	80.44
249.832	69.44
250.066	88.44
250.299	84.44
250.532	72.44
250.765	78.44
250.998	77.44
251.231	84.44
251.465	76.44
251.698	74.44
251.931	81.44
252.164	84.44
252.397	74.44
252.63	76.44
252.863	77.44
253.096	78.44
253.329	79.44
253.562	69.44
253.795	83.44
254.028	71.44
254.261	76.44
254.494	78.44
254.727	76.44
254.96	83.44
255.193	87.44
255.426	88.44
255.659	75.44
255.892	93.44
256.124	70.44
256.357	82.44
256.59	72.44
256.823	75.44
257.056	82.44
257.289	87.44
257.521	82.44
257.754	86.44
257.987	68.44
258.22	69.44
258.452	77.44
258.685	84.44
258.918	86.44
259.151	74.44
259.383	76.44
259.616	74.44
259.849	78.44
260.081	73.44
260.314	77.44
260.547	73.44
260.779	88.44
261.012	74.44
261.244	84.44
261.477	70.44
261.71	68.44
261.942	84.44
262.175	84.44
262.407	98.44
262.64	91.44
262.872	85.44
263.105	78.44
263.337	73.44
263.57	77.44
263.802	69.44
264.035	89.44
264.267	88.44
264.499	89.44
264.732	97.44
264.964	102.44
265.197	89.44
265.429	90.44
265.661	91.44
265.894	86.44
266.126	83.44
266.358	81.44
266.591	80.44
266.823	86.44
267.055	66.44
267.287	76.44
267.52	86.44
267.752	77.44
267.984	82.44
268.216	89.44
268.448	93.44
268.681	72.44
268.913	69.44
269.145	66.44
269.377	95.44
269.609	76.44
269.841	84.44
270.073	83.44
270.306	88.44
270.538	87.44
270.77	82.44
271.002	74.44
271.234	78.44
271.466	95.44
271.698	96.44
271.93	82.44
272.162	90.44
272.394	76.44
272.626	83.44
272.858	66.44
273.09	80.44
273.322	73.44
273.553	80.44
273.785	84.44
274.017	82.44
274.249	84.44
274.481	80.44
274.713	84.44
274.945	68.44
275.176	84.44
275.408	80.44
275.64	73.44
275.872	85.44
276.104	85.44
276.335	79.44
276.567	91.44
276.799	94.44
277.031	86.44
277.262	85.44
277.494	88.44
277.726	78.44
277.957	70.44
278.189	76.44
278.421	81.44
278.652	76.44
278.884	84.44
279.115	70.44
279.347	87.44
279.579	81.44
279.81	78.44
280.042	72.44
280.273	88.44
280.505	79.44
280.736	67.44
280.968	84.44
281.199	89.44
281.431	80.44
281.662	90.44
281.894	86.44
282.125	94.44
282.356	88.44
282.588	92.44
282.819	83.44
283.051	70.44
283.282	92.44
283.513	95.44
283.745	77.44
283.976	81.44
284.207	85.44
284.439	96.44
284.67	92.44
284.901	67.44
285.132	80.44
285.364	93.44
285.595	92.44
285.826	74.44
286.057	84.44
286.288	90.44
286.52	92.44
286.751	88.44
286.982	85.44
287.213	91.44
287.444	72.44
287.675	95.44
287.906	94.44
288.138	86.44
288.369	76.44
288.6	82.44
288.831	81.44
289.062	68.44
289.293	90.44
289.524	77.44
289.755	101.44
289.986	81.44
290.217	81.44
290.448	75.44
290.679	94.44
290.91	87.44
291.141	85.44
291.371	75.44
291.602	80.44
291.833	82.44
292.064	83.44
292.295	75.44
292.526	66.44
292.757	82.44
292.987	79.44
293.218	86.44
293.449	78.44
293.68	100.44
293.91	76.44
294.141	85.44
294.372	78.44
294.603	74.44
294.833	83.44
295.064	86.44
295.295	86.44
295.525	73.44
295.756	82.44
295.987	90.44
296.217	74.44
296.448	69.44
296.679	87.44
296.909	86.44
297.14	89.44
297.37	92.44
297.601	75.44
297.831	95.44
298.062	94.44
298.292	88.44
298.523	82.44
298.753	86.44
298.984	98.44
299.214	76.44
299.445	74.44
299.675	83.44
299.905	94.44
300.136	77.44
300.366	84.44
300.597	70.44
300.827	80.44
301.057	81.44
301.288	79.44
301.518	72.44
301.748	74.44
301.979	91.44
302.209	82.44
302.439	80.44
302.669	73.44
302.9	82.44
303.13	86.44
303.36	76.44
303.59	88.44
303.82	90.44
304.051	75.44
304.281	77.44
304.511	82.44
304.741	84.44
304.971	63.44
305.201	87.44
305.431	99.44
305.661	84.44
305.891	86.44
306.121	88.44
306.352	93.44
306.582	92.44
306.812	90.44
307.042	77.44
307.272	76.44
307.502	76.44
307.731	80.44
307.961	72.44
308.191	79.44
308.421	77.44
308.651	82.44
308.881	76.44
309.111	81.44
309.341	86.44
309.571	75.44
309.8	70.44
310.03	96.44
310.26	67.44
310.49	88.44
310.72	86.44
310.949	78.44
311.179	83.44
311.409	72.44
311.639	78.44
311.868	66.44
312.098	86.44
312.328	75.44
312.557	93.44
312.787	86.44
313.017	83.44
313.246	79.44
313.476	79.44
313.706	64.44
313.935	72.44
314.165	73.44
314.394	71.44
314.624	82.44
314.853	74.44
315.083	83.44
315.312	76.44
315.542	70.44
315.771	80.44
316.001	84.44
316.23	74.44
316.46	67.44
316.689	84.44
316.919	60.44
317.148	88.44
317.377	82.44
317.607	84.44
317.836	81.44
318.065	105.44
318.295	90.44
318.524	75.44
318.753	71.44
318.983	79.44
319.212	72.44
319.441	93.44
319.67	78.44
319.9	80.44
320.129	84.44
320.358	81.44
320.587	79.44
320.816	69.44
321.046	82.44
321.275	82.44
321.504	84.44
321.733	81.44
321.962	84.44
322.191	72.44
322.42	72.44
322.649	89.44
322.878	100.44
323.108	90.44
323.337	86.44
323.566	77.44
323.795	67.44
324.024	77.44
324.253	78.44
324.482	84.44
324.71	76.44
324.939	84.44
325.168	70.44
325.397	82.44
325.626	87.44
325.855	73.44
326.084	94.44
326.313	79.44
326.542	75.44
326.77	83.44
326.999	91.44
327.228	94.44
327.457	86.44
327.686	83.44
327.914	80.44
328.143	94.44
328.372	80.44
328.6	87.44
328.829	99.44
329.058	94.44
329.287	67.44
329.515	79.44
329.744	89.44
329.972	90.44
330.201	86.44
330.43	94.44
330.658	76.44
330.887	89.44
331.115	84.44
331.344	84.44
331.572	86.44
331.801	91.44
332.03	72.44
332.258	84.44
332.486	92.44
332.715	91.44
332.943	82.44
333.172	88.44
333.4	93.44
333.629	94.44
333.857	94.44
334.085	95.44
334.314	103.44
334.542	94.44
334.771	76.44
334.999	88.44
335.227	82.44
335.455	86.44
335.684	88.44
335.912	74.44
336.14	79.44
336.369	83.44
336.597	92.44
336.825	89.44
337.053	95.44
337.281	81.44
337.51	83.44
337.738	92.44
337.966	85.44
338.194	82.44
338.422	83.44
338.65	81.44
338.878	97.44
339.106	83.44
339.334	107.44
339.562	77.44
339.79	91.44
340.018	76.44
340.246	66.44
340.474	91.44
340.702	71.44
340.93	84.44
341.158	90.44
341.386	72.44
341.614	88.44
341.842	78.44
342.07	73.44
342.298	68.44
342.526	77.44
342.754	73.44
342.981	79.44
343.209	73.44
343.437	88.44
343.665	78.44
343.893	87.44
344.12	85.44
344.348	76.44
344.576	83.44
344.804	71.44
345.031	72.44
345.259	74.44
345.487	90.44
345.714	67.44
345.942	90.44
346.17	82.44
346.397	86.44
346.625	82.44
346.853	86.44
347.08	77.44
347.308	80.44
347.535	89.44
347.763	100.44
347.99	84.44
348.218	74.44
348.445	86.44
348.673	88.44
348.9	82.44
349.128	83.44
349.355	80.44
349.583	85.44
349.81	92.44
350.037	82.44
350.265	71.44
350.492	78.44
350.72	78.44
350.947	92.44
351.174	88.44
351.402	71.44
351.629	86.44
351.856	78.44
352.083	91.44
352.311	81.44
352.538	95.44
352.765	96.44
352.992	88.44
353.22	83.44
353.447	79.44
353.674	92.44
353.901	77.44
354.128	98.44
354.355	75.44
354.583	77.44
354.81	94.44
355.037	81.44
355.264	81.44
355.491	79.44
355.718	76.44
355.945	69.44
356.172	88.44
356.399	77.44
356.626	74.44
356.853	68.44
357.08	95.44
357.307	81.44
357.534	83.44
357.761	79.44
357.988	84.44
358.215	93.44
358.441	72.44
358.668	72.44
358.895	84.44
359.122	70.44
359.349	83.44
359.576	67.44
359.802	85.44
360.029	94.44
360.256	62.44
360.483	87.44
360.709	75.44
360.936	103.44
361.163	94.44
361.39	95.44
361.616	80.44
361.843	89.44
362.07	92.44
362.296	73.44
362.523	77.44
362.749	67.44
362.976	85.44
363.203	83.44
363.429	76.44
363.656	77.44
363.882	74.44
364.109	91.44
364.335	100.44
364.562	68.44
364.788	81.44
365.015	75.44
365.241	86.44
365.468	80.44
365.694	72.44
365.92	73.44
366.147	80.44
366.373	65.44
366.599	75.44
366.826	77.44
367.052	86.44
367.278	83.44
367.505	82.44
367.731	92.44
367.957	75.44
368.184	84.44
368.41	75.44
368.636	72.44
368.862	74.44
369.089	82.44
369.315	85.44
369.541	99.44
369.767	86.44
369.993	79.44
370.219	82.44
370.445	75.44
370.672	88.44
370.898	104.44
371.124	91.44
371.35	74.44
371.576	64.44
371.802	84.44
372.028	95.44
372.254	99.44
372.48	83.44
372.706	88.44
372.932	86.44
373.158	74.44
373.384	91.44
373.61	87.44
373.835	71.44
374.061	84.44
374.287	70.44
374.513	73.44
374.739	75.44
374.965	83.44
375.191	70.44
375.416	75.44
375.642	77.44
375.868	87.44
376.094	82.44
376.319	63.44
376.545	88.44
376.771	66.44
376.997	70.44
377.222	76.44
377.448	81.44
377.674	84.44
377.899	71.44
378.125	68.44
378.35	74.44
378.576	87.44
378.802	72.44
379.027	95.44
379.253	82.44
379.478	71.44
379.704	71.44
379.929	71.44
380.155	98.44
380.38	90.44
380.606	74.44
380.831	88.44
381.057	94.44
381.282	88.44
381.507	74.44
381.733	95.44
381.958	77.44
382.184	95.44
382.409	82.44
382.634	92.44
382.86	73.44
383.085	83.44
383.31	89.44
383.535	76.44
383.761	74.44
383.986	82.44
384.211	73.44
384.436	75.44
384.662	76.44
384.887	72.44
385.112	85.44
385.337	78.44
385.562	81.44
385.787	88.44
386.013	74.44
386.238	77.44
386.463	86.44
386.688	94.44
386.913	85.44
387.138	84.44
387.363	75.44
387.588	85.44
387.813	78.44
388.038	92.44
388.263	83.44
388.488	89.44
388.713	96.44
388.938	76.44
389.163	88.44
389.387	86.44
389.612	65.44
389.837	82.44
390.062	58.44
390.287	63.44
390.512	73.44
390.736	68.44
390.961	80.44
391.186	77.44
391.411	78.44
391.636	90.44
391.86	79.44
392.085	83.44
392.31	87.44
392.534	84.44
392.759	92.44
392.984	90.44
393.208	133.44
393.433	167.44
393.658	140.44
393.882	102.44
394.107	71.44
394.331	87.44
394.556	72.44
394.78	69.44
395.005	83.44
395.229	77.44
395.454	66.44
395.678	74.44
395.903	100.44
396.127	97.44
396.352	97.44
396.576	110.44
396.801	136.44
397.025	148.44
397.249	122.44
397.474	80.44
397.698	73.44
397.922	84.44
398.147	84.44
398.371	76.44
398.595	86.44
398.82	93.44
399.044	100.44
399.268	72.44
399.492	68.44
399.717	89.44
399.941	72.44
400.165	83.44
400.389	86.44
400.613	84.44
400.837	84.44
401.062	75.44
401.286	90.44
401.51	79.44
401.734	81.44
401.958	79.44
402.182	70.44
402.406	74.44
402.63	73.44
402.854	92.44
403.078	87.44
403.302	88.44
403.526	82.44
403.75	76.44
403.974	80.44
404.198	86.44
404.422	87.44
404.645	81.44
404.869	95.44
405.093	72.44
405.317	81.44
405.541	96.44
405.765	83.44
405.988	88.44
406.212	87.44
406.436	85.44
406.66	88.44
406.883	70.44
407.107	83.44
407.331	81.44
407.555	77.44
407.778	98.44
408.002	88.44
408.226	80.44
408.449	75.44
408.673	87.44
408.896	95.44
409.12	86.44
409.344	90.44
409.567	86.44
409.791	91.44
410.014	74.44
410.238	88.44
410.461	70.44
410.685	81.44
410.908	70.44
411.132	88.44
411.355	84.44
411.578	83.44
411.802	89.44
412.025	77.44
412.249	85.44
412.472	72.44
412.695	80.44
412.919	89.44
413.142	79.44
413.365	68.44
413.589	79.44
413.812	86.44
414.035	81.44
414.258	98.44
414.482	79.44
414.705	66.44
414.928	77.44
415.151	77.44
415.374	71.44
415.597	88.44
415.821	77.44
416.044	76.44
416.267	86.44
416.49	72.44
416.713	68.44
416.936	75.44
417.159	74.44
417.382	81.44
417.605	84.44
417.828	67.44
418.051	94.44
418.274	79.44
418.497	68.44
418.72	86.44
418.943	88.44
419.166	84.44
419.389	81.44
419.611	86.44
419.834	86.44
420.057	86.44
420.28	79.44
420.503	74.44
420.726	77.44
420.948	79.44
421.171	83.44
421.394	94.44
421.617	80.44
421.839	92.44
422.062	83.44
422.285	100.44
422.507	115.44
422.73	135.44
422.953	144.44
423.175	106.44
423.398	87.44
423.621	77.44
423.843	90.44
424.066	74.44
424.288	79.44
424.511	82.44
424.733	69.44
424.956	82.44
425.178	69.44
425.401	67.44
425.623	80.44
425.846	76.44
426.068	71.44
426.291	89.44
426.513	82.44
426.735	76.44
426.958	90.44
427.18	80.44
427.402	86.44
427.625	82.44
427.847	88.44
428.069	75.44
428.292	90.44
428.514	85.44
428.736	76.44
428.958	82.44
429.181	90.44
429.403	82.44
429.625	95.44
429.847	86.44
430.069	95.44
430.292	80.44
430.514	105.44
430.736	77.44
430.958	87.44
431.18	67.44
431.402	84.44
431.624	73.44
431.846	85.44
432.068	80.44
432.29	81.44
432.512	88.44
432.734	67.44
432.956	79.44
433.178	86.44
433.4	70.44
433.622	69.44
433.844	90.44
434.066	80.44
434.287	91.44
434.509	94.44
434.731	78.44
434.953	87.44
435.175	68.44
435.397	80.44
435.618	78.44
435.84	83.44
436.062	80.44
436.284	82.44
436.505	80.44
436.727	82.44
436.949	84.44
437.17	77.44
437.392	78.44
437.614	83.44
437.835	74.44
438.057	80.44
438.278	74.44
438.5	84.44
438.721	88.44
438.943	84.44
439.165	73.44
439.386	84.44
439.608	64.44
439.829	79.44
440.05	64.44
440.272	82.44
440.493	84.44
440.715	82.44
440.936	86.44
441.158	68.44
441.379	90.44
441.6	83.44
441.822	74.44
442.043	72.44
442.264	82.44
442.486	80.44
442.707	90.44
442.928	94.44
443.149	68.44
443.371	88.44
443.592	100.44
443.813	92.44
444.034	81.44
444.255	76.44
444.476	83.44
444.698	90.44
444.919	76.44
445.14	162.44
445.361	132.44
445.582	114.44
445.803	97.44
446.024	82.44
446.245	89.44
446.466	81.44
446.687	97.44
446.908	88.44
447.129	78.44
447.35	65.44
447.571	82.44
447.792	85.44
448.013	75.44
448.234	78.44
448.455	82.44
448.675	62.44
448.896	74.44
449.117	65.44
449.338	84.44
449.559	80.44
449.779	85.44
450	86.44
450.221	89.44
450.442	76.44
450.662	78.44
450.883	74.44
451.104	80.44
451.324	84.44
451.545	80.44
451.766	78.44
451.986	79.44
452.207	67.44
452.428	66.44
452.648	77.44
452.869	86.44
453.089	84.44
453.31	80.44
453.53	89.44
453.751	69.44
453.971	73.44
454.192	85.44
454.412	68.44
454.633	72.44
454.853	92.44
455.073	67.44
455.294	94.44
455.514	70.44
455.734	77.44
455.955	71.44
456.175	67.44
456.395	82.44
456.616	83.44
456.836	86.44
457.056	84.44
457.276	83.44
457.497	81.44
457.717	76.44
457.937	72.44
458.157	75.44
458.377	87.44
458.598	82.44
458.818	76.44
459.038	77.44
459.258	69.44
459.478	73.44
459.698	89.44
459.918	75.44
460.138	76.44
460.358	80.44
460.578	78.44
460.798	81.44
461.018	91.44
461.238	80.44
461.458	89.44
461.678	84.44
461.898	83.44
462.118	85.44
462.338	77.44
462.558	85.44
462.777	74.44
462.997	76.44
463.217	77.44
463.437	74.44
463.657	80.44
463.876	83.44
464.096	74.44
464.316	80.44
464.536	68.44
464.755	82.44
464.975	88.44
465.195	92.44
465.414	80.44
465.634	69.44
465.854	76.44
466.073	79.44
466.293	89.44
466.512	87.44
466.732	81.44
466.951	79.44
467.171	82.44
467.391	80.44
467.61	84.44
467.829	80.44
468.049	85.44
468.268	83.44
468.488	86.44
468.707	77.44
468.927	82.44
469.146	90.44
469.365	82.44
469.585	85.44
469.804	71.44
470.023	75.44
470.243	69.44
470.462	77.44
470.681	90.44
470.901	84.44
471.12	80.44
471.339	89.44
471.558	80.44
471.777	80.44
471.997	62.44
472.216	74.44
472.435	85.44
472.654	84.44
472.873	80.44
473.092	80.44
473.311	80.44
473.53	68.44
473.749	77.44
473.968	88.44
474.187	88.44
474.406	73.44
474.625	83.44
474.844	70.44
475.063	74.44
475.282	85.44
475.501	83.44
475.72	83.44
475.939	79.44
476.158	79.44
476.377	95.44
476.596	75.44
476.814	88.44
477.033	102.44
477.252	84.44
477.471	81.44
477.69	72.44
477.908	72.44
478.127	97.44
478.346	77.44
478.564	86.44
478.783	80.44
479.002	85.44
479.22	80.44
479.439	86.44
479.658	89.44
479.876	78.44
480.095	81.44
480.313	86.44
480.532	72.44
480.751	90.44
480.969	83.44
481.188	69.44
481.406	85.44
481.624	74.44
481.843	66.44
482.061	82.44
482.28	69.44
482.498	77.44
482.717	74.44
482.935	78.44
483.153	83.44
483.372	71.44
483.59	79.44
483.808	86.44
484.027	89.44
484.245	81.44
484.463	95.44
484.681	95.44
484.9	90.44
485.118	84.44
485.336	72.44
485.554	78.44
485.772	78.44
485.99	76.44
486.209	82.44
486.427	82.44
486.645	75.44
486.863	82.44
487.081	80.44
487.299	87.44
487.517	84.44
487.735	79.44
487.953	100.44
488.171	91.44
488.389	94.44
488.607	64.44
488.825	72.44
489.043	66.44
489.261	88.44
489.479	73.44
489.696	84.44
489.914	82.44
490.132	81.44
490.35	88.44
490.568	83.44
490.786	75.44
491.003	84.44
491.221	76.44
491.439	87.44
491.657	76.44
491.874	94.44
492.092	83.44
492.31	84.44
492.527	76.44
492.745	86.44
492.963	94.44
493.18	94.44
493.398	84.44
493.615	100.44
493.833	91.44
494.05	82.44
494.268	80.44
494.485	94.44
494.703	84.44
494.92	103.44
495.138	77.44
495.355	87.44
495.573	83.44
495.79	71.44
496.008	80.44
496.225	88.44
496.442	81.44
496.66	81.44
496.877	89.44
497.094	89.44
497.312	86.44
497.529	84.44
497.746	90.44
497.963	89.44
498.181	76.44
498.398	84.44
498.615	71.44
498.832	76.44
499.049	91.44
499.267	97.44
499.484	82.44
499.701	88.44
499.918	82.44
500.135	95.44
500.352	88.44
500.569	98.44
500.786	84.44
501.003	70.44
501.22	75.44
501.437	92.44
501.654	92.44
501.871	73.44
502.088	67.44
502.305	75.44
502.522	81.44
502.739	75.44
502.956	76.44
503.172	78.44
503.389	82.44
503.606	72.44
503.823	71.44
504.04	82.44
504.256	85.44
504.473	98.44
504.69	75.44
504.907	86.44
505.123	94.44
505.34	94.44
505.557	91.44
505.773	89.44
505.99	91.44
506.207	83.44
506.423	73.44
506.64	85.44
506.856	89.44
507.073	87.44
507.289	75.44
507.506	82.44
507.722	92.44
507.939	87.44
508.155	82.44
508.372	86.44
508.588	76.44
508.805	80.44
509.021	90.44
509.238	85.44
509.454	88.44
509.67	77.44
509.887	91.44
510.103	75.44
510.319	88.44
510.536	80.44
510.752	83.44
510.968	72.44
511.184	90.44
511.401	76.44
511.617	72.44
511.833	90.44
512.049	81.44
512.265	73.44
512.481	73.44
512.698	70.44
512.914	74.44
513.13	92.44
513.346	96.44
513.562	94.44
513.778	91.44
513.994	85.44
514.21	86.44
514.426	86.44
514.642	91.44
514.858	87.44
515.074	82.44
515.29	71.44
515.506	80.44
515.721	84.44
515.937	97.44
516.153	95.44
516.369	88.44
516.585	86.44
516.801	88.44
517.016	85.44
517.232	86.44
517.448	93.44
517.664	85.44
517.879	79.44
518.095	87.44
518.311	87.44
518.527	86.44
518.742	81.44
518.958	77.44
519.173	82.44
519.389	84.44
519.605	80.44
519.82	92.44
