Data from HP_1_HRD10591_00015.txt Node
Date: Mon Jan 19 14:15:15 EST 2026
User: Yrep
Spectrometer: HR+D1059
Trigger mode: 1
Integration Time (sec): 1.000000E-1
Scans to average: 1
Electric dark correction enabled: true
Nonlinearity correction enabled: false
Boxcar width: 0
XAxis mode: Wavelengths
Number of Pixels in Spectrum: 2048
>>>>>Begin Spectral Data<<<<<
223.165	-22.25
223.4	-22.25
223.635	-22.25
223.869	-14.25
224.104	-5.25
224.338	-22.25
224.573	-12.25
224.808	-21.25
225.042	-22.25
225.277	-7.25
225.511	3.75
225.746	3.75
225.98	5.75
226.215	6.75
226.449	10.75
226.683	11.75
226.918	37.75
227.152	46.75
227.387	29.75
227.621	39.75
227.856	38.75
228.09	58.75
228.324	51.75
228.559	55.75
228.793	55.75
229.027	67.75
229.262	55.75
229.496	72.75
229.73	71.75
229.964	91.75
230.199	70.75
230.433	69.75
230.667	95.75
230.901	84.75
231.136	77.75
231.37	75.75
231.604	66.75
231.838	82.75
232.072	79.75
232.306	75.75
232.541	79.75
232.775	85.75
233.009	79.75
233.243	80.75
233.477	71.75
233.711	77.75
233.945	90.75
234.179	85.75
234.413	83.75
234.647	77.75
234.881	79.75
235.115	81.75
235.349	66.75
235.583	61.75
235.817	75.75
236.051	79.75
236.285	82.75
236.519	80.75
236.753	75.75
236.987	97.75
237.221	84.75
237.455	78.75
237.689	74.75
237.922	76.75
238.156	81.75
238.39	64.75
238.624	73.75
238.858	66.75
239.091	75.75
239.325	79.75
239.559	89.75
239.793	66.75
240.027	66.75
240.26	69.75
240.494	81.75
240.728	75.75
240.961	69.75
241.195	90.75
241.429	67.75
241.662	67.75
241.896	73.75
242.13	74.75
242.363	87.75
242.597	81.75
242.83	77.75
243.064	58.75
243.298	72.75
243.531	71.75
243.765	75.75
243.998	90.75
244.232	83.75
244.465	79.75
244.699	74.75
244.932	73.75
245.166	75.75
245.399	91.75
245.633	76.75
245.866	69.75
246.099	81.75
246.333	71.75
246.566	69.75
246.8	76.75
247.033	80.75
247.266	79.75
247.5	84.75
247.733	80.75
247.966	80.75
248.2	69.75
248.433	70.75
248.666	73.75
248.899	85.75
249.133	67.75
249.366	82.75
249.599	70.75
249.832	77.75
250.066	90.75
250.299	72.75
250.532	69.75
250.765	73.75
250.998	83.75
251.231	79.75
251.465	64.75
251.698	61.75
251.931	90.75
252.164	85.75
252.397	81.75
252.63	69.75
252.863	93.75
253.096	86.75
253.329	80.75
253.562	77.75
253.795	79.75
254.028	81.75
254.261	83.75
254.494	87.75
254.727	90.75
254.96	61.75
255.193	81.75
255.426	90.75
255.659	83.75
255.892	93.75
256.124	79.75
256.357	89.75
256.59	79.75
256.823	77.75
257.056	82.75
257.289	78.75
257.521	86.75
257.754	82.75
257.987	79.75
258.22	69.75
258.452	96.75
258.685	69.75
258.918	70.75
259.151	86.75
259.383	86.75
259.616	75.75
259.849	71.75
260.081	76.75
260.314	85.75
260.547	80.75
260.779	87.75
261.012	86.75
261.244	82.75
261.477	82.75
261.71	72.75
261.942	93.75
262.175	81.75
262.407	87.75
262.64	81.75
262.872	81.75
263.105	75.75
263.337	75.75
263.57	82.75
263.802	66.75
264.035	76.75
264.267	81.75
264.499	74.75
264.732	77.75
264.964	79.75
265.197	83.75
265.429	83.75
265.661	81.75
265.894	86.75
266.126	79.75
266.358	76.75
266.591	73.75
266.823	89.75
267.055	88.75
267.287	61.75
267.52	72.75
267.752	92.75
267.984	73.75
268.216	73.75
268.448	81.75
268.681	71.75
268.913	93.75
269.145	81.75
269.377	69.75
269.609	67.75
269.841	85.75
270.073	79.75
270.306	79.75
270.538	72.75
270.77	85.75
271.002	80.75
271.234	83.75
271.466	79.75
271.698	79.75
271.93	78.75
272.162	83.75
272.394	89.75
272.626	91.75
272.858	71.75
273.09	94.75
273.322	96.75
273.553	74.75
273.785	93.75
274.017	90.75
274.249	81.75
274.481	85.75
274.713	82.75
274.945	90.75
275.176	82.75
275.408	74.75
275.64	88.75
275.872	77.75
276.104	82.75
276.335	65.75
276.567	78.75
276.799	77.75
277.031	82.75
277.262	73.75
277.494	87.75
277.726	82.75
277.957	89.75
278.189	74.75
278.421	75.75
278.652	80.75
278.884	72.75
279.115	82.75
279.347	79.75
279.579	90.75
279.81	77.75
280.042	66.75
280.273	82.75
280.505	81.75
280.736	65.75
280.968	84.75
281.199	95.75
281.431	77.75
281.662	80.75
281.894	82.75
282.125	81.75
282.356	86.75
282.588	88.75
282.819	86.75
283.051	78.75
283.282	66.75
283.513	87.75
283.745	83.75
283.976	85.75
284.207	84.75
284.439	83.75
284.67	95.75
284.901	83.75
285.132	88.75
285.364	82.75
285.595	74.75
285.826	81.75
286.057	77.75
286.288	89.75
286.52	77.75
286.751	72.75
286.982	87.75
287.213	66.75
287.444	89.75
287.675	87.75
287.906	89.75
288.138	89.75
288.369	94.75
288.6	69.75
288.831	73.75
289.062	97.75
289.293	89.75
289.524	76.75
289.755	95.75
289.986	79.75
290.217	70.75
290.448	78.75
290.679	83.75
290.91	87.75
291.141	90.75
291.371	81.75
291.602	74.75
291.833	81.75
292.064	82.75
292.295	91.75
292.526	83.75
292.757	78.75
292.987	91.75
293.218	81.75
293.449	85.75
293.68	74.75
293.91	95.75
294.141	95.75
294.372	86.75
294.603	75.75
294.833	90.75
295.064	98.75
295.295	78.75
295.525	83.75
295.756	95.75
295.987	75.75
296.217	91.75
296.448	76.75
296.679	73.75
296.909	79.75
297.14	75.75
297.37	80.75
297.601	86.75
297.831	72.75
298.062	86.75
298.292	78.75
298.523	82.75
298.753	80.75
298.984	70.75
299.214	96.75
299.445	86.75
299.675	93.75
299.905	95.75
300.136	85.75
300.366	81.75
300.597	86.75
300.827	84.75
301.057	86.75
301.288	90.75
301.518	83.75
301.748	75.75
301.979	95.75
302.209	58.75
302.439	73.75
302.669	83.75
302.9	75.75
303.13	82.75
303.36	85.75
303.59	68.75
303.82	74.75
304.051	99.75
304.281	82.75
304.511	86.75
304.741	78.75
304.971	88.75
305.201	80.75
305.431	84.75
305.661	79.75
305.891	80.75
306.121	79.75
306.352	69.75
306.582	71.75
306.812	85.75
307.042	81.75
307.272	83.75
307.502	81.75
307.731	82.75
307.961	75.75
308.191	81.75
308.421	89.75
308.651	81.75
308.881	93.75
309.111	86.75
309.341	77.75
309.571	88.75
309.8	79.75
310.03	81.75
310.26	84.75
310.49	80.75
310.72	76.75
310.949	87.75
311.179	85.75
311.409	92.75
311.639	79.75
311.868	68.75
312.098	83.75
312.328	69.75
312.557	66.75
312.787	89.75
313.017	90.75
313.246	93.75
313.476	84.75
313.706	90.75
313.935	83.75
314.165	82.75
314.394	79.75
314.624	90.75
314.853	93.75
315.083	91.75
315.312	83.75
315.542	72.75
315.771	88.75
316.001	82.75
316.23	93.75
316.46	76.75
316.689	83.75
316.919	97.75
317.148	85.75
317.377	87.75
317.607	98.75
317.836	85.75
318.065	84.75
318.295	85.75
318.524	103.75
318.753	81.75
318.983	99.75
319.212	109.75
319.441	85.75
319.67	76.75
319.9	78.75
320.129	82.75
320.358	83.75
320.587	85.75
320.816	86.75
321.046	81.75
321.275	81.75
321.504	76.75
321.733	76.75
321.962	70.75
322.191	70.75
322.42	83.75
322.649	73.75
322.878	78.75
323.108	84.75
323.337	93.75
323.566	64.75
323.795	82.75
324.024	81.75
324.253	86.75
324.482	77.75
324.71	75.75
324.939	94.75
325.168	86.75
325.397	83.75
325.626	80.75
325.855	87.75
326.084	96.75
326.313	73.75
326.542	72.75
326.77	94.75
326.999	99.75
327.228	76.75
327.457	77.75
327.686	98.75
327.914	77.75
328.143	83.75
328.372	81.75
328.6	85.75
328.829	91.75
329.058	76.75
329.287	83.75
329.515	99.75
329.744	78.75
329.972	80.75
330.201	87.75
330.43	80.75
330.658	76.75
330.887	89.75
331.115	85.75
331.344	89.75
331.572	75.75
331.801	78.75
332.03	83.75
332.258	76.75
332.486	71.75
332.715	85.75
332.943	91.75
333.172	79.75
333.4	95.75
333.629	83.75
333.857	85.75
334.085	96.75
334.314	85.75
334.542	74.75
334.771	67.75
334.999	83.75
335.227	79.75
335.455	98.75
335.684	86.75
335.912	86.75
336.14	88.75
336.369	91.75
336.597	86.75
336.825	69.75
337.053	81.75
337.281	98.75
337.51	75.75
337.738	81.75
337.966	78.75
338.194	89.75
338.422	82.75
338.65	89.75
338.878	85.75
339.106	87.75
339.334	76.75
339.562	85.75
339.79	80.75
340.018	84.75
340.246	70.75
340.474	64.75
340.702	81.75
340.93	79.75
341.158	75.75
341.386	75.75
341.614	90.75
341.842	85.75
342.07	69.75
342.298	84.75
342.526	91.75
342.754	86.75
342.981	81.75
343.209	78.75
343.437	89.75
343.665	88.75
343.893	81.75
344.12	88.75
344.348	88.75
344.576	56.75
344.804	71.75
345.031	76.75
345.259	81.75
345.487	79.75
345.714	79.75
345.942	79.75
346.17	73.75
346.397	82.75
346.625	93.75
346.853	86.75
347.08	78.75
347.308	83.75
347.535	87.75
347.763	102.75
347.99	86.75
348.218	86.75
348.445	82.75
348.673	91.75
348.9	87.75
349.128	87.75
349.355	87.75
349.583	82.75
349.81	82.75
350.037	84.75
350.265	89.75
350.492	78.75
350.72	85.75
350.947	90.75
351.174	95.75
351.402	81.75
351.629	76.75
351.856	83.75
352.083	81.75
352.311	81.75
352.538	82.75
352.765	81.75
352.992	93.75
353.22	77.75
353.447	74.75
353.674	83.75
353.901	83.75
354.128	81.75
354.355	79.75
354.583	73.75
354.81	83.75
355.037	94.75
355.264	80.75
355.491	75.75
355.718	85.75
355.945	72.75
356.172	77.75
356.399	83.75
356.626	85.75
356.853	90.75
357.08	82.75
357.307	97.75
357.534	81.75
357.761	90.75
357.988	105.75
358.215	93.75
358.441	71.75
358.668	79.75
358.895	84.75
359.122	86.75
359.349	82.75
359.576	75.75
359.802	88.75
360.029	75.75
360.256	77.75
360.483	72.75
360.709	79.75
360.936	88.75
361.163	83.75
361.39	96.75
361.616	75.75
361.843	94.75
362.07	98.75
362.296	95.75
362.523	86.75
362.749	85.75
362.976	102.75
363.203	99.75
363.429	100.75
363.656	76.75
363.882	80.75
364.109	91.75
364.335	84.75
364.562	89.75
364.788	94.75
365.015	97.75
365.241	73.75
365.468	79.75
365.694	88.75
365.92	88.75
366.147	71.75
366.373	86.75
366.599	85.75
366.826	85.75
367.052	79.75
367.278	84.75
367.505	75.75
367.731	75.75
367.957	76.75
368.184	91.75
368.41	80.75
368.636	83.75
368.862	87.75
369.089	67.75
369.315	79.75
369.541	85.75
369.767	89.75
369.993	73.75
370.219	87.75
370.445	85.75
370.672	91.75
370.898	84.75
371.124	91.75
371.35	80.75
371.576	53.75
371.802	70.75
372.028	79.75
372.254	90.75
372.48	88.75
372.706	89.75
372.932	105.75
373.158	80.75
373.384	87.75
373.61	109.75
373.835	109.75
374.061	77.75
374.287	78.75
374.513	75.75
374.739	89.75
374.965	81.75
375.191	96.75
375.416	82.75
375.642	79.75
375.868	87.75
376.094	73.75
376.319	81.75
376.545	84.75
376.771	83.75
376.997	81.75
377.222	71.75
377.448	101.75
377.674	87.75
377.899	79.75
378.125	81.75
378.35	84.75
378.576	89.75
378.802	85.75
379.027	86.75
379.253	89.75
379.478	69.75
379.704	90.75
379.929	82.75
380.155	74.75
380.38	81.75
380.606	75.75
380.831	93.75
381.057	93.75
381.282	88.75
381.507	89.75
381.733	105.75
381.958	82.75
382.184	80.75
382.409	82.75
382.634	87.75
382.86	98.75
383.085	92.75
383.31	86.75
383.535	97.75
383.761	93.75
383.986	87.75
384.211	83.75
384.436	76.75
384.662	81.75
384.887	87.75
385.112	75.75
385.337	97.75
385.562	82.75
385.787	95.75
386.013	91.75
386.238	99.75
386.463	81.75
386.688	105.75
386.913	90.75
387.138	81.75
387.363	89.75
387.588	97.75
387.813	97.75
388.038	78.75
388.263	100.75
388.488	83.75
388.713	74.75
388.938	87.75
389.163	74.75
389.387	73.75
389.612	86.75
389.837	89.75
390.062	83.75
390.287	89.75
390.512	81.75
390.736	80.75
390.961	73.75
391.186	85.75
391.411	82.75
391.636	69.75
391.86	73.75
392.085	82.75
392.31	80.75
392.534	90.75
392.759	103.75
392.984	125.75
393.208	224.75
393.433	373.75
393.658	277.75
393.882	116.75
394.107	92.75
394.331	80.75
394.556	103.75
394.78	97.75
395.005	81.75
395.229	72.75
395.454	84.75
395.678	91.75
395.903	98.75
396.127	122.75
396.352	143.75
396.576	136.75
396.801	230.75
397.025	271.75
397.249	144.75
397.474	95.75
397.698	84.75
397.922	99.75
398.147	93.75
398.371	87.75
398.595	79.75
398.82	87.75
399.044	75.75
399.268	68.75
399.492	93.75
399.717	73.75
399.941	93.75
400.165	84.75
400.389	88.75
400.613	79.75
400.837	77.75
401.062	78.75
401.286	89.75
401.51	80.75
401.734	63.75
401.958	75.75
402.182	83.75
402.406	74.75
402.63	71.75
402.854	83.75
403.078	85.75
403.302	81.75
403.526	73.75
403.75	75.75
403.974	76.75
404.198	99.75
404.422	87.75
404.645	78.75
404.869	79.75
405.093	102.75
405.317	71.75
405.541	89.75
405.765	88.75
405.988	83.75
406.212	87.75
406.436	86.75
406.66	89.75
406.883	91.75
407.107	67.75
407.331	90.75
407.555	98.75
407.778	110.75
408.002	116.75
408.226	87.75
408.449	71.75
408.673	71.75
408.896	75.75
409.12	75.75
409.344	83.75
409.567	74.75
409.791	90.75
410.014	95.75
410.238	76.75
410.461	84.75
410.685	58.75
410.908	67.75
411.132	81.75
411.355	73.75
411.578	89.75
411.802	83.75
412.025	81.75
412.249	92.75
412.472	75.75
412.695	85.75
412.919	79.75
413.142	70.75
413.365	75.75
413.589	81.75
413.812	75.75
414.035	86.75
414.258	89.75
414.482	93.75
414.705	79.75
414.928	85.75
415.151	91.75
415.374	80.75
415.597	86.75
415.821	72.75
416.044	75.75
416.267	77.75
416.49	96.75
416.713	72.75
416.936	76.75
417.159	81.75
417.382	82.75
417.605	76.75
417.828	76.75
418.051	74.75
418.274	91.75
418.497	86.75
418.72	74.75
418.943	89.75
419.166	77.75
419.389	74.75
419.611	81.75
419.834	76.75
420.057	78.75
420.28	79.75
420.503	91.75
420.726	81.75
420.948	89.75
421.171	68.75
421.394	86.75
421.617	108.75
421.839	92.75
422.062	100.75
422.285	93.75
422.507	174.75
422.73	291.75
422.953	248.75
423.175	129.75
423.398	93.75
423.621	83.75
423.843	89.75
424.066	80.75
424.288	89.75
424.511	93.75
424.733	72.75
424.956	75.75
425.178	66.75
425.401	76.75
425.623	89.75
425.846	73.75
426.068	74.75
426.291	87.75
426.513	85.75
426.735	81.75
426.958	85.75
427.18	93.75
427.402	87.75
427.625	83.75
427.847	95.75
428.069	93.75
428.292	94.75
428.514	101.75
428.736	105.75
428.958	87.75
429.181	101.75
429.403	86.75
429.625	80.75
429.847	93.75
430.069	123.75
430.292	137.75
430.514	120.75
430.736	117.75
430.958	116.75
431.18	93.75
431.402	83.75
431.624	83.75
431.846	91.75
432.068	117.75
432.29	86.75
432.512	86.75
432.734	75.75
432.956	81.75
433.178	98.75
433.4	82.75
433.622	75.75
433.844	81.75
434.066	92.75
434.287	72.75
434.509	82.75
434.731	93.75
434.953	79.75
435.175	77.75
435.397	93.75
435.618	71.75
435.84	81.75
436.062	80.75
436.284	78.75
436.505	82.75
436.727	75.75
436.949	73.75
437.17	75.75
437.392	79.75
437.614	82.75
437.835	91.75
438.057	67.75
438.278	72.75
438.5	81.75
438.721	85.75
438.943	82.75
439.165	83.75
439.386	93.75
439.608	85.75
439.829	86.75
440.05	92.75
440.272	69.75
440.493	81.75
440.715	86.75
440.936	73.75
441.158	75.75
441.379	81.75
441.6	89.75
441.822	81.75
442.043	84.75
442.264	91.75
442.486	89.75
442.707	100.75
442.928	81.75
443.149	90.75
443.371	116.75
443.592	152.75
443.813	143.75
444.034	87.75
444.255	94.75
444.476	84.75
444.698	88.75
444.919	92.75
445.14	159.75
445.361	161.75
445.582	196.75
445.803	160.75
446.024	97.75
446.245	86.75
446.466	86.75
446.687	72.75
446.908	79.75
447.129	68.75
447.35	65.75
447.571	71.75
447.792	84.75
448.013	89.75
448.234	79.75
448.455	80.75
448.675	89.75
448.896	74.75
449.117	81.75
449.338	85.75
449.559	80.75
449.779	85.75
450	73.75
450.221	76.75
450.442	74.75
450.662	77.75
450.883	89.75
451.104	82.75
451.324	82.75
451.545	67.75
451.766	75.75
451.986	76.75
452.207	96.75
452.428	91.75
452.648	98.75
452.869	76.75
453.089	71.75
453.31	77.75
453.53	96.75
453.751	82.75
453.971	61.75
454.192	79.75
454.412	87.75
454.633	87.75
454.853	87.75
455.073	79.75
455.294	73.75
455.514	77.75
455.734	74.75
455.955	77.75
456.175	89.75
456.395	85.75
456.616	82.75
456.836	75.75
457.056	81.75
457.276	77.75
457.497	79.75
457.717	93.75
457.937	88.75
458.157	86.75
458.377	112.75
458.598	85.75
458.818	88.75
459.038	86.75
459.258	82.75
459.478	60.75
459.698	88.75
459.918	83.75
460.138	82.75
460.358	91.75
460.578	89.75
460.798	97.75
461.018	97.75
461.238	82.75
461.458	68.75
461.678	89.75
461.898	90.75
462.118	86.75
462.338	75.75
462.558	82.75
462.777	71.75
462.997	72.75
463.217	85.75
463.437	79.75
463.657	58.75
463.876	75.75
464.096	82.75
464.316	85.75
464.536	69.75
464.755	89.75
464.975	72.75
465.195	64.75
465.414	82.75
465.634	83.75
465.854	70.75
466.073	85.75
466.293	69.75
466.512	63.75
466.732	83.75
466.951	72.75
467.171	69.75
467.391	72.75
467.61	75.75
467.829	72.75
468.049	72.75
468.268	83.75
468.488	83.75
468.707	75.75
468.927	82.75
469.146	109.75
469.365	85.75
469.585	69.75
469.804	78.75
470.023	85.75
470.243	89.75
470.462	91.75
470.681	86.75
470.901	85.75
471.12	101.75
471.339	72.75
471.558	80.75
471.777	89.75
471.997	76.75
472.216	73.75
472.435	87.75
472.654	67.75
472.873	77.75
473.092	78.75
473.311	80.75
473.53	72.75
473.749	87.75
473.968	91.75
474.187	95.75
474.406	84.75
474.625	105.75
474.844	78.75
475.063	81.75
475.282	74.75
475.501	85.75
475.72	93.75
475.939	72.75
476.158	79.75
476.377	83.75
476.596	80.75
476.814	65.75
477.033	89.75
477.252	76.75
477.471	80.75
477.69	74.75
477.908	69.75
478.127	89.75
478.346	87.75
478.564	86.75
478.783	86.75
479.002	82.75
479.22	68.75
479.439	71.75
479.658	90.75
479.876	83.75
480.095	69.75
480.313	70.75
480.532	78.75
480.751	75.75
480.969	76.75
481.188	63.75
481.406	87.75
481.624	51.75
481.843	88.75
482.061	83.75
482.28	80.75
482.498	80.75
482.717	74.75
482.935	79.75
483.153	81.75
483.372	76.75
483.59	87.75
483.808	87.75
484.027	85.75
484.245	82.75
484.463	73.75
484.681	67.75
484.9	80.75
485.118	86.75
485.336	77.75
485.554	80.75
485.772	78.75
485.99	87.75
486.209	82.75
486.427	78.75
486.645	82.75
486.863	87.75
487.081	94.75
487.299	90.75
487.517	81.75
487.735	83.75
487.953	110.75
488.171	97.75
488.389	75.75
488.607	89.75
488.825	70.75
489.043	77.75
489.261	79.75
489.479	86.75
489.696	97.75
489.914	73.75
490.132	79.75
490.35	87.75
490.568	63.75
490.786	79.75
491.003	76.75
491.221	76.75
491.439	94.75
491.657	86.75
491.874	85.75
492.092	76.75
492.31	92.75
492.527	79.75
492.745	86.75
492.963	87.75
493.18	90.75
493.398	70.75
493.615	74.75
493.833	86.75
494.05	94.75
494.268	63.75
494.485	85.75
494.703	65.75
494.92	91.75
495.138	63.75
495.355	74.75
495.573	89.75
495.79	75.75
496.008	99.75
496.225	90.75
496.442	76.75
496.66	82.75
496.877	85.75
497.094	85.75
497.312	76.75
497.529	97.75
497.746	91.75
497.963	75.75
498.181	80.75
498.398	83.75
498.615	100.75
498.832	79.75
499.049	83.75
499.267	89.75
499.484	81.75
499.701	77.75
499.918	85.75
500.135	80.75
500.352	68.75
500.569	86.75
500.786	77.75
501.003	81.75
501.22	81.75
501.437	87.75
501.654	93.75
501.871	69.75
502.088	83.75
502.305	91.75
502.522	77.75
502.739	80.75
502.956	85.75
503.172	84.75
503.389	81.75
503.606	63.75
503.823	94.75
504.04	83.75
504.256	97.75
504.473	97.75
504.69	88.75
504.907	102.75
505.123	74.75
505.34	75.75
505.557	88.75
505.773	90.75
505.99	71.75
506.207	85.75
506.423	91.75
506.64	73.75
506.856	74.75
507.073	86.75
507.289	81.75
507.506	79.75
507.722	77.75
507.939	76.75
508.155	74.75
508.372	75.75
508.588	84.75
508.805	71.75
509.021	73.75
509.238	70.75
509.454	81.75
509.67	94.75
509.887	96.75
510.103	85.75
510.319	73.75
510.536	82.75
510.752	87.75
510.968	87.75
511.184	87.75
511.401	70.75
511.617	97.75
511.833	73.75
512.049	82.75
512.265	85.75
512.481	85.75
512.698	65.75
512.914	85.75
513.13	82.75
513.346	82.75
513.562	88.75
513.778	96.75
513.994	90.75
514.21	86.75
514.426	80.75
514.642	75.75
514.858	80.75
515.074	83.75
515.29	76.75
515.506	93.75
515.721	63.75
515.937	86.75
516.153	93.75
516.369	79.75
516.585	92.75
516.801	82.75
517.016	84.75
517.232	85.75
517.448	84.75
517.664	83.75
517.879	64.75
518.095	89.75
518.311	87.75
518.527	93.75
518.742	88.75
518.958	89.75
519.173	107.75
519.389	90.75
519.605	89.75
