Data from HP_1_HRD10591_00042.txt Node
Date: Mon Jan 19 14:15:28 EST 2026
User: Yrep
Spectrometer: HR+D1059
Trigger mode: 1
Integration Time (sec): 1.000000E-1
Scans to average: 1
Electric dark correction enabled: true
Nonlinearity correction enabled: false
Boxcar width: 0
XAxis mode: Wavelengths
Number of Pixels in Spectrum: 2048
>>>>>Begin Spectral Data<<<<<
223.165	-19.12
223.4	-19.12
223.635	-19.12
223.869	-28.12
224.104	-17.12
224.338	-15.12
224.573	-27.12
224.808	-16.12
225.042	-4.12
225.277	-10.12
225.511	4.88
225.746	7.88
225.98	15.88
226.215	5.88
226.449	16.88
226.683	18.88
226.918	28.88
227.152	37.88
227.387	40.88
227.621	30.88
227.856	52.88
228.09	50.88
228.324	53.88
228.559	52.88
228.793	56.88
229.027	48.88
229.262	55.88
229.496	56.88
229.73	72.88
229.964	72.88
230.199	58.88
230.433	66.88
230.667	73.88
230.901	74.88
231.136	69.88
231.37	81.88
231.604	85.88
231.838	81.88
232.072	69.88
232.306	84.88
232.541	74.88
232.775	80.88
233.009	79.88
233.243	77.88
233.477	81.88
233.711	82.88
233.945	70.88
234.179	81.88
234.413	68.88
234.647	79.88
234.881	69.88
235.115	72.88
235.349	81.88
235.583	81.88
235.817	79.88
236.051	70.88
236.285	72.88
236.519	65.88
236.753	71.88
236.987	82.88
237.221	68.88
237.455	69.88
237.689	60.88
237.922	80.88
238.156	83.88
238.39	68.88
238.624	71.88
238.858	80.88
239.091	57.88
239.325	64.88
239.559	53.88
239.793	62.88
240.027	77.88
240.26	68.88
240.494	75.88
240.728	80.88
240.961	70.88
241.195	74.88
241.429	74.88
241.662	72.88
241.896	74.88
242.13	67.88
242.363	80.88
242.597	77.88
242.83	80.88
243.064	80.88
243.298	62.88
243.531	76.88
243.765	64.88
243.998	72.88
244.232	87.88
244.465	74.88
244.699	80.88
244.932	85.88
245.166	72.88
245.399	82.88
245.633	76.88
245.866	67.88
246.099	82.88
246.333	84.88
246.566	76.88
246.8	81.88
247.033	74.88
247.266	82.88
247.5	86.88
247.733	72.88
247.966	77.88
248.2	70.88
248.433	72.88
248.666	60.88
248.899	74.88
249.133	78.88
249.366	84.88
249.599	79.88
249.832	74.88
250.066	74.88
250.299	78.88
250.532	67.88
250.765	65.88
250.998	84.88
251.231	76.88
251.465	79.88
251.698	81.88
251.931	78.88
252.164	69.88
252.397	79.88
252.63	76.88
252.863	56.88
253.096	70.88
253.329	74.88
253.562	77.88
253.795	73.88
254.028	79.88
254.261	62.88
254.494	74.88
254.727	94.88
254.96	80.88
255.193	68.88
255.426	71.88
255.659	79.88
255.892	78.88
256.124	72.88
256.357	86.88
256.59	87.88
256.823	71.88
257.056	78.88
257.289	64.88
257.521	76.88
257.754	66.88
257.987	81.88
258.22	75.88
258.452	85.88
258.685	75.88
258.918	88.88
259.151	74.88
259.383	82.88
259.616	63.88
259.849	85.88
260.081	82.88
260.314	86.88
260.547	87.88
260.779	74.88
261.012	80.88
261.244	80.88
261.477	91.88
261.71	72.88
261.942	71.88
262.175	92.88
262.407	73.88
262.64	85.88
262.872	73.88
263.105	90.88
263.337	74.88
263.57	71.88
263.802	96.88
264.035	88.88
264.267	93.88
264.499	78.88
264.732	98.88
264.964	89.88
265.197	83.88
265.429	72.88
265.661	74.88
265.894	75.88
266.126	78.88
266.358	77.88
266.591	68.88
266.823	84.88
267.055	82.88
267.287	76.88
267.52	82.88
267.752	91.88
267.984	81.88
268.216	76.88
268.448	85.88
268.681	83.88
268.913	82.88
269.145	88.88
269.377	70.88
269.609	69.88
269.841	76.88
270.073	75.88
270.306	90.88
270.538	72.88
270.77	70.88
271.002	77.88
271.234	92.88
271.466	86.88
271.698	78.88
271.93	79.88
272.162	83.88
272.394	82.88
272.626	86.88
272.858	85.88
273.09	90.88
273.322	89.88
273.553	79.88
273.785	80.88
274.017	70.88
274.249	86.88
274.481	78.88
274.713	90.88
274.945	80.88
275.176	71.88
275.408	94.88
275.64	100.88
275.872	81.88
276.104	72.88
276.335	80.88
276.567	91.88
276.799	87.88
277.031	87.88
277.262	78.88
277.494	90.88
277.726	81.88
277.957	80.88
278.189	62.88
278.421	58.88
278.652	90.88
278.884	89.88
279.115	73.88
279.347	75.88
279.579	92.88
279.81	75.88
280.042	92.88
280.273	81.88
280.505	87.88
280.736	75.88
280.968	83.88
281.199	87.88
281.431	75.88
281.662	83.88
281.894	78.88
282.125	75.88
282.356	86.88
282.588	84.88
282.819	78.88
283.051	79.88
283.282	82.88
283.513	87.88
283.745	76.88
283.976	70.88
284.207	81.88
284.439	78.88
284.67	80.88
284.901	78.88
285.132	83.88
285.364	95.88
285.595	90.88
285.826	78.88
286.057	80.88
286.288	78.88
286.52	71.88
286.751	80.88
286.982	80.88
287.213	87.88
287.444	80.88
287.675	83.88
287.906	60.88
288.138	79.88
288.369	85.88
288.6	83.88
288.831	83.88
289.062	76.88
289.293	80.88
289.524	75.88
289.755	90.88
289.986	75.88
290.217	84.88
290.448	76.88
290.679	89.88
290.91	68.88
291.141	93.88
291.371	80.88
291.602	67.88
291.833	83.88
292.064	96.88
292.295	96.88
292.526	69.88
292.757	69.88
292.987	69.88
293.218	85.88
293.449	88.88
293.68	99.88
293.91	73.88
294.141	72.88
294.372	80.88
294.603	76.88
294.833	79.88
295.064	86.88
295.295	78.88
295.525	68.88
295.756	78.88
295.987	86.88
296.217	90.88
296.448	89.88
296.679	93.88
296.909	86.88
297.14	85.88
297.37	83.88
297.601	82.88
297.831	91.88
298.062	64.88
298.292	81.88
298.523	91.88
298.753	84.88
298.984	78.88
299.214	73.88
299.445	84.88
299.675	70.88
299.905	76.88
300.136	89.88
300.366	82.88
300.597	75.88
300.827	82.88
301.057	68.88
301.288	71.88
301.518	68.88
301.748	69.88
301.979	87.88
302.209	94.88
302.439	94.88
302.669	82.88
302.9	85.88
303.13	79.88
303.36	78.88
303.59	73.88
303.82	73.88
304.051	78.88
304.281	90.88
304.511	97.88
304.741	83.88
304.971	87.88
305.201	93.88
305.431	89.88
305.661	92.88
305.891	80.88
306.121	86.88
306.352	84.88
306.582	79.88
306.812	78.88
307.042	86.88
307.272	87.88
307.502	91.88
307.731	92.88
307.961	89.88
308.191	87.88
308.421	64.88
308.651	75.88
308.881	96.88
309.111	86.88
309.341	82.88
309.571	84.88
309.8	80.88
310.03	78.88
310.26	75.88
310.49	84.88
310.72	90.88
310.949	95.88
311.179	65.88
311.409	74.88
311.639	89.88
311.868	74.88
312.098	84.88
312.328	68.88
312.557	80.88
312.787	82.88
313.017	68.88
313.246	91.88
313.476	90.88
313.706	74.88
313.935	92.88
314.165	79.88
314.394	80.88
314.624	86.88
314.853	78.88
315.083	84.88
315.312	81.88
315.542	77.88
315.771	73.88
316.001	81.88
316.23	80.88
316.46	91.88
316.689	73.88
316.919	88.88
317.148	78.88
317.377	96.88
317.607	74.88
317.836	97.88
318.065	88.88
318.295	94.88
318.524	89.88
318.753	70.88
318.983	85.88
319.212	78.88
319.441	82.88
319.67	74.88
319.9	78.88
320.129	76.88
320.358	77.88
320.587	75.88
320.816	82.88
321.046	76.88
321.275	85.88
321.504	89.88
321.733	74.88
321.962	82.88
322.191	80.88
322.42	70.88
322.649	81.88
322.878	80.88
323.108	71.88
323.337	80.88
323.566	87.88
323.795	83.88
324.024	85.88
324.253	72.88
324.482	77.88
324.71	84.88
324.939	80.88
325.168	85.88
325.397	80.88
325.626	85.88
325.855	78.88
326.084	84.88
326.313	86.88
326.542	79.88
326.77	81.88
326.999	85.88
327.228	80.88
327.457	76.88
327.686	82.88
327.914	91.88
328.143	80.88
328.372	78.88
328.6	73.88
328.829	80.88
329.058	80.88
329.287	81.88
329.515	84.88
329.744	79.88
329.972	73.88
330.201	89.88
330.43	89.88
330.658	83.88
330.887	72.88
331.115	80.88
331.344	82.88
331.572	86.88
331.801	80.88
332.03	85.88
332.258	81.88
332.486	77.88
332.715	76.88
332.943	79.88
333.172	78.88
333.4	80.88
333.629	85.88
333.857	80.88
334.085	76.88
334.314	90.88
334.542	83.88
334.771	60.88
334.999	76.88
335.227	78.88
335.455	77.88
335.684	79.88
335.912	89.88
336.14	72.88
336.369	99.88
336.597	82.88
336.825	85.88
337.053	92.88
337.281	88.88
337.51	75.88
337.738	81.88
337.966	86.88
338.194	78.88
338.422	90.88
338.65	79.88
338.878	79.88
339.106	90.88
339.334	80.88
339.562	84.88
339.79	69.88
340.018	87.88
340.246	81.88
340.474	81.88
340.702	73.88
340.93	80.88
341.158	72.88
341.386	83.88
341.614	73.88
341.842	94.88
342.07	89.88
342.298	67.88
342.526	81.88
342.754	80.88
342.981	76.88
343.209	85.88
343.437	100.88
343.665	83.88
343.893	74.88
344.12	73.88
344.348	76.88
344.576	76.88
344.804	85.88
345.031	77.88
345.259	86.88
345.487	78.88
345.714	78.88
345.942	72.88
346.17	75.88
346.397	94.88
346.625	78.88
346.853	80.88
347.08	93.88
347.308	74.88
347.535	66.88
347.763	87.88
347.99	79.88
348.218	85.88
348.445	84.88
348.673	78.88
348.9	74.88
349.128	89.88
349.355	84.88
349.583	88.88
349.81	80.88
350.037	91.88
350.265	82.88
350.492	77.88
350.72	90.88
350.947	85.88
351.174	71.88
351.402	84.88
351.629	66.88
351.856	67.88
352.083	70.88
352.311	87.88
352.538	72.88
352.765	89.88
352.992	86.88
353.22	73.88
353.447	64.88
353.674	86.88
353.901	92.88
354.128	81.88
354.355	72.88
354.583	72.88
354.81	85.88
355.037	68.88
355.264	79.88
355.491	96.88
355.718	68.88
355.945	82.88
356.172	80.88
356.399	85.88
356.626	74.88
356.853	84.88
357.08	80.88
357.307	80.88
357.534	79.88
357.761	80.88
357.988	78.88
358.215	88.88
358.441	84.88
358.668	80.88
358.895	78.88
359.122	86.88
359.349	98.88
359.576	71.88
359.802	69.88
360.029	82.88
360.256	73.88
360.483	74.88
360.709	72.88
360.936	86.88
361.163	69.88
361.39	88.88
361.616	84.88
361.843	82.88
362.07	99.88
362.296	70.88
362.523	77.88
362.749	90.88
362.976	80.88
363.203	91.88
363.429	88.88
363.656	90.88
363.882	82.88
364.109	91.88
364.335	80.88
364.562	79.88
364.788	74.88
365.015	86.88
365.241	76.88
365.468	83.88
365.694	82.88
365.92	96.88
366.147	82.88
366.373	82.88
366.599	81.88
366.826	85.88
367.052	74.88
367.278	88.88
367.505	84.88
367.731	88.88
367.957	86.88
368.184	87.88
368.41	83.88
368.636	84.88
368.862	81.88
369.089	91.88
369.315	81.88
369.541	92.88
369.767	92.88
369.993	85.88
370.219	77.88
370.445	70.88
370.672	95.88
370.898	80.88
371.124	88.88
371.35	73.88
371.576	72.88
371.802	77.88
372.028	80.88
372.254	74.88
372.48	72.88
372.706	73.88
372.932	74.88
373.158	73.88
373.384	75.88
373.61	82.88
373.835	82.88
374.061	63.88
374.287	73.88
374.513	72.88
374.739	82.88
374.965	92.88
375.191	96.88
375.416	88.88
375.642	81.88
375.868	79.88
376.094	72.88
376.319	83.88
376.545	72.88
376.771	72.88
376.997	72.88
377.222	72.88
377.448	88.88
377.674	80.88
377.899	77.88
378.125	86.88
378.35	72.88
378.576	69.88
378.802	74.88
379.027	84.88
379.253	89.88
379.478	80.88
379.704	94.88
379.929	78.88
380.155	66.88
380.38	81.88
380.606	80.88
380.831	93.88
381.057	93.88
381.282	74.88
381.507	79.88
381.733	90.88
381.958	78.88
382.184	71.88
382.409	72.88
382.634	64.88
382.86	94.88
383.085	92.88
383.31	90.88
383.535	92.88
383.761	80.88
383.986	97.88
384.211	88.88
384.436	90.88
384.662	80.88
384.887	60.88
385.112	71.88
385.337	88.88
385.562	79.88
385.787	75.88
386.013	72.88
386.238	74.88
386.463	81.88
386.688	80.88
386.913	70.88
387.138	78.88
387.363	93.88
387.588	80.88
387.813	84.88
388.038	79.88
388.263	91.88
388.488	76.88
388.713	80.88
388.938	85.88
389.163	73.88
389.387	82.88
389.612	88.88
389.837	86.88
390.062	88.88
390.287	68.88
390.512	80.88
390.736	76.88
390.961	81.88
391.186	71.88
391.411	76.88
391.636	92.88
391.86	91.88
392.085	80.88
392.31	82.88
392.534	74.88
392.759	88.88
392.984	97.88
393.208	126.88
393.433	183.88
393.658	144.88
393.882	91.88
394.107	93.88
394.331	90.88
394.556	81.88
394.78	78.88
395.005	70.88
395.229	78.88
395.454	92.88
395.678	88.88
395.903	70.88
396.127	88.88
396.352	94.88
396.576	102.88
396.801	139.88
397.025	150.88
397.249	99.88
397.474	81.88
397.698	80.88
397.922	79.88
398.147	88.88
398.371	88.88
398.595	80.88
398.82	80.88
399.044	80.88
399.268	84.88
399.492	84.88
399.717	74.88
399.941	80.88
400.165	76.88
400.389	80.88
400.613	94.88
400.837	94.88
401.062	81.88
401.286	86.88
401.51	77.88
401.734	72.88
401.958	86.88
402.182	85.88
402.406	80.88
402.63	73.88
402.854	75.88
403.078	84.88
403.302	72.88
403.526	76.88
403.75	80.88
403.974	78.88
404.198	81.88
404.422	103.88
404.645	101.88
404.869	89.88
405.093	83.88
405.317	85.88
405.541	81.88
405.765	76.88
405.988	86.88
406.212	86.88
406.436	77.88
406.66	82.88
406.883	96.88
407.107	97.88
407.331	73.88
407.555	72.88
407.778	94.88
408.002	83.88
408.226	73.88
408.449	84.88
408.673	72.88
408.896	94.88
409.12	78.88
409.344	73.88
409.567	87.88
409.791	69.88
410.014	90.88
410.238	86.88
410.461	83.88
410.685	90.88
410.908	74.88
411.132	77.88
411.355	81.88
411.578	96.88
411.802	70.88
412.025	73.88
412.249	80.88
412.472	71.88
412.695	87.88
412.919	90.88
413.142	86.88
413.365	79.88
413.589	80.88
413.812	74.88
414.035	86.88
414.258	73.88
414.482	79.88
414.705	85.88
414.928	77.88
415.151	77.88
415.374	87.88
415.597	75.88
415.821	80.88
416.044	68.88
416.267	74.88
416.49	82.88
416.713	94.88
416.936	84.88
417.159	83.88
417.382	68.88
417.605	80.88
417.828	74.88
418.051	80.88
418.274	87.88
418.497	85.88
418.72	56.88
418.943	75.88
419.166	72.88
419.389	76.88
419.611	78.88
419.834	89.88
420.057	76.88
420.28	82.88
420.503	81.88
420.726	80.88
420.948	92.88
421.171	75.88
421.394	75.88
421.617	83.88
421.839	93.88
422.062	88.88
422.285	96.88
422.507	92.88
422.73	118.88
422.953	124.88
423.175	89.88
423.398	82.88
423.621	86.88
423.843	96.88
424.066	69.88
424.288	80.88
424.511	84.88
424.733	89.88
424.956	74.88
425.178	74.88
425.401	79.88
425.623	75.88
425.846	84.88
426.068	84.88
426.291	80.88
426.513	74.88
426.735	86.88
426.958	90.88
427.18	86.88
427.402	89.88
427.625	82.88
427.847	78.88
428.069	76.88
428.292	93.88
428.514	100.88
428.736	88.88
428.958	84.88
429.181	81.88
429.403	85.88
429.625	84.88
429.847	92.88
430.069	82.88
430.292	87.88
430.514	89.88
430.736	87.88
430.958	80.88
431.18	83.88
431.402	79.88
431.624	86.88
431.846	90.88
432.068	80.88
432.29	90.88
432.512	90.88
432.734	79.88
432.956	85.88
433.178	75.88
433.4	76.88
433.622	64.88
433.844	67.88
434.066	73.88
434.287	75.88
434.509	78.88
434.731	76.88
434.953	70.88
435.175	65.88
435.397	77.88
435.618	77.88
435.84	82.88
436.062	85.88
436.284	77.88
436.505	81.88
436.727	80.88
436.949	84.88
437.17	72.88
437.392	68.88
437.614	67.88
437.835	75.88
438.057	81.88
438.278	68.88
438.5	70.88
438.721	77.88
438.943	56.88
439.165	88.88
439.386	98.88
439.608	80.88
439.829	83.88
440.05	82.88
440.272	78.88
440.493	96.88
440.715	79.88
440.936	80.88
441.158	68.88
441.379	92.88
441.6	74.88
441.822	73.88
442.043	72.88
442.264	78.88
442.486	87.88
442.707	66.88
442.928	68.88
443.149	86.88
443.371	80.88
443.592	92.88
443.813	82.88
444.034	71.88
444.255	62.88
444.476	77.88
444.698	78.88
444.919	83.88
445.14	174.88
445.361	111.88
445.582	95.88
445.803	81.88
446.024	68.88
446.245	72.88
446.466	80.88
446.687	74.88
446.908	74.88
447.129	62.88
447.35	70.88
447.571	85.88
447.792	62.88
448.013	87.88
448.234	74.88
448.455	78.88
448.675	80.88
448.896	88.88
449.117	76.88
449.338	82.88
449.559	87.88
449.779	84.88
450	71.88
450.221	74.88
450.442	82.88
450.662	68.88
450.883	70.88
451.104	82.88
451.324	82.88
451.545	88.88
451.766	69.88
451.986	74.88
452.207	75.88
452.428	80.88
452.648	74.88
452.869	80.88
453.089	66.88
453.31	68.88
453.53	77.88
453.751	70.88
453.971	86.88
454.192	80.88
454.412	75.88
454.633	81.88
454.853	87.88
455.073	96.88
455.294	67.88
455.514	81.88
455.734	72.88
455.955	80.88
456.175	66.88
456.395	72.88
456.616	69.88
456.836	72.88
457.056	73.88
457.276	97.88
457.497	72.88
457.717	59.88
457.937	93.88
458.157	76.88
458.377	83.88
458.598	101.88
458.818	77.88
459.038	87.88
459.258	92.88
459.478	85.88
459.698	81.88
459.918	77.88
460.138	74.88
460.358	86.88
460.578	76.88
460.798	82.88
461.018	81.88
461.238	82.88
461.458	86.88
461.678	66.88
461.898	82.88
462.118	88.88
462.338	56.88
462.558	66.88
462.777	85.88
462.997	87.88
463.217	92.88
463.437	86.88
463.657	89.88
463.876	69.88
464.096	71.88
464.316	73.88
464.536	74.88
464.755	92.88
464.975	77.88
465.195	83.88
465.414	77.88
465.634	84.88
465.854	80.88
466.073	78.88
466.293	78.88
466.512	72.88
466.732	60.88
466.951	74.88
467.171	83.88
467.391	68.88
467.61	84.88
467.829	80.88
468.049	80.88
468.268	69.88
468.488	82.88
468.707	79.88
468.927	73.88
469.146	75.88
469.365	75.88
469.585	88.88
469.804	68.88
470.023	67.88
470.243	75.88
470.462	78.88
470.681	86.88
470.901	81.88
471.12	78.88
471.339	77.88
471.558	85.88
471.777	84.88
471.997	77.88
472.216	83.88
472.435	77.88
472.654	81.88
472.873	76.88
473.092	82.88
473.311	88.88
473.53	87.88
473.749	88.88
473.968	85.88
474.187	80.88
474.406	77.88
474.625	81.88
474.844	88.88
475.063	92.88
475.282	68.88
475.501	80.88
475.72	78.88
475.939	74.88
476.158	82.88
476.377	88.88
476.596	71.88
476.814	88.88
477.033	89.88
477.252	89.88
477.471	77.88
477.69	86.88
477.908	72.88
478.127	88.88
478.346	86.88
478.564	88.88
478.783	77.88
479.002	86.88
479.22	77.88
479.439	84.88
479.658	76.88
479.876	72.88
480.095	73.88
480.313	81.88
480.532	94.88
480.751	79.88
480.969	99.88
481.188	78.88
481.406	76.88
481.624	73.88
481.843	69.88
482.061	68.88
482.28	88.88
482.498	80.88
482.717	73.88
482.935	74.88
483.153	88.88
483.372	80.88
483.59	76.88
483.808	74.88
484.027	95.88
484.245	88.88
484.463	66.88
484.681	88.88
484.9	90.88
485.118	82.88
485.336	76.88
485.554	70.88
485.772	73.88
485.99	68.88
486.209	85.88
486.427	81.88
486.645	84.88
486.863	86.88
487.081	72.88
487.299	76.88
487.517	85.88
487.735	85.88
487.953	94.88
488.171	97.88
488.389	70.88
488.607	88.88
488.825	81.88
489.043	87.88
489.261	83.88
489.479	82.88
489.696	75.88
489.914	78.88
490.132	81.88
490.35	85.88
490.568	83.88
490.786	82.88
491.003	78.88
491.221	86.88
491.439	61.88
491.657	78.88
491.874	68.88
492.092	76.88
492.31	95.88
492.527	86.88
492.745	66.88
492.963	76.88
493.18	85.88
493.398	80.88
493.615	79.88
493.833	67.88
494.05	80.88
494.268	82.88
494.485	95.88
494.703	91.88
494.92	82.88
495.138	96.88
495.355	88.88
495.573	82.88
495.79	80.88
496.008	85.88
496.225	76.88
496.442	82.88
496.66	81.88
496.877	89.88
497.094	84.88
497.312	88.88
497.529	73.88
497.746	89.88
497.963	70.88
498.181	83.88
498.398	76.88
498.615	88.88
498.832	77.88
499.049	86.88
499.267	75.88
499.484	86.88
499.701	73.88
499.918	72.88
500.135	81.88
500.352	90.88
500.569	80.88
500.786	81.88
501.003	80.88
501.22	83.88
501.437	85.88
501.654	72.88
501.871	74.88
502.088	83.88
502.305	92.88
502.522	80.88
502.739	74.88
502.956	77.88
503.172	97.88
503.389	81.88
503.606	74.88
503.823	73.88
504.04	75.88
504.256	76.88
504.473	78.88
504.69	102.88
504.907	94.88
505.123	90.88
505.34	74.88
505.557	85.88
505.773	74.88
505.99	82.88
506.207	86.88
506.423	74.88
506.64	86.88
506.856	85.88
507.073	79.88
507.289	79.88
507.506	92.88
507.722	69.88
507.939	78.88
508.155	84.88
508.372	79.88
508.588	86.88
508.805	74.88
509.021	78.88
509.238	77.88
509.454	84.88
509.67	81.88
509.887	83.88
510.103	72.88
510.319	84.88
510.536	103.88
510.752	76.88
510.968	86.88
511.184	80.88
511.401	80.88
511.617	61.88
511.833	74.88
512.049	89.88
512.265	75.88
512.481	81.88
512.698	83.88
512.914	82.88
513.13	73.88
513.346	82.88
513.562	68.88
513.778	84.88
513.994	82.88
514.21	85.88
514.426	96.88
514.642	74.88
514.858	69.88
515.074	81.88
515.29	82.88
515.506	83.88
515.721	72.88
515.937	81.88
516.153	87.88
516.369	80.88
516.585	77.88
516.801	75.88
517.016	79.88
517.232	87.88
517.448	85.88
517.664	79.88
517.879	88.88
518.095	82.88
518.311	75.88
518.527	84.88
518.742	81.88
518.958	92.88
519.173	84.88
519.389	95.88
519.605	94.88
519.82	72.88
520.036	81.88
