Data from HP_1_HRD10591_00020.txt Node
Date: Mon Jan 19 14:15:17 EST 2026
User: Yrep
Spectrometer: HR+D1059
Trigger mode: 1
Integration Time (sec): 1.000000E-1
Scans to average: 1
Electric dark correction enabled: true
Nonlinearity correction enabled: false
Boxcar width: 0
XAxis mode: Wavelengths
Number of Pixels in Spectrum: 2048
>>>>>Begin Spectral Data<<<<<
223.165	-13.56
223.4	-13.56
223.635	-13.56
223.869	-23.56
224.104	-28.56
224.338	-13.56
224.573	0.44
224.808	-6.56
225.042	-11.56
225.277	-2.56
225.511	-4.56
225.746	-0.56
225.98	2.44
226.215	13.44
226.449	9.44
226.683	14.44
226.918	36.44
227.152	28.44
227.387	26.44
227.621	51.44
227.856	44.44
228.09	53.44
228.324	55.44
228.559	54.44
228.793	61.44
229.027	45.44
229.262	62.44
229.496	66.44
229.73	66.44
229.964	57.44
230.199	78.44
230.433	80.44
230.667	70.44
230.901	82.44
231.136	84.44
231.37	85.44
231.604	68.44
231.838	75.44
232.072	78.44
232.306	85.44
232.541	81.44
232.775	86.44
233.009	87.44
233.243	68.44
233.477	90.44
233.711	69.44
233.945	78.44
234.179	83.44
234.413	83.44
234.647	84.44
234.881	87.44
235.115	85.44
235.349	72.44
235.583	88.44
235.817	76.44
236.051	66.44
236.285	89.44
236.519	78.44
236.753	81.44
236.987	78.44
237.221	66.44
237.455	69.44
237.689	85.44
237.922	72.44
238.156	56.44
238.39	65.44
238.624	75.44
238.858	71.44
239.091	71.44
239.325	83.44
239.559	77.44
239.793	98.44
240.027	86.44
240.26	75.44
240.494	70.44
240.728	71.44
240.961	68.44
241.195	65.44
241.429	67.44
241.662	58.44
241.896	80.44
242.13	76.44
242.363	73.44
242.597	77.44
242.83	73.44
243.064	88.44
243.298	76.44
243.531	76.44
243.765	78.44
243.998	60.44
244.232	74.44
244.465	99.44
244.699	76.44
244.932	80.44
245.166	88.44
245.399	74.44
245.633	86.44
245.866	72.44
246.099	92.44
246.333	85.44
246.566	78.44
246.8	63.44
247.033	88.44
247.266	78.44
247.5	88.44
247.733	79.44
247.966	74.44
248.2	82.44
248.433	79.44
248.666	76.44
248.899	96.44
249.133	91.44
249.366	84.44
249.599	66.44
249.832	78.44
250.066	80.44
250.299	66.44
250.532	70.44
250.765	74.44
250.998	86.44
251.231	77.44
251.465	77.44
251.698	81.44
251.931	69.44
252.164	80.44
252.397	79.44
252.63	75.44
252.863	96.44
253.096	71.44
253.329	73.44
253.562	67.44
253.795	82.44
254.028	81.44
254.261	77.44
254.494	83.44
254.727	87.44
254.96	64.44
255.193	72.44
255.426	85.44
255.659	77.44
255.892	84.44
256.124	68.44
256.357	64.44
256.59	82.44
256.823	87.44
257.056	71.44
257.289	88.44
257.521	93.44
257.754	78.44
257.987	71.44
258.22	68.44
258.452	66.44
258.685	84.44
258.918	62.44
259.151	81.44
259.383	80.44
259.616	89.44
259.849	79.44
260.081	89.44
260.314	75.44
260.547	90.44
260.779	85.44
261.012	96.44
261.244	80.44
261.477	82.44
261.71	75.44
261.942	87.44
262.175	87.44
262.407	87.44
262.64	75.44
262.872	68.44
263.105	71.44
263.337	77.44
263.57	84.44
263.802	77.44
264.035	86.44
264.267	85.44
264.499	82.44
264.732	85.44
264.964	73.44
265.197	77.44
265.429	92.44
265.661	105.44
265.894	71.44
266.126	85.44
266.358	75.44
266.591	88.44
266.823	86.44
267.055	68.44
267.287	91.44
267.52	85.44
267.752	85.44
267.984	83.44
268.216	90.44
268.448	90.44
268.681	98.44
268.913	74.44
269.145	89.44
269.377	87.44
269.609	80.44
269.841	82.44
270.073	81.44
270.306	84.44
270.538	83.44
270.77	92.44
271.002	78.44
271.234	79.44
271.466	94.44
271.698	91.44
271.93	77.44
272.162	96.44
272.394	84.44
272.626	74.44
272.858	70.44
273.09	83.44
273.322	76.44
273.553	75.44
273.785	77.44
274.017	83.44
274.249	90.44
274.481	76.44
274.713	88.44
274.945	76.44
275.176	73.44
275.408	64.44
275.64	77.44
275.872	92.44
276.104	86.44
276.335	97.44
276.567	92.44
276.799	77.44
277.031	86.44
277.262	66.44
277.494	80.44
277.726	79.44
277.957	95.44
278.189	75.44
278.421	74.44
278.652	68.44
278.884	76.44
279.115	102.44
279.347	90.44
279.579	85.44
279.81	96.44
280.042	83.44
280.273	82.44
280.505	82.44
280.736	87.44
280.968	76.44
281.199	75.44
281.431	85.44
281.662	77.44
281.894	80.44
282.125	78.44
282.356	102.44
282.588	89.44
282.819	82.44
283.051	77.44
283.282	78.44
283.513	85.44
283.745	77.44
283.976	72.44
284.207	79.44
284.439	81.44
284.67	77.44
284.901	79.44
285.132	87.44
285.364	86.44
285.595	90.44
285.826	69.44
286.057	84.44
286.288	91.44
286.52	105.44
286.751	88.44
286.982	86.44
287.213	85.44
287.444	74.44
287.675	77.44
287.906	87.44
288.138	95.44
288.369	69.44
288.6	86.44
288.831	82.44
289.062	82.44
289.293	85.44
289.524	92.44
289.755	81.44
289.986	94.44
290.217	92.44
290.448	76.44
290.679	92.44
290.91	100.44
291.141	83.44
291.371	76.44
291.602	85.44
291.833	93.44
292.064	85.44
292.295	85.44
292.526	86.44
292.757	79.44
292.987	78.44
293.218	81.44
293.449	88.44
293.68	90.44
293.91	71.44
294.141	84.44
294.372	74.44
294.603	87.44
294.833	81.44
295.064	92.44
295.295	76.44
295.525	88.44
295.756	89.44
295.987	96.44
296.217	97.44
296.448	77.44
296.679	101.44
296.909	91.44
297.14	73.44
297.37	92.44
297.601	89.44
297.831	86.44
298.062	88.44
298.292	90.44
298.523	77.44
298.753	90.44
298.984	105.44
299.214	85.44
299.445	77.44
299.675	84.44
299.905	95.44
300.136	84.44
300.366	84.44
300.597	85.44
300.827	89.44
301.057	80.44
301.288	66.44
301.518	77.44
301.748	89.44
301.979	105.44
302.209	78.44
302.439	95.44
302.669	85.44
302.9	90.44
303.13	65.44
303.36	79.44
303.59	83.44
303.82	95.44
304.051	85.44
304.281	90.44
304.511	88.44
304.741	95.44
304.971	84.44
305.201	86.44
305.431	81.44
305.661	102.44
305.891	78.44
306.121	85.44
306.352	101.44
306.582	76.44
306.812	91.44
307.042	75.44
307.272	93.44
307.502	85.44
307.731	99.44
307.961	78.44
308.191	94.44
308.421	85.44
308.651	88.44
308.881	84.44
309.111	84.44
309.341	89.44
309.571	89.44
309.8	83.44
310.03	88.44
310.26	93.44
310.49	99.44
310.72	80.44
310.949	89.44
311.179	88.44
311.409	88.44
311.639	87.44
311.868	81.44
312.098	88.44
312.328	78.44
312.557	81.44
312.787	82.44
313.017	74.44
313.246	97.44
313.476	86.44
313.706	90.44
313.935	85.44
314.165	92.44
314.394	88.44
314.624	93.44
314.853	80.44
315.083	90.44
315.312	99.44
315.542	87.44
315.771	78.44
316.001	85.44
316.23	74.44
316.46	81.44
316.689	89.44
316.919	100.44
317.148	82.44
317.377	77.44
317.607	82.44
317.836	83.44
318.065	85.44
318.295	91.44
318.524	79.44
318.753	82.44
318.983	76.44
319.212	83.44
319.441	84.44
319.67	81.44
319.9	89.44
320.129	92.44
320.358	92.44
320.587	94.44
320.816	82.44
321.046	68.44
321.275	94.44
321.504	77.44
321.733	91.44
321.962	100.44
322.191	90.44
322.42	90.44
322.649	82.44
322.878	74.44
323.108	100.44
323.337	92.44
323.566	85.44
323.795	83.44
324.024	86.44
324.253	80.44
324.482	85.44
324.71	100.44
324.939	81.44
325.168	98.44
325.397	82.44
325.626	91.44
325.855	84.44
326.084	83.44
326.313	88.44
326.542	92.44
326.77	88.44
326.999	90.44
327.228	80.44
327.457	81.44
327.686	71.44
327.914	82.44
328.143	77.44
328.372	76.44
328.6	83.44
328.829	73.44
329.058	86.44
329.287	84.44
329.515	74.44
329.744	94.44
329.972	72.44
330.201	91.44
330.43	86.44
330.658	76.44
330.887	94.44
331.115	91.44
331.344	88.44
331.572	81.44
331.801	96.44
332.03	89.44
332.258	96.44
332.486	77.44
332.715	83.44
332.943	82.44
333.172	92.44
333.4	80.44
333.629	81.44
333.857	84.44
334.085	74.44
334.314	86.44
334.542	92.44
334.771	87.44
334.999	99.44
335.227	93.44
335.455	89.44
335.684	85.44
335.912	89.44
336.14	88.44
336.369	107.44
336.597	97.44
336.825	91.44
337.053	99.44
337.281	84.44
337.51	83.44
337.738	85.44
337.966	69.44
338.194	81.44
338.422	87.44
338.65	85.44
338.878	92.44
339.106	76.44
339.334	95.44
339.562	95.44
339.79	85.44
340.018	88.44
340.246	81.44
340.474	73.44
340.702	76.44
340.93	89.44
341.158	86.44
341.386	87.44
341.614	82.44
341.842	88.44
342.07	78.44
342.298	90.44
342.526	86.44
342.754	83.44
342.981	91.44
343.209	83.44
343.437	100.44
343.665	94.44
343.893	84.44
344.12	83.44
344.348	89.44
344.576	69.44
344.804	88.44
345.031	75.44
345.259	88.44
345.487	93.44
345.714	77.44
345.942	82.44
346.17	87.44
346.397	76.44
346.625	91.44
346.853	87.44
347.08	78.44
347.308	80.44
347.535	89.44
347.763	92.44
347.99	91.44
348.218	75.44
348.445	79.44
348.673	98.44
348.9	88.44
349.128	87.44
349.355	91.44
349.583	85.44
349.81	89.44
350.037	72.44
350.265	84.44
350.492	90.44
350.72	84.44
350.947	83.44
351.174	77.44
351.402	81.44
351.629	66.44
351.856	89.44
352.083	80.44
352.311	94.44
352.538	72.44
352.765	90.44
352.992	90.44
353.22	88.44
353.447	82.44
353.674	90.44
353.901	76.44
354.128	85.44
354.355	74.44
354.583	86.44
354.81	82.44
355.037	73.44
355.264	89.44
355.491	91.44
355.718	76.44
355.945	91.44
356.172	99.44
356.399	80.44
356.626	89.44
356.853	86.44
357.08	83.44
357.307	85.44
357.534	83.44
357.761	94.44
357.988	91.44
358.215	100.44
358.441	86.44
358.668	99.44
358.895	69.44
359.122	87.44
359.349	81.44
359.576	90.44
359.802	97.44
360.029	90.44
360.256	84.44
360.483	78.44
360.709	76.44
360.936	74.44
361.163	90.44
361.39	78.44
361.616	90.44
361.843	77.44
362.07	78.44
362.296	102.44
362.523	67.44
362.749	91.44
362.976	98.44
363.203	82.44
363.429	84.44
363.656	96.44
363.882	76.44
364.109	91.44
364.335	99.44
364.562	89.44
364.788	82.44
365.015	75.44
365.241	86.44
365.468	75.44
365.694	68.44
365.92	89.44
366.147	82.44
366.373	88.44
366.599	86.44
366.826	92.44
367.052	80.44
367.278	82.44
367.505	99.44
367.731	82.44
367.957	77.44
368.184	75.44
368.41	78.44
368.636	85.44
368.862	82.44
369.089	70.44
369.315	87.44
369.541	91.44
369.767	79.44
369.993	74.44
370.219	104.44
370.445	81.44
370.672	76.44
370.898	76.44
371.124	86.44
371.35	90.44
371.576	95.44
371.802	80.44
372.028	86.44
372.254	86.44
372.48	92.44
372.706	86.44
372.932	68.44
373.158	88.44
373.384	73.44
373.61	82.44
373.835	91.44
374.061	86.44
374.287	78.44
374.513	89.44
374.739	82.44
374.965	81.44
375.191	93.44
375.416	82.44
375.642	78.44
375.868	83.44
376.094	83.44
376.319	83.44
376.545	81.44
376.771	83.44
376.997	82.44
377.222	86.44
377.448	91.44
377.674	75.44
377.899	73.44
378.125	90.44
378.35	92.44
378.576	68.44
378.802	90.44
379.027	90.44
379.253	83.44
379.478	86.44
379.704	101.44
379.929	105.44
380.155	82.44
380.38	96.44
380.606	85.44
380.831	82.44
381.057	95.44
381.282	91.44
381.507	76.44
381.733	77.44
381.958	74.44
382.184	78.44
382.409	80.44
382.634	94.44
382.86	93.44
383.085	93.44
383.31	78.44
383.535	90.44
383.761	82.44
383.986	88.44
384.211	97.44
384.436	90.44
384.662	88.44
384.887	86.44
385.112	81.44
385.337	87.44
385.562	94.44
385.787	89.44
386.013	86.44
386.238	85.44
386.463	80.44
386.688	86.44
386.913	96.44
387.138	87.44
387.363	100.44
387.588	84.44
387.813	77.44
388.038	85.44
388.263	97.44
388.488	77.44
388.713	85.44
388.938	71.44
389.163	85.44
389.387	76.44
389.612	79.44
389.837	68.44
390.062	80.44
390.287	76.44
390.512	75.44
390.736	90.44
390.961	86.44
391.186	88.44
391.411	79.44
391.636	74.44
391.86	75.44
392.085	78.44
392.31	77.44
392.534	90.44
392.759	85.44
392.984	104.44
393.208	122.44
393.433	131.44
393.658	107.44
393.882	98.44
394.107	82.44
394.331	88.44
394.556	88.44
394.78	85.44
395.005	104.44
395.229	91.44
395.454	90.44
395.678	86.44
395.903	83.44
396.127	92.44
396.352	100.44
396.576	102.44
396.801	99.44
397.025	99.44
397.249	94.44
397.474	92.44
397.698	89.44
397.922	84.44
398.147	80.44
398.371	81.44
398.595	89.44
398.82	82.44
399.044	86.44
399.268	73.44
399.492	88.44
399.717	95.44
399.941	72.44
400.165	85.44
400.389	79.44
400.613	79.44
400.837	96.44
401.062	79.44
401.286	79.44
401.51	81.44
401.734	93.44
401.958	73.44
402.182	82.44
402.406	80.44
402.63	69.44
402.854	91.44
403.078	79.44
403.302	76.44
403.526	74.44
403.75	88.44
403.974	83.44
404.198	75.44
404.422	78.44
404.645	85.44
404.869	83.44
405.093	84.44
405.317	89.44
405.541	84.44
405.765	84.44
405.988	81.44
406.212	76.44
406.436	74.44
406.66	93.44
406.883	78.44
407.107	82.44
407.331	78.44
407.555	80.44
407.778	84.44
408.002	86.44
408.226	83.44
408.449	75.44
408.673	85.44
408.896	86.44
409.12	75.44
409.344	95.44
409.567	92.44
409.791	87.44
410.014	96.44
410.238	72.44
410.461	82.44
410.685	82.44
410.908	87.44
411.132	91.44
411.355	86.44
411.578	88.44
411.802	86.44
412.025	86.44
412.249	75.44
412.472	80.44
412.695	87.44
412.919	92.44
413.142	67.44
413.365	82.44
413.589	77.44
413.812	85.44
414.035	82.44
414.258	88.44
414.482	69.44
414.705	80.44
414.928	91.44
415.151	97.44
415.374	82.44
415.597	84.44
415.821	83.44
416.044	89.44
416.267	87.44
416.49	78.44
416.713	89.44
416.936	92.44
417.159	80.44
417.382	88.44
417.605	86.44
417.828	75.44
418.051	64.44
418.274	92.44
418.497	65.44
418.72	88.44
418.943	85.44
419.166	102.44
419.389	81.44
419.611	71.44
419.834	90.44
420.057	89.44
420.28	75.44
420.503	77.44
420.726	73.44
420.948	69.44
421.171	76.44
421.394	78.44
421.617	90.44
421.839	89.44
422.062	79.44
422.285	85.44
422.507	85.44
422.73	119.44
422.953	117.44
423.175	99.44
423.398	75.44
423.621	85.44
423.843	86.44
424.066	95.44
424.288	101.44
424.511	81.44
424.733	97.44
424.956	79.44
425.178	95.44
425.401	86.44
425.623	90.44
425.846	66.44
426.068	80.44
426.291	91.44
426.513	84.44
426.735	80.44
426.958	88.44
427.18	83.44
427.402	84.44
427.625	66.44
427.847	85.44
428.069	90.44
428.292	90.44
428.514	82.44
428.736	88.44
428.958	83.44
429.181	84.44
429.403	75.44
429.625	80.44
429.847	76.44
430.069	88.44
430.292	90.44
430.514	103.44
430.736	98.44
430.958	75.44
431.18	88.44
431.402	101.44
431.624	77.44
431.846	93.44
432.068	90.44
432.29	97.44
432.512	91.44
432.734	78.44
432.956	70.44
433.178	76.44
433.4	76.44
433.622	70.44
433.844	78.44
434.066	74.44
434.287	79.44
434.509	86.44
434.731	84.44
434.953	84.44
435.175	91.44
435.397	79.44
435.618	75.44
435.84	71.44
436.062	81.44
436.284	79.44
436.505	86.44
436.727	91.44
436.949	80.44
437.17	79.44
437.392	81.44
437.614	91.44
437.835	71.44
438.057	85.44
438.278	76.44
438.5	71.44
438.721	84.44
438.943	76.44
439.165	67.44
439.386	90.44
439.608	72.44
439.829	88.44
440.05	81.44
440.272	81.44
440.493	84.44
440.715	93.44
440.936	87.44
441.158	76.44
441.379	73.44
441.6	85.44
441.822	88.44
442.043	98.44
442.264	73.44
442.486	96.44
442.707	87.44
442.928	91.44
443.149	87.44
443.371	99.44
443.592	87.44
443.813	90.44
444.034	99.44
444.255	65.44
444.476	93.44
444.698	85.44
444.919	77.44
445.14	162.44
445.361	125.44
445.582	109.44
445.803	86.44
446.024	80.44
446.245	91.44
446.466	81.44
446.687	66.44
446.908	88.44
447.129	86.44
447.35	90.44
447.571	85.44
447.792	82.44
448.013	76.44
448.234	75.44
448.455	83.44
448.675	81.44
448.896	76.44
449.117	80.44
449.338	83.44
449.559	78.44
449.779	96.44
450	99.44
450.221	75.44
450.442	68.44
450.662	83.44
450.883	79.44
451.104	97.44
451.324	69.44
451.545	86.44
451.766	83.44
451.986	76.44
452.207	96.44
452.428	88.44
452.648	76.44
452.869	68.44
453.089	89.44
453.31	93.44
453.53	76.44
453.751	75.44
453.971	76.44
454.192	91.44
454.412	86.44
454.633	87.44
454.853	93.44
455.073	76.44
455.294	72.44
455.514	83.44
455.734	80.44
455.955	79.44
456.175	88.44
456.395	78.44
456.616	72.44
456.836	78.44
457.056	90.44
457.276	85.44
457.497	78.44
457.717	83.44
457.937	85.44
458.157	88.44
458.377	83.44
458.598	87.44
458.818	73.44
459.038	85.44
459.258	79.44
459.478	75.44
459.698	84.44
459.918	84.44
460.138	77.44
460.358	84.44
460.578	90.44
460.798	87.44
461.018	68.44
461.238	81.44
461.458	84.44
461.678	68.44
461.898	76.44
462.118	82.44
462.338	84.44
462.558	84.44
462.777	75.44
462.997	77.44
463.217	80.44
463.437	88.44
463.657	97.44
463.876	85.44
464.096	70.44
464.316	69.44
464.536	68.44
464.755	68.44
464.975	77.44
465.195	80.44
465.414	86.44
465.634	92.44
465.854	80.44
466.073	70.44
466.293	75.44
466.512	75.44
466.732	73.44
466.951	93.44
467.171	73.44
467.391	86.44
467.61	90.44
467.829	78.44
468.049	88.44
468.268	80.44
468.488	82.44
468.707	74.44
468.927	78.44
469.146	87.44
469.365	75.44
469.585	85.44
469.804	69.44
470.023	84.44
470.243	93.44
470.462	80.44
470.681	62.44
470.901	77.44
471.12	99.44
471.339	75.44
471.558	77.44
471.777	67.44
471.997	79.44
472.216	80.44
472.435	78.44
472.654	77.44
472.873	89.44
473.092	93.44
473.311	77.44
473.53	82.44
473.749	78.44
473.968	91.44
474.187	87.44
474.406	76.44
474.625	86.44
474.844	94.44
475.063	75.44
475.282	86.44
475.501	68.44
475.72	74.44
475.939	82.44
476.158	75.44
476.377	85.44
476.596	83.44
476.814	76.44
477.033	91.44
477.252	83.44
477.471	84.44
477.69	78.44
477.908	75.44
478.127	81.44
478.346	93.44
478.564	83.44
478.783	85.44
479.002	77.44
479.22	78.44
479.439	83.44
479.658	74.44
479.876	72.44
480.095	78.44
480.313	71.44
480.532	77.44
480.751	76.44
480.969	84.44
481.188	84.44
481.406	83.44
481.624	96.44
481.843	91.44
482.061	68.44
482.28	79.44
482.498	74.44
482.717	81.44
482.935	73.44
483.153	83.44
483.372	85.44
483.59	83.44
483.808	97.44
484.027	90.44
484.245	86.44
484.463	74.44
484.681	88.44
484.9	88.44
485.118	91.44
485.336	77.44
485.554	84.44
485.772	77.44
485.99	81.44
486.209	88.44
486.427	76.44
486.645	92.44
486.863	70.44
487.081	76.44
487.299	82.44
487.517	94.44
487.735	86.44
487.953	82.44
488.171	78.44
488.389	81.44
488.607	86.44
488.825	86.44
489.043	72.44
489.261	92.44
489.479	86.44
489.696	80.44
489.914	81.44
490.132	87.44
490.35	87.44
490.568	81.44
490.786	102.44
491.003	77.44
491.221	82.44
491.439	79.44
491.657	78.44
491.874	72.44
492.092	77.44
492.31	86.44
492.527	70.44
492.745	88.44
492.963	78.44
493.18	91.44
493.398	80.44
493.615	87.44
493.833	66.44
494.05	77.44
494.268	70.44
494.485	82.44
494.703	88.44
494.92	74.44
495.138	77.44
495.355	89.44
495.573	77.44
495.79	77.44
496.008	88.44
496.225	72.44
496.442	85.44
496.66	90.44
496.877	76.44
497.094	79.44
497.312	91.44
497.529	85.44
497.746	78.44
497.963	90.44
498.181	92.44
498.398	82.44
498.615	77.44
498.832	77.44
499.049	84.44
499.267	87.44
499.484	73.44
499.701	84.44
499.918	82.44
500.135	86.44
500.352	85.44
500.569	77.44
500.786	71.44
501.003	78.44
501.22	82.44
501.437	84.44
501.654	77.44
501.871	92.44
502.088	76.44
502.305	77.44
502.522	75.44
502.739	86.44
502.956	93.44
503.172	82.44
503.389	85.44
503.606	90.44
503.823	86.44
504.04	75.44
504.256	89.44
504.473	70.44
504.69	92.44
504.907	89.44
505.123	87.44
505.34	77.44
505.557	88.44
505.773	75.44
505.99	81.44
506.207	80.44
506.423	87.44
506.64	77.44
506.856	81.44
507.073	86.44
507.289	86.44
507.506	70.44
507.722	82.44
507.939	93.44
508.155	99.44
508.372	78.44
508.588	87.44
508.805	94.44
509.021	88.44
509.238	92.44
509.454	84.44
509.67	97.44
509.887	84.44
510.103	78.44
510.319	92.44
510.536	78.44
510.752	82.44
510.968	92.44
511.184	73.44
511.401	96.44
511.617	59.44
511.833	87.44
512.049	85.44
512.265	85.44
512.481	93.44
512.698	70.44
512.914	82.44
513.13	87.44
513.346	92.44
513.562	93.44
513.778	77.44
513.994	82.44
514.21	82.44
514.426	72.44
514.642	90.44
514.858	92.44
515.074	109.44
515.29	91.44
515.506	83.44
515.721	73.44
515.937	88.44
516.153	85.44
516.369	80.44
516.585	73.44
516.801	78.44
517.016	90.44
517.232	88.44
517.448	76.44
517.664	84.44
517.879	94.44
518.095	82.44
518.311	89.44
518.527	83.44
518.742	90.44
518.958	92.44
519.173	93.44
519.389	81.44
519.605	90.44
519.82	92.44
