Data from HP_1_HRD10591_00009.txt Node
Date: Mon Jan 19 14:15:12 EST 2026
User: Yrep
Spectrometer: HR+D1059
Trigger mode: 1
Integration Time (sec): 1.000000E-1
Scans to average: 1
Electric dark correction enabled: true
Nonlinearity correction enabled: false
Boxcar width: 0
XAxis mode: Wavelengths
Number of Pixels in Spectrum: 2048
>>>>>Begin Spectral Data<<<<<
223.165	-17.44
223.4	-17.44
223.635	-17.44
223.869	-21.44
224.104	-3.44
224.338	0.56
224.573	-18.44
224.808	-19.44
225.042	-11.44
225.277	-7.44
225.511	4.56
225.746	-5.44
225.98	6.56
226.215	10.56
226.449	16.56
226.683	15.56
226.918	16.56
227.152	33.56
227.387	27.56
227.621	46.56
227.856	41.56
228.09	38.56
228.324	60.56
228.559	62.56
228.793	57.56
229.027	65.56
229.262	71.56
229.496	52.56
229.73	75.56
229.964	80.56
230.199	70.56
230.433	69.56
230.667	85.56
230.901	79.56
231.136	77.56
231.37	83.56
231.604	61.56
231.838	79.56
232.072	83.56
232.306	91.56
232.541	80.56
232.775	80.56
233.009	82.56
233.243	82.56
233.477	82.56
233.711	71.56
233.945	73.56
234.179	71.56
234.413	90.56
234.647	82.56
234.881	57.56
235.115	81.56
235.349	84.56
235.583	60.56
235.817	66.56
236.051	67.56
236.285	73.56
236.519	63.56
236.753	73.56
236.987	87.56
237.221	66.56
237.455	78.56
237.689	79.56
237.922	75.56
238.156	76.56
238.39	90.56
238.624	81.56
238.858	83.56
239.091	86.56
239.325	86.56
239.559	76.56
239.793	75.56
240.027	77.56
240.26	68.56
240.494	74.56
240.728	66.56
240.961	75.56
241.195	81.56
241.429	70.56
241.662	88.56
241.896	75.56
242.13	83.56
242.363	61.56
242.597	76.56
242.83	71.56
243.064	81.56
243.298	82.56
243.531	68.56
243.765	67.56
243.998	87.56
244.232	74.56
244.465	74.56
244.699	62.56
244.932	75.56
245.166	73.56
245.399	77.56
245.633	82.56
245.866	84.56
246.099	71.56
246.333	89.56
246.566	92.56
246.8	80.56
247.033	94.56
247.266	82.56
247.5	74.56
247.733	84.56
247.966	82.56
248.2	74.56
248.433	68.56
248.666	72.56
248.899	64.56
249.133	73.56
249.366	80.56
249.599	86.56
249.832	78.56
250.066	87.56
250.299	79.56
250.532	77.56
250.765	71.56
250.998	84.56
251.231	78.56
251.465	87.56
251.698	96.56
251.931	84.56
252.164	68.56
252.397	76.56
252.63	77.56
252.863	80.56
253.096	73.56
253.329	82.56
253.562	80.56
253.795	77.56
254.028	69.56
254.261	70.56
254.494	60.56
254.727	72.56
254.96	74.56
255.193	70.56
255.426	79.56
255.659	85.56
255.892	88.56
256.124	87.56
256.357	73.56
256.59	76.56
256.823	84.56
257.056	85.56
257.289	86.56
257.521	80.56
257.754	95.56
257.987	76.56
258.22	73.56
258.452	73.56
258.685	84.56
258.918	82.56
259.151	82.56
259.383	82.56
259.616	83.56
259.849	79.56
260.081	71.56
260.314	78.56
260.547	93.56
260.779	71.56
261.012	80.56
261.244	90.56
261.477	76.56
261.71	82.56
261.942	71.56
262.175	90.56
262.407	89.56
262.64	95.56
262.872	84.56
263.105	78.56
263.337	81.56
263.57	76.56
263.802	64.56
264.035	64.56
264.267	71.56
264.499	92.56
264.732	82.56
264.964	73.56
265.197	84.56
265.429	89.56
265.661	82.56
265.894	86.56
266.126	79.56
266.358	72.56
266.591	62.56
266.823	66.56
267.055	82.56
267.287	73.56
267.52	68.56
267.752	90.56
267.984	85.56
268.216	86.56
268.448	77.56
268.681	73.56
268.913	90.56
269.145	70.56
269.377	87.56
269.609	78.56
269.841	87.56
270.073	84.56
270.306	92.56
270.538	92.56
270.77	93.56
271.002	68.56
271.234	76.56
271.466	89.56
271.698	83.56
271.93	68.56
272.162	78.56
272.394	82.56
272.626	80.56
272.858	87.56
273.09	80.56
273.322	83.56
273.553	82.56
273.785	75.56
274.017	76.56
274.249	76.56
274.481	91.56
274.713	74.56
274.945	95.56
275.176	83.56
275.408	81.56
275.64	86.56
275.872	73.56
276.104	74.56
276.335	92.56
276.567	102.56
276.799	74.56
277.031	80.56
277.262	75.56
277.494	94.56
277.726	84.56
277.957	66.56
278.189	73.56
278.421	88.56
278.652	85.56
278.884	84.56
279.115	64.56
279.347	79.56
279.579	83.56
279.81	90.56
280.042	86.56
280.273	81.56
280.505	89.56
280.736	85.56
280.968	80.56
281.199	100.56
281.431	91.56
281.662	94.56
281.894	87.56
282.125	83.56
282.356	85.56
282.588	89.56
282.819	85.56
283.051	87.56
283.282	87.56
283.513	96.56
283.745	83.56
283.976	76.56
284.207	71.56
284.439	81.56
284.67	75.56
284.901	82.56
285.132	88.56
285.364	81.56
285.595	84.56
285.826	83.56
286.057	100.56
286.288	92.56
286.52	78.56
286.751	68.56
286.982	72.56
287.213	98.56
287.444	88.56
287.675	79.56
287.906	84.56
288.138	74.56
288.369	76.56
288.6	87.56
288.831	85.56
289.062	88.56
289.293	97.56
289.524	77.56
289.755	78.56
289.986	84.56
290.217	78.56
290.448	84.56
290.679	73.56
290.91	84.56
291.141	83.56
291.371	74.56
291.602	86.56
291.833	82.56
292.064	82.56
292.295	91.56
292.526	71.56
292.757	81.56
292.987	84.56
293.218	99.56
293.449	86.56
293.68	82.56
293.91	78.56
294.141	90.56
294.372	87.56
294.603	90.56
294.833	80.56
295.064	89.56
295.295	76.56
295.525	80.56
295.756	90.56
295.987	70.56
296.217	91.56
296.448	86.56
296.679	72.56
296.909	84.56
297.14	88.56
297.37	96.56
297.601	84.56
297.831	80.56
298.062	78.56
298.292	87.56
298.523	88.56
298.753	86.56
298.984	94.56
299.214	74.56
299.445	74.56
299.675	86.56
299.905	76.56
300.136	78.56
300.366	98.56
300.597	86.56
300.827	86.56
301.057	78.56
301.288	95.56
301.518	69.56
301.748	80.56
301.979	90.56
302.209	80.56
302.439	93.56
302.669	80.56
302.9	74.56
303.13	80.56
303.36	74.56
303.59	88.56
303.82	92.56
304.051	84.56
304.281	82.56
304.511	83.56
304.741	84.56
304.971	84.56
305.201	98.56
305.431	94.56
305.661	84.56
305.891	90.56
306.121	92.56
306.352	76.56
306.582	89.56
306.812	81.56
307.042	93.56
307.272	76.56
307.502	82.56
307.731	75.56
307.961	91.56
308.191	86.56
308.421	96.56
308.651	90.56
308.881	92.56
309.111	91.56
309.341	94.56
309.571	83.56
309.8	64.56
310.03	74.56
310.26	86.56
310.49	96.56
310.72	89.56
310.949	83.56
311.179	94.56
311.409	88.56
311.639	93.56
311.868	86.56
312.098	88.56
312.328	97.56
312.557	80.56
312.787	99.56
313.017	86.56
313.246	85.56
313.476	82.56
313.706	83.56
313.935	93.56
314.165	75.56
314.394	87.56
314.624	89.56
314.853	85.56
315.083	85.56
315.312	89.56
315.542	84.56
315.771	81.56
316.001	87.56
316.23	90.56
316.46	86.56
316.689	90.56
316.919	87.56
317.148	82.56
317.377	66.56
317.607	99.56
317.836	96.56
318.065	88.56
318.295	90.56
318.524	71.56
318.753	85.56
318.983	105.56
319.212	97.56
319.441	82.56
319.67	89.56
319.9	89.56
320.129	85.56
320.358	84.56
320.587	64.56
320.816	86.56
321.046	99.56
321.275	97.56
321.504	79.56
321.733	89.56
321.962	72.56
322.191	94.56
322.42	82.56
322.649	74.56
322.878	80.56
323.108	71.56
323.337	82.56
323.566	89.56
323.795	88.56
324.024	75.56
324.253	72.56
324.482	92.56
324.71	88.56
324.939	88.56
325.168	94.56
325.397	85.56
325.626	82.56
325.855	90.56
326.084	87.56
326.313	83.56
326.542	82.56
326.77	81.56
326.999	82.56
327.228	86.56
327.457	77.56
327.686	82.56
327.914	78.56
328.143	91.56
328.372	95.56
328.6	103.56
328.829	84.56
329.058	74.56
329.287	78.56
329.515	85.56
329.744	78.56
329.972	91.56
330.201	76.56
330.43	88.56
330.658	78.56
330.887	76.56
331.115	84.56
331.344	79.56
331.572	82.56
331.801	80.56
332.03	80.56
332.258	83.56
332.486	77.56
332.715	80.56
332.943	79.56
333.172	84.56
333.4	78.56
333.629	85.56
333.857	93.56
334.085	76.56
334.314	88.56
334.542	86.56
334.771	88.56
334.999	77.56
335.227	92.56
335.455	79.56
335.684	95.56
335.912	82.56
336.14	88.56
336.369	82.56
336.597	90.56
336.825	83.56
337.053	89.56
337.281	85.56
337.51	79.56
337.738	87.56
337.966	89.56
338.194	74.56
338.422	70.56
338.65	76.56
338.878	72.56
339.106	91.56
339.334	91.56
339.562	89.56
339.79	78.56
340.018	99.56
340.246	88.56
340.474	70.56
340.702	99.56
340.93	79.56
341.158	73.56
341.386	88.56
341.614	86.56
341.842	86.56
342.07	87.56
342.298	92.56
342.526	85.56
342.754	90.56
342.981	84.56
343.209	94.56
343.437	108.56
343.665	94.56
343.893	85.56
344.12	84.56
344.348	88.56
344.576	90.56
344.804	85.56
345.031	74.56
345.259	88.56
345.487	100.56
345.714	91.56
345.942	79.56
346.17	91.56
346.397	90.56
346.625	76.56
346.853	80.56
347.08	70.56
347.308	79.56
347.535	74.56
347.763	80.56
347.99	72.56
348.218	85.56
348.445	88.56
348.673	83.56
348.9	86.56
349.128	93.56
349.355	89.56
349.583	95.56
349.81	83.56
350.037	87.56
350.265	94.56
350.492	80.56
350.72	79.56
350.947	84.56
351.174	83.56
351.402	92.56
351.629	74.56
351.856	78.56
352.083	86.56
352.311	81.56
352.538	83.56
352.765	84.56
352.992	70.56
353.22	74.56
353.447	89.56
353.674	84.56
353.901	66.56
354.128	89.56
354.355	73.56
354.583	86.56
354.81	88.56
355.037	100.56
355.264	103.56
355.491	82.56
355.718	81.56
355.945	78.56
356.172	92.56
356.399	86.56
356.626	92.56
356.853	82.56
357.08	80.56
357.307	91.56
357.534	80.56
357.761	85.56
357.988	84.56
358.215	82.56
358.441	90.56
358.668	91.56
358.895	90.56
359.122	85.56
359.349	85.56
359.576	88.56
359.802	93.56
360.029	84.56
360.256	78.56
360.483	72.56
360.709	82.56
360.936	86.56
361.163	83.56
361.39	88.56
361.616	84.56
361.843	82.56
362.07	92.56
362.296	87.56
362.523	91.56
362.749	92.56
362.976	80.56
363.203	79.56
363.429	94.56
363.656	85.56
363.882	77.56
364.109	70.56
364.335	86.56
364.562	97.56
364.788	89.56
365.015	81.56
365.241	79.56
365.468	85.56
365.694	90.56
365.92	74.56
366.147	86.56
366.373	83.56
366.599	91.56
366.826	88.56
367.052	81.56
367.278	90.56
367.505	84.56
367.731	89.56
367.957	66.56
368.184	89.56
368.41	82.56
368.636	86.56
368.862	75.56
369.089	86.56
369.315	87.56
369.541	93.56
369.767	94.56
369.993	63.56
370.219	84.56
370.445	86.56
370.672	83.56
370.898	81.56
371.124	97.56
371.35	75.56
371.576	90.56
371.802	88.56
372.028	75.56
372.254	80.56
372.48	95.56
372.706	77.56
372.932	81.56
373.158	104.56
373.384	86.56
373.61	95.56
373.835	86.56
374.061	69.56
374.287	65.56
374.513	84.56
374.739	82.56
374.965	77.56
375.191	81.56
375.416	81.56
375.642	75.56
375.868	85.56
376.094	77.56
376.319	86.56
376.545	82.56
376.771	82.56
376.997	73.56
377.222	75.56
377.448	77.56
377.674	82.56
377.899	77.56
378.125	66.56
378.35	92.56
378.576	101.56
378.802	93.56
379.027	80.56
379.253	86.56
379.478	73.56
379.704	82.56
379.929	76.56
380.155	88.56
380.38	76.56
380.606	75.56
380.831	83.56
381.057	83.56
381.282	83.56
381.507	90.56
381.733	85.56
381.958	84.56
382.184	73.56
382.409	74.56
382.634	86.56
382.86	92.56
383.085	83.56
383.31	99.56
383.535	68.56
383.761	82.56
383.986	90.56
384.211	81.56
384.436	68.56
384.662	77.56
384.887	82.56
385.112	75.56
385.337	88.56
385.562	89.56
385.787	84.56
386.013	86.56
386.238	89.56
386.463	72.56
386.688	76.56
386.913	90.56
387.138	83.56
387.363	85.56
387.588	86.56
387.813	85.56
388.038	90.56
388.263	79.56
388.488	76.56
388.713	84.56
388.938	81.56
389.163	96.56
389.387	84.56
389.612	77.56
389.837	71.56
390.062	83.56
390.287	77.56
390.512	83.56
390.736	81.56
390.961	90.56
391.186	71.56
391.411	83.56
391.636	76.56
391.86	86.56
392.085	83.56
392.31	82.56
392.534	84.56
392.759	92.56
392.984	91.56
393.208	124.56
393.433	142.56
393.658	131.56
393.882	70.56
394.107	97.56
394.331	83.56
394.556	79.56
394.78	92.56
395.005	102.56
395.229	78.56
395.454	92.56
395.678	98.56
395.903	85.56
396.127	96.56
396.352	97.56
396.576	102.56
396.801	130.56
397.025	118.56
397.249	110.56
397.474	95.56
397.698	84.56
397.922	88.56
398.147	72.56
398.371	88.56
398.595	92.56
398.82	74.56
399.044	75.56
399.268	76.56
399.492	81.56
399.717	78.56
399.941	85.56
400.165	76.56
400.389	99.56
400.613	82.56
400.837	82.56
401.062	76.56
401.286	91.56
401.51	71.56
401.734	76.56
401.958	78.56
402.182	72.56
402.406	92.56
402.63	84.56
402.854	79.56
403.078	82.56
403.302	83.56
403.526	80.56
403.75	92.56
403.974	77.56
404.198	83.56
404.422	82.56
404.645	84.56
404.869	86.56
405.093	87.56
405.317	88.56
405.541	82.56
405.765	74.56
405.988	84.56
406.212	91.56
406.436	87.56
406.66	83.56
406.883	97.56
407.107	90.56
407.331	82.56
407.555	85.56
407.778	81.56
408.002	86.56
408.226	91.56
408.449	92.56
408.673	74.56
408.896	76.56
409.12	89.56
409.344	80.56
409.567	80.56
409.791	74.56
410.014	82.56
410.238	83.56
410.461	84.56
410.685	74.56
410.908	77.56
411.132	75.56
411.355	78.56
411.578	81.56
411.802	76.56
412.025	76.56
412.249	74.56
412.472	86.56
412.695	88.56
412.919	76.56
413.142	79.56
413.365	70.56
413.589	72.56
413.812	79.56
414.035	78.56
414.258	64.56
414.482	73.56
414.705	75.56
414.928	93.56
415.151	79.56
415.374	77.56
415.597	67.56
415.821	90.56
416.044	83.56
416.267	83.56
416.49	90.56
416.713	68.56
416.936	82.56
417.159	90.56
417.382	81.56
417.605	90.56
417.828	73.56
418.051	74.56
418.274	84.56
418.497	106.56
418.72	89.56
418.943	72.56
419.166	80.56
419.389	71.56
419.611	86.56
419.834	89.56
420.057	75.56
420.28	74.56
420.503	75.56
420.726	78.56
420.948	74.56
421.171	90.56
421.394	112.56
421.617	82.56
421.839	92.56
422.062	98.56
422.285	110.56
422.507	136.56
422.73	207.56
422.953	181.56
423.175	100.56
423.398	74.56
423.621	64.56
423.843	80.56
424.066	76.56
424.288	82.56
424.511	86.56
424.733	84.56
424.956	82.56
425.178	77.56
425.401	80.56
425.623	80.56
425.846	72.56
426.068	87.56
426.291	74.56
426.513	82.56
426.735	70.56
426.958	86.56
427.18	75.56
427.402	87.56
427.625	78.56
427.847	82.56
428.069	80.56
428.292	85.56
428.514	101.56
428.736	80.56
428.958	89.56
429.181	88.56
429.403	76.56
429.625	83.56
429.847	89.56
430.069	97.56
430.292	105.56
430.514	88.56
430.736	75.56
430.958	92.56
431.18	82.56
431.402	92.56
431.624	84.56
431.846	90.56
432.068	95.56
432.29	91.56
432.512	73.56
432.734	78.56
432.956	77.56
433.178	70.56
433.4	76.56
433.622	84.56
433.844	94.56
434.066	83.56
434.287	101.56
434.509	80.56
434.731	83.56
434.953	82.56
435.175	88.56
435.397	83.56
435.618	89.56
435.84	72.56
436.062	65.56
436.284	82.56
436.505	74.56
436.727	76.56
436.949	82.56
437.17	88.56
437.392	77.56
437.614	79.56
437.835	86.56
438.057	82.56
438.278	66.56
438.5	78.56
438.721	83.56
438.943	85.56
439.165	86.56
439.386	66.56
439.608	93.56
439.829	82.56
440.05	88.56
440.272	82.56
440.493	70.56
440.715	70.56
440.936	71.56
441.158	69.56
441.379	79.56
441.6	91.56
441.822	83.56
442.043	80.56
442.264	81.56
442.486	88.56
442.707	121.56
442.928	84.56
443.149	98.56
443.371	105.56
443.592	116.56
443.813	95.56
444.034	84.56
444.255	82.56
444.476	89.56
444.698	76.56
444.919	87.56
445.14	172.56
445.361	143.56
445.582	124.56
445.803	114.56
446.024	86.56
446.245	84.56
446.466	89.56
446.687	67.56
446.908	79.56
447.129	83.56
447.35	82.56
447.571	81.56
447.792	82.56
448.013	73.56
448.234	82.56
448.455	90.56
448.675	96.56
448.896	90.56
449.117	79.56
449.338	73.56
449.559	84.56
449.779	78.56
450	68.56
450.221	78.56
450.442	88.56
450.662	74.56
450.883	78.56
451.104	88.56
451.324	64.56
451.545	86.56
451.766	71.56
451.986	68.56
452.207	83.56
452.428	65.56
452.648	66.56
452.869	95.56
453.089	80.56
453.31	76.56
453.53	69.56
453.751	78.56
453.971	60.56
454.192	78.56
454.412	81.56
454.633	72.56
454.853	78.56
455.073	71.56
455.294	86.56
455.514	76.56
455.734	109.56
455.955	84.56
456.175	82.56
456.395	81.56
456.616	85.56
456.836	98.56
457.056	76.56
457.276	73.56
457.497	78.56
457.717	82.56
457.937	91.56
458.157	80.56
458.377	73.56
458.598	86.56
458.818	95.56
459.038	81.56
459.258	75.56
459.478	87.56
459.698	79.56
459.918	79.56
460.138	85.56
460.358	85.56
460.578	88.56
460.798	93.56
461.018	88.56
461.238	71.56
461.458	78.56
461.678	88.56
461.898	74.56
462.118	82.56
462.338	66.56
462.558	90.56
462.777	90.56
462.997	74.56
463.217	82.56
463.437	75.56
463.657	78.56
463.876	83.56
464.096	74.56
464.316	94.56
464.536	84.56
464.755	77.56
464.975	89.56
465.195	89.56
465.414	83.56
465.634	74.56
465.854	75.56
466.073	90.56
466.293	77.56
466.512	77.56
466.732	65.56
466.951	84.56
467.171	79.56
467.391	74.56
467.61	79.56
467.829	70.56
468.049	70.56
468.268	101.56
468.488	86.56
468.707	77.56
468.927	84.56
469.146	86.56
469.365	91.56
469.585	89.56
469.804	88.56
470.023	73.56
470.243	71.56
470.462	73.56
470.681	86.56
470.901	72.56
471.12	72.56
471.339	91.56
471.558	82.56
471.777	80.56
471.997	76.56
472.216	74.56
472.435	102.56
472.654	79.56
472.873	74.56
473.092	92.56
473.311	78.56
473.53	77.56
473.749	90.56
473.968	87.56
474.187	84.56
474.406	76.56
474.625	103.56
474.844	72.56
475.063	84.56
475.282	83.56
475.501	85.56
475.72	70.56
475.939	81.56
476.158	82.56
476.377	70.56
476.596	84.56
476.814	74.56
477.033	68.56
477.252	89.56
477.471	62.56
477.69	80.56
477.908	80.56
478.127	91.56
478.346	88.56
478.564	79.56
478.783	81.56
479.002	91.56
479.22	72.56
479.439	87.56
479.658	59.56
479.876	86.56
480.095	63.56
480.313	78.56
480.532	87.56
480.751	84.56
480.969	73.56
481.188	77.56
481.406	90.56
481.624	66.56
481.843	78.56
482.061	85.56
482.28	77.56
482.498	84.56
482.717	83.56
482.935	90.56
483.153	78.56
483.372	83.56
483.59	78.56
483.808	87.56
484.027	82.56
484.245	85.56
484.463	68.56
484.681	83.56
484.9	82.56
485.118	69.56
485.336	87.56
485.554	75.56
485.772	75.56
485.99	78.56
486.209	80.56
486.427	82.56
486.645	72.56
486.863	96.56
487.081	76.56
487.299	78.56
487.517	96.56
487.735	87.56
487.953	103.56
488.171	92.56
488.389	81.56
488.607	67.56
488.825	89.56
489.043	74.56
489.261	78.56
489.479	76.56
489.696	78.56
489.914	89.56
490.132	88.56
490.35	89.56
490.568	93.56
490.786	94.56
491.003	84.56
491.221	89.56
491.439	78.56
491.657	88.56
491.874	85.56
492.092	74.56
492.31	76.56
492.527	81.56
492.745	80.56
492.963	80.56
493.18	83.56
493.398	91.56
493.615	77.56
493.833	87.56
494.05	75.56
494.268	90.56
494.485	68.56
494.703	74.56
494.92	76.56
495.138	68.56
495.355	88.56
495.573	96.56
495.79	72.56
496.008	79.56
496.225	78.56
496.442	68.56
496.66	76.56
496.877	85.56
497.094	84.56
497.312	88.56
497.529	85.56
497.746	84.56
497.963	68.56
498.181	74.56
498.398	74.56
498.615	74.56
498.832	79.56
499.049	86.56
499.267	74.56
499.484	78.56
499.701	76.56
499.918	72.56
500.135	81.56
500.352	76.56
500.569	89.56
500.786	93.56
501.003	80.56
501.22	74.56
501.437	86.56
501.654	90.56
501.871	108.56
502.088	92.56
502.305	78.56
502.522	95.56
502.739	84.56
502.956	90.56
503.172	94.56
503.389	83.56
503.606	82.56
503.823	82.56
504.04	78.56
504.256	95.56
504.473	87.56
504.69	90.56
504.907	80.56
505.123	73.56
505.34	68.56
505.557	70.56
505.773	84.56
505.99	82.56
506.207	91.56
506.423	91.56
506.64	77.56
506.856	73.56
507.073	80.56
507.289	87.56
507.506	79.56
507.722	74.56
507.939	93.56
508.155	70.56
508.372	73.56
508.588	90.56
508.805	93.56
509.021	83.56
509.238	74.56
509.454	79.56
509.67	88.56
509.887	72.56
510.103	86.56
510.319	86.56
510.536	93.56
510.752	84.56
510.968	96.56
511.184	89.56
511.401	82.56
511.617	74.56
511.833	78.56
512.049	78.56
512.265	86.56
512.481	71.56
512.698	92.56
512.914	74.56
513.13	86.56
513.346	89.56
513.562	84.56
513.778	93.56
513.994	78.56
514.21	88.56
514.426	98.56
514.642	83.56
514.858	86.56
515.074	90.56
515.29	87.56
515.506	85.56
515.721	71.56
515.937	84.56
516.153	88.56
516.369	81.56
516.585	90.56
516.801	87.56
517.016	91.56
517.232	99.56
517.448	87.56
517.664	94.56
517.879	84.56
518.095	77.56
518.311	86.56
518.527	79.56
518.742	82.56
518.958	90.56
519.173	99.56
519.389	92.56
519.605	72.56
519.82	62.56
