Data from HP_1_HRD10591_00034.txt Node
Date: Mon Jan 19 14:15:24 EST 2026
User: Yrep
Spectrometer: HR+D1059
Trigger mode: 1
Integration Time (sec): 1.000000E-1
Scans to average: 1
Electric dark correction enabled: true
Nonlinearity correction enabled: false
Boxcar width: 0
XAxis mode: Wavelengths
Number of Pixels in Spectrum: 2048
>>>>>Begin Spectral Data<<<<<
223.165	-14.69
223.4	-14.69
223.635	-14.69
223.869	-27.69
224.104	-19.69
224.338	-9.69
224.573	0.31
224.808	-13.69
225.042	-8.69
225.277	5.31
225.511	-6.69
225.746	1.31
225.98	6.31
226.215	2.31
226.449	15.31
226.683	12.31
226.918	30.31
227.152	27.31
227.387	31.31
227.621	49.31
227.856	53.31
228.09	47.31
228.324	43.31
228.559	56.31
228.793	63.31
229.027	43.31
229.262	62.31
229.496	60.31
229.73	60.31
229.964	67.31
230.199	64.31
230.433	71.31
230.667	70.31
230.901	72.31
231.136	64.31
231.37	78.31
231.604	75.31
231.838	72.31
232.072	89.31
232.306	73.31
232.541	75.31
232.775	89.31
233.009	75.31
233.243	81.31
233.477	80.31
233.711	66.31
233.945	77.31
234.179	76.31
234.413	94.31
234.647	84.31
234.881	80.31
235.115	71.31
235.349	90.31
235.583	74.31
235.817	78.31
236.051	96.31
236.285	81.31
236.519	66.31
236.753	72.31
236.987	84.31
237.221	70.31
237.455	71.31
237.689	74.31
237.922	65.31
238.156	75.31
238.39	62.31
238.624	80.31
238.858	71.31
239.091	81.31
239.325	63.31
239.559	75.31
239.793	76.31
240.027	72.31
240.26	80.31
240.494	89.31
240.728	66.31
240.961	74.31
241.195	81.31
241.429	80.31
241.662	68.31
241.896	70.31
242.13	86.31
242.363	72.31
242.597	69.31
242.83	74.31
243.064	75.31
243.298	70.31
243.531	68.31
243.765	79.31
243.998	83.31
244.232	89.31
244.465	74.31
244.699	64.31
244.932	76.31
245.166	78.31
245.399	78.31
245.633	73.31
245.866	66.31
246.099	80.31
246.333	82.31
246.566	67.31
246.8	80.31
247.033	72.31
247.266	82.31
247.5	80.31
247.733	74.31
247.966	78.31
248.2	79.31
248.433	70.31
248.666	90.31
248.899	81.31
249.133	66.31
249.366	70.31
249.599	80.31
249.832	68.31
250.066	80.31
250.299	90.31
250.532	81.31
250.765	83.31
250.998	74.31
251.231	78.31
251.465	72.31
251.698	78.31
251.931	68.31
252.164	81.31
252.397	70.31
252.63	86.31
252.863	80.31
253.096	72.31
253.329	75.31
253.562	70.31
253.795	84.31
254.028	88.31
254.261	72.31
254.494	73.31
254.727	78.31
254.96	80.31
255.193	79.31
255.426	76.31
255.659	75.31
255.892	82.31
256.124	80.31
256.357	75.31
256.59	86.31
256.823	89.31
257.056	84.31
257.289	87.31
257.521	87.31
257.754	95.31
257.987	72.31
258.22	82.31
258.452	91.31
258.685	75.31
258.918	74.31
259.151	81.31
259.383	80.31
259.616	74.31
259.849	79.31
260.081	76.31
260.314	70.31
260.547	75.31
260.779	83.31
261.012	79.31
261.244	88.31
261.477	72.31
261.71	78.31
261.942	97.31
262.175	83.31
262.407	83.31
262.64	81.31
262.872	74.31
263.105	99.31
263.337	82.31
263.57	88.31
263.802	78.31
264.035	87.31
264.267	75.31
264.499	91.31
264.732	82.31
264.964	89.31
265.197	95.31
265.429	86.31
265.661	82.31
265.894	87.31
266.126	76.31
266.358	60.31
266.591	87.31
266.823	83.31
267.055	74.31
267.287	87.31
267.52	69.31
267.752	72.31
267.984	90.31
268.216	83.31
268.448	86.31
268.681	91.31
268.913	80.31
269.145	68.31
269.377	71.31
269.609	75.31
269.841	77.31
270.073	72.31
270.306	65.31
270.538	90.31
270.77	80.31
271.002	76.31
271.234	81.31
271.466	80.31
271.698	83.31
271.93	79.31
272.162	85.31
272.394	92.31
272.626	83.31
272.858	78.31
273.09	88.31
273.322	70.31
273.553	72.31
273.785	87.31
274.017	74.31
274.249	86.31
274.481	94.31
274.713	87.31
274.945	81.31
275.176	82.31
275.408	89.31
275.64	76.31
275.872	82.31
276.104	80.31
276.335	86.31
276.567	85.31
276.799	72.31
277.031	70.31
277.262	77.31
277.494	72.31
277.726	76.31
277.957	87.31
278.189	81.31
278.421	82.31
278.652	83.31
278.884	97.31
279.115	86.31
279.347	82.31
279.579	78.31
279.81	76.31
280.042	82.31
280.273	64.31
280.505	79.31
280.736	78.31
280.968	81.31
281.199	112.31
281.431	80.31
281.662	90.31
281.894	74.31
282.125	76.31
282.356	88.31
282.588	71.31
282.819	85.31
283.051	77.31
283.282	77.31
283.513	77.31
283.745	84.31
283.976	95.31
284.207	90.31
284.439	75.31
284.67	83.31
284.901	73.31
285.132	76.31
285.364	84.31
285.595	76.31
285.826	79.31
286.057	95.31
286.288	69.31
286.52	77.31
286.751	75.31
286.982	67.31
287.213	64.31
287.444	81.31
287.675	73.31
287.906	72.31
288.138	88.31
288.369	80.31
288.6	89.31
288.831	92.31
289.062	83.31
289.293	74.31
289.524	82.31
289.755	77.31
289.986	76.31
290.217	76.31
290.448	79.31
290.679	67.31
290.91	95.31
291.141	82.31
291.371	87.31
291.602	87.31
291.833	90.31
292.064	95.31
292.295	86.31
292.526	84.31
292.757	76.31
292.987	88.31
293.218	81.31
293.449	70.31
293.68	79.31
293.91	86.31
294.141	80.31
294.372	94.31
294.603	76.31
294.833	87.31
295.064	87.31
295.295	81.31
295.525	70.31
295.756	72.31
295.987	94.31
296.217	93.31
296.448	89.31
296.679	84.31
296.909	77.31
297.14	79.31
297.37	89.31
297.601	80.31
297.831	76.31
298.062	81.31
298.292	86.31
298.523	80.31
298.753	85.31
298.984	84.31
299.214	77.31
299.445	69.31
299.675	94.31
299.905	97.31
300.136	88.31
300.366	80.31
300.597	75.31
300.827	82.31
301.057	69.31
301.288	91.31
301.518	90.31
301.748	77.31
301.979	97.31
302.209	92.31
302.439	85.31
302.669	77.31
302.9	76.31
303.13	74.31
303.36	73.31
303.59	72.31
303.82	84.31
304.051	62.31
304.281	82.31
304.511	81.31
304.741	86.31
304.971	80.31
305.201	90.31
305.431	94.31
305.661	95.31
305.891	80.31
306.121	91.31
306.352	87.31
306.582	87.31
306.812	81.31
307.042	84.31
307.272	74.31
307.502	75.31
307.731	84.31
307.961	85.31
308.191	107.31
308.421	87.31
308.651	75.31
308.881	86.31
309.111	92.31
309.341	73.31
309.571	74.31
309.8	91.31
310.03	73.31
310.26	84.31
310.49	87.31
310.72	70.31
310.949	66.31
311.179	89.31
311.409	90.31
311.639	76.31
311.868	86.31
312.098	80.31
312.328	89.31
312.557	89.31
312.787	94.31
313.017	91.31
313.246	94.31
313.476	82.31
313.706	79.31
313.935	76.31
314.165	86.31
314.394	104.31
314.624	80.31
314.853	83.31
315.083	79.31
315.312	83.31
315.542	88.31
315.771	90.31
316.001	82.31
316.23	106.31
316.46	84.31
316.689	76.31
316.919	82.31
317.148	84.31
317.377	95.31
317.607	82.31
317.836	96.31
318.065	80.31
318.295	92.31
318.524	84.31
318.753	69.31
318.983	82.31
319.212	98.31
319.441	85.31
319.67	92.31
319.9	95.31
320.129	97.31
320.358	87.31
320.587	86.31
320.816	84.31
321.046	84.31
321.275	82.31
321.504	77.31
321.733	79.31
321.962	83.31
322.191	81.31
322.42	89.31
322.649	88.31
322.878	84.31
323.108	88.31
323.337	80.31
323.566	87.31
323.795	85.31
324.024	90.31
324.253	73.31
324.482	91.31
324.71	72.31
324.939	84.31
325.168	85.31
325.397	94.31
325.626	72.31
325.855	83.31
326.084	97.31
326.313	99.31
326.542	89.31
326.77	91.31
326.999	89.31
327.228	60.31
327.457	76.31
327.686	82.31
327.914	71.31
328.143	75.31
328.372	94.31
328.6	76.31
328.829	90.31
329.058	78.31
329.287	72.31
329.515	82.31
329.744	99.31
329.972	85.31
330.201	80.31
330.43	73.31
330.658	76.31
330.887	89.31
331.115	80.31
331.344	66.31
331.572	85.31
331.801	75.31
332.03	86.31
332.258	81.31
332.486	75.31
332.715	93.31
332.943	87.31
333.172	88.31
333.4	82.31
333.629	77.31
333.857	87.31
334.085	75.31
334.314	80.31
334.542	89.31
334.771	86.31
334.999	83.31
335.227	90.31
335.455	70.31
335.684	78.31
335.912	85.31
336.14	77.31
336.369	88.31
336.597	86.31
336.825	88.31
337.053	73.31
337.281	78.31
337.51	80.31
337.738	84.31
337.966	91.31
338.194	80.31
338.422	90.31
338.65	89.31
338.878	93.31
339.106	68.31
339.334	93.31
339.562	80.31
339.79	83.31
340.018	88.31
340.246	94.31
340.474	82.31
340.702	90.31
340.93	96.31
341.158	78.31
341.386	79.31
341.614	92.31
341.842	81.31
342.07	86.31
342.298	74.31
342.526	70.31
342.754	83.31
342.981	94.31
343.209	91.31
343.437	86.31
343.665	74.31
343.893	83.31
344.12	76.31
344.348	86.31
344.576	91.31
344.804	66.31
345.031	79.31
345.259	82.31
345.487	82.31
345.714	67.31
345.942	80.31
346.17	76.31
346.397	73.31
346.625	88.31
346.853	81.31
347.08	74.31
347.308	89.31
347.535	87.31
347.763	91.31
347.99	97.31
348.218	82.31
348.445	85.31
348.673	77.31
348.9	81.31
349.128	96.31
349.355	87.31
349.583	88.31
349.81	83.31
350.037	90.31
350.265	89.31
350.492	77.31
350.72	95.31
350.947	90.31
351.174	78.31
351.402	68.31
351.629	78.31
351.856	84.31
352.083	74.31
352.311	80.31
352.538	72.31
352.765	84.31
352.992	98.31
353.22	89.31
353.447	80.31
353.674	88.31
353.901	70.31
354.128	64.31
354.355	86.31
354.583	80.31
354.81	92.31
355.037	84.31
355.264	83.31
355.491	67.31
355.718	82.31
355.945	91.31
356.172	88.31
356.399	79.31
356.626	76.31
356.853	83.31
357.08	97.31
357.307	85.31
357.534	89.31
357.761	85.31
357.988	73.31
358.215	76.31
358.441	84.31
358.668	74.31
358.895	86.31
359.122	90.31
359.349	72.31
359.576	77.31
359.802	89.31
360.029	88.31
360.256	92.31
360.483	86.31
360.709	83.31
360.936	91.31
361.163	84.31
361.39	91.31
361.616	74.31
361.843	78.31
362.07	77.31
362.296	74.31
362.523	86.31
362.749	75.31
362.976	100.31
363.203	87.31
363.429	85.31
363.656	90.31
363.882	78.31
364.109	81.31
364.335	89.31
364.562	90.31
364.788	83.31
365.015	86.31
365.241	75.31
365.468	84.31
365.694	84.31
365.92	94.31
366.147	87.31
366.373	82.31
366.599	82.31
366.826	92.31
367.052	86.31
367.278	81.31
367.505	88.31
367.731	76.31
367.957	91.31
368.184	71.31
368.41	64.31
368.636	84.31
368.862	80.31
369.089	82.31
369.315	72.31
369.541	85.31
369.767	88.31
369.993	90.31
370.219	71.31
370.445	78.31
370.672	89.31
370.898	71.31
371.124	88.31
371.35	94.31
371.576	81.31
371.802	74.31
372.028	86.31
372.254	79.31
372.48	80.31
372.706	84.31
372.932	85.31
373.158	93.31
373.384	83.31
373.61	91.31
373.835	85.31
374.061	81.31
374.287	86.31
374.513	75.31
374.739	90.31
374.965	86.31
375.191	75.31
375.416	88.31
375.642	76.31
375.868	83.31
376.094	83.31
376.319	69.31
376.545	79.31
376.771	71.31
376.997	74.31
377.222	88.31
377.448	75.31
377.674	88.31
377.899	72.31
378.125	79.31
378.35	74.31
378.576	74.31
378.802	91.31
379.027	86.31
379.253	88.31
379.478	74.31
379.704	88.31
379.929	68.31
380.155	68.31
380.38	78.31
380.606	80.31
380.831	93.31
381.057	87.31
381.282	82.31
381.507	73.31
381.733	91.31
381.958	78.31
382.184	91.31
382.409	92.31
382.634	88.31
382.86	80.31
383.085	90.31
383.31	88.31
383.535	86.31
383.761	94.31
383.986	86.31
384.211	86.31
384.436	106.31
384.662	83.31
384.887	67.31
385.112	84.31
385.337	86.31
385.562	90.31
385.787	88.31
386.013	90.31
386.238	77.31
386.463	75.31
386.688	95.31
386.913	85.31
387.138	81.31
387.363	85.31
387.588	77.31
387.813	95.31
388.038	84.31
388.263	96.31
388.488	77.31
388.713	76.31
388.938	89.31
389.163	78.31
389.387	66.31
389.612	80.31
389.837	74.31
390.062	71.31
390.287	86.31
390.512	79.31
390.736	70.31
390.961	88.31
391.186	64.31
391.411	84.31
391.636	83.31
391.86	86.31
392.085	79.31
392.31	84.31
392.534	72.31
392.759	85.31
392.984	82.31
393.208	122.31
393.433	138.31
393.658	128.31
393.882	94.31
394.107	80.31
394.331	90.31
394.556	101.31
394.78	98.31
395.005	86.31
395.229	84.31
395.454	82.31
395.678	97.31
395.903	101.31
396.127	96.31
396.352	94.31
396.576	88.31
396.801	118.31
397.025	139.31
397.249	105.31
397.474	96.31
397.698	87.31
397.922	73.31
398.147	82.31
398.371	70.31
398.595	80.31
398.82	68.31
399.044	74.31
399.268	62.31
399.492	93.31
399.717	98.31
399.941	76.31
400.165	103.31
400.389	75.31
400.613	82.31
400.837	80.31
401.062	90.31
401.286	77.31
401.51	74.31
401.734	84.31
401.958	74.31
402.182	76.31
402.406	88.31
402.63	75.31
402.854	80.31
403.078	75.31
403.302	81.31
403.526	80.31
403.75	78.31
403.974	65.31
404.198	78.31
404.422	79.31
404.645	83.31
404.869	83.31
405.093	75.31
405.317	78.31
405.541	81.31
405.765	74.31
405.988	84.31
406.212	68.31
406.436	88.31
406.66	73.31
406.883	90.31
407.107	92.31
407.331	84.31
407.555	89.31
407.778	83.31
408.002	89.31
408.226	74.31
408.449	86.31
408.673	89.31
408.896	80.31
409.12	88.31
409.344	76.31
409.567	77.31
409.791	82.31
410.014	76.31
410.238	87.31
410.461	78.31
410.685	85.31
410.908	83.31
411.132	86.31
411.355	74.31
411.578	87.31
411.802	67.31
412.025	82.31
412.249	74.31
412.472	76.31
412.695	82.31
412.919	79.31
413.142	89.31
413.365	81.31
413.589	71.31
413.812	72.31
414.035	80.31
414.258	77.31
414.482	92.31
414.705	84.31
414.928	76.31
415.151	94.31
415.374	79.31
415.597	75.31
415.821	98.31
416.044	90.31
416.267	75.31
416.49	72.31
416.713	83.31
416.936	84.31
417.159	82.31
417.382	83.31
417.605	72.31
417.828	71.31
418.051	82.31
418.274	86.31
418.497	84.31
418.72	81.31
418.943	87.31
419.166	83.31
419.389	74.31
419.611	82.31
419.834	87.31
420.057	75.31
420.28	97.31
420.503	92.31
420.726	80.31
420.948	90.31
421.171	76.31
421.394	86.31
421.617	76.31
421.839	94.31
422.062	80.31
422.285	99.31
422.507	99.31
422.73	123.31
422.953	118.31
423.175	82.31
423.398	81.31
423.621	71.31
423.843	72.31
424.066	80.31
424.288	83.31
424.511	87.31
424.733	82.31
424.956	74.31
425.178	90.31
425.401	75.31
425.623	95.31
425.846	83.31
426.068	76.31
426.291	81.31
426.513	72.31
426.735	74.31
426.958	95.31
427.18	81.31
427.402	76.31
427.625	98.31
427.847	81.31
428.069	77.31
428.292	71.31
428.514	80.31
428.736	83.31
428.958	86.31
429.181	79.31
429.403	94.31
429.625	83.31
429.847	68.31
430.069	76.31
430.292	93.31
430.514	86.31
430.736	90.31
430.958	82.31
431.18	86.31
431.402	92.31
431.624	79.31
431.846	80.31
432.068	72.31
432.29	85.31
432.512	106.31
432.734	76.31
432.956	67.31
433.178	81.31
433.4	81.31
433.622	97.31
433.844	92.31
434.066	78.31
434.287	71.31
434.509	70.31
434.731	86.31
434.953	85.31
435.175	80.31
435.397	79.31
435.618	77.31
435.84	81.31
436.062	91.31
436.284	86.31
436.505	70.31
436.727	89.31
436.949	77.31
437.17	73.31
437.392	76.31
437.614	95.31
437.835	80.31
438.057	80.31
438.278	78.31
438.5	85.31
438.721	71.31
438.943	105.31
439.165	82.31
439.386	95.31
439.608	82.31
439.829	88.31
440.05	83.31
440.272	84.31
440.493	76.31
440.715	79.31
440.936	88.31
441.158	73.31
441.379	88.31
441.6	76.31
441.822	87.31
442.043	82.31
442.264	86.31
442.486	82.31
442.707	80.31
442.928	83.31
443.149	86.31
443.371	86.31
443.592	84.31
443.813	93.31
444.034	82.31
444.255	79.31
444.476	84.31
444.698	84.31
444.919	86.31
445.14	168.31
445.361	120.31
445.582	91.31
445.803	102.31
446.024	88.31
446.245	88.31
446.466	70.31
446.687	61.31
446.908	90.31
447.129	70.31
447.35	74.31
447.571	83.31
447.792	70.31
448.013	82.31
448.234	90.31
448.455	64.31
448.675	69.31
448.896	73.31
449.117	86.31
449.338	82.31
449.559	70.31
449.779	66.31
450	75.31
450.221	77.31
450.442	64.31
450.662	55.31
450.883	78.31
451.104	83.31
451.324	76.31
451.545	87.31
451.766	82.31
451.986	80.31
452.207	88.31
452.428	85.31
452.648	85.31
452.869	82.31
453.089	77.31
453.31	78.31
453.53	85.31
453.751	91.31
453.971	81.31
454.192	91.31
454.412	85.31
454.633	80.31
454.853	84.31
455.073	82.31
455.294	82.31
455.514	82.31
455.734	71.31
455.955	79.31
456.175	75.31
456.395	65.31
456.616	75.31
456.836	74.31
457.056	88.31
457.276	75.31
457.497	76.31
457.717	84.31
457.937	83.31
458.157	97.31
458.377	81.31
458.598	81.31
458.818	75.31
459.038	74.31
459.258	84.31
459.478	77.31
459.698	78.31
459.918	69.31
460.138	84.31
460.358	92.31
460.578	74.31
460.798	95.31
461.018	86.31
461.238	86.31
461.458	88.31
461.678	85.31
461.898	91.31
462.118	94.31
462.338	90.31
462.558	79.31
462.777	74.31
462.997	78.31
463.217	89.31
463.437	90.31
463.657	83.31
463.876	82.31
464.096	82.31
464.316	73.31
464.536	84.31
464.755	80.31
464.975	72.31
465.195	86.31
465.414	90.31
465.634	75.31
465.854	79.31
466.073	83.31
466.293	87.31
466.512	72.31
466.732	74.31
466.951	86.31
467.171	80.31
467.391	96.31
467.61	89.31
467.829	88.31
468.049	78.31
468.268	87.31
468.488	84.31
468.707	95.31
468.927	88.31
469.146	82.31
469.365	94.31
469.585	80.31
469.804	76.31
470.023	76.31
470.243	86.31
470.462	82.31
470.681	79.31
470.901	76.31
471.12	84.31
471.339	84.31
471.558	82.31
471.777	86.31
471.997	94.31
472.216	83.31
472.435	73.31
472.654	76.31
472.873	84.31
473.092	96.31
473.311	83.31
473.53	93.31
473.749	74.31
473.968	80.31
474.187	90.31
474.406	80.31
474.625	92.31
474.844	82.31
475.063	79.31
475.282	77.31
475.501	79.31
475.72	82.31
475.939	90.31
476.158	92.31
476.377	71.31
476.596	67.31
476.814	86.31
477.033	71.31
477.252	85.31
477.471	84.31
477.69	76.31
477.908	83.31
478.127	76.31
478.346	82.31
478.564	81.31
478.783	89.31
479.002	84.31
479.22	79.31
479.439	82.31
479.658	87.31
479.876	95.31
480.095	70.31
480.313	90.31
480.532	72.31
480.751	84.31
480.969	66.31
481.188	87.31
481.406	82.31
481.624	84.31
481.843	76.31
482.061	96.31
482.28	69.31
482.498	83.31
482.717	70.31
482.935	86.31
483.153	89.31
483.372	87.31
483.59	94.31
483.808	74.31
484.027	89.31
484.245	59.31
484.463	79.31
484.681	76.31
484.9	96.31
485.118	88.31
485.336	89.31
485.554	83.31
485.772	99.31
485.99	79.31
486.209	79.31
486.427	88.31
486.645	80.31
486.863	82.31
487.081	72.31
487.299	62.31
487.517	84.31
487.735	91.31
487.953	102.31
488.171	93.31
488.389	90.31
488.607	89.31
488.825	79.31
489.043	91.31
489.261	91.31
489.479	88.31
489.696	100.31
489.914	75.31
490.132	63.31
490.35	83.31
490.568	86.31
490.786	90.31
491.003	81.31
491.221	72.31
491.439	82.31
491.657	72.31
491.874	84.31
492.092	74.31
492.31	82.31
492.527	86.31
492.745	86.31
492.963	79.31
493.18	74.31
493.398	66.31
493.615	76.31
493.833	83.31
494.05	78.31
494.268	85.31
494.485	83.31
494.703	91.31
494.92	68.31
495.138	77.31
495.355	89.31
495.573	94.31
495.79	87.31
496.008	78.31
496.225	76.31
496.442	67.31
496.66	103.31
496.877	82.31
497.094	92.31
497.312	64.31
497.529	71.31
497.746	75.31
497.963	86.31
498.181	80.31
498.398	82.31
498.615	90.31
498.832	71.31
499.049	73.31
499.267	82.31
499.484	75.31
499.701	90.31
499.918	81.31
500.135	89.31
500.352	91.31
500.569	78.31
500.786	78.31
501.003	80.31
501.22	80.31
501.437	88.31
501.654	84.31
501.871	95.31
502.088	82.31
502.305	60.31
502.522	90.31
502.739	82.31
502.956	81.31
503.172	96.31
503.389	76.31
503.606	89.31
503.823	68.31
504.04	89.31
504.256	87.31
504.473	87.31
504.69	79.31
504.907	82.31
505.123	69.31
505.34	84.31
505.557	85.31
505.773	89.31
505.99	65.31
506.207	73.31
506.423	87.31
506.64	96.31
506.856	82.31
507.073	92.31
507.289	87.31
507.506	83.31
507.722	92.31
507.939	75.31
508.155	87.31
508.372	87.31
508.588	88.31
508.805	79.31
509.021	72.31
509.238	76.31
509.454	87.31
509.67	80.31
509.887	71.31
510.103	86.31
510.319	84.31
510.536	90.31
510.752	89.31
510.968	82.31
511.184	94.31
511.401	89.31
511.617	87.31
511.833	84.31
512.049	79.31
512.265	71.31
512.481	73.31
512.698	87.31
512.914	96.31
513.13	84.31
513.346	90.31
513.562	82.31
513.778	82.31
513.994	82.31
514.21	82.31
514.426	74.31
514.642	87.31
514.858	72.31
515.074	73.31
515.29	80.31
515.506	96.31
515.721	92.31
515.937	79.31
516.153	90.31
516.369	86.31
516.585	84.31
516.801	94.31
517.016	82.31
517.232	82.31
517.448	89.31
517.664	80.31
517.879	83.31
518.095	76.31
518.311	79.31
518.527	89.31
518.742	80.31
518.958	68.31
519.173	72.31
519.389	82.31
519.605	87.31
519.82	102.31
520.036	82.31
