Data from HP_1_HRD10591_00031.txt Node
Date: Mon Jan 19 14:15:23 EST 2026
User: Yrep
Spectrometer: HR+D1059
Trigger mode: 1
Integration Time (sec): 1.000000E-1
Scans to average: 1
Electric dark correction enabled: true
Nonlinearity correction enabled: false
Boxcar width: 0
XAxis mode: Wavelengths
Number of Pixels in Spectrum: 2048
>>>>>Begin Spectral Data<<<<<
223.165	-24.06
223.4	-24.06
223.635	-24.06
223.869	-19.06
224.104	-16.06
224.338	-13.06
224.573	-10.06
224.808	-8.06
225.042	-2.06
225.277	-12.06
225.511	-16.06
225.746	-8.06
225.98	1.94
226.215	17.94
226.449	8.94
226.683	32.94
226.918	27.94
227.152	38.94
227.387	28.94
227.621	33.94
227.856	41.94
228.09	44.94
228.324	45.94
228.559	63.94
228.793	69.94
229.027	63.94
229.262	61.94
229.496	67.94
229.73	72.94
229.964	79.94
230.199	98.94
230.433	79.94
230.667	99.94
230.901	73.94
231.136	88.94
231.37	83.94
231.604	98.94
231.838	82.94
232.072	70.94
232.306	74.94
232.541	92.94
232.775	81.94
233.009	91.94
233.243	83.94
233.477	97.94
233.711	80.94
233.945	83.94
234.179	85.94
234.413	74.94
234.647	85.94
234.881	70.94
235.115	72.94
235.349	90.94
235.583	87.94
235.817	73.94
236.051	89.94
236.285	82.94
236.519	79.94
236.753	97.94
236.987	81.94
237.221	81.94
237.455	91.94
237.689	69.94
237.922	84.94
238.156	83.94
238.39	67.94
238.624	60.94
238.858	69.94
239.091	84.94
239.325	71.94
239.559	69.94
239.793	73.94
240.027	80.94
240.26	87.94
240.494	90.94
240.728	73.94
240.961	76.94
241.195	61.94
241.429	78.94
241.662	78.94
241.896	81.94
242.13	79.94
242.363	81.94
242.597	78.94
242.83	83.94
243.064	61.94
243.298	84.94
243.531	75.94
243.765	71.94
243.998	78.94
244.232	72.94
244.465	79.94
244.699	84.94
244.932	71.94
245.166	77.94
245.399	64.94
245.633	69.94
245.866	82.94
246.099	78.94
246.333	71.94
246.566	90.94
246.8	69.94
247.033	77.94
247.266	76.94
247.5	65.94
247.733	71.94
247.966	95.94
248.2	87.94
248.433	81.94
248.666	83.94
248.899	79.94
249.133	84.94
249.366	91.94
249.599	79.94
249.832	83.94
250.066	83.94
250.299	76.94
250.532	71.94
250.765	87.94
250.998	70.94
251.231	77.94
251.465	79.94
251.698	75.94
251.931	69.94
252.164	85.94
252.397	80.94
252.63	77.94
252.863	75.94
253.096	82.94
253.329	81.94
253.562	68.94
253.795	62.94
254.028	83.94
254.261	67.94
254.494	88.94
254.727	93.94
254.96	77.94
255.193	88.94
255.426	70.94
255.659	81.94
255.892	81.94
256.124	84.94
256.357	79.94
256.59	79.94
256.823	92.94
257.056	76.94
257.289	83.94
257.521	92.94
257.754	76.94
257.987	88.94
258.22	68.94
258.452	73.94
258.685	71.94
258.918	87.94
259.151	86.94
259.383	82.94
259.616	73.94
259.849	75.94
260.081	79.94
260.314	80.94
260.547	77.94
260.779	81.94
261.012	83.94
261.244	72.94
261.477	90.94
261.71	83.94
261.942	76.94
262.175	78.94
262.407	83.94
262.64	97.94
262.872	77.94
263.105	71.94
263.337	90.94
263.57	83.94
263.802	84.94
264.035	90.94
264.267	72.94
264.499	73.94
264.732	90.94
264.964	83.94
265.197	75.94
265.429	72.94
265.661	78.94
265.894	81.94
266.126	89.94
266.358	77.94
266.591	96.94
266.823	90.94
267.055	72.94
267.287	85.94
267.52	69.94
267.752	76.94
267.984	95.94
268.216	90.94
268.448	83.94
268.681	75.94
268.913	89.94
269.145	91.94
269.377	75.94
269.609	78.94
269.841	101.94
270.073	83.94
270.306	75.94
270.538	91.94
270.77	72.94
271.002	72.94
271.234	89.94
271.466	64.94
271.698	85.94
271.93	83.94
272.162	103.94
272.394	90.94
272.626	68.94
272.858	91.94
273.09	83.94
273.322	71.94
273.553	59.94
273.785	85.94
274.017	98.94
274.249	87.94
274.481	75.94
274.713	80.94
274.945	83.94
275.176	81.94
275.408	92.94
275.64	91.94
275.872	94.94
276.104	89.94
276.335	85.94
276.567	81.94
276.799	91.94
277.031	87.94
277.262	81.94
277.494	87.94
277.726	89.94
277.957	98.94
278.189	89.94
278.421	77.94
278.652	77.94
278.884	79.94
279.115	84.94
279.347	80.94
279.579	80.94
279.81	89.94
280.042	89.94
280.273	88.94
280.505	81.94
280.736	80.94
280.968	88.94
281.199	67.94
281.431	89.94
281.662	92.94
281.894	67.94
282.125	92.94
282.356	81.94
282.588	86.94
282.819	83.94
283.051	89.94
283.282	89.94
283.513	97.94
283.745	93.94
283.976	75.94
284.207	78.94
284.439	96.94
284.67	93.94
284.901	89.94
285.132	83.94
285.364	98.94
285.595	70.94
285.826	88.94
286.057	72.94
286.288	90.94
286.52	75.94
286.751	83.94
286.982	83.94
287.213	84.94
287.444	83.94
287.675	85.94
287.906	75.94
288.138	93.94
288.369	73.94
288.6	102.94
288.831	76.94
289.062	78.94
289.293	85.94
289.524	101.94
289.755	86.94
289.986	83.94
290.217	81.94
290.448	92.94
290.679	98.94
290.91	89.94
291.141	89.94
291.371	95.94
291.602	81.94
291.833	81.94
292.064	77.94
292.295	81.94
292.526	83.94
292.757	91.94
292.987	75.94
293.218	77.94
293.449	83.94
293.68	85.94
293.91	78.94
294.141	90.94
294.372	72.94
294.603	84.94
294.833	79.94
295.064	81.94
295.295	85.94
295.525	86.94
295.756	87.94
295.987	69.94
296.217	83.94
296.448	95.94
296.679	79.94
296.909	94.94
297.14	85.94
297.37	79.94
297.601	100.94
297.831	90.94
298.062	83.94
298.292	82.94
298.523	83.94
298.753	93.94
298.984	89.94
299.214	85.94
299.445	79.94
299.675	86.94
299.905	88.94
300.136	87.94
300.366	79.94
300.597	89.94
300.827	87.94
301.057	69.94
301.288	83.94
301.518	90.94
301.748	90.94
301.979	95.94
302.209	86.94
302.439	85.94
302.669	77.94
302.9	91.94
303.13	83.94
303.36	81.94
303.59	84.94
303.82	95.94
304.051	77.94
304.281	93.94
304.511	91.94
304.741	71.94
304.971	79.94
305.201	100.94
305.431	97.94
305.661	87.94
305.891	91.94
306.121	98.94
306.352	72.94
306.582	91.94
306.812	75.94
307.042	75.94
307.272	82.94
307.502	71.94
307.731	77.94
307.961	85.94
308.191	95.94
308.421	80.94
308.651	84.94
308.881	87.94
309.111	83.94
309.341	85.94
309.571	93.94
309.8	106.94
310.03	79.94
310.26	75.94
310.49	81.94
310.72	85.94
310.949	79.94
311.179	77.94
311.409	84.94
311.639	81.94
311.868	83.94
312.098	72.94
312.328	95.94
312.557	78.94
312.787	76.94
313.017	78.94
313.246	87.94
313.476	86.94
313.706	74.94
313.935	73.94
314.165	89.94
314.394	85.94
314.624	84.94
314.853	94.94
315.083	84.94
315.312	93.94
315.542	80.94
315.771	88.94
316.001	84.94
316.23	96.94
316.46	83.94
316.689	89.94
316.919	74.94
317.148	89.94
317.377	101.94
317.607	77.94
317.836	100.94
318.065	74.94
318.295	69.94
318.524	83.94
318.753	84.94
318.983	85.94
319.212	66.94
319.441	87.94
319.67	91.94
319.9	75.94
320.129	87.94
320.358	83.94
320.587	89.94
320.816	92.94
321.046	97.94
321.275	87.94
321.504	83.94
321.733	87.94
321.962	91.94
322.191	85.94
322.42	88.94
322.649	90.94
322.878	79.94
323.108	85.94
323.337	82.94
323.566	76.94
323.795	86.94
324.024	85.94
324.253	85.94
324.482	91.94
324.71	83.94
324.939	83.94
325.168	80.94
325.397	86.94
325.626	75.94
325.855	81.94
326.084	86.94
326.313	86.94
326.542	84.94
326.77	92.94
326.999	88.94
327.228	94.94
327.457	89.94
327.686	78.94
327.914	76.94
328.143	75.94
328.372	92.94
328.6	78.94
328.829	89.94
329.058	78.94
329.287	77.94
329.515	86.94
329.744	82.94
329.972	82.94
330.201	79.94
330.43	81.94
330.658	85.94
330.887	89.94
331.115	88.94
331.344	79.94
331.572	78.94
331.801	83.94
332.03	78.94
332.258	81.94
332.486	73.94
332.715	86.94
332.943	86.94
333.172	83.94
333.4	76.94
333.629	88.94
333.857	86.94
334.085	80.94
334.314	86.94
334.542	85.94
334.771	83.94
334.999	102.94
335.227	97.94
335.455	87.94
335.684	93.94
335.912	85.94
336.14	75.94
336.369	76.94
336.597	84.94
336.825	85.94
337.053	81.94
337.281	91.94
337.51	79.94
337.738	90.94
337.966	88.94
338.194	85.94
338.422	83.94
338.65	87.94
338.878	91.94
339.106	95.94
339.334	79.94
339.562	78.94
339.79	96.94
340.018	79.94
340.246	75.94
340.474	75.94
340.702	78.94
340.93	83.94
341.158	81.94
341.386	72.94
341.614	75.94
341.842	72.94
342.07	84.94
342.298	83.94
342.526	76.94
342.754	84.94
342.981	68.94
343.209	75.94
343.437	106.94
343.665	88.94
343.893	88.94
344.12	83.94
344.348	79.94
344.576	83.94
344.804	79.94
345.031	91.94
345.259	84.94
345.487	94.94
345.714	72.94
345.942	86.94
346.17	93.94
346.397	83.94
346.625	89.94
346.853	79.94
347.08	76.94
347.308	90.94
347.535	84.94
347.763	70.94
347.99	82.94
348.218	73.94
348.445	69.94
348.673	89.94
348.9	84.94
349.128	82.94
349.355	80.94
349.583	92.94
349.81	90.94
350.037	78.94
350.265	77.94
350.492	92.94
350.72	80.94
350.947	69.94
351.174	90.94
351.402	83.94
351.629	97.94
351.856	86.94
352.083	98.94
352.311	83.94
352.538	83.94
352.765	76.94
352.992	89.94
353.22	88.94
353.447	89.94
353.674	97.94
353.901	85.94
354.128	83.94
354.355	67.94
354.583	93.94
354.81	97.94
355.037	82.94
355.264	90.94
355.491	83.94
355.718	85.94
355.945	90.94
356.172	85.94
356.399	96.94
356.626	89.94
356.853	82.94
357.08	72.94
357.307	87.94
357.534	84.94
357.761	83.94
357.988	86.94
358.215	85.94
358.441	100.94
358.668	83.94
358.895	76.94
359.122	79.94
359.349	87.94
359.576	82.94
359.802	63.94
360.029	88.94
360.256	97.94
360.483	86.94
360.709	77.94
360.936	94.94
361.163	83.94
361.39	91.94
361.616	87.94
361.843	92.94
362.07	75.94
362.296	92.94
362.523	85.94
362.749	82.94
362.976	91.94
363.203	111.94
363.429	92.94
363.656	87.94
363.882	87.94
364.109	85.94
364.335	94.94
364.562	96.94
364.788	81.94
365.015	86.94
365.241	77.94
365.468	87.94
365.694	73.94
365.92	73.94
366.147	77.94
366.373	89.94
366.599	85.94
366.826	83.94
367.052	88.94
367.278	69.94
367.505	84.94
367.731	85.94
367.957	91.94
368.184	79.94
368.41	81.94
368.636	95.94
368.862	86.94
369.089	72.94
369.315	76.94
369.541	91.94
369.767	75.94
369.993	81.94
370.219	76.94
370.445	88.94
370.672	92.94
370.898	76.94
371.124	88.94
371.35	68.94
371.576	97.94
371.802	72.94
372.028	83.94
372.254	81.94
372.48	92.94
372.706	87.94
372.932	88.94
373.158	75.94
373.384	85.94
373.61	79.94
373.835	80.94
374.061	88.94
374.287	85.94
374.513	88.94
374.739	97.94
374.965	88.94
375.191	91.94
375.416	83.94
375.642	74.94
375.868	88.94
376.094	84.94
376.319	77.94
376.545	88.94
376.771	78.94
376.997	81.94
377.222	76.94
377.448	72.94
377.674	84.94
377.899	84.94
378.125	80.94
378.35	85.94
378.576	83.94
378.802	69.94
379.027	70.94
379.253	85.94
379.478	73.94
379.704	81.94
379.929	78.94
380.155	74.94
380.38	74.94
380.606	87.94
380.831	91.94
381.057	95.94
381.282	91.94
381.507	82.94
381.733	99.94
381.958	74.94
382.184	90.94
382.409	99.94
382.634	91.94
382.86	79.94
383.085	100.94
383.31	90.94
383.535	56.94
383.761	93.94
383.986	86.94
384.211	92.94
384.436	86.94
384.662	79.94
384.887	78.94
385.112	83.94
385.337	76.94
385.562	77.94
385.787	89.94
386.013	93.94
386.238	83.94
386.463	95.94
386.688	105.94
386.913	98.94
387.138	98.94
387.363	91.94
387.588	83.94
387.813	97.94
388.038	74.94
388.263	77.94
388.488	87.94
388.713	76.94
388.938	69.94
389.163	88.94
389.387	83.94
389.612	63.94
389.837	69.94
390.062	99.94
390.287	89.94
390.512	84.94
390.736	74.94
390.961	75.94
391.186	87.94
391.411	83.94
391.636	78.94
391.86	94.94
392.085	77.94
392.31	83.94
392.534	76.94
392.759	98.94
392.984	101.94
393.208	170.94
393.433	196.94
393.658	157.94
393.882	92.94
394.107	90.94
394.331	93.94
394.556	102.94
394.78	85.94
395.005	77.94
395.229	80.94
395.454	92.94
395.678	88.94
395.903	92.94
396.127	115.94
396.352	87.94
396.576	121.94
396.801	154.94
397.025	167.94
397.249	129.94
397.474	103.94
397.698	96.94
397.922	92.94
398.147	72.94
398.371	95.94
398.595	89.94
398.82	67.94
399.044	73.94
399.268	97.94
399.492	89.94
399.717	80.94
399.941	82.94
400.165	73.94
400.389	95.94
400.613	72.94
400.837	75.94
401.062	93.94
401.286	87.94
401.51	80.94
401.734	83.94
401.958	81.94
402.182	77.94
402.406	67.94
402.63	73.94
402.854	88.94
403.078	77.94
403.302	87.94
403.526	95.94
403.75	76.94
403.974	85.94
404.198	92.94
404.422	105.94
404.645	112.94
404.869	113.94
405.093	101.94
405.317	90.94
405.541	90.94
405.765	64.94
405.988	88.94
406.212	71.94
406.436	83.94
406.66	83.94
406.883	95.94
407.107	72.94
407.331	89.94
407.555	86.94
407.778	105.94
408.002	90.94
408.226	79.94
408.449	69.94
408.673	92.94
408.896	78.94
409.12	80.94
409.344	79.94
409.567	76.94
409.791	81.94
410.014	84.94
410.238	72.94
410.461	85.94
410.685	73.94
410.908	83.94
411.132	97.94
411.355	89.94
411.578	88.94
411.802	78.94
412.025	79.94
412.249	81.94
412.472	74.94
412.695	89.94
412.919	83.94
413.142	98.94
413.365	85.94
413.589	82.94
413.812	78.94
414.035	78.94
414.258	86.94
414.482	76.94
414.705	87.94
414.928	83.94
415.151	100.94
415.374	85.94
415.597	84.94
415.821	84.94
416.044	75.94
416.267	75.94
416.49	82.94
416.713	64.94
416.936	84.94
417.159	74.94
417.382	83.94
417.605	89.94
417.828	75.94
418.051	61.94
418.274	83.94
418.497	85.94
418.72	73.94
418.943	88.94
419.166	70.94
419.389	77.94
419.611	91.94
419.834	82.94
420.057	94.94
420.28	83.94
420.503	74.94
420.726	88.94
420.948	80.94
421.171	75.94
421.394	89.94
421.617	89.94
421.839	94.94
422.062	95.94
422.285	115.94
422.507	160.94
422.73	228.94
422.953	217.94
423.175	123.94
423.398	89.94
423.621	89.94
423.843	92.94
424.066	92.94
424.288	94.94
424.511	81.94
424.733	82.94
424.956	90.94
425.178	73.94
425.401	77.94
425.623	84.94
425.846	84.94
426.068	77.94
426.291	75.94
426.513	85.94
426.735	70.94
426.958	87.94
427.18	91.94
427.402	81.94
427.625	77.94
427.847	89.94
428.069	88.94
428.292	101.94
428.514	103.94
428.736	77.94
428.958	92.94
429.181	102.94
429.403	85.94
429.625	92.94
429.847	103.94
430.069	114.94
430.292	132.94
430.514	121.94
430.736	105.94
430.958	105.94
431.18	91.94
431.402	77.94
431.624	76.94
431.846	82.94
432.068	107.94
432.29	89.94
432.512	102.94
432.734	89.94
432.956	85.94
433.178	81.94
433.4	88.94
433.622	77.94
433.844	69.94
434.066	87.94
434.287	83.94
434.509	83.94
434.731	76.94
434.953	91.94
435.175	81.94
435.397	89.94
435.618	83.94
435.84	89.94
436.062	73.94
436.284	82.94
436.505	91.94
436.727	89.94
436.949	80.94
437.17	89.94
437.392	80.94
437.614	97.94
437.835	89.94
438.057	90.94
438.278	81.94
438.5	79.94
438.721	72.94
438.943	89.94
439.165	81.94
439.386	75.94
439.608	89.94
439.829	82.94
440.05	69.94
440.272	97.94
440.493	83.94
440.715	83.94
440.936	85.94
441.158	78.94
441.379	89.94
441.6	87.94
441.822	88.94
442.043	98.94
442.264	79.94
442.486	103.94
442.707	94.94
442.928	98.94
443.149	86.94
443.371	118.94
443.592	156.94
443.813	133.94
444.034	100.94
444.255	98.94
444.476	109.94
444.698	85.94
444.919	81.94
445.14	177.94
445.361	164.94
445.582	156.94
445.803	144.94
446.024	101.94
446.245	83.94
446.466	72.94
446.687	84.94
446.908	95.94
447.129	94.94
447.35	93.94
447.571	99.94
447.792	85.94
448.013	73.94
448.234	85.94
448.455	81.94
448.675	87.94
448.896	67.94
449.117	81.94
449.338	86.94
449.559	73.94
449.779	83.94
450	85.94
450.221	91.94
450.442	100.94
450.662	82.94
450.883	94.94
451.104	86.94
451.324	91.94
451.545	93.94
451.766	86.94
451.986	84.94
452.207	71.94
452.428	68.94
452.648	87.94
452.869	81.94
453.089	84.94
453.31	89.94
453.53	83.94
453.751	86.94
453.971	83.94
454.192	76.94
454.412	76.94
454.633	92.94
454.853	87.94
455.073	69.94
455.294	79.94
455.514	89.94
455.734	93.94
455.955	87.94
456.175	97.94
456.395	63.94
456.616	83.94
456.836	95.94
457.056	81.94
457.276	99.94
457.497	92.94
457.717	90.94
457.937	96.94
458.157	103.94
458.377	91.94
458.598	88.94
458.818	92.94
459.038	92.94
459.258	74.94
459.478	95.94
459.698	84.94
459.918	78.94
460.138	89.94
460.358	83.94
460.578	76.94
460.798	91.94
461.018	102.94
461.238	80.94
461.458	84.94
461.678	99.94
461.898	81.94
462.118	89.94
462.338	86.94
462.558	82.94
462.777	68.94
462.997	77.94
463.217	74.94
463.437	87.94
463.657	82.94
463.876	91.94
464.096	95.94
464.316	80.94
464.536	85.94
464.755	81.94
464.975	85.94
465.195	79.94
465.414	92.94
465.634	87.94
465.854	73.94
466.073	85.94
466.293	81.94
466.512	83.94
466.732	87.94
466.951	87.94
467.171	81.94
467.391	87.94
467.61	90.94
467.829	79.94
468.049	75.94
468.268	83.94
468.488	82.94
468.707	61.94
468.927	65.94
469.146	91.94
469.365	69.94
469.585	89.94
469.804	89.94
470.023	96.94
470.243	83.94
470.462	77.94
470.681	85.94
470.901	79.94
471.12	80.94
471.339	83.94
471.558	89.94
471.777	93.94
471.997	82.94
472.216	84.94
472.435	85.94
472.654	77.94
472.873	82.94
473.092	95.94
473.311	87.94
473.53	71.94
473.749	79.94
473.968	96.94
474.187	84.94
474.406	73.94
474.625	88.94
474.844	86.94
475.063	87.94
475.282	92.94
475.501	77.94
475.72	87.94
475.939	77.94
476.158	80.94
476.377	79.94
476.596	98.94
476.814	85.94
477.033	75.94
477.252	78.94
477.471	70.94
477.69	87.94
477.908	86.94
478.127	93.94
478.346	88.94
478.564	83.94
478.783	90.94
479.002	88.94
479.22	77.94
479.439	85.94
479.658	74.94
479.876	80.94
480.095	95.94
480.313	86.94
480.532	93.94
480.751	69.94
480.969	86.94
481.188	87.94
481.406	95.94
481.624	77.94
481.843	77.94
482.061	89.94
482.28	86.94
482.498	83.94
482.717	83.94
482.935	86.94
483.153	82.94
483.372	81.94
483.59	75.94
483.808	78.94
484.027	99.94
484.245	84.94
484.463	86.94
484.681	88.94
484.9	76.94
485.118	87.94
485.336	87.94
485.554	89.94
485.772	77.94
485.99	100.94
486.209	89.94
486.427	81.94
486.645	76.94
486.863	97.94
487.081	73.94
487.299	81.94
487.517	77.94
487.735	99.94
487.953	117.94
488.171	111.94
488.389	97.94
488.607	79.94
488.825	91.94
489.043	89.94
489.261	86.94
489.479	90.94
489.696	80.94
489.914	84.94
490.132	92.94
490.35	81.94
490.568	92.94
490.786	85.94
491.003	88.94
491.221	75.94
491.439	91.94
491.657	81.94
491.874	88.94
492.092	102.94
492.31	94.94
492.527	73.94
492.745	87.94
492.963	84.94
493.18	71.94
493.398	71.94
493.615	75.94
493.833	80.94
494.05	104.94
494.268	81.94
494.485	73.94
494.703	75.94
494.92	93.94
495.138	83.94
495.355	84.94
495.573	81.94
495.79	87.94
496.008	86.94
496.225	80.94
496.442	84.94
496.66	76.94
496.877	85.94
497.094	84.94
497.312	75.94
497.529	97.94
497.746	82.94
497.963	83.94
498.181	78.94
498.398	77.94
498.615	91.94
498.832	83.94
499.049	76.94
499.267	101.94
499.484	76.94
499.701	84.94
499.918	71.94
500.135	85.94
500.352	75.94
500.569	95.94
500.786	67.94
501.003	87.94
501.22	74.94
501.437	77.94
501.654	95.94
501.871	84.94
502.088	83.94
502.305	87.94
502.522	92.94
502.739	98.94
502.956	78.94
503.172	86.94
503.389	85.94
503.606	75.94
503.823	87.94
504.04	98.94
504.256	90.94
504.473	89.94
504.69	71.94
504.907	95.94
505.123	90.94
505.34	81.94
505.557	93.94
505.773	82.94
505.99	78.94
506.207	83.94
506.423	72.94
506.64	73.94
506.856	83.94
507.073	85.94
507.289	86.94
507.506	83.94
507.722	89.94
507.939	97.94
508.155	90.94
508.372	89.94
508.588	80.94
508.805	87.94
509.021	88.94
509.238	102.94
509.454	70.94
509.67	76.94
509.887	78.94
510.103	72.94
510.319	86.94
510.536	80.94
510.752	96.94
510.968	89.94
511.184	76.94
511.401	99.94
511.617	84.94
511.833	67.94
512.049	89.94
512.265	85.94
512.481	80.94
512.698	89.94
512.914	91.94
513.13	80.94
513.346	83.94
513.562	86.94
513.778	101.94
513.994	76.94
514.21	83.94
514.426	83.94
514.642	82.94
514.858	84.94
515.074	83.94
515.29	93.94
515.506	80.94
515.721	86.94
515.937	87.94
516.153	92.94
516.369	96.94
516.585	76.94
516.801	88.94
517.016	89.94
517.232	89.94
517.448	80.94
517.664	88.94
517.879	81.94
518.095	87.94
518.311	74.94
518.527	87.94
518.742	83.94
518.958	105.94
519.173	89.94
519.389	96.94
