Data from HP_1_HRD10591_00038.txt Node
Date: Mon Jan 19 14:15:26 EST 2026
User: Yrep
Spectrometer: HR+D1059
Trigger mode: 1
Integration Time (sec): 1.000000E-1
Scans to average: 1
Electric dark correction enabled: true
Nonlinearity correction enabled: false
Boxcar width: 0
XAxis mode: Wavelengths
Number of Pixels in Spectrum: 2048
>>>>>Begin Spectral Data<<<<<
223.165	-14.88
223.4	-14.88
223.635	-14.88
223.869	-13.88
224.104	-24.88
224.338	-17.88
224.573	-7.88
224.808	-21.88
225.042	1.12
225.277	-20.88
225.511	-7.88
225.746	4.12
225.98	11.12
226.215	10.12
226.449	17.12
226.683	25.12
226.918	25.12
227.152	36.12
227.387	41.12
227.621	51.12
227.856	40.12
228.09	44.12
228.324	56.12
228.559	55.12
228.793	51.12
229.027	58.12
229.262	69.12
229.496	71.12
229.73	60.12
229.964	70.12
230.199	87.12
230.433	80.12
230.667	84.12
230.901	72.12
231.136	71.12
231.37	67.12
231.604	75.12
231.838	70.12
232.072	86.12
232.306	82.12
232.541	84.12
232.775	69.12
233.009	90.12
233.243	83.12
233.477	82.12
233.711	76.12
233.945	82.12
234.179	87.12
234.413	79.12
234.647	71.12
234.881	77.12
235.115	66.12
235.349	64.12
235.583	84.12
235.817	62.12
236.051	69.12
236.285	78.12
236.519	68.12
236.753	73.12
236.987	68.12
237.221	81.12
237.455	77.12
237.689	84.12
237.922	75.12
238.156	68.12
238.39	66.12
238.624	81.12
238.858	94.12
239.091	80.12
239.325	65.12
239.559	71.12
239.793	86.12
240.027	69.12
240.26	59.12
240.494	70.12
240.728	86.12
240.961	64.12
241.195	66.12
241.429	75.12
241.662	64.12
241.896	94.12
242.13	69.12
242.363	89.12
242.597	67.12
242.83	70.12
243.064	72.12
243.298	67.12
243.531	63.12
243.765	71.12
243.998	66.12
244.232	68.12
244.465	78.12
244.699	83.12
244.932	69.12
245.166	71.12
245.399	75.12
245.633	86.12
245.866	83.12
246.099	88.12
246.333	73.12
246.566	65.12
246.8	77.12
247.033	72.12
247.266	72.12
247.5	66.12
247.733	79.12
247.966	62.12
248.2	75.12
248.433	86.12
248.666	76.12
248.899	83.12
249.133	71.12
249.366	76.12
249.599	90.12
249.832	81.12
250.066	70.12
250.299	78.12
250.532	68.12
250.765	86.12
250.998	72.12
251.231	77.12
251.465	80.12
251.698	68.12
251.931	62.12
252.164	73.12
252.397	76.12
252.63	95.12
252.863	78.12
253.096	76.12
253.329	82.12
253.562	90.12
253.795	69.12
254.028	78.12
254.261	87.12
254.494	80.12
254.727	72.12
254.96	75.12
255.193	79.12
255.426	71.12
255.659	75.12
255.892	76.12
256.124	69.12
256.357	83.12
256.59	70.12
256.823	85.12
257.056	77.12
257.289	89.12
257.521	80.12
257.754	58.12
257.987	95.12
258.22	92.12
258.452	72.12
258.685	88.12
258.918	88.12
259.151	89.12
259.383	74.12
259.616	91.12
259.849	88.12
260.081	81.12
260.314	92.12
260.547	76.12
260.779	91.12
261.012	82.12
261.244	73.12
261.477	78.12
261.71	71.12
261.942	80.12
262.175	83.12
262.407	86.12
262.64	72.12
262.872	84.12
263.105	80.12
263.337	83.12
263.57	77.12
263.802	77.12
264.035	71.12
264.267	83.12
264.499	68.12
264.732	74.12
264.964	78.12
265.197	85.12
265.429	71.12
265.661	84.12
265.894	72.12
266.126	84.12
266.358	70.12
266.591	70.12
266.823	71.12
267.055	81.12
267.287	66.12
267.52	91.12
267.752	80.12
267.984	96.12
268.216	71.12
268.448	78.12
268.681	90.12
268.913	84.12
269.145	86.12
269.377	77.12
269.609	77.12
269.841	87.12
270.073	84.12
270.306	78.12
270.538	73.12
270.77	86.12
271.002	83.12
271.234	79.12
271.466	76.12
271.698	86.12
271.93	82.12
272.162	78.12
272.394	82.12
272.626	88.12
272.858	82.12
273.09	85.12
273.322	95.12
273.553	89.12
273.785	70.12
274.017	84.12
274.249	80.12
274.481	88.12
274.713	78.12
274.945	75.12
275.176	72.12
275.408	86.12
275.64	83.12
275.872	83.12
276.104	87.12
276.335	83.12
276.567	82.12
276.799	82.12
277.031	71.12
277.262	74.12
277.494	96.12
277.726	76.12
277.957	72.12
278.189	84.12
278.421	91.12
278.652	87.12
278.884	79.12
279.115	85.12
279.347	72.12
279.579	90.12
279.81	88.12
280.042	81.12
280.273	84.12
280.505	91.12
280.736	84.12
280.968	76.12
281.199	95.12
281.431	79.12
281.662	76.12
281.894	88.12
282.125	70.12
282.356	87.12
282.588	94.12
282.819	77.12
283.051	93.12
283.282	92.12
283.513	89.12
283.745	87.12
283.976	90.12
284.207	81.12
284.439	82.12
284.67	82.12
284.901	95.12
285.132	86.12
285.364	89.12
285.595	76.12
285.826	79.12
286.057	83.12
286.288	77.12
286.52	80.12
286.751	67.12
286.982	84.12
287.213	77.12
287.444	87.12
287.675	97.12
287.906	94.12
288.138	84.12
288.369	82.12
288.6	93.12
288.831	81.12
289.062	91.12
289.293	85.12
289.524	88.12
289.755	77.12
289.986	80.12
290.217	95.12
290.448	72.12
290.679	77.12
290.91	80.12
291.141	78.12
291.371	94.12
291.602	72.12
291.833	94.12
292.064	85.12
292.295	76.12
292.526	93.12
292.757	94.12
292.987	80.12
293.218	100.12
293.449	69.12
293.68	88.12
293.91	78.12
294.141	92.12
294.372	87.12
294.603	91.12
294.833	85.12
295.064	94.12
295.295	75.12
295.525	83.12
295.756	82.12
295.987	81.12
296.217	86.12
296.448	77.12
296.679	79.12
296.909	73.12
297.14	92.12
297.37	84.12
297.601	86.12
297.831	72.12
298.062	91.12
298.292	84.12
298.523	84.12
298.753	85.12
298.984	83.12
299.214	87.12
299.445	80.12
299.675	89.12
299.905	96.12
300.136	101.12
300.366	82.12
300.597	101.12
300.827	88.12
301.057	82.12
301.288	79.12
301.518	80.12
301.748	77.12
301.979	121.12
302.209	85.12
302.439	74.12
302.669	73.12
302.9	75.12
303.13	84.12
303.36	84.12
303.59	76.12
303.82	87.12
304.051	79.12
304.281	85.12
304.511	90.12
304.741	82.12
304.971	82.12
305.201	79.12
305.431	97.12
305.661	83.12
305.891	91.12
306.121	83.12
306.352	82.12
306.582	88.12
306.812	90.12
307.042	73.12
307.272	68.12
307.502	88.12
307.731	83.12
307.961	79.12
308.191	88.12
308.421	94.12
308.651	84.12
308.881	72.12
309.111	85.12
309.341	82.12
309.571	79.12
309.8	103.12
310.03	81.12
310.26	92.12
310.49	71.12
310.72	82.12
310.949	86.12
311.179	90.12
311.409	82.12
311.639	94.12
311.868	77.12
312.098	95.12
312.328	84.12
312.557	98.12
312.787	83.12
313.017	90.12
313.246	91.12
313.476	90.12
313.706	95.12
313.935	76.12
314.165	76.12
314.394	77.12
314.624	82.12
314.853	81.12
315.083	84.12
315.312	73.12
315.542	80.12
315.771	66.12
316.001	82.12
316.23	82.12
316.46	83.12
316.689	83.12
316.919	76.12
317.148	84.12
317.377	89.12
317.607	88.12
317.836	75.12
318.065	90.12
318.295	80.12
318.524	79.12
318.753	81.12
318.983	98.12
319.212	83.12
319.441	68.12
319.67	71.12
319.9	82.12
320.129	72.12
320.358	86.12
320.587	71.12
320.816	79.12
321.046	82.12
321.275	89.12
321.504	85.12
321.733	73.12
321.962	83.12
322.191	77.12
322.42	78.12
322.649	88.12
322.878	91.12
323.108	87.12
323.337	85.12
323.566	80.12
323.795	78.12
324.024	75.12
324.253	76.12
324.482	86.12
324.71	70.12
324.939	80.12
325.168	76.12
325.397	94.12
325.626	93.12
325.855	91.12
326.084	88.12
326.313	82.12
326.542	92.12
326.77	82.12
326.999	85.12
327.228	80.12
327.457	87.12
327.686	89.12
327.914	94.12
328.143	91.12
328.372	82.12
328.6	85.12
328.829	96.12
329.058	97.12
329.287	73.12
329.515	66.12
329.744	76.12
329.972	83.12
330.201	84.12
330.43	81.12
330.658	81.12
330.887	74.12
331.115	82.12
331.344	72.12
331.572	86.12
331.801	83.12
332.03	87.12
332.258	87.12
332.486	70.12
332.715	94.12
332.943	79.12
333.172	86.12
333.4	87.12
333.629	89.12
333.857	94.12
334.085	79.12
334.314	90.12
334.542	82.12
334.771	82.12
334.999	79.12
335.227	91.12
335.455	105.12
335.684	70.12
335.912	81.12
336.14	75.12
336.369	79.12
336.597	90.12
336.825	86.12
337.053	82.12
337.281	87.12
337.51	82.12
337.738	96.12
337.966	88.12
338.194	88.12
338.422	92.12
338.65	73.12
338.878	81.12
339.106	92.12
339.334	82.12
339.562	85.12
339.79	77.12
340.018	82.12
340.246	84.12
340.474	78.12
340.702	92.12
340.93	86.12
341.158	85.12
341.386	92.12
341.614	98.12
341.842	86.12
342.07	70.12
342.298	86.12
342.526	81.12
342.754	79.12
342.981	82.12
343.209	87.12
343.437	88.12
343.665	83.12
343.893	78.12
344.12	76.12
344.348	90.12
344.576	94.12
344.804	88.12
345.031	88.12
345.259	76.12
345.487	87.12
345.714	94.12
345.942	88.12
346.17	95.12
346.397	71.12
346.625	91.12
346.853	86.12
347.08	89.12
347.308	82.12
347.535	81.12
347.763	86.12
347.99	99.12
348.218	79.12
348.445	81.12
348.673	86.12
348.9	83.12
349.128	90.12
349.355	84.12
349.583	82.12
349.81	92.12
350.037	101.12
350.265	82.12
350.492	94.12
350.72	76.12
350.947	70.12
351.174	67.12
351.402	70.12
351.629	76.12
351.856	79.12
352.083	69.12
352.311	90.12
352.538	78.12
352.765	94.12
352.992	80.12
353.22	75.12
353.447	70.12
353.674	90.12
353.901	87.12
354.128	78.12
354.355	82.12
354.583	85.12
354.81	88.12
355.037	85.12
355.264	78.12
355.491	91.12
355.718	82.12
355.945	84.12
356.172	95.12
356.399	91.12
356.626	95.12
356.853	95.12
357.08	79.12
357.307	92.12
357.534	74.12
357.761	81.12
357.988	88.12
358.215	74.12
358.441	86.12
358.668	80.12
358.895	82.12
359.122	78.12
359.349	86.12
359.576	84.12
359.802	86.12
360.029	82.12
360.256	92.12
360.483	79.12
360.709	79.12
360.936	83.12
361.163	84.12
361.39	76.12
361.616	70.12
361.843	82.12
362.07	96.12
362.296	70.12
362.523	77.12
362.749	80.12
362.976	91.12
363.203	97.12
363.429	91.12
363.656	78.12
363.882	98.12
364.109	96.12
364.335	83.12
364.562	92.12
364.788	69.12
365.015	83.12
365.241	88.12
365.468	84.12
365.694	62.12
365.92	87.12
366.147	78.12
366.373	68.12
366.599	84.12
366.826	75.12
367.052	88.12
367.278	90.12
367.505	83.12
367.731	83.12
367.957	83.12
368.184	77.12
368.41	75.12
368.636	81.12
368.862	68.12
369.089	69.12
369.315	78.12
369.541	79.12
369.767	68.12
369.993	79.12
370.219	82.12
370.445	77.12
370.672	83.12
370.898	72.12
371.124	82.12
371.35	78.12
371.576	80.12
371.802	75.12
372.028	73.12
372.254	78.12
372.48	91.12
372.706	78.12
372.932	93.12
373.158	92.12
373.384	80.12
373.61	80.12
373.835	69.12
374.061	80.12
374.287	88.12
374.513	70.12
374.739	90.12
374.965	82.12
375.191	89.12
375.416	81.12
375.642	87.12
375.868	94.12
376.094	86.12
376.319	80.12
376.545	75.12
376.771	71.12
376.997	86.12
377.222	70.12
377.448	74.12
377.674	84.12
377.899	85.12
378.125	81.12
378.35	90.12
378.576	90.12
378.802	87.12
379.027	85.12
379.253	72.12
379.478	84.12
379.704	84.12
379.929	83.12
380.155	91.12
380.38	78.12
380.606	79.12
380.831	76.12
381.057	92.12
381.282	92.12
381.507	84.12
381.733	85.12
381.958	82.12
382.184	76.12
382.409	78.12
382.634	80.12
382.86	84.12
383.085	88.12
383.31	88.12
383.535	94.12
383.761	82.12
383.986	71.12
384.211	80.12
384.436	102.12
384.662	85.12
384.887	78.12
385.112	87.12
385.337	88.12
385.562	83.12
385.787	86.12
386.013	84.12
386.238	69.12
386.463	78.12
386.688	94.12
386.913	96.12
387.138	77.12
387.363	80.12
387.588	80.12
387.813	87.12
388.038	88.12
388.263	75.12
388.488	65.12
388.713	83.12
388.938	82.12
389.163	83.12
389.387	90.12
389.612	73.12
389.837	87.12
390.062	86.12
390.287	75.12
390.512	82.12
390.736	69.12
390.961	99.12
391.186	78.12
391.411	88.12
391.636	68.12
391.86	80.12
392.085	81.12
392.31	85.12
392.534	74.12
392.759	85.12
392.984	124.12
393.208	130.12
393.433	144.12
393.658	126.12
393.882	94.12
394.107	80.12
394.331	83.12
394.556	83.12
394.78	83.12
395.005	92.12
395.229	78.12
395.454	94.12
395.678	75.12
395.903	64.12
396.127	83.12
396.352	98.12
396.576	101.12
396.801	114.12
397.025	140.12
397.249	103.12
397.474	94.12
397.698	86.12
397.922	76.12
398.147	77.12
398.371	94.12
398.595	92.12
398.82	82.12
399.044	78.12
399.268	86.12
399.492	81.12
399.717	92.12
399.941	85.12
400.165	77.12
400.389	85.12
400.613	88.12
400.837	85.12
401.062	78.12
401.286	63.12
401.51	82.12
401.734	90.12
401.958	72.12
402.182	81.12
402.406	78.12
402.63	79.12
402.854	79.12
403.078	73.12
403.302	74.12
403.526	95.12
403.75	80.12
403.974	91.12
404.198	88.12
404.422	90.12
404.645	91.12
404.869	90.12
405.093	79.12
405.317	83.12
405.541	89.12
405.765	83.12
405.988	78.12
406.212	87.12
406.436	82.12
406.66	77.12
406.883	75.12
407.107	77.12
407.331	71.12
407.555	91.12
407.778	89.12
408.002	110.12
408.226	80.12
408.449	69.12
408.673	80.12
408.896	78.12
409.12	76.12
409.344	84.12
409.567	88.12
409.791	84.12
410.014	82.12
410.238	72.12
410.461	90.12
410.685	72.12
410.908	81.12
411.132	86.12
411.355	80.12
411.578	87.12
411.802	66.12
412.025	80.12
412.249	97.12
412.472	82.12
412.695	76.12
412.919	92.12
413.142	77.12
413.365	78.12
413.589	82.12
413.812	72.12
414.035	74.12
414.258	85.12
414.482	88.12
414.705	76.12
414.928	81.12
415.151	78.12
415.374	82.12
415.597	90.12
415.821	91.12
416.044	75.12
416.267	76.12
416.49	90.12
416.713	86.12
416.936	91.12
417.159	74.12
417.382	90.12
417.605	77.12
417.828	80.12
418.051	75.12
418.274	74.12
418.497	82.12
418.72	80.12
418.943	62.12
419.166	67.12
419.389	86.12
419.611	75.12
419.834	76.12
420.057	65.12
420.28	80.12
420.503	88.12
420.726	91.12
420.948	85.12
421.171	75.12
421.394	73.12
421.617	85.12
421.839	82.12
422.062	90.12
422.285	91.12
422.507	104.12
422.73	130.12
422.953	118.12
423.175	80.12
423.398	80.12
423.621	83.12
423.843	88.12
424.066	82.12
424.288	94.12
424.511	72.12
424.733	89.12
424.956	80.12
425.178	78.12
425.401	76.12
425.623	70.12
425.846	83.12
426.068	77.12
426.291	68.12
426.513	87.12
426.735	76.12
426.958	90.12
427.18	89.12
427.402	75.12
427.625	75.12
427.847	73.12
428.069	99.12
428.292	79.12
428.514	84.12
428.736	66.12
428.958	67.12
429.181	91.12
429.403	82.12
429.625	86.12
429.847	83.12
430.069	90.12
430.292	102.12
430.514	87.12
430.736	76.12
430.958	87.12
431.18	75.12
431.402	76.12
431.624	69.12
431.846	88.12
432.068	81.12
432.29	86.12
432.512	87.12
432.734	91.12
432.956	87.12
433.178	75.12
433.4	76.12
433.622	82.12
433.844	80.12
434.066	73.12
434.287	82.12
434.509	79.12
434.731	72.12
434.953	88.12
435.175	79.12
435.397	92.12
435.618	78.12
435.84	84.12
436.062	80.12
436.284	88.12
436.505	74.12
436.727	90.12
436.949	81.12
437.17	83.12
437.392	82.12
437.614	75.12
437.835	72.12
438.057	70.12
438.278	92.12
438.5	78.12
438.721	74.12
438.943	80.12
439.165	98.12
439.386	75.12
439.608	80.12
439.829	79.12
440.05	83.12
440.272	88.12
440.493	69.12
440.715	83.12
440.936	95.12
441.158	81.12
441.379	69.12
441.6	86.12
441.822	74.12
442.043	84.12
442.264	85.12
442.486	74.12
442.707	72.12
442.928	65.12
443.149	76.12
443.371	95.12
443.592	97.12
443.813	96.12
444.034	83.12
444.255	86.12
444.476	82.12
444.698	82.12
444.919	83.12
445.14	156.12
445.361	126.12
445.582	103.12
445.803	74.12
446.024	82.12
446.245	85.12
446.466	90.12
446.687	75.12
446.908	72.12
447.129	87.12
447.35	87.12
447.571	81.12
447.792	81.12
448.013	75.12
448.234	84.12
448.455	73.12
448.675	91.12
448.896	95.12
449.117	82.12
449.338	70.12
449.559	72.12
449.779	83.12
450	78.12
450.221	88.12
450.442	65.12
450.662	83.12
450.883	90.12
451.104	85.12
451.324	83.12
451.545	86.12
451.766	79.12
451.986	80.12
452.207	84.12
452.428	90.12
452.648	95.12
452.869	84.12
453.089	82.12
453.31	71.12
453.53	78.12
453.751	83.12
453.971	90.12
454.192	78.12
454.412	78.12
454.633	80.12
454.853	71.12
455.073	84.12
455.294	97.12
455.514	88.12
455.734	83.12
455.955	82.12
456.175	86.12
456.395	80.12
456.616	84.12
456.836	77.12
457.056	91.12
457.276	80.12
457.497	63.12
457.717	87.12
457.937	87.12
458.157	70.12
458.377	99.12
458.598	92.12
458.818	81.12
459.038	80.12
459.258	83.12
459.478	78.12
459.698	75.12
459.918	86.12
460.138	70.12
460.358	81.12
460.578	91.12
460.798	88.12
461.018	87.12
461.238	82.12
461.458	76.12
461.678	91.12
461.898	73.12
462.118	87.12
462.338	82.12
462.558	82.12
462.777	83.12
462.997	81.12
463.217	80.12
463.437	76.12
463.657	86.12
463.876	87.12
464.096	83.12
464.316	83.12
464.536	63.12
464.755	89.12
464.975	81.12
465.195	74.12
465.414	83.12
465.634	80.12
465.854	81.12
466.073	76.12
466.293	94.12
466.512	84.12
466.732	74.12
466.951	75.12
467.171	81.12
467.391	85.12
467.61	77.12
467.829	79.12
468.049	81.12
468.268	83.12
468.488	89.12
468.707	72.12
468.927	64.12
469.146	90.12
469.365	78.12
469.585	70.12
469.804	62.12
470.023	76.12
470.243	80.12
470.462	78.12
470.681	58.12
470.901	73.12
471.12	89.12
471.339	84.12
471.558	78.12
471.777	90.12
471.997	73.12
472.216	80.12
472.435	74.12
472.654	73.12
472.873	90.12
473.092	85.12
473.311	85.12
473.53	77.12
473.749	85.12
473.968	87.12
474.187	83.12
474.406	80.12
474.625	77.12
474.844	79.12
475.063	79.12
475.282	76.12
475.501	68.12
475.72	71.12
475.939	76.12
476.158	75.12
476.377	82.12
476.596	74.12
476.814	83.12
477.033	80.12
477.252	101.12
477.471	78.12
477.69	87.12
477.908	82.12
478.127	86.12
478.346	80.12
478.564	93.12
478.783	92.12
479.002	91.12
479.22	76.12
479.439	88.12
479.658	68.12
479.876	82.12
480.095	85.12
480.313	84.12
480.532	93.12
480.751	72.12
480.969	74.12
481.188	79.12
481.406	75.12
481.624	67.12
481.843	61.12
482.061	73.12
482.28	78.12
482.498	74.12
482.717	73.12
482.935	95.12
483.153	74.12
483.372	70.12
483.59	81.12
483.808	73.12
484.027	77.12
484.245	74.12
484.463	64.12
484.681	86.12
484.9	88.12
485.118	77.12
485.336	90.12
485.554	93.12
485.772	86.12
485.99	77.12
486.209	90.12
486.427	79.12
486.645	70.12
486.863	82.12
487.081	74.12
487.299	85.12
487.517	76.12
487.735	70.12
487.953	81.12
488.171	87.12
488.389	88.12
488.607	77.12
488.825	78.12
489.043	93.12
489.261	84.12
489.479	78.12
489.696	75.12
489.914	70.12
490.132	89.12
490.35	91.12
490.568	78.12
490.786	80.12
491.003	79.12
491.221	86.12
491.439	80.12
491.657	86.12
491.874	85.12
492.092	85.12
492.31	88.12
492.527	87.12
492.745	85.12
492.963	77.12
493.18	82.12
493.398	72.12
493.615	91.12
493.833	82.12
494.05	70.12
494.268	85.12
494.485	105.12
494.703	82.12
494.92	90.12
495.138	72.12
495.355	82.12
495.573	81.12
495.79	85.12
496.008	79.12
496.225	87.12
496.442	83.12
496.66	76.12
496.877	80.12
497.094	87.12
497.312	78.12
497.529	88.12
497.746	82.12
497.963	73.12
498.181	72.12
498.398	75.12
498.615	84.12
498.832	79.12
499.049	88.12
499.267	81.12
499.484	96.12
499.701	72.12
499.918	86.12
500.135	100.12
500.352	82.12
500.569	79.12
500.786	72.12
501.003	81.12
501.22	66.12
501.437	91.12
501.654	74.12
501.871	80.12
502.088	71.12
502.305	86.12
502.522	92.12
502.739	98.12
502.956	84.12
503.172	88.12
503.389	85.12
503.606	69.12
503.823	91.12
504.04	90.12
504.256	76.12
504.473	76.12
504.69	87.12
504.907	83.12
505.123	83.12
505.34	96.12
505.557	75.12
505.773	82.12
505.99	86.12
506.207	91.12
506.423	92.12
506.64	83.12
506.856	85.12
507.073	76.12
507.289	72.12
507.506	86.12
507.722	84.12
507.939	96.12
508.155	82.12
508.372	70.12
508.588	77.12
508.805	89.12
509.021	93.12
509.238	83.12
509.454	88.12
509.67	87.12
509.887	76.12
510.103	78.12
510.319	90.12
510.536	90.12
510.752	79.12
510.968	85.12
511.184	83.12
511.401	74.12
511.617	76.12
511.833	81.12
512.049	76.12
512.265	79.12
512.481	80.12
512.698	79.12
512.914	86.12
513.13	69.12
513.346	66.12
513.562	59.12
513.778	86.12
513.994	79.12
514.21	84.12
514.426	65.12
514.642	70.12
514.858	68.12
515.074	71.12
515.29	76.12
515.506	94.12
515.721	89.12
515.937	83.12
516.153	75.12
516.369	71.12
516.585	95.12
516.801	83.12
517.016	93.12
517.232	65.12
517.448	79.12
517.664	75.12
517.879	82.12
518.095	87.12
518.311	86.12
518.527	75.12
518.742	88.12
518.958	103.12
519.173	94.12
519.389	80.12
519.605	77.12
519.82	85.12
520.036	94.12
