Data from HP_1_HRD10591_00011.txt Node
Date: Mon Jan 19 14:15:13 EST 2026
User: Yrep
Spectrometer: HR+D1059
Trigger mode: 1
Integration Time (sec): 1.000000E-1
Scans to average: 1
Electric dark correction enabled: true
Nonlinearity correction enabled: false
Boxcar width: 0
XAxis mode: Wavelengths
Number of Pixels in Spectrum: 2048
>>>>>Begin Spectral Data<<<<<
223.165	-14.88
223.4	-14.88
223.635	-14.88
223.869	-15.88
224.104	-27.88
224.338	-29.88
224.573	-15.88
224.808	-5.88
225.042	-7.88
225.277	-6.88
225.511	-8.88
225.746	7.12
225.98	14.12
226.215	16.12
226.449	15.12
226.683	14.12
226.918	33.12
227.152	34.12
227.387	24.12
227.621	55.12
227.856	49.12
228.09	46.12
228.324	58.12
228.559	56.12
228.793	64.12
229.027	58.12
229.262	66.12
229.496	58.12
229.73	77.12
229.964	64.12
230.199	72.12
230.433	89.12
230.667	83.12
230.901	73.12
231.136	78.12
231.37	76.12
231.604	82.12
231.838	77.12
232.072	68.12
232.306	81.12
232.541	89.12
232.775	85.12
233.009	96.12
233.243	81.12
233.477	75.12
233.711	82.12
233.945	91.12
234.179	72.12
234.413	86.12
234.647	69.12
234.881	69.12
235.115	70.12
235.349	81.12
235.583	94.12
235.817	89.12
236.051	80.12
236.285	62.12
236.519	85.12
236.753	88.12
236.987	79.12
237.221	85.12
237.455	81.12
237.689	88.12
237.922	72.12
238.156	86.12
238.39	84.12
238.624	88.12
238.858	75.12
239.091	94.12
239.325	66.12
239.559	91.12
239.793	87.12
240.027	85.12
240.26	76.12
240.494	71.12
240.728	72.12
240.961	74.12
241.195	73.12
241.429	78.12
241.662	83.12
241.896	77.12
242.13	85.12
242.363	70.12
242.597	65.12
242.83	76.12
243.064	78.12
243.298	75.12
243.531	72.12
243.765	82.12
243.998	64.12
244.232	76.12
244.465	86.12
244.699	85.12
244.932	78.12
245.166	78.12
245.399	94.12
245.633	84.12
245.866	80.12
246.099	63.12
246.333	76.12
246.566	89.12
246.8	78.12
247.033	83.12
247.266	73.12
247.5	67.12
247.733	93.12
247.966	68.12
248.2	76.12
248.433	74.12
248.666	78.12
248.899	75.12
249.133	82.12
249.366	76.12
249.599	92.12
249.832	86.12
250.066	77.12
250.299	84.12
250.532	86.12
250.765	92.12
250.998	87.12
251.231	89.12
251.465	72.12
251.698	89.12
251.931	62.12
252.164	84.12
252.397	84.12
252.63	77.12
252.863	89.12
253.096	83.12
253.329	76.12
253.562	87.12
253.795	79.12
254.028	87.12
254.261	84.12
254.494	73.12
254.727	84.12
254.96	92.12
255.193	78.12
255.426	92.12
255.659	79.12
255.892	80.12
256.124	66.12
256.357	72.12
256.59	84.12
256.823	82.12
257.056	89.12
257.289	67.12
257.521	88.12
257.754	76.12
257.987	79.12
258.22	72.12
258.452	84.12
258.685	72.12
258.918	72.12
259.151	84.12
259.383	70.12
259.616	78.12
259.849	84.12
260.081	82.12
260.314	84.12
260.547	71.12
260.779	84.12
261.012	81.12
261.244	78.12
261.477	97.12
261.71	78.12
261.942	92.12
262.175	79.12
262.407	77.12
262.64	78.12
262.872	73.12
263.105	87.12
263.337	81.12
263.57	88.12
263.802	72.12
264.035	67.12
264.267	100.12
264.499	83.12
264.732	84.12
264.964	85.12
265.197	77.12
265.429	74.12
265.661	82.12
265.894	77.12
266.126	82.12
266.358	80.12
266.591	77.12
266.823	92.12
267.055	76.12
267.287	75.12
267.52	69.12
267.752	93.12
267.984	77.12
268.216	60.12
268.448	90.12
268.681	73.12
268.913	77.12
269.145	75.12
269.377	72.12
269.609	77.12
269.841	82.12
270.073	92.12
270.306	77.12
270.538	91.12
270.77	83.12
271.002	84.12
271.234	83.12
271.466	100.12
271.698	77.12
271.93	90.12
272.162	92.12
272.394	69.12
272.626	91.12
272.858	84.12
273.09	85.12
273.322	73.12
273.553	92.12
273.785	96.12
274.017	82.12
274.249	80.12
274.481	83.12
274.713	96.12
274.945	82.12
275.176	85.12
275.408	81.12
275.64	98.12
275.872	74.12
276.104	97.12
276.335	87.12
276.567	89.12
276.799	81.12
277.031	93.12
277.262	85.12
277.494	84.12
277.726	76.12
277.957	83.12
278.189	85.12
278.421	77.12
278.652	82.12
278.884	87.12
279.115	93.12
279.347	69.12
279.579	93.12
279.81	91.12
280.042	92.12
280.273	73.12
280.505	88.12
280.736	94.12
280.968	76.12
281.199	76.12
281.431	93.12
281.662	78.12
281.894	83.12
282.125	75.12
282.356	92.12
282.588	91.12
282.819	90.12
283.051	90.12
283.282	78.12
283.513	89.12
283.745	88.12
283.976	90.12
284.207	92.12
284.439	84.12
284.67	96.12
284.901	79.12
285.132	100.12
285.364	87.12
285.595	78.12
285.826	88.12
286.057	77.12
286.288	80.12
286.52	94.12
286.751	79.12
286.982	84.12
287.213	83.12
287.444	92.12
287.675	82.12
287.906	96.12
288.138	83.12
288.369	87.12
288.6	85.12
288.831	83.12
289.062	68.12
289.293	88.12
289.524	93.12
289.755	84.12
289.986	88.12
290.217	83.12
290.448	88.12
290.679	83.12
290.91	86.12
291.141	85.12
291.371	88.12
291.602	74.12
291.833	71.12
292.064	80.12
292.295	90.12
292.526	76.12
292.757	92.12
292.987	101.12
293.218	84.12
293.449	83.12
293.68	81.12
293.91	81.12
294.141	96.12
294.372	86.12
294.603	75.12
294.833	97.12
295.064	73.12
295.295	89.12
295.525	77.12
295.756	84.12
295.987	89.12
296.217	89.12
296.448	102.12
296.679	88.12
296.909	88.12
297.14	97.12
297.37	83.12
297.601	93.12
297.831	102.12
298.062	95.12
298.292	84.12
298.523	84.12
298.753	86.12
298.984	81.12
299.214	74.12
299.445	88.12
299.675	84.12
299.905	79.12
300.136	90.12
300.366	92.12
300.597	85.12
300.827	84.12
301.057	86.12
301.288	88.12
301.518	84.12
301.748	81.12
301.979	100.12
302.209	93.12
302.439	82.12
302.669	87.12
302.9	92.12
303.13	77.12
303.36	88.12
303.59	94.12
303.82	101.12
304.051	86.12
304.281	77.12
304.511	102.12
304.741	85.12
304.971	75.12
305.201	88.12
305.431	80.12
305.661	100.12
305.891	87.12
306.121	84.12
306.352	84.12
306.582	73.12
306.812	84.12
307.042	96.12
307.272	97.12
307.502	99.12
307.731	85.12
307.961	89.12
308.191	89.12
308.421	85.12
308.651	84.12
308.881	76.12
309.111	83.12
309.341	84.12
309.571	89.12
309.8	85.12
310.03	93.12
310.26	88.12
310.49	92.12
310.72	81.12
310.949	98.12
311.179	88.12
311.409	86.12
311.639	91.12
311.868	81.12
312.098	83.12
312.328	90.12
312.557	84.12
312.787	70.12
313.017	86.12
313.246	86.12
313.476	88.12
313.706	74.12
313.935	89.12
314.165	74.12
314.394	82.12
314.624	106.12
314.853	94.12
315.083	75.12
315.312	79.12
315.542	84.12
315.771	90.12
316.001	93.12
316.23	92.12
316.46	77.12
316.689	78.12
316.919	89.12
317.148	78.12
317.377	88.12
317.607	92.12
317.836	84.12
318.065	86.12
318.295	95.12
318.524	80.12
318.753	89.12
318.983	89.12
319.212	82.12
319.441	87.12
319.67	88.12
319.9	97.12
320.129	88.12
320.358	99.12
320.587	91.12
320.816	91.12
321.046	94.12
321.275	95.12
321.504	84.12
321.733	82.12
321.962	79.12
322.191	106.12
322.42	103.12
322.649	75.12
322.878	92.12
323.108	85.12
323.337	69.12
323.566	78.12
323.795	82.12
324.024	91.12
324.253	89.12
324.482	104.12
324.71	96.12
324.939	86.12
325.168	84.12
325.397	85.12
325.626	86.12
325.855	67.12
326.084	91.12
326.313	84.12
326.542	88.12
326.77	94.12
326.999	91.12
327.228	82.12
327.457	89.12
327.686	97.12
327.914	98.12
328.143	78.12
328.372	96.12
328.6	85.12
328.829	82.12
329.058	86.12
329.287	75.12
329.515	82.12
329.744	84.12
329.972	75.12
330.201	80.12
330.43	94.12
330.658	81.12
330.887	80.12
331.115	71.12
331.344	81.12
331.572	96.12
331.801	89.12
332.03	79.12
332.258	89.12
332.486	85.12
332.715	84.12
332.943	81.12
333.172	81.12
333.4	85.12
333.629	93.12
333.857	77.12
334.085	82.12
334.314	84.12
334.542	88.12
334.771	70.12
334.999	87.12
335.227	77.12
335.455	64.12
335.684	94.12
335.912	90.12
336.14	84.12
336.369	90.12
336.597	92.12
336.825	93.12
337.053	82.12
337.281	70.12
337.51	98.12
337.738	99.12
337.966	88.12
338.194	76.12
338.422	89.12
338.65	80.12
338.878	96.12
339.106	83.12
339.334	88.12
339.562	84.12
339.79	86.12
340.018	96.12
340.246	89.12
340.474	84.12
340.702	78.12
340.93	82.12
341.158	79.12
341.386	84.12
341.614	85.12
341.842	94.12
342.07	79.12
342.298	97.12
342.526	94.12
342.754	94.12
342.981	82.12
343.209	78.12
343.437	96.12
343.665	76.12
343.893	87.12
344.12	83.12
344.348	87.12
344.576	88.12
344.804	82.12
345.031	92.12
345.259	82.12
345.487	74.12
345.714	65.12
345.942	80.12
346.17	80.12
346.397	95.12
346.625	75.12
346.853	89.12
347.08	89.12
347.308	103.12
347.535	77.12
347.763	88.12
347.99	84.12
348.218	76.12
348.445	66.12
348.673	85.12
348.9	90.12
349.128	88.12
349.355	84.12
349.583	76.12
349.81	57.12
350.037	84.12
350.265	95.12
350.492	88.12
350.72	84.12
350.947	77.12
351.174	84.12
351.402	89.12
351.629	99.12
351.856	98.12
352.083	93.12
352.311	79.12
352.538	85.12
352.765	72.12
352.992	78.12
353.22	75.12
353.447	92.12
353.674	93.12
353.901	97.12
354.128	82.12
354.355	71.12
354.583	68.12
354.81	72.12
355.037	84.12
355.264	93.12
355.491	91.12
355.718	93.12
355.945	85.12
356.172	87.12
356.399	79.12
356.626	86.12
356.853	98.12
357.08	93.12
357.307	66.12
357.534	82.12
357.761	76.12
357.988	86.12
358.215	74.12
358.441	92.12
358.668	93.12
358.895	91.12
359.122	100.12
359.349	89.12
359.576	86.12
359.802	77.12
360.029	89.12
360.256	98.12
360.483	70.12
360.709	92.12
360.936	98.12
361.163	75.12
361.39	93.12
361.616	94.12
361.843	82.12
362.07	94.12
362.296	83.12
362.523	91.12
362.749	88.12
362.976	94.12
363.203	94.12
363.429	90.12
363.656	81.12
363.882	72.12
364.109	87.12
364.335	92.12
364.562	101.12
364.788	84.12
365.015	90.12
365.241	77.12
365.468	79.12
365.694	87.12
365.92	79.12
366.147	96.12
366.373	85.12
366.599	83.12
366.826	86.12
367.052	80.12
367.278	93.12
367.505	81.12
367.731	98.12
367.957	65.12
368.184	81.12
368.41	83.12
368.636	82.12
368.862	77.12
369.089	100.12
369.315	84.12
369.541	93.12
369.767	91.12
369.993	89.12
370.219	97.12
370.445	88.12
370.672	84.12
370.898	73.12
371.124	66.12
371.35	88.12
371.576	82.12
371.802	75.12
372.028	84.12
372.254	79.12
372.48	80.12
372.706	70.12
372.932	66.12
373.158	76.12
373.384	88.12
373.61	83.12
373.835	85.12
374.061	90.12
374.287	86.12
374.513	93.12
374.739	73.12
374.965	85.12
375.191	79.12
375.416	91.12
375.642	89.12
375.868	79.12
376.094	92.12
376.319	84.12
376.545	77.12
376.771	68.12
376.997	92.12
377.222	80.12
377.448	88.12
377.674	85.12
377.899	83.12
378.125	86.12
378.35	84.12
378.576	92.12
378.802	81.12
379.027	91.12
379.253	83.12
379.478	92.12
379.704	92.12
379.929	88.12
380.155	81.12
380.38	84.12
380.606	82.12
380.831	84.12
381.057	81.12
381.282	86.12
381.507	100.12
381.733	86.12
381.958	101.12
382.184	85.12
382.409	94.12
382.634	96.12
382.86	82.12
383.085	77.12
383.31	82.12
383.535	87.12
383.761	88.12
383.986	81.12
384.211	77.12
384.436	80.12
384.662	82.12
384.887	73.12
385.112	80.12
385.337	70.12
385.562	83.12
385.787	92.12
386.013	90.12
386.238	93.12
386.463	81.12
386.688	91.12
386.913	85.12
387.138	98.12
387.363	93.12
387.588	84.12
387.813	95.12
388.038	72.12
388.263	75.12
388.488	82.12
388.713	85.12
388.938	84.12
389.163	83.12
389.387	77.12
389.612	89.12
389.837	83.12
390.062	93.12
390.287	95.12
390.512	82.12
390.736	81.12
390.961	79.12
391.186	83.12
391.411	71.12
391.636	93.12
391.86	90.12
392.085	79.12
392.31	84.12
392.534	84.12
392.759	105.12
392.984	107.12
393.208	129.12
393.433	158.12
393.658	146.12
393.882	92.12
394.107	85.12
394.331	83.12
394.556	87.12
394.78	93.12
395.005	98.12
395.229	93.12
395.454	88.12
395.678	82.12
395.903	91.12
396.127	107.12
396.352	107.12
396.576	107.12
396.801	126.12
397.025	152.12
397.249	100.12
397.474	86.12
397.698	85.12
397.922	82.12
398.147	80.12
398.371	89.12
398.595	84.12
398.82	68.12
399.044	81.12
399.268	91.12
399.492	77.12
399.717	90.12
399.941	82.12
400.165	86.12
400.389	97.12
400.613	90.12
400.837	87.12
401.062	75.12
401.286	79.12
401.51	79.12
401.734	87.12
401.958	83.12
402.182	72.12
402.406	93.12
402.63	93.12
402.854	84.12
403.078	90.12
403.302	74.12
403.526	82.12
403.75	79.12
403.974	79.12
404.198	84.12
404.422	84.12
404.645	81.12
404.869	84.12
405.093	82.12
405.317	89.12
405.541	73.12
405.765	85.12
405.988	80.12
406.212	84.12
406.436	85.12
406.66	90.12
406.883	96.12
407.107	74.12
407.331	89.12
407.555	79.12
407.778	82.12
408.002	105.12
408.226	95.12
408.449	85.12
408.673	89.12
408.896	80.12
409.12	102.12
409.344	93.12
409.567	77.12
409.791	94.12
410.014	90.12
410.238	83.12
410.461	70.12
410.685	89.12
410.908	72.12
411.132	94.12
411.355	97.12
411.578	80.12
411.802	82.12
412.025	58.12
412.249	84.12
412.472	72.12
412.695	101.12
412.919	100.12
413.142	77.12
413.365	88.12
413.589	88.12
413.812	78.12
414.035	80.12
414.258	80.12
414.482	97.12
414.705	74.12
414.928	98.12
415.151	76.12
415.374	85.12
415.597	84.12
415.821	74.12
416.044	84.12
416.267	76.12
416.49	82.12
416.713	78.12
416.936	90.12
417.159	81.12
417.382	85.12
417.605	92.12
417.828	84.12
418.051	71.12
418.274	85.12
418.497	82.12
418.72	83.12
418.943	91.12
419.166	79.12
419.389	72.12
419.611	78.12
419.834	82.12
420.057	79.12
420.28	82.12
420.503	97.12
420.726	78.12
420.948	97.12
421.171	96.12
421.394	76.12
421.617	105.12
421.839	92.12
422.062	104.12
422.285	87.12
422.507	121.12
422.73	178.12
422.953	156.12
423.175	108.12
423.398	90.12
423.621	82.12
423.843	84.12
424.066	94.12
424.288	85.12
424.511	84.12
424.733	85.12
424.956	90.12
425.178	78.12
425.401	69.12
425.623	103.12
425.846	80.12
426.068	76.12
426.291	78.12
426.513	84.12
426.735	73.12
426.958	83.12
427.18	93.12
427.402	101.12
427.625	78.12
427.847	88.12
428.069	60.12
428.292	98.12
428.514	93.12
428.736	93.12
428.958	96.12
429.181	102.12
429.403	79.12
429.625	88.12
429.847	94.12
430.069	105.12
430.292	115.12
430.514	104.12
430.736	82.12
430.958	105.12
431.18	91.12
431.402	87.12
431.624	79.12
431.846	92.12
432.068	92.12
432.29	88.12
432.512	86.12
432.734	96.12
432.956	82.12
433.178	96.12
433.4	90.12
433.622	80.12
433.844	82.12
434.066	87.12
434.287	67.12
434.509	97.12
434.731	89.12
434.953	86.12
435.175	82.12
435.397	89.12
435.618	78.12
435.84	73.12
436.062	75.12
436.284	68.12
436.505	79.12
436.727	90.12
436.949	78.12
437.17	78.12
437.392	90.12
437.614	86.12
437.835	88.12
438.057	82.12
438.278	86.12
438.5	80.12
438.721	92.12
438.943	71.12
439.165	82.12
439.386	84.12
439.608	96.12
439.829	87.12
440.05	99.12
440.272	84.12
440.493	88.12
440.715	78.12
440.936	88.12
441.158	88.12
441.379	77.12
441.6	85.12
441.822	104.12
442.043	81.12
442.264	88.12
442.486	88.12
442.707	98.12
442.928	85.12
443.149	82.12
443.371	89.12
443.592	108.12
443.813	92.12
444.034	83.12
444.255	83.12
444.476	74.12
444.698	82.12
444.919	89.12
445.14	173.12
445.361	127.12
445.582	117.12
445.803	116.12
446.024	89.12
446.245	86.12
446.466	87.12
446.687	72.12
446.908	77.12
447.129	87.12
447.35	76.12
447.571	88.12
447.792	79.12
448.013	68.12
448.234	71.12
448.455	75.12
448.675	73.12
448.896	101.12
449.117	86.12
449.338	76.12
449.559	92.12
449.779	78.12
450	97.12
450.221	79.12
450.442	84.12
450.662	96.12
450.883	79.12
451.104	87.12
451.324	97.12
451.545	92.12
451.766	83.12
451.986	74.12
452.207	89.12
452.428	92.12
452.648	99.12
452.869	86.12
453.089	88.12
453.31	80.12
453.53	79.12
453.751	94.12
453.971	79.12
454.192	88.12
454.412	94.12
454.633	69.12
454.853	88.12
455.073	92.12
455.294	86.12
455.514	82.12
455.734	83.12
455.955	94.12
456.175	79.12
456.395	78.12
456.616	77.12
456.836	78.12
457.056	84.12
457.276	85.12
457.497	86.12
457.717	89.12
457.937	82.12
458.157	99.12
458.377	82.12
458.598	73.12
458.818	75.12
459.038	84.12
459.258	81.12
459.478	79.12
459.698	73.12
459.918	81.12
460.138	86.12
460.358	85.12
460.578	90.12
460.798	85.12
461.018	97.12
461.238	86.12
461.458	99.12
461.678	88.12
461.898	95.12
462.118	89.12
462.338	66.12
462.558	92.12
462.777	83.12
462.997	88.12
463.217	78.12
463.437	97.12
463.657	91.12
463.876	73.12
464.096	93.12
464.316	87.12
464.536	81.12
464.755	85.12
464.975	81.12
465.195	83.12
465.414	75.12
465.634	72.12
465.854	89.12
466.073	77.12
466.293	78.12
466.512	82.12
466.732	86.12
466.951	90.12
467.171	84.12
467.391	90.12
467.61	84.12
467.829	99.12
468.049	76.12
468.268	86.12
468.488	78.12
468.707	93.12
468.927	90.12
469.146	88.12
469.365	82.12
469.585	91.12
469.804	70.12
470.023	76.12
470.243	75.12
470.462	69.12
470.681	80.12
470.901	76.12
471.12	93.12
471.339	92.12
471.558	72.12
471.777	67.12
471.997	75.12
472.216	86.12
472.435	78.12
472.654	76.12
472.873	89.12
473.092	89.12
473.311	79.12
473.53	96.12
473.749	90.12
473.968	94.12
474.187	92.12
474.406	81.12
474.625	81.12
474.844	98.12
475.063	90.12
475.282	90.12
475.501	83.12
475.72	100.12
475.939	91.12
476.158	78.12
476.377	76.12
476.596	78.12
476.814	82.12
477.033	69.12
477.252	96.12
477.471	84.12
477.69	89.12
477.908	79.12
478.127	90.12
478.346	79.12
478.564	78.12
478.783	72.12
479.002	89.12
479.22	85.12
479.439	86.12
479.658	89.12
479.876	73.12
480.095	88.12
480.313	93.12
480.532	72.12
480.751	88.12
480.969	64.12
481.188	78.12
481.406	82.12
481.624	81.12
481.843	92.12
482.061	90.12
482.28	91.12
482.498	96.12
482.717	92.12
482.935	73.12
483.153	80.12
483.372	70.12
483.59	96.12
483.808	93.12
484.027	94.12
484.245	84.12
484.463	77.12
484.681	93.12
484.9	87.12
485.118	82.12
485.336	89.12
485.554	84.12
485.772	76.12
485.99	85.12
486.209	90.12
486.427	72.12
486.645	91.12
486.863	86.12
487.081	78.12
487.299	68.12
487.517	94.12
487.735	86.12
487.953	101.12
488.171	100.12
488.389	81.12
488.607	84.12
488.825	72.12
489.043	76.12
489.261	96.12
489.479	87.12
489.696	84.12
489.914	84.12
490.132	76.12
490.35	85.12
490.568	90.12
490.786	98.12
491.003	83.12
491.221	78.12
491.439	86.12
491.657	104.12
491.874	95.12
492.092	70.12
492.31	76.12
492.527	74.12
492.745	88.12
492.963	86.12
493.18	81.12
493.398	86.12
493.615	90.12
493.833	84.12
494.05	91.12
494.268	92.12
494.485	94.12
494.703	92.12
494.92	75.12
495.138	79.12
495.355	96.12
495.573	91.12
495.79	76.12
496.008	83.12
496.225	82.12
496.442	73.12
496.66	79.12
496.877	94.12
497.094	75.12
497.312	76.12
497.529	64.12
497.746	98.12
497.963	78.12
498.181	82.12
498.398	80.12
498.615	101.12
498.832	80.12
499.049	104.12
499.267	82.12
499.484	89.12
499.701	78.12
499.918	91.12
500.135	93.12
500.352	86.12
500.569	85.12
500.786	72.12
501.003	92.12
501.22	87.12
501.437	80.12
501.654	83.12
501.871	68.12
502.088	70.12
502.305	93.12
502.522	80.12
502.739	76.12
502.956	86.12
503.172	97.12
503.389	73.12
503.606	80.12
503.823	95.12
504.04	75.12
504.256	82.12
504.473	84.12
504.69	102.12
504.907	99.12
505.123	81.12
505.34	92.12
505.557	89.12
505.773	96.12
505.99	82.12
506.207	92.12
506.423	82.12
506.64	86.12
506.856	88.12
507.073	87.12
507.289	88.12
507.506	85.12
507.722	92.12
507.939	72.12
508.155	78.12
508.372	85.12
508.588	82.12
508.805	68.12
509.021	86.12
509.238	94.12
509.454	74.12
509.67	78.12
509.887	80.12
510.103	88.12
510.319	75.12
510.536	88.12
510.752	79.12
510.968	84.12
511.184	84.12
511.401	69.12
511.617	69.12
511.833	89.12
512.049	72.12
512.265	84.12
512.481	88.12
512.698	77.12
512.914	86.12
513.13	88.12
513.346	92.12
513.562	100.12
513.778	83.12
513.994	76.12
514.21	77.12
514.426	88.12
514.642	90.12
514.858	78.12
515.074	93.12
515.29	93.12
515.506	87.12
515.721	84.12
515.937	97.12
516.153	69.12
516.369	100.12
516.585	83.12
516.801	81.12
517.016	85.12
517.232	76.12
517.448	88.12
517.664	78.12
517.879	83.12
518.095	84.12
518.311	88.12
518.527	86.12
518.742	82.12
518.958	94.12
519.173	96.12
519.389	98.12
