Data from HP_1_HRD10591_00028.txt Node
Date: Mon Jan 19 14:15:21 EST 2026
User: Yrep
Spectrometer: HR+D1059
Trigger mode: 1
Integration Time (sec): 1.000000E-1
Scans to average: 1
Electric dark correction enabled: true
Nonlinearity correction enabled: false
Boxcar width: 0
XAxis mode: Wavelengths
Number of Pixels in Spectrum: 2048
>>>>>Begin Spectral Data<<<<<
223.165	-12
223.4	-12
223.635	-12
223.869	-25
224.104	-5
224.338	-11
224.573	-20
224.808	-23
225.042	9
225.277	4
225.511	-14
225.746	-4
225.98	8
226.215	0
226.449	18
226.683	25
226.918	22
227.152	28
227.387	46
227.621	39
227.856	62
228.09	51
228.324	43
228.559	41
228.793	46
229.027	66
229.262	65
229.496	67
229.73	64
229.964	77
230.199	70
230.433	70
230.667	84
230.901	82
231.136	85
231.37	73
231.604	74
231.838	84
232.072	77
232.306	85
232.541	85
232.775	77
233.009	82
233.243	77
233.477	67
233.711	70
233.945	74
234.179	76
234.413	76
234.647	94
234.881	91
235.115	83
235.349	83
235.583	82
235.817	76
236.051	75
236.285	79
236.519	75
236.753	81
236.987	85
237.221	75
237.455	83
237.689	79
237.922	77
238.156	74
238.39	82
238.624	73
238.858	68
239.091	65
239.325	69
239.559	63
239.793	73
240.027	69
240.26	79
240.494	86
240.728	85
240.961	70
241.195	72
241.429	73
241.662	74
241.896	60
242.13	73
242.363	71
242.597	76
242.83	74
243.064	73
243.298	74
243.531	85
243.765	77
243.998	86
244.232	86
244.465	77
244.699	81
244.932	84
245.166	70
245.399	70
245.633	67
245.866	66
246.099	72
246.333	72
246.566	68
246.8	93
247.033	72
247.266	65
247.5	75
247.733	78
247.966	89
248.2	74
248.433	88
248.666	79
248.899	80
249.133	79
249.366	85
249.599	81
249.832	70
250.066	79
250.299	67
250.532	82
250.765	70
250.998	67
251.231	84
251.465	79
251.698	70
251.931	79
252.164	70
252.397	75
252.63	87
252.863	90
253.096	78
253.329	66
253.562	89
253.795	81
254.028	66
254.261	72
254.494	61
254.727	67
254.96	69
255.193	79
255.426	74
255.659	62
255.892	68
256.124	73
256.357	74
256.59	86
256.823	88
257.056	85
257.289	83
257.521	82
257.754	77
257.987	76
258.22	69
258.452	65
258.685	62
258.918	77
259.151	78
259.383	75
259.616	87
259.849	79
260.081	74
260.314	78
260.547	93
260.779	66
261.012	74
261.244	80
261.477	85
261.71	81
261.942	83
262.175	80
262.407	71
262.64	85
262.872	71
263.105	87
263.337	82
263.57	83
263.802	73
264.035	80
264.267	77
264.499	84
264.732	81
264.964	81
265.197	70
265.429	73
265.661	70
265.894	74
266.126	77
266.358	93
266.591	88
266.823	74
267.055	80
267.287	89
267.52	82
267.752	69
267.984	75
268.216	78
268.448	75
268.681	75
268.913	80
269.145	82
269.377	65
269.609	70
269.841	90
270.073	94
270.306	80
270.538	88
270.77	69
271.002	84
271.234	85
271.466	97
271.698	75
271.93	87
272.162	78
272.394	88
272.626	78
272.858	90
273.09	89
273.322	67
273.553	81
273.785	83
274.017	84
274.249	96
274.481	90
274.713	87
274.945	86
275.176	79
275.408	85
275.64	86
275.872	88
276.104	85
276.335	75
276.567	75
276.799	87
277.031	70
277.262	70
277.494	86
277.726	76
277.957	58
278.189	80
278.421	93
278.652	92
278.884	76
279.115	68
279.347	87
279.579	80
279.81	81
280.042	75
280.273	69
280.505	96
280.736	89
280.968	81
281.199	74
281.431	83
281.662	96
281.894	83
282.125	85
282.356	89
282.588	81
282.819	82
283.051	79
283.282	79
283.513	97
283.745	92
283.976	79
284.207	81
284.439	79
284.67	88
284.901	81
285.132	65
285.364	98
285.595	84
285.826	82
286.057	94
286.288	81
286.52	88
286.751	89
286.982	70
287.213	86
287.444	77
287.675	82
287.906	75
288.138	89
288.369	84
288.6	90
288.831	88
289.062	81
289.293	89
289.524	92
289.755	103
289.986	68
290.217	74
290.448	81
290.679	76
290.91	81
291.141	79
291.371	74
291.602	77
291.833	73
292.064	75
292.295	83
292.526	75
292.757	90
292.987	85
293.218	98
293.449	93
293.68	75
293.91	83
294.141	88
294.372	81
294.603	86
294.833	79
295.064	76
295.295	87
295.525	77
295.756	98
295.987	86
296.217	70
296.448	75
296.679	67
296.909	93
297.14	84
297.37	92
297.601	75
297.831	88
298.062	94
298.292	81
298.523	85
298.753	83
298.984	78
299.214	77
299.445	84
299.675	73
299.905	95
300.136	93
300.366	90
300.597	97
300.827	84
301.057	91
301.288	77
301.518	81
301.748	84
301.979	99
302.209	59
302.439	88
302.669	82
302.9	81
303.13	76
303.36	90
303.59	81
303.82	88
304.051	73
304.281	76
304.511	90
304.741	83
304.971	77
305.201	86
305.431	86
305.661	95
305.891	83
306.121	86
306.352	79
306.582	78
306.812	99
307.042	90
307.272	74
307.502	75
307.731	89
307.961	93
308.191	74
308.421	81
308.651	74
308.881	76
309.111	89
309.341	72
309.571	85
309.8	97
310.03	89
310.26	96
310.49	88
310.72	82
310.949	82
311.179	82
311.409	84
311.639	71
311.868	79
312.098	74
312.328	85
312.557	70
312.787	81
313.017	91
313.246	74
313.476	88
313.706	89
313.935	88
314.165	86
314.394	77
314.624	91
314.853	87
315.083	91
315.312	77
315.542	77
315.771	78
316.001	76
316.23	78
316.46	83
316.689	76
316.919	87
317.148	94
317.377	89
317.607	83
317.836	93
318.065	89
318.295	83
318.524	84
318.753	82
318.983	74
319.212	67
319.441	100
319.67	87
319.9	83
320.129	83
320.358	70
320.587	93
320.816	74
321.046	81
321.275	81
321.504	70
321.733	98
321.962	75
322.191	76
322.42	83
322.649	86
322.878	83
323.108	87
323.337	85
323.566	79
323.795	70
324.024	82
324.253	78
324.482	96
324.71	95
324.939	72
325.168	71
325.397	69
325.626	72
325.855	78
326.084	85
326.313	96
326.542	82
326.77	83
326.999	93
327.228	87
327.457	87
327.686	90
327.914	81
328.143	89
328.372	86
328.6	75
328.829	81
329.058	79
329.287	85
329.515	81
329.744	73
329.972	75
330.201	79
330.43	80
330.658	81
330.887	77
331.115	87
331.344	76
331.572	105
331.801	80
332.03	77
332.258	79
332.486	86
332.715	93
332.943	79
333.172	79
333.4	87
333.629	81
333.857	77
334.085	88
334.314	77
334.542	80
334.771	94
334.999	75
335.227	97
335.455	93
335.684	80
335.912	89
336.14	83
336.369	88
336.597	73
336.825	85
337.053	79
337.281	83
337.51	93
337.738	89
337.966	79
338.194	84
338.422	85
338.65	94
338.878	89
339.106	87
339.334	89
339.562	85
339.79	78
340.018	83
340.246	77
340.474	87
340.702	79
340.93	85
341.158	71
341.386	84
341.614	91
341.842	75
342.07	92
342.298	89
342.526	83
342.754	80
342.981	90
343.209	80
343.437	86
343.665	80
343.893	81
344.12	87
344.348	90
344.576	82
344.804	87
345.031	71
345.259	83
345.487	91
345.714	82
345.942	84
346.17	78
346.397	89
346.625	79
346.853	75
347.08	87
347.308	96
347.535	73
347.763	79
347.99	67
348.218	79
348.445	91
348.673	62
348.9	74
349.128	81
349.355	77
349.583	93
349.81	73
350.037	89
350.265	87
350.492	79
350.72	80
350.947	83
351.174	76
351.402	81
351.629	80
351.856	74
352.083	89
352.311	82
352.538	70
352.765	74
352.992	84
353.22	74
353.447	93
353.674	86
353.901	88
354.128	83
354.355	85
354.583	79
354.81	83
355.037	80
355.264	91
355.491	87
355.718	91
355.945	98
356.172	83
356.399	87
356.626	83
356.853	80
357.08	89
357.307	84
357.534	78
357.761	88
357.988	84
358.215	84
358.441	74
358.668	76
358.895	74
359.122	77
359.349	82
359.576	87
359.802	89
360.029	93
360.256	87
360.483	80
360.709	75
360.936	84
361.163	79
361.39	86
361.616	62
361.843	94
362.07	82
362.296	81
362.523	82
362.749	87
362.976	75
363.203	81
363.429	75
363.656	89
363.882	87
364.109	99
364.335	95
364.562	82
364.788	87
365.015	82
365.241	81
365.468	74
365.694	94
365.92	80
366.147	92
366.373	75
366.599	77
366.826	79
367.052	79
367.278	100
367.505	77
367.731	88
367.957	82
368.184	89
368.41	90
368.636	68
368.862	87
369.089	69
369.315	90
369.541	70
369.767	73
369.993	87
370.219	71
370.445	90
370.672	87
370.898	81
371.124	73
371.35	81
371.576	72
371.802	77
372.028	81
372.254	68
372.48	87
372.706	70
372.932	84
373.158	81
373.384	88
373.61	91
373.835	99
374.061	81
374.287	75
374.513	74
374.739	81
374.965	83
375.191	73
375.416	78
375.642	87
375.868	88
376.094	69
376.319	85
376.545	95
376.771	87
376.997	77
377.222	83
377.448	77
377.674	72
377.899	87
378.125	91
378.35	81
378.576	84
378.802	84
379.027	90
379.253	87
379.478	69
379.704	76
379.929	71
380.155	65
380.38	68
380.606	90
380.831	87
381.057	91
381.282	93
381.507	83
381.733	84
381.958	73
382.184	81
382.409	81
382.634	79
382.86	71
383.085	66
383.31	87
383.535	80
383.761	73
383.986	96
384.211	88
384.436	86
384.662	81
384.887	79
385.112	75
385.337	93
385.562	89
385.787	79
386.013	85
386.238	88
386.463	86
386.688	99
386.913	84
387.138	75
387.363	90
387.588	79
387.813	73
388.038	82
388.263	85
388.488	93
388.713	79
388.938	75
389.163	83
389.387	81
389.612	74
389.837	90
390.062	78
390.287	74
390.512	73
390.736	83
390.961	91
391.186	78
391.411	93
391.636	82
391.86	67
392.085	86
392.31	89
392.534	70
392.759	89
392.984	103
393.208	136
393.433	177
393.658	131
393.882	87
394.107	81
394.331	94
394.556	95
394.78	77
395.005	79
395.229	88
395.454	86
395.678	66
395.903	93
396.127	97
396.352	107
396.576	118
396.801	153
397.025	163
397.249	102
397.474	79
397.698	81
397.922	72
398.147	78
398.371	83
398.595	91
398.82	85
399.044	85
399.268	76
399.492	81
399.717	81
399.941	63
400.165	71
400.389	73
400.613	89
400.837	81
401.062	79
401.286	82
401.51	87
401.734	76
401.958	72
402.182	73
402.406	79
402.63	83
402.854	90
403.078	83
403.302	85
403.526	84
403.75	78
403.974	82
404.198	84
404.422	90
404.645	88
404.869	74
405.093	87
405.317	69
405.541	74
405.765	78
405.988	68
406.212	82
406.436	85
406.66	74
406.883	86
407.107	95
407.331	90
407.555	79
407.778	79
408.002	82
408.226	81
408.449	90
408.673	88
408.896	90
409.12	91
409.344	74
409.567	82
409.791	87
410.014	85
410.238	83
410.461	79
410.685	74
410.908	87
411.132	75
411.355	93
411.578	94
411.802	73
412.025	69
412.249	89
412.472	82
412.695	76
412.919	75
413.142	103
413.365	81
413.589	92
413.812	74
414.035	83
414.258	85
414.482	75
414.705	83
414.928	90
415.151	78
415.374	81
415.597	73
415.821	83
416.044	89
416.267	71
416.49	75
416.713	95
416.936	64
417.159	76
417.382	73
417.605	72
417.828	81
418.051	93
418.274	69
418.497	82
418.72	81
418.943	94
419.166	87
419.389	87
419.611	78
419.834	87
420.057	79
420.28	78
420.503	78
420.726	88
420.948	83
421.171	81
421.394	95
421.617	87
421.839	95
422.062	93
422.285	106
422.507	120
422.73	159
422.953	158
423.175	98
423.398	93
423.621	86
423.843	94
424.066	81
424.288	75
424.511	92
424.733	82
424.956	88
425.178	72
425.401	79
425.623	75
425.846	77
426.068	84
426.291	79
426.513	83
426.735	65
426.958	84
427.18	83
427.402	80
427.625	82
427.847	86
428.069	67
428.292	94
428.514	100
428.736	78
428.958	101
429.181	87
429.403	104
429.625	79
429.847	86
430.069	90
430.292	92
430.514	95
430.736	89
430.958	87
431.18	64
431.402	76
431.624	83
431.846	95
432.068	97
432.29	89
432.512	86
432.734	76
432.956	73
433.178	91
433.4	88
433.622	79
433.844	90
434.066	86
434.287	68
434.509	81
434.731	64
434.953	81
435.175	81
435.397	72
435.618	88
435.84	68
436.062	83
436.284	74
436.505	78
436.727	97
436.949	92
437.17	77
437.392	91
437.614	82
437.835	88
438.057	79
438.278	80
438.5	87
438.721	79
438.943	87
439.165	74
439.386	76
439.608	86
439.829	83
440.05	70
440.272	75
440.493	67
440.715	78
440.936	64
441.158	80
441.379	76
441.6	84
441.822	60
442.043	78
442.264	74
442.486	92
442.707	84
442.928	99
443.149	89
443.371	81
443.592	104
443.813	115
444.034	85
444.255	83
444.476	86
444.698	87
444.919	64
445.14	162
445.361	130
445.582	120
445.803	98
446.024	71
446.245	78
446.466	75
446.687	84
446.908	79
447.129	75
447.35	84
447.571	80
447.792	95
448.013	80
448.234	76
448.455	83
448.675	82
448.896	67
449.117	74
449.338	79
449.559	81
449.779	87
450	83
450.221	61
450.442	80
450.662	84
450.883	89
451.104	87
451.324	75
451.545	87
451.766	93
451.986	77
452.207	80
452.428	81
452.648	79
452.869	86
453.089	90
453.31	93
453.53	69
453.751	89
453.971	90
454.192	69
454.412	73
454.633	87
454.853	74
455.073	81
455.294	79
455.514	80
455.734	78
455.955	76
456.175	79
456.395	85
456.616	81
456.836	73
457.056	74
457.276	94
457.497	90
457.717	92
457.937	75
458.157	89
458.377	89
458.598	88
458.818	77
459.038	85
459.258	91
459.478	89
459.698	68
459.918	79
460.138	84
460.358	87
460.578	70
460.798	85
461.018	73
461.238	75
461.458	80
461.678	96
461.898	90
462.118	77
462.338	59
462.558	88
462.777	81
462.997	85
463.217	86
463.437	85
463.657	74
463.876	73
464.096	69
464.316	80
464.536	63
464.755	74
464.975	74
465.195	65
465.414	80
465.634	95
465.854	69
466.073	79
466.293	87
466.512	65
466.732	84
466.951	71
467.171	86
467.391	77
467.61	79
467.829	65
468.049	85
468.268	73
468.488	74
468.707	80
468.927	58
469.146	75
469.365	78
469.585	96
469.804	95
470.023	74
470.243	100
470.462	85
470.681	75
470.901	71
471.12	76
471.339	73
471.558	87
471.777	87
471.997	79
472.216	67
472.435	65
472.654	77
472.873	85
473.092	72
473.311	81
473.53	87
473.749	85
473.968	73
474.187	77
474.406	92
474.625	86
474.844	86
475.063	73
475.282	71
475.501	98
475.72	87
475.939	75
476.158	75
476.377	73
476.596	93
476.814	81
477.033	79
477.252	75
477.471	79
477.69	69
477.908	82
478.127	92
478.346	72
478.564	83
478.783	82
479.002	49
479.22	73
479.439	69
479.658	90
479.876	81
480.095	78
480.313	90
480.532	82
480.751	80
480.969	76
481.188	75
481.406	89
481.624	85
481.843	97
482.061	97
482.28	86
482.498	89
482.717	85
482.935	69
483.153	90
483.372	94
483.59	86
483.808	88
484.027	86
484.245	81
484.463	86
484.681	86
484.9	81
485.118	85
485.336	81
485.554	85
485.772	81
485.99	93
486.209	74
486.427	81
486.645	70
486.863	77
487.081	85
487.299	78
487.517	91
487.735	90
487.953	87
488.171	81
488.389	88
488.607	79
488.825	63
489.043	75
489.261	74
489.479	75
489.696	82
489.914	77
490.132	91
490.35	91
490.568	77
490.786	82
491.003	82
491.221	88
491.439	72
491.657	80
491.874	87
492.092	78
492.31	83
492.527	84
492.745	79
492.963	79
493.18	85
493.398	95
493.615	89
493.833	76
494.05	81
494.268	73
494.485	77
494.703	88
494.92	88
495.138	84
495.355	67
495.573	69
495.79	83
496.008	74
496.225	78
496.442	87
496.66	79
496.877	86
497.094	73
497.312	83
497.529	87
497.746	90
497.963	77
498.181	87
498.398	80
498.615	89
498.832	74
499.049	80
499.267	90
499.484	75
499.701	82
499.918	76
500.135	77
500.352	88
500.569	87
500.786	80
501.003	59
501.22	67
501.437	87
501.654	67
501.871	96
502.088	81
502.305	87
502.522	73
502.739	92
502.956	78
503.172	69
503.389	99
503.606	81
503.823	73
504.04	89
504.256	89
504.473	90
504.69	88
504.907	95
505.123	86
505.34	81
505.557	79
505.773	92
505.99	80
506.207	63
506.423	69
506.64	78
506.856	90
507.073	74
507.289	80
507.506	87
507.722	82
507.939	68
508.155	89
508.372	85
508.588	95
508.805	73
509.021	88
509.238	92
509.454	79
509.67	74
509.887	85
510.103	83
510.319	79
510.536	105
510.752	79
510.968	83
511.184	92
511.401	77
511.617	88
511.833	89
512.049	81
512.265	79
512.481	79
512.698	85
512.914	73
513.13	82
513.346	76
513.562	83
513.778	76
513.994	75
514.21	90
514.426	90
514.642	87
514.858	84
515.074	75
515.29	85
515.506	93
515.721	73
515.937	70
516.153	66
516.369	79
516.585	69
516.801	74
517.016	91
517.232	88
517.448	82
517.664	79
517.879	81
518.095	70
518.311	85
518.527	90
518.742	83
518.958	80
519.173	98
519.389	71
519.605	68
519.82	70
520.036	81
520.251	93
520.467	87
520.682	91
520.898	93
521.113	74
521.329	89
521.544	73
521.76	79
521.975	79
522.19	88
522.406	83
522.621	93
522.836	93
523.052	80
523.267	89
523.482	87
523.698	82
523.913	83
524.128	102
524.343	82
524.559	82
524.774	76
524.989	82
525.204	94
525.419	101
525.634	97
525.849	81
526.064	102
526.28	99
526.495	111
526.71	125
526.925	95
527.14	108
527.355	97
527.57	95
527.785	74
527.999	74
528.214	94
528.429	90
528.644	83
528.859	83
529.074	82
529.289	83
529.503	90
529.718	88
529.933	73
530.148	85
530.363	78
530.577	88
530.792	94
531.007	84
531.221	82
531.436	78
531.651	70
531.865	85
532.08	87
532.295	90
532.509	81
532.724	87
532.938	86
533.153	94
533.367	74
533.582	89
533.796	79
534.011	69
534.225	75
534.44	74
534.654	79
534.868	98
535.083	115
535.297	92
535.511	83
535.726	86
535.94	96
536.154	93
536.369	78
536.583	79
536.797	91
537.011	87
537.225	82
537.44	81
537.654	91
537.868	82
538.082	91
538.296	85
538.51	90
538.724	97
538.938	83
539.153	98
539.367	82
539.581	73
539.795	72
540.009	75
540.222	85
540.436	82
540.65	75
540.864	85
541.078	94
541.292	78
541.506	84
541.72	80
541.934	80
542.147	79
542.361	83
542.575	83
542.789	89
543.002	82
543.216	73
543.43	99
543.644	67
543.857	95
544.071	85
544.285	106
544.498	95
544.712	99
544.925	95
545.139	76
545.352	86
545.566	89
545.779	73
545.993	83
546.206	89
546.42	93
546.633	93
546.847	110
547.06	87
547.274	81
547.487	96
547.7	85
547.914	92
548.127	89
548.34	109
548.554	90
548.767	85
548.98	90
549.193	93
549.407	97
549.62	106
549.833	81
550.046	106
550.259	87
550.473	93
550.686	95
550.899	97
551.112	93
551.325	96
551.538	100
551.751	96
551.964	85
552.177	92
552.39	92
552.603	95
552.816	106
553.029	93
553.242	95
553.455	97
553.667	113
553.88	113
554.093	93
554.306	96
554.519	104
554.732	99
554.944	101
555.157	103
555.37	98
555.583	89
555.795	111
556.008	103
556.221	87
556.433	87
556.646	80
556.859	89
557.071	113
557.284	97
557.496	88
557.709	86
557.921	89
558.134	86
558.346	97
558.559	89
558.771	110
558.984	124
559.196	134
559.409	99
559.621	125
559.833	117
560.046	119
560.258	94
560.47	104
560.683	105
560.895	97
561.107	75
561.32	89
561.532	77
561.744	76
561.956	103
562.168	93
562.381	83
562.593	83
562.805	82
563.017	79
563.229	94
563.441	87
563.653	81
563.865	93
564.077	95
564.289	88
564.501	87
564.713	96
564.925	85
565.137	87
565.349	83
565.561	80
565.773	87
565.985	83
566.197	73
566.408	70
566.62	85
566.832	81
567.044	82
567.255	82
567.467	74
567.679	86
567.891	74
568.102	74
568.314	82
568.526	89
568.737	89
568.949	96
569.161	94
569.372	79
569.584	73
569.795	90
570.007	77
570.218	94
570.43	75
570.641	89
570.853	93
571.064	78
571.276	72
571.487	81
571.698	82
571.91	93
572.121	77
572.333	80
572.544	85
572.755	87
572.966	88
573.178	74
573.389	85
573.6	79
573.811	89
574.023	82
574.234	82
574.445	77
574.656	81
574.867	95
575.078	82
575.289	79
575.501	91
575.712	65
575.923	69
576.134	82
576.345	83
576.556	91
576.767	90
576.978	76
577.188	89
577.399	77
577.61	78
577.821	95
578.032	83
578.243	88
578.454	85
578.665	81
578.875	71
579.086	79
579.297	75
579.508	97
579.718	72
579.929	99
580.14	87
580.35	80
580.561	93
580.772	75
580.982	64
581.193	87
581.403	93
581.614	84
581.825	89
582.035	80
582.246	91
582.456	76
582.667	78
582.877	88
583.087	87
583.298	79
583.508	89
583.719	83
583.929	92
584.139	79
584.35	83
584.56	91
584.77	81
584.981	90
585.191	67
585.401	76
585.611	92
585.821	88
586.032	105
586.242	86
586.452	76
586.662	89
586.872	79
587.082	90
587.292	98
587.502	87
587.713	74
587.923	93
588.133	92
588.343	88
588.553	89
588.762	95
588.972	131
589.182	290
589.392	198
589.602	164
589.812	258
590.022	129
