Data from HP_1_HRD10591_00032.txt Node
Date: Mon Jan 19 14:15:23 EST 2026
User: Yrep
Spectrometer: HR+D1059
Trigger mode: 1
Integration Time (sec): 1.000000E-1
Scans to average: 1
Electric dark correction enabled: true
Nonlinearity correction enabled: false
Boxcar width: 0
XAxis mode: Wavelengths
Number of Pixels in Spectrum: 2048
>>>>>Begin Spectral Data<<<<<
223.165	-11.75
223.4	-11.75
223.635	-11.75
223.869	-30.75
224.104	-7.75
224.338	-5.75
224.573	-4.75
224.808	-13.75
225.042	-7.75
225.277	-9.75
225.511	-3.75
225.746	-11.75
225.98	19.25
226.215	0.25
226.449	13.25
226.683	13.25
226.918	29.25
227.152	32.25
227.387	42.25
227.621	45.25
227.856	55.25
228.09	42.25
228.324	60.25
228.559	66.25
228.793	67.25
229.027	44.25
229.262	59.25
229.496	64.25
229.73	80.25
229.964	65.25
230.199	73.25
230.433	77.25
230.667	80.25
230.901	78.25
231.136	86.25
231.37	88.25
231.604	74.25
231.838	80.25
232.072	81.25
232.306	78.25
232.541	77.25
232.775	78.25
233.009	81.25
233.243	79.25
233.477	76.25
233.711	76.25
233.945	76.25
234.179	75.25
234.413	73.25
234.647	97.25
234.881	76.25
235.115	74.25
235.349	84.25
235.583	77.25
235.817	77.25
236.051	74.25
236.285	91.25
236.519	68.25
236.753	70.25
236.987	84.25
237.221	76.25
237.455	84.25
237.689	82.25
237.922	67.25
238.156	78.25
238.39	64.25
238.624	82.25
238.858	84.25
239.091	71.25
239.325	73.25
239.559	74.25
239.793	77.25
240.027	86.25
240.26	86.25
240.494	84.25
240.728	88.25
240.961	64.25
241.195	69.25
241.429	80.25
241.662	75.25
241.896	69.25
242.13	85.25
242.363	82.25
242.597	72.25
242.83	84.25
243.064	72.25
243.298	77.25
243.531	75.25
243.765	76.25
243.998	80.25
244.232	88.25
244.465	78.25
244.699	86.25
244.932	76.25
245.166	76.25
245.399	71.25
245.633	76.25
245.866	77.25
246.099	71.25
246.333	75.25
246.566	83.25
246.8	92.25
247.033	78.25
247.266	80.25
247.5	71.25
247.733	65.25
247.966	75.25
248.2	78.25
248.433	88.25
248.666	82.25
248.899	64.25
249.133	88.25
249.366	84.25
249.599	71.25
249.832	87.25
250.066	90.25
250.299	84.25
250.532	70.25
250.765	74.25
250.998	83.25
251.231	86.25
251.465	74.25
251.698	69.25
251.931	68.25
252.164	77.25
252.397	78.25
252.63	90.25
252.863	74.25
253.096	74.25
253.329	81.25
253.562	82.25
253.795	85.25
254.028	92.25
254.261	84.25
254.494	73.25
254.727	82.25
254.96	76.25
255.193	80.25
255.426	84.25
255.659	83.25
255.892	72.25
256.124	75.25
256.357	87.25
256.59	96.25
256.823	92.25
257.056	93.25
257.289	73.25
257.521	80.25
257.754	74.25
257.987	81.25
258.22	73.25
258.452	80.25
258.685	82.25
258.918	88.25
259.151	80.25
259.383	84.25
259.616	80.25
259.849	70.25
260.081	83.25
260.314	86.25
260.547	72.25
260.779	82.25
261.012	88.25
261.244	88.25
261.477	81.25
261.71	84.25
261.942	91.25
262.175	82.25
262.407	84.25
262.64	86.25
262.872	84.25
263.105	79.25
263.337	74.25
263.57	88.25
263.802	74.25
264.035	86.25
264.267	75.25
264.499	77.25
264.732	72.25
264.964	77.25
265.197	93.25
265.429	87.25
265.661	85.25
265.894	99.25
266.126	84.25
266.358	93.25
266.591	84.25
266.823	76.25
267.055	67.25
267.287	88.25
267.52	79.25
267.752	78.25
267.984	98.25
268.216	86.25
268.448	71.25
268.681	77.25
268.913	66.25
269.145	97.25
269.377	96.25
269.609	86.25
269.841	83.25
270.073	76.25
270.306	74.25
270.538	83.25
270.77	80.25
271.002	87.25
271.234	95.25
271.466	90.25
271.698	86.25
271.93	78.25
272.162	70.25
272.394	76.25
272.626	84.25
272.858	90.25
273.09	78.25
273.322	77.25
273.553	89.25
273.785	78.25
274.017	92.25
274.249	74.25
274.481	78.25
274.713	83.25
274.945	84.25
275.176	86.25
275.408	77.25
275.64	81.25
275.872	69.25
276.104	82.25
276.335	78.25
276.567	81.25
276.799	98.25
277.031	93.25
277.262	78.25
277.494	97.25
277.726	86.25
277.957	79.25
278.189	84.25
278.421	89.25
278.652	77.25
278.884	69.25
279.115	84.25
279.347	89.25
279.579	91.25
279.81	97.25
280.042	96.25
280.273	80.25
280.505	81.25
280.736	93.25
280.968	86.25
281.199	79.25
281.431	80.25
281.662	90.25
281.894	93.25
282.125	94.25
282.356	79.25
282.588	100.25
282.819	86.25
283.051	78.25
283.282	93.25
283.513	78.25
283.745	73.25
283.976	70.25
284.207	69.25
284.439	94.25
284.67	92.25
284.901	84.25
285.132	90.25
285.364	85.25
285.595	94.25
285.826	83.25
286.057	79.25
286.288	77.25
286.52	79.25
286.751	82.25
286.982	97.25
287.213	70.25
287.444	83.25
287.675	96.25
287.906	90.25
288.138	84.25
288.369	75.25
288.6	92.25
288.831	89.25
289.062	81.25
289.293	72.25
289.524	98.25
289.755	85.25
289.986	88.25
290.217	68.25
290.448	78.25
290.679	77.25
290.91	85.25
291.141	79.25
291.371	85.25
291.602	85.25
291.833	60.25
292.064	85.25
292.295	93.25
292.526	89.25
292.757	90.25
292.987	90.25
293.218	80.25
293.449	77.25
293.68	77.25
293.91	69.25
294.141	86.25
294.372	88.25
294.603	88.25
294.833	78.25
295.064	78.25
295.295	100.25
295.525	98.25
295.756	86.25
295.987	75.25
296.217	86.25
296.448	78.25
296.679	74.25
296.909	94.25
297.14	100.25
297.37	82.25
297.601	88.25
297.831	92.25
298.062	79.25
298.292	77.25
298.523	89.25
298.753	93.25
298.984	88.25
299.214	89.25
299.445	91.25
299.675	101.25
299.905	98.25
300.136	81.25
300.366	73.25
300.597	72.25
300.827	76.25
301.057	86.25
301.288	86.25
301.518	78.25
301.748	98.25
301.979	100.25
302.209	76.25
302.439	93.25
302.669	83.25
302.9	84.25
303.13	99.25
303.36	73.25
303.59	78.25
303.82	94.25
304.051	80.25
304.281	82.25
304.511	76.25
304.741	84.25
304.971	79.25
305.201	88.25
305.431	86.25
305.661	80.25
305.891	94.25
306.121	85.25
306.352	94.25
306.582	94.25
306.812	90.25
307.042	87.25
307.272	82.25
307.502	100.25
307.731	88.25
307.961	96.25
308.191	88.25
308.421	92.25
308.651	91.25
308.881	76.25
309.111	78.25
309.341	83.25
309.571	94.25
309.8	91.25
310.03	94.25
310.26	77.25
310.49	80.25
310.72	86.25
310.949	92.25
311.179	85.25
311.409	84.25
311.639	87.25
311.868	88.25
312.098	78.25
312.328	93.25
312.557	80.25
312.787	100.25
313.017	94.25
313.246	82.25
313.476	87.25
313.706	89.25
313.935	79.25
314.165	87.25
314.394	92.25
314.624	90.25
314.853	92.25
315.083	106.25
315.312	84.25
315.542	78.25
315.771	84.25
316.001	94.25
316.23	78.25
316.46	81.25
316.689	73.25
316.919	72.25
317.148	79.25
317.377	92.25
317.607	84.25
317.836	84.25
318.065	85.25
318.295	101.25
318.524	87.25
318.753	76.25
318.983	90.25
319.212	85.25
319.441	84.25
319.67	94.25
319.9	69.25
320.129	77.25
320.358	89.25
320.587	86.25
320.816	73.25
321.046	98.25
321.275	100.25
321.504	86.25
321.733	90.25
321.962	81.25
322.191	76.25
322.42	94.25
322.649	76.25
322.878	78.25
323.108	86.25
323.337	68.25
323.566	87.25
323.795	92.25
324.024	88.25
324.253	77.25
324.482	86.25
324.71	88.25
324.939	94.25
325.168	83.25
325.397	94.25
325.626	96.25
325.855	94.25
326.084	93.25
326.313	88.25
326.542	86.25
326.77	86.25
326.999	79.25
327.228	86.25
327.457	75.25
327.686	86.25
327.914	86.25
328.143	83.25
328.372	76.25
328.6	78.25
328.829	78.25
329.058	83.25
329.287	96.25
329.515	98.25
329.744	98.25
329.972	94.25
330.201	89.25
330.43	89.25
330.658	84.25
330.887	84.25
331.115	81.25
331.344	100.25
331.572	87.25
331.801	77.25
332.03	77.25
332.258	84.25
332.486	78.25
332.715	93.25
332.943	92.25
333.172	84.25
333.4	101.25
333.629	97.25
333.857	87.25
334.085	97.25
334.314	80.25
334.542	81.25
334.771	95.25
334.999	93.25
335.227	92.25
335.455	82.25
335.684	68.25
335.912	84.25
336.14	81.25
336.369	95.25
336.597	76.25
336.825	91.25
337.053	71.25
337.281	85.25
337.51	87.25
337.738	97.25
337.966	88.25
338.194	90.25
338.422	78.25
338.65	91.25
338.878	86.25
339.106	89.25
339.334	86.25
339.562	89.25
339.79	75.25
340.018	95.25
340.246	83.25
340.474	89.25
340.702	72.25
340.93	82.25
341.158	85.25
341.386	92.25
341.614	93.25
341.842	89.25
342.07	79.25
342.298	81.25
342.526	99.25
342.754	90.25
342.981	90.25
343.209	87.25
343.437	107.25
343.665	70.25
343.893	74.25
344.12	96.25
344.348	72.25
344.576	88.25
344.804	90.25
345.031	91.25
345.259	77.25
345.487	80.25
345.714	82.25
345.942	85.25
346.17	78.25
346.397	86.25
346.625	91.25
346.853	85.25
347.08	79.25
347.308	86.25
347.535	107.25
347.763	92.25
347.99	88.25
348.218	82.25
348.445	68.25
348.673	77.25
348.9	76.25
349.128	88.25
349.355	78.25
349.583	81.25
349.81	88.25
350.037	84.25
350.265	89.25
350.492	92.25
350.72	84.25
350.947	79.25
351.174	83.25
351.402	86.25
351.629	97.25
351.856	84.25
352.083	81.25
352.311	86.25
352.538	84.25
352.765	70.25
352.992	89.25
353.22	88.25
353.447	87.25
353.674	96.25
353.901	96.25
354.128	105.25
354.355	73.25
354.583	92.25
354.81	82.25
355.037	78.25
355.264	84.25
355.491	90.25
355.718	72.25
355.945	85.25
356.172	84.25
356.399	98.25
356.626	77.25
356.853	88.25
357.08	100.25
357.307	87.25
357.534	70.25
357.761	94.25
357.988	89.25
358.215	79.25
358.441	89.25
358.668	77.25
358.895	87.25
359.122	67.25
359.349	91.25
359.576	84.25
359.802	88.25
360.029	73.25
360.256	75.25
360.483	69.25
360.709	77.25
360.936	97.25
361.163	93.25
361.39	87.25
361.616	77.25
361.843	84.25
362.07	99.25
362.296	96.25
362.523	80.25
362.749	79.25
362.976	103.25
363.203	101.25
363.429	78.25
363.656	90.25
363.882	74.25
364.109	83.25
364.335	96.25
364.562	74.25
364.788	82.25
365.015	83.25
365.241	80.25
365.468	82.25
365.694	84.25
365.92	80.25
366.147	76.25
366.373	75.25
366.599	77.25
366.826	79.25
367.052	82.25
367.278	92.25
367.505	76.25
367.731	88.25
367.957	92.25
368.184	95.25
368.41	79.25
368.636	90.25
368.862	90.25
369.089	94.25
369.315	69.25
369.541	90.25
369.767	79.25
369.993	72.25
370.219	88.25
370.445	88.25
370.672	84.25
370.898	84.25
371.124	88.25
371.35	81.25
371.576	91.25
371.802	84.25
372.028	87.25
372.254	84.25
372.48	90.25
372.706	85.25
372.932	80.25
373.158	85.25
373.384	82.25
373.61	79.25
373.835	92.25
374.061	87.25
374.287	90.25
374.513	74.25
374.739	91.25
374.965	84.25
375.191	83.25
375.416	76.25
375.642	86.25
375.868	92.25
376.094	77.25
376.319	92.25
376.545	87.25
376.771	84.25
376.997	90.25
377.222	83.25
377.448	94.25
377.674	83.25
377.899	84.25
378.125	89.25
378.35	94.25
378.576	79.25
378.802	74.25
379.027	84.25
379.253	72.25
379.478	92.25
379.704	86.25
379.929	90.25
380.155	87.25
380.38	92.25
380.606	81.25
380.831	78.25
381.057	93.25
381.282	90.25
381.507	97.25
381.733	96.25
381.958	70.25
382.184	96.25
382.409	86.25
382.634	89.25
382.86	91.25
383.085	98.25
383.31	84.25
383.535	86.25
383.761	95.25
383.986	81.25
384.211	70.25
384.436	88.25
384.662	91.25
384.887	87.25
385.112	100.25
385.337	100.25
385.562	76.25
385.787	86.25
386.013	90.25
386.238	106.25
386.463	90.25
386.688	77.25
386.913	95.25
387.138	81.25
387.363	87.25
387.588	91.25
387.813	92.25
388.038	89.25
388.263	78.25
388.488	76.25
388.713	87.25
388.938	93.25
389.163	74.25
389.387	85.25
389.612	92.25
389.837	74.25
390.062	89.25
390.287	78.25
390.512	82.25
390.736	76.25
390.961	98.25
391.186	86.25
391.411	90.25
391.636	90.25
391.86	84.25
392.085	78.25
392.31	90.25
392.534	86.25
392.759	91.25
392.984	104.25
393.208	156.25
393.433	223.25
393.658	178.25
393.882	112.25
394.107	94.25
394.331	89.25
394.556	96.25
394.78	82.25
395.005	93.25
395.229	80.25
395.454	92.25
395.678	88.25
395.903	92.25
396.127	102.25
396.352	92.25
396.576	115.25
396.801	168.25
397.025	192.25
397.249	121.25
397.474	98.25
397.698	72.25
397.922	91.25
398.147	89.25
398.371	96.25
398.595	88.25
398.82	83.25
399.044	84.25
399.268	100.25
399.492	106.25
399.717	101.25
399.941	87.25
400.165	84.25
400.389	89.25
400.613	84.25
400.837	87.25
401.062	84.25
401.286	82.25
401.51	76.25
401.734	96.25
401.958	99.25
402.182	84.25
402.406	83.25
402.63	88.25
402.854	80.25
403.078	73.25
403.302	64.25
403.526	82.25
403.75	82.25
403.974	81.25
404.198	80.25
404.422	91.25
404.645	122.25
404.869	98.25
405.093	88.25
405.317	89.25
405.541	94.25
405.765	78.25
405.988	80.25
406.212	84.25
406.436	85.25
406.66	104.25
406.883	82.25
407.107	88.25
407.331	86.25
407.555	86.25
407.778	96.25
408.002	97.25
408.226	76.25
408.449	94.25
408.673	86.25
408.896	94.25
409.12	91.25
409.344	93.25
409.567	93.25
409.791	84.25
410.014	86.25
410.238	92.25
410.461	84.25
410.685	85.25
410.908	90.25
411.132	77.25
411.355	84.25
411.578	85.25
411.802	89.25
412.025	90.25
412.249	91.25
412.472	83.25
412.695	92.25
412.919	85.25
413.142	75.25
413.365	81.25
413.589	78.25
413.812	78.25
414.035	90.25
414.258	86.25
414.482	70.25
414.705	81.25
414.928	88.25
415.151	87.25
415.374	74.25
415.597	83.25
415.821	86.25
416.044	85.25
416.267	87.25
416.49	75.25
416.713	70.25
416.936	79.25
417.159	89.25
417.382	84.25
417.605	92.25
417.828	79.25
418.051	80.25
418.274	92.25
418.497	86.25
418.72	82.25
418.943	85.25
419.166	86.25
419.389	83.25
419.611	92.25
419.834	83.25
420.057	84.25
420.28	76.25
420.503	69.25
420.726	84.25
420.948	95.25
421.171	92.25
421.394	99.25
421.617	91.25
421.839	76.25
422.062	79.25
422.285	106.25
422.507	149.25
422.73	194.25
422.953	171.25
423.175	104.25
423.398	90.25
423.621	92.25
423.843	100.25
424.066	86.25
424.288	78.25
424.511	89.25
424.733	90.25
424.956	94.25
425.178	84.25
425.401	93.25
425.623	94.25
425.846	84.25
426.068	77.25
426.291	96.25
426.513	95.25
426.735	91.25
426.958	84.25
427.18	83.25
427.402	93.25
427.625	80.25
427.847	98.25
428.069	85.25
428.292	93.25
428.514	98.25
428.736	101.25
428.958	96.25
429.181	82.25
429.403	81.25
429.625	92.25
429.847	84.25
430.069	118.25
430.292	110.25
430.514	93.25
430.736	101.25
430.958	90.25
431.18	73.25
431.402	82.25
431.624	76.25
431.846	92.25
432.068	101.25
432.29	84.25
432.512	78.25
432.734	89.25
432.956	77.25
433.178	81.25
433.4	88.25
433.622	97.25
433.844	86.25
434.066	81.25
434.287	73.25
434.509	93.25
434.731	91.25
434.953	86.25
435.175	90.25
435.397	76.25
435.618	87.25
435.84	94.25
436.062	97.25
436.284	64.25
436.505	68.25
436.727	79.25
436.949	91.25
437.17	103.25
437.392	78.25
437.614	84.25
437.835	102.25
438.057	84.25
438.278	58.25
438.5	89.25
438.721	72.25
438.943	93.25
439.165	75.25
439.386	94.25
439.608	87.25
439.829	87.25
440.05	72.25
440.272	68.25
440.493	93.25
440.715	73.25
440.936	95.25
441.158	87.25
441.379	81.25
441.6	80.25
441.822	93.25
442.043	82.25
442.264	79.25
442.486	96.25
442.707	92.25
442.928	84.25
443.149	90.25
443.371	88.25
443.592	125.25
443.813	109.25
444.034	90.25
444.255	93.25
444.476	86.25
444.698	93.25
444.919	105.25
445.14	162.25
445.361	123.25
445.582	122.25
445.803	106.25
446.024	97.25
446.245	88.25
446.466	102.25
446.687	72.25
446.908	85.25
447.129	85.25
447.35	84.25
447.571	71.25
447.792	88.25
448.013	76.25
448.234	78.25
448.455	75.25
448.675	73.25
448.896	74.25
449.117	81.25
449.338	80.25
449.559	82.25
449.779	86.25
450	78.25
450.221	76.25
450.442	72.25
450.662	88.25
450.883	84.25
451.104	93.25
451.324	80.25
451.545	90.25
451.766	68.25
451.986	90.25
452.207	81.25
452.428	84.25
452.648	81.25
452.869	70.25
453.089	95.25
453.31	81.25
453.53	78.25
453.751	91.25
453.971	96.25
454.192	80.25
454.412	89.25
454.633	81.25
454.853	75.25
455.073	78.25
455.294	80.25
455.514	93.25
455.734	75.25
455.955	72.25
456.175	93.25
456.395	71.25
456.616	75.25
456.836	88.25
457.056	83.25
457.276	84.25
457.497	83.25
457.717	78.25
457.937	92.25
458.157	88.25
458.377	98.25
458.598	66.25
458.818	79.25
459.038	86.25
459.258	81.25
459.478	86.25
459.698	94.25
459.918	71.25
460.138	89.25
460.358	91.25
460.578	106.25
460.798	100.25
461.018	81.25
461.238	92.25
461.458	79.25
461.678	72.25
461.898	98.25
462.118	92.25
462.338	79.25
462.558	83.25
462.777	87.25
462.997	85.25
463.217	89.25
463.437	87.25
463.657	88.25
463.876	80.25
464.096	71.25
464.316	82.25
464.536	84.25
464.755	85.25
464.975	85.25
465.195	84.25
465.414	84.25
465.634	84.25
465.854	89.25
466.073	91.25
466.293	85.25
466.512	72.25
466.732	73.25
466.951	80.25
467.171	100.25
467.391	84.25
467.61	83.25
467.829	73.25
468.049	91.25
468.268	78.25
468.488	63.25
468.707	86.25
468.927	90.25
469.146	81.25
469.365	85.25
469.585	85.25
469.804	79.25
470.023	82.25
470.243	90.25
470.462	81.25
470.681	88.25
470.901	77.25
471.12	90.25
471.339	80.25
471.558	88.25
471.777	71.25
471.997	84.25
472.216	76.25
472.435	83.25
472.654	87.25
472.873	82.25
473.092	72.25
473.311	92.25
473.53	87.25
473.749	84.25
473.968	82.25
474.187	79.25
474.406	94.25
474.625	84.25
474.844	94.25
475.063	102.25
475.282	81.25
475.501	77.25
475.72	82.25
475.939	98.25
476.158	89.25
476.377	84.25
476.596	84.25
476.814	78.25
477.033	90.25
477.252	73.25
477.471	72.25
477.69	84.25
477.908	77.25
478.127	77.25
478.346	89.25
478.564	90.25
478.783	85.25
479.002	73.25
479.22	86.25
479.439	82.25
479.658	86.25
479.876	78.25
480.095	86.25
480.313	94.25
480.532	84.25
480.751	84.25
480.969	89.25
481.188	76.25
481.406	79.25
481.624	92.25
481.843	71.25
482.061	71.25
482.28	72.25
482.498	83.25
482.717	76.25
482.935	91.25
483.153	80.25
483.372	89.25
483.59	79.25
483.808	87.25
484.027	84.25
484.245	89.25
484.463	93.25
484.681	86.25
484.9	90.25
485.118	94.25
485.336	92.25
485.554	86.25
485.772	83.25
485.99	79.25
486.209	79.25
486.427	86.25
486.645	84.25
486.863	73.25
487.081	90.25
487.299	88.25
487.517	80.25
487.735	104.25
487.953	83.25
488.171	98.25
488.389	86.25
488.607	77.25
488.825	74.25
489.043	77.25
489.261	83.25
489.479	90.25
489.696	94.25
489.914	89.25
490.132	84.25
490.35	81.25
490.568	82.25
490.786	89.25
491.003	92.25
491.221	84.25
491.439	89.25
491.657	96.25
491.874	90.25
492.092	84.25
492.31	100.25
492.527	77.25
492.745	85.25
492.963	79.25
493.18	84.25
493.398	83.25
493.615	89.25
493.833	84.25
494.05	96.25
494.268	83.25
494.485	76.25
494.703	79.25
494.92	83.25
495.138	79.25
495.355	92.25
495.573	87.25
495.79	97.25
496.008	91.25
496.225	94.25
496.442	70.25
496.66	79.25
496.877	86.25
497.094	95.25
497.312	88.25
497.529	88.25
497.746	85.25
497.963	84.25
498.181	91.25
498.398	94.25
498.615	77.25
498.832	90.25
499.049	78.25
499.267	84.25
499.484	98.25
499.701	88.25
499.918	77.25
500.135	92.25
500.352	88.25
500.569	80.25
500.786	89.25
501.003	100.25
501.22	84.25
501.437	81.25
501.654	78.25
501.871	79.25
502.088	75.25
502.305	76.25
502.522	92.25
502.739	88.25
502.956	85.25
503.172	79.25
503.389	82.25
503.606	86.25
503.823	84.25
504.04	97.25
504.256	88.25
504.473	93.25
504.69	90.25
504.907	94.25
505.123	90.25
505.34	72.25
505.557	80.25
505.773	90.25
505.99	78.25
506.207	70.25
506.423	94.25
506.64	81.25
506.856	81.25
507.073	78.25
507.289	81.25
507.506	89.25
507.722	84.25
507.939	77.25
508.155	81.25
508.372	85.25
508.588	81.25
508.805	89.25
509.021	109.25
509.238	79.25
509.454	81.25
509.67	77.25
509.887	88.25
510.103	77.25
510.319	75.25
510.536	82.25
510.752	84.25
510.968	78.25
511.184	79.25
511.401	82.25
511.617	86.25
511.833	82.25
512.049	81.25
512.265	94.25
512.481	75.25
512.698	81.25
512.914	79.25
513.13	68.25
513.346	84.25
513.562	85.25
513.778	90.25
513.994	88.25
514.21	80.25
514.426	79.25
514.642	88.25
514.858	85.25
515.074	84.25
515.29	77.25
515.506	92.25
515.721	84.25
515.937	90.25
516.153	100.25
516.369	84.25
516.585	73.25
516.801	84.25
517.016	90.25
517.232	82.25
517.448	95.25
517.664	79.25
517.879	89.25
518.095	80.25
518.311	76.25
518.527	90.25
518.742	82.25
518.958	81.25
519.173	85.25
519.389	82.25
