Data from HP_1_HRD10591_00005.txt Node
Date: Mon Jan 19 14:15:10 EST 2026
User: Yrep
Spectrometer: HR+D1059
Trigger mode: 1
Integration Time (sec): 1.000000E-1
Scans to average: 1
Electric dark correction enabled: true
Nonlinearity correction enabled: false
Boxcar width: 0
XAxis mode: Wavelengths
Number of Pixels in Spectrum: 2048
>>>>>Begin Spectral Data<<<<<
223.165	-14.62
223.4	-14.62
223.635	-14.62
223.869	-19.62
224.104	-18.62
224.338	-22.62
224.573	-5.62
224.808	-3.62
225.042	-9.62
225.277	-10.62
225.511	-6.62
225.746	3.38
225.98	5.38
226.215	6.38
226.449	-2.62
226.683	23.38
226.918	41.38
227.152	34.38
227.387	28.38
227.621	33.38
227.856	49.38
228.09	28.38
228.324	49.38
228.559	48.38
228.793	54.38
229.027	68.38
229.262	61.38
229.496	58.38
229.73	65.38
229.964	84.38
230.199	82.38
230.433	72.38
230.667	83.38
230.901	83.38
231.136	81.38
231.37	79.38
231.604	60.38
231.838	82.38
232.072	63.38
232.306	64.38
232.541	73.38
232.775	72.38
233.009	87.38
233.243	85.38
233.477	82.38
233.711	65.38
233.945	65.38
234.179	69.38
234.413	70.38
234.647	81.38
234.881	70.38
235.115	84.38
235.349	78.38
235.583	74.38
235.817	88.38
236.051	78.38
236.285	80.38
236.519	76.38
236.753	67.38
236.987	78.38
237.221	60.38
237.455	76.38
237.689	76.38
237.922	72.38
238.156	63.38
238.39	73.38
238.624	78.38
238.858	84.38
239.091	69.38
239.325	74.38
239.559	81.38
239.793	83.38
240.027	75.38
240.26	65.38
240.494	86.38
240.728	62.38
240.961	73.38
241.195	74.38
241.429	83.38
241.662	69.38
241.896	71.38
242.13	72.38
242.363	66.38
242.597	73.38
242.83	79.38
243.064	71.38
243.298	85.38
243.531	61.38
243.765	78.38
243.998	75.38
244.232	64.38
244.465	71.38
244.699	74.38
244.932	67.38
245.166	84.38
245.399	85.38
245.633	69.38
245.866	65.38
246.099	79.38
246.333	76.38
246.566	85.38
246.8	77.38
247.033	55.38
247.266	78.38
247.5	70.38
247.733	70.38
247.966	65.38
248.2	75.38
248.433	74.38
248.666	70.38
248.899	61.38
249.133	86.38
249.366	94.38
249.599	88.38
249.832	82.38
250.066	74.38
250.299	73.38
250.532	81.38
250.765	71.38
250.998	96.38
251.231	83.38
251.465	72.38
251.698	73.38
251.931	71.38
252.164	73.38
252.397	72.38
252.63	68.38
252.863	82.38
253.096	66.38
253.329	82.38
253.562	65.38
253.795	79.38
254.028	94.38
254.261	84.38
254.494	81.38
254.727	86.38
254.96	72.38
255.193	68.38
255.426	69.38
255.659	73.38
255.892	85.38
256.124	75.38
256.357	84.38
256.59	83.38
256.823	87.38
257.056	82.38
257.289	82.38
257.521	71.38
257.754	79.38
257.987	78.38
258.22	81.38
258.452	80.38
258.685	80.38
258.918	79.38
259.151	76.38
259.383	79.38
259.616	74.38
259.849	73.38
260.081	78.38
260.314	73.38
260.547	81.38
260.779	85.38
261.012	82.38
261.244	84.38
261.477	79.38
261.71	77.38
261.942	68.38
262.175	70.38
262.407	75.38
262.64	72.38
262.872	84.38
263.105	78.38
263.337	83.38
263.57	84.38
263.802	65.38
264.035	72.38
264.267	95.38
264.499	80.38
264.732	82.38
264.964	82.38
265.197	78.38
265.429	76.38
265.661	78.38
265.894	84.38
266.126	96.38
266.358	75.38
266.591	67.38
266.823	85.38
267.055	71.38
267.287	67.38
267.52	84.38
267.752	78.38
267.984	74.38
268.216	76.38
268.448	88.38
268.681	79.38
268.913	84.38
269.145	76.38
269.377	73.38
269.609	69.38
269.841	72.38
270.073	77.38
270.306	70.38
270.538	84.38
270.77	88.38
271.002	65.38
271.234	80.38
271.466	82.38
271.698	96.38
271.93	81.38
272.162	84.38
272.394	74.38
272.626	78.38
272.858	78.38
273.09	63.38
273.322	75.38
273.553	57.38
273.785	92.38
274.017	80.38
274.249	82.38
274.481	79.38
274.713	73.38
274.945	84.38
275.176	93.38
275.408	88.38
275.64	73.38
275.872	76.38
276.104	80.38
276.335	70.38
276.567	77.38
276.799	92.38
277.031	86.38
277.262	83.38
277.494	83.38
277.726	71.38
277.957	103.38
278.189	74.38
278.421	85.38
278.652	78.38
278.884	82.38
279.115	79.38
279.347	94.38
279.579	78.38
279.81	84.38
280.042	85.38
280.273	78.38
280.505	90.38
280.736	78.38
280.968	92.38
281.199	84.38
281.431	80.38
281.662	74.38
281.894	71.38
282.125	68.38
282.356	80.38
282.588	81.38
282.819	80.38
283.051	79.38
283.282	72.38
283.513	80.38
283.745	89.38
283.976	88.38
284.207	86.38
284.439	90.38
284.67	90.38
284.901	84.38
285.132	86.38
285.364	123.38
285.595	94.38
285.826	82.38
286.057	80.38
286.288	80.38
286.52	88.38
286.751	80.38
286.982	78.38
287.213	73.38
287.444	97.38
287.675	83.38
287.906	74.38
288.138	84.38
288.369	74.38
288.6	81.38
288.831	84.38
289.062	88.38
289.293	94.38
289.524	72.38
289.755	74.38
289.986	84.38
290.217	77.38
290.448	84.38
290.679	85.38
290.91	99.38
291.141	78.38
291.371	80.38
291.602	84.38
291.833	83.38
292.064	86.38
292.295	98.38
292.526	95.38
292.757	80.38
292.987	84.38
293.218	86.38
293.449	77.38
293.68	93.38
293.91	81.38
294.141	83.38
294.372	105.38
294.603	93.38
294.833	85.38
295.064	91.38
295.295	78.38
295.525	98.38
295.756	83.38
295.987	88.38
296.217	74.38
296.448	84.38
296.679	85.38
296.909	105.38
297.14	97.38
297.37	96.38
297.601	89.38
297.831	73.38
298.062	95.38
298.292	77.38
298.523	97.38
298.753	88.38
298.984	87.38
299.214	74.38
299.445	84.38
299.675	100.38
299.905	95.38
300.136	98.38
300.366	100.38
300.597	85.38
300.827	103.38
301.057	88.38
301.288	91.38
301.518	84.38
301.748	86.38
301.979	105.38
302.209	90.38
302.439	94.38
302.669	88.38
302.9	74.38
303.13	86.38
303.36	94.38
303.59	86.38
303.82	84.38
304.051	80.38
304.281	93.38
304.511	93.38
304.741	93.38
304.971	90.38
305.201	74.38
305.431	84.38
305.661	84.38
305.891	86.38
306.121	93.38
306.352	78.38
306.582	78.38
306.812	97.38
307.042	96.38
307.272	79.38
307.502	74.38
307.731	88.38
307.961	83.38
308.191	94.38
308.421	114.38
308.651	102.38
308.881	81.38
309.111	117.38
309.341	125.38
309.571	121.38
309.8	92.38
310.03	80.38
310.26	90.38
310.49	92.38
310.72	86.38
310.949	86.38
311.179	85.38
311.409	85.38
311.639	83.38
311.868	94.38
312.098	84.38
312.328	78.38
312.557	86.38
312.787	83.38
313.017	80.38
313.246	89.38
313.476	88.38
313.706	102.38
313.935	92.38
314.165	99.38
314.394	89.38
314.624	70.38
314.853	85.38
315.083	94.38
315.312	81.38
315.542	84.38
315.771	101.38
316.001	98.38
316.23	98.38
316.46	95.38
316.689	81.38
316.919	87.38
317.148	89.38
317.377	102.38
317.607	106.38
317.836	102.38
318.065	111.38
318.295	97.38
318.524	93.38
318.753	89.38
318.983	92.38
319.212	80.38
319.441	87.38
319.67	93.38
319.9	85.38
320.129	98.38
320.358	81.38
320.587	88.38
320.816	89.38
321.046	94.38
321.275	98.38
321.504	103.38
321.733	96.38
321.962	110.38
322.191	100.38
322.42	97.38
322.649	100.38
322.878	75.38
323.108	85.38
323.337	92.38
323.566	84.38
323.795	93.38
324.024	98.38
324.253	83.38
324.482	88.38
324.71	90.38
324.939	112.38
325.168	89.38
325.397	95.38
325.626	81.38
325.855	85.38
326.084	89.38
326.313	83.38
326.542	77.38
326.77	75.38
326.999	92.38
327.228	86.38
327.457	94.38
327.686	99.38
327.914	89.38
328.143	96.38
328.372	84.38
328.6	95.38
328.829	94.38
329.058	88.38
329.287	89.38
329.515	82.38
329.744	97.38
329.972	101.38
330.201	105.38
330.43	119.38
330.658	100.38
330.887	85.38
331.115	83.38
331.344	78.38
331.572	77.38
331.801	90.38
332.03	90.38
332.258	92.38
332.486	85.38
332.715	93.38
332.943	100.38
333.172	100.38
333.4	80.38
333.629	92.38
333.857	96.38
334.085	105.38
334.314	88.38
334.542	109.38
334.771	106.38
334.999	118.38
335.227	108.38
335.455	94.38
335.684	112.38
335.912	119.38
336.14	112.38
336.369	112.38
336.597	103.38
336.825	96.38
337.053	94.38
337.281	106.38
337.51	90.38
337.738	92.38
337.966	99.38
338.194	91.38
338.422	92.38
338.65	100.38
338.878	89.38
339.106	82.38
339.334	93.38
339.562	88.38
339.79	92.38
340.018	81.38
340.246	87.38
340.474	90.38
340.702	89.38
340.93	70.38
341.158	84.38
341.386	87.38
341.614	73.38
341.842	94.38
342.07	91.38
342.298	101.38
342.526	78.38
342.754	93.38
342.981	81.38
343.209	86.38
343.437	85.38
343.665	86.38
343.893	87.38
344.12	114.38
344.348	108.38
344.576	106.38
344.804	102.38
345.031	99.38
345.259	90.38
345.487	79.38
345.714	93.38
345.942	78.38
346.17	86.38
346.397	101.38
346.625	92.38
346.853	79.38
347.08	97.38
347.308	84.38
347.535	102.38
347.763	96.38
347.99	73.38
348.218	102.38
348.445	98.38
348.673	84.38
348.9	97.38
349.128	103.38
349.355	99.38
349.583	78.38
349.81	84.38
350.037	75.38
350.265	96.38
350.492	78.38
350.72	88.38
350.947	84.38
351.174	83.38
351.402	84.38
351.629	74.38
351.856	87.38
352.083	69.38
352.311	98.38
352.538	89.38
352.765	86.38
352.992	91.38
353.22	91.38
353.447	111.38
353.674	97.38
353.901	97.38
354.128	81.38
354.355	82.38
354.583	93.38
354.81	103.38
355.037	85.38
355.264	94.38
355.491	94.38
355.718	96.38
355.945	91.38
356.172	85.38
356.399	108.38
356.626	100.38
356.853	110.38
357.08	115.38
357.307	108.38
357.534	69.38
357.761	122.38
357.988	110.38
358.215	121.38
358.441	102.38
358.668	99.38
358.895	98.38
359.122	92.38
359.349	90.38
359.576	104.38
359.802	102.38
360.029	83.38
360.256	86.38
360.483	93.38
360.709	108.38
360.936	100.38
361.163	103.38
361.39	112.38
361.616	111.38
361.843	121.38
362.07	134.38
362.296	122.38
362.523	137.38
362.749	129.38
362.976	160.38
363.203	173.38
363.429	137.38
363.656	114.38
363.882	122.38
364.109	142.38
364.335	208.38
364.562	222.38
364.788	152.38
365.015	104.38
365.241	109.38
365.468	118.38
365.694	110.38
365.92	95.38
366.147	83.38
366.373	84.38
366.599	97.38
366.826	83.38
367.052	98.38
367.278	110.38
367.505	85.38
367.731	83.38
367.957	93.38
368.184	97.38
368.41	111.38
368.636	94.38
368.862	89.38
369.089	87.38
369.315	83.38
369.541	92.38
369.767	100.38
369.993	97.38
370.219	93.38
370.445	101.38
370.672	119.38
370.898	102.38
371.124	88.38
371.35	96.38
371.576	98.38
371.802	102.38
372.028	120.38
372.254	113.38
372.48	108.38
372.706	101.38
372.932	104.38
373.158	109.38
373.384	129.38
373.61	146.38
373.835	144.38
374.061	95.38
374.287	88.38
374.513	117.38
374.739	136.38
374.965	140.38
375.191	136.38
375.416	121.38
375.642	120.38
375.868	103.38
376.094	118.38
376.319	110.38
376.545	102.38
376.771	109.38
376.997	96.38
377.222	88.38
377.448	100.38
377.674	95.38
377.899	85.38
378.125	87.38
378.35	94.38
378.576	84.38
378.802	119.38
379.027	81.38
379.253	114.38
379.478	95.38
379.704	98.38
379.929	86.38
380.155	101.38
380.38	80.38
380.606	98.38
380.831	97.38
381.057	105.38
381.282	91.38
381.507	113.38
381.733	112.38
381.958	98.38
382.184	131.38
382.409	129.38
382.634	127.38
382.86	126.38
383.085	130.38
383.31	128.38
383.535	134.38
383.761	134.38
383.986	138.38
384.211	118.38
384.436	112.38
384.662	101.38
384.887	96.38
385.112	100.38
385.337	108.38
385.562	112.38
385.787	109.38
386.013	124.38
386.238	106.38
386.463	102.38
386.688	116.38
386.913	105.38
387.138	108.38
387.363	114.38
387.588	113.38
387.813	121.38
388.038	120.38
388.263	101.38
388.488	109.38
388.713	110.38
388.938	110.38
389.163	97.38
389.387	83.38
389.612	105.38
389.837	113.38
390.062	108.38
390.287	90.38
390.512	106.38
390.736	96.38
390.961	89.38
391.186	92.38
391.411	105.38
391.636	92.38
391.86	96.38
392.085	119.38
392.31	133.38
392.534	132.38
392.759	180.38
392.984	290.38
393.208	562.38
393.433	852.38
393.658	645.38
393.882	252.38
394.107	172.38
394.331	193.38
394.556	218.38
394.78	155.38
395.005	124.38
395.229	122.38
395.454	132.38
395.678	170.38
395.903	196.38
396.127	262.38
396.352	326.38
396.576	336.38
396.801	574.38
397.025	682.38
397.249	331.38
397.474	177.38
397.698	137.38
397.922	103.38
398.147	105.38
398.371	114.38
398.595	100.38
398.82	94.38
399.044	109.38
399.268	102.38
399.492	104.38
399.717	98.38
399.941	102.38
400.165	101.38
400.389	97.38
400.613	81.38
400.837	90.38
401.062	88.38
401.286	79.38
401.51	94.38
401.734	82.38
401.958	93.38
402.182	91.38
402.406	91.38
402.63	94.38
402.854	97.38
403.078	102.38
403.302	94.38
403.526	96.38
403.75	88.38
403.974	115.38
404.198	140.38
404.422	214.38
404.645	263.38
404.869	198.38
405.093	128.38
405.317	90.38
405.541	94.38
405.765	100.38
405.988	94.38
406.212	100.38
406.436	101.38
406.66	102.38
406.883	87.38
407.107	101.38
407.331	90.38
407.555	138.38
407.778	162.38
408.002	181.38
408.226	112.38
408.449	82.38
408.673	93.38
408.896	101.38
409.12	89.38
409.344	126.38
409.567	123.38
409.791	141.38
410.014	120.38
410.238	128.38
410.461	117.38
410.685	106.38
410.908	95.38
411.132	97.38
411.355	111.38
411.578	100.38
411.802	101.38
412.025	110.38
412.249	80.38
412.472	92.38
412.695	86.38
412.919	98.38
413.142	97.38
413.365	95.38
413.589	88.38
413.812	80.38
414.035	99.38
414.258	92.38
414.482	97.38
414.705	92.38
414.928	97.38
415.151	92.38
415.374	106.38
415.597	96.38
415.821	86.38
416.044	78.38
416.267	99.38
416.49	81.38
416.713	90.38
416.936	79.38
417.159	82.38
417.382	86.38
417.605	75.38
417.828	88.38
418.051	88.38
418.274	93.38
418.497	91.38
418.72	101.38
418.943	87.38
419.166	90.38
419.389	94.38
419.611	103.38
419.834	95.38
420.057	115.38
420.28	104.38
420.503	108.38
420.726	104.38
420.948	105.38
421.171	110.38
421.394	144.38
421.617	177.38
421.839	187.38
422.062	208.38
422.285	312.38
422.507	607.38
422.73	1049.38
422.953	916.38
423.175	434.38
423.398	228.38
423.621	153.38
423.843	119.38
424.066	124.38
424.288	118.38
424.511	104.38
424.733	105.38
424.956	96.38
425.178	103.38
425.401	94.38
425.623	108.38
425.846	87.38
426.068	90.38
426.291	92.38
426.513	96.38
426.735	94.38
426.958	92.38
427.18	103.38
427.402	108.38
427.625	90.38
427.847	100.38
428.069	119.38
428.292	229.38
428.514	258.38
428.736	177.38
428.958	226.38
429.181	247.38
429.403	141.38
429.625	122.38
429.847	209.38
430.069	334.38
430.292	398.38
430.514	355.38
430.736	254.38
430.958	257.38
431.18	136.38
431.402	102.38
431.624	127.38
431.846	208.38
432.068	239.38
432.29	122.38
432.512	101.38
432.734	97.38
432.956	95.38
433.178	79.38
433.4	89.38
433.622	94.38
433.844	100.38
434.066	85.38
434.287	86.38
434.509	94.38
434.731	79.38
434.953	80.38
435.175	104.38
435.397	101.38
435.618	96.38
435.84	103.38
436.062	100.38
436.284	99.38
436.505	107.38
436.727	90.38
436.949	95.38
437.17	81.38
437.392	93.38
437.614	95.38
437.835	79.38
438.057	83.38
438.278	98.38
438.5	95.38
438.721	86.38
438.943	97.38
439.165	87.38
439.386	82.38
439.608	86.38
439.829	86.38
440.05	91.38
440.272	88.38
440.493	90.38
440.715	104.38
440.936	87.38
441.158	84.38
441.379	82.38
441.6	108.38
441.822	92.38
442.043	111.38
442.264	113.38
442.486	245.38
442.707	354.38
442.928	226.38
443.149	162.38
443.371	303.38
443.592	613.38
443.813	522.38
444.034	191.38
444.255	118.38
444.476	116.38
444.698	103.38
444.919	117.38
445.14	279.38
445.361	413.38
445.582	764.38
445.803	620.38
446.024	207.38
446.245	110.38
446.466	101.38
446.687	95.38
446.908	79.38
447.129	97.38
447.35	94.38
447.571	94.38
447.792	99.38
448.013	92.38
448.234	84.38
448.455	79.38
448.675	85.38
448.896	100.38
449.117	88.38
449.338	79.38
449.559	78.38
449.779	103.38
450	95.38
450.221	88.38
450.442	90.38
450.662	88.38
450.883	95.38
451.104	84.38
451.324	101.38
451.545	87.38
451.766	96.38
451.986	89.38
452.207	93.38
452.428	84.38
452.648	117.38
452.869	130.38
453.089	126.38
453.31	104.38
453.53	134.38
453.751	125.38
453.971	104.38
454.192	92.38
454.412	94.38
454.633	82.38
454.853	78.38
455.073	105.38
455.294	94.38
455.514	92.38
455.734	89.38
455.955	96.38
456.175	89.38
456.395	96.38
456.616	97.38
456.836	91.38
457.056	78.38
457.276	94.38
457.497	87.38
457.717	96.38
457.937	154.38
458.157	190.38
458.377	208.38
458.598	198.38
458.818	222.38
459.038	126.38
459.258	100.38
459.478	98.38
459.698	88.38
459.918	93.38
460.138	80.38
460.358	108.38
460.578	114.38
460.798	205.38
461.018	198.38
461.238	101.38
461.458	96.38
461.678	93.38
461.898	62.38
462.118	84.38
462.338	103.38
462.558	105.38
462.777	95.38
462.997	88.38
463.217	85.38
463.437	80.38
463.657	92.38
463.876	94.38
464.096	88.38
464.316	82.38
464.536	89.38
464.755	86.38
464.975	90.38
465.195	97.38
465.414	80.38
465.634	92.38
465.854	89.38
466.073	102.38
466.293	105.38
466.512	80.38
466.732	101.38
466.951	91.38
467.171	74.38
467.391	93.38
467.61	86.38
467.829	93.38
468.049	103.38
468.268	87.38
468.488	94.38
468.707	87.38
468.927	88.38
469.146	87.38
469.365	83.38
469.585	89.38
469.804	92.38
470.023	86.38
470.243	91.38
470.462	77.38
470.681	82.38
470.901	80.38
471.12	105.38
471.339	87.38
471.558	89.38
471.777	79.38
471.997	96.38
472.216	85.38
472.435	87.38
472.654	89.38
472.873	77.38
473.092	102.38
473.311	86.38
473.53	101.38
473.749	108.38
473.968	88.38
474.187	80.38
474.406	81.38
474.625	99.38
474.844	76.38
475.063	85.38
475.282	93.38
475.501	82.38
475.72	105.38
475.939	98.38
476.158	88.38
476.377	94.38
476.596	89.38
476.814	88.38
477.033	97.38
477.252	86.38
477.471	99.38
477.69	87.38
477.908	75.38
478.127	78.38
478.346	100.38
478.564	88.38
478.783	82.38
479.002	72.38
479.22	98.38
479.439	100.38
479.658	96.38
479.876	110.38
480.095	97.38
480.313	101.38
480.532	104.38
480.751	94.38
480.969	92.38
481.188	83.38
481.406	111.38
481.624	90.38
481.843	96.38
482.061	103.38
482.28	85.38
482.498	101.38
482.717	84.38
482.935	88.38
483.153	92.38
483.372	104.38
483.59	109.38
483.808	100.38
484.027	88.38
484.245	94.38
484.463	98.38
484.681	108.38
484.9	106.38
485.118	94.38
485.336	88.38
485.554	100.38
485.772	99.38
485.99	101.38
486.209	89.38
486.427	89.38
486.645	99.38
486.863	101.38
487.081	100.38
487.299	105.38
487.517	111.38
487.735	156.38
487.953	282.38
488.171	256.38
488.389	124.38
488.607	106.38
488.825	101.38
489.043	84.38
489.261	93.38
489.479	90.38
489.696	103.38
489.914	109.38
490.132	90.38
490.35	91.38
490.568	97.38
490.786	92.38
491.003	87.38
491.221	79.38
491.439	85.38
491.657	105.38
491.874	113.38
492.092	92.38
492.31	97.38
492.527	87.38
492.745	97.38
492.963	93.38
493.18	92.38
493.398	108.38
493.615	83.38
493.833	94.38
494.05	98.38
494.268	83.38
494.485	100.38
494.703	89.38
494.92	92.38
495.138	97.38
495.355	99.38
495.573	100.38
495.79	99.38
496.008	101.38
496.225	102.38
496.442	103.38
496.66	98.38
496.877	97.38
497.094	117.38
497.312	92.38
497.529	116.38
497.746	98.38
497.963	96.38
498.181	117.38
498.398	140.38
498.615	114.38
498.832	104.38
499.049	102.38
499.267	130.38
499.484	105.38
499.701	98.38
499.918	109.38
500.135	116.38
500.352	110.38
500.569	97.38
500.786	108.38
501.003	114.38
501.22	103.38
501.437	105.38
501.654	119.38
501.871	116.38
502.088	95.38
502.305	124.38
502.522	97.38
502.739	103.38
502.956	100.38
503.172	96.38
503.389	109.38
503.606	104.38
503.823	123.38
504.04	130.38
504.256	209.38
504.473	217.38
504.69	113.38
504.907	89.38
505.123	101.38
505.34	110.38
505.557	103.38
505.773	98.38
505.99	91.38
506.207	93.38
506.423	92.38
506.64	110.38
506.856	89.38
507.073	79.38
507.289	86.38
507.506	98.38
507.722	89.38
507.939	96.38
508.155	90.38
508.372	78.38
508.588	99.38
508.805	92.38
509.021	93.38
509.238	92.38
509.454	89.38
509.67	103.38
509.887	97.38
510.103	89.38
510.319	96.38
510.536	96.38
510.752	100.38
510.968	84.38
511.184	90.38
511.401	73.38
511.617	101.38
511.833	114.38
512.049	101.38
512.265	105.38
512.481	89.38
512.698	94.38
512.914	96.38
513.13	91.38
513.346	98.38
513.562	90.38
513.778	87.38
513.994	95.38
514.21	95.38
514.426	88.38
