Data from HP_1_HRD10591_00030.txt Node
Date: Mon Jan 19 14:15:22 EST 2026
User: Yrep
Spectrometer: HR+D1059
Trigger mode: 1
Integration Time (sec): 1.000000E-1
Scans to average: 1
Electric dark correction enabled: true
Nonlinearity correction enabled: false
Boxcar width: 0
XAxis mode: Wavelengths
Number of Pixels in Spectrum: 2048
>>>>>Begin Spectral Data<<<<<
223.165	-14.19
223.4	-14.19
223.635	-14.19
223.869	-14.19
224.104	-11.19
224.338	-9.19
224.573	-15.19
224.808	-2.19
225.042	-3.19
225.277	-27.19
225.511	-11.19
225.746	-14.19
225.98	3.81
226.215	9.81
226.449	18.81
226.683	26.81
226.918	27.81
227.152	34.81
227.387	33.81
227.621	47.81
227.856	41.81
228.09	63.81
228.324	39.81
228.559	48.81
228.793	59.81
229.027	72.81
229.262	70.81
229.496	57.81
229.73	63.81
229.964	83.81
230.199	66.81
230.433	65.81
230.667	76.81
230.901	85.81
231.136	78.81
231.37	75.81
231.604	67.81
231.838	82.81
232.072	73.81
232.306	81.81
232.541	81.81
232.775	81.81
233.009	87.81
233.243	77.81
233.477	85.81
233.711	81.81
233.945	84.81
234.179	83.81
234.413	63.81
234.647	78.81
234.881	69.81
235.115	81.81
235.349	81.81
235.583	80.81
235.817	66.81
236.051	73.81
236.285	92.81
236.519	74.81
236.753	83.81
236.987	62.81
237.221	86.81
237.455	70.81
237.689	58.81
237.922	65.81
238.156	70.81
238.39	63.81
238.624	73.81
238.858	70.81
239.091	75.81
239.325	74.81
239.559	69.81
239.793	77.81
240.027	84.81
240.26	80.81
240.494	78.81
240.728	75.81
240.961	78.81
241.195	89.81
241.429	81.81
241.662	70.81
241.896	67.81
242.13	75.81
242.363	65.81
242.597	72.81
242.83	85.81
243.064	72.81
243.298	66.81
243.531	74.81
243.765	79.81
243.998	74.81
244.232	95.81
244.465	72.81
244.699	77.81
244.932	89.81
245.166	68.81
245.399	79.81
245.633	69.81
245.866	85.81
246.099	78.81
246.333	88.81
246.566	71.81
246.8	61.81
247.033	70.81
247.266	74.81
247.5	90.81
247.733	74.81
247.966	65.81
248.2	66.81
248.433	70.81
248.666	79.81
248.899	74.81
249.133	83.81
249.366	76.81
249.599	77.81
249.832	61.81
250.066	93.81
250.299	88.81
250.532	76.81
250.765	82.81
250.998	70.81
251.231	87.81
251.465	79.81
251.698	65.81
251.931	83.81
252.164	94.81
252.397	76.81
252.63	70.81
252.863	80.81
253.096	81.81
253.329	83.81
253.562	82.81
253.795	90.81
254.028	82.81
254.261	82.81
254.494	54.81
254.727	94.81
254.96	83.81
255.193	83.81
255.426	58.81
255.659	79.81
255.892	77.81
256.124	83.81
256.357	79.81
256.59	76.81
256.823	87.81
257.056	75.81
257.289	91.81
257.521	82.81
257.754	80.81
257.987	65.81
258.22	83.81
258.452	74.81
258.685	77.81
258.918	81.81
259.151	76.81
259.383	85.81
259.616	86.81
259.849	73.81
260.081	87.81
260.314	91.81
260.547	82.81
260.779	83.81
261.012	86.81
261.244	81.81
261.477	69.81
261.71	80.81
261.942	74.81
262.175	85.81
262.407	62.81
262.64	93.81
262.872	79.81
263.105	88.81
263.337	84.81
263.57	90.81
263.802	69.81
264.035	71.81
264.267	74.81
264.499	73.81
264.732	82.81
264.964	74.81
265.197	95.81
265.429	90.81
265.661	85.81
265.894	78.81
266.126	82.81
266.358	87.81
266.591	84.81
266.823	79.81
267.055	90.81
267.287	74.81
267.52	72.81
267.752	83.81
267.984	70.81
268.216	69.81
268.448	83.81
268.681	79.81
268.913	83.81
269.145	82.81
269.377	81.81
269.609	82.81
269.841	74.81
270.073	82.81
270.306	81.81
270.538	81.81
270.77	75.81
271.002	85.81
271.234	81.81
271.466	88.81
271.698	73.81
271.93	81.81
272.162	89.81
272.394	86.81
272.626	91.81
272.858	75.81
273.09	87.81
273.322	89.81
273.553	75.81
273.785	73.81
274.017	79.81
274.249	75.81
274.481	71.81
274.713	76.81
274.945	87.81
275.176	78.81
275.408	66.81
275.64	86.81
275.872	77.81
276.104	85.81
276.335	74.81
276.567	72.81
276.799	83.81
277.031	73.81
277.262	81.81
277.494	69.81
277.726	77.81
277.957	80.81
278.189	67.81
278.421	91.81
278.652	73.81
278.884	89.81
279.115	91.81
279.347	87.81
279.579	87.81
279.81	80.81
280.042	77.81
280.273	82.81
280.505	79.81
280.736	83.81
280.968	87.81
281.199	65.81
281.431	90.81
281.662	93.81
281.894	76.81
282.125	85.81
282.356	81.81
282.588	79.81
282.819	90.81
283.051	71.81
283.282	88.81
283.513	71.81
283.745	85.81
283.976	86.81
284.207	83.81
284.439	77.81
284.67	85.81
284.901	78.81
285.132	79.81
285.364	74.81
285.595	85.81
285.826	93.81
286.057	90.81
286.288	79.81
286.52	75.81
286.751	75.81
286.982	90.81
287.213	78.81
287.444	73.81
287.675	87.81
287.906	76.81
288.138	71.81
288.369	75.81
288.6	88.81
288.831	76.81
289.062	89.81
289.293	61.81
289.524	78.81
289.755	79.81
289.986	74.81
290.217	75.81
290.448	74.81
290.679	81.81
290.91	79.81
291.141	71.81
291.371	69.81
291.602	77.81
291.833	81.81
292.064	83.81
292.295	88.81
292.526	74.81
292.757	78.81
292.987	83.81
293.218	86.81
293.449	82.81
293.68	96.81
293.91	77.81
294.141	77.81
294.372	80.81
294.603	93.81
294.833	90.81
295.064	74.81
295.295	84.81
295.525	81.81
295.756	74.81
295.987	77.81
296.217	75.81
296.448	76.81
296.679	77.81
296.909	92.81
297.14	88.81
297.37	87.81
297.601	87.81
297.831	81.81
298.062	78.81
298.292	83.81
298.523	86.81
298.753	83.81
298.984	91.81
299.214	82.81
299.445	74.81
299.675	82.81
299.905	83.81
300.136	80.81
300.366	77.81
300.597	80.81
300.827	86.81
301.057	94.81
301.288	79.81
301.518	90.81
301.748	89.81
301.979	94.81
302.209	90.81
302.439	73.81
302.669	88.81
302.9	83.81
303.13	73.81
303.36	83.81
303.59	83.81
303.82	84.81
304.051	95.81
304.281	83.81
304.511	74.81
304.741	73.81
304.971	82.81
305.201	81.81
305.431	92.81
305.661	82.81
305.891	79.81
306.121	70.81
306.352	71.81
306.582	94.81
306.812	81.81
307.042	88.81
307.272	90.81
307.502	79.81
307.731	81.81
307.961	89.81
308.191	90.81
308.421	85.81
308.651	82.81
308.881	75.81
309.111	80.81
309.341	82.81
309.571	81.81
309.8	85.81
310.03	74.81
310.26	77.81
310.49	73.81
310.72	81.81
310.949	77.81
311.179	86.81
311.409	90.81
311.639	85.81
311.868	68.81
312.098	81.81
312.328	86.81
312.557	83.81
312.787	88.81
313.017	93.81
313.246	79.81
313.476	74.81
313.706	76.81
313.935	79.81
314.165	89.81
314.394	84.81
314.624	79.81
314.853	82.81
315.083	82.81
315.312	61.81
315.542	76.81
315.771	77.81
316.001	88.81
316.23	90.81
316.46	82.81
316.689	88.81
316.919	97.81
317.148	79.81
317.377	100.81
317.607	100.81
317.836	93.81
318.065	80.81
318.295	99.81
318.524	79.81
318.753	85.81
318.983	74.81
319.212	85.81
319.441	80.81
319.67	80.81
319.9	78.81
320.129	83.81
320.358	84.81
320.587	84.81
320.816	72.81
321.046	71.81
321.275	78.81
321.504	67.81
321.733	87.81
321.962	80.81
322.191	74.81
322.42	65.81
322.649	70.81
322.878	94.81
323.108	93.81
323.337	85.81
323.566	85.81
323.795	85.81
324.024	86.81
324.253	69.81
324.482	79.81
324.71	69.81
324.939	87.81
325.168	82.81
325.397	81.81
325.626	102.81
325.855	82.81
326.084	75.81
326.313	83.81
326.542	74.81
326.77	71.81
326.999	82.81
327.228	75.81
327.457	86.81
327.686	89.81
327.914	82.81
328.143	72.81
328.372	75.81
328.6	69.81
328.829	78.81
329.058	83.81
329.287	85.81
329.515	85.81
329.744	81.81
329.972	90.81
330.201	79.81
330.43	89.81
330.658	69.81
330.887	69.81
331.115	93.81
331.344	88.81
331.572	86.81
331.801	71.81
332.03	86.81
332.258	91.81
332.486	81.81
332.715	72.81
332.943	82.81
333.172	91.81
333.4	81.81
333.629	82.81
333.857	87.81
334.085	85.81
334.314	80.81
334.542	78.81
334.771	65.81
334.999	81.81
335.227	86.81
335.455	88.81
335.684	82.81
335.912	90.81
336.14	70.81
336.369	88.81
336.597	81.81
336.825	89.81
337.053	86.81
337.281	93.81
337.51	79.81
337.738	89.81
337.966	88.81
338.194	91.81
338.422	77.81
338.65	89.81
338.878	81.81
339.106	82.81
339.334	94.81
339.562	76.81
339.79	86.81
340.018	89.81
340.246	71.81
340.474	72.81
340.702	83.81
340.93	85.81
341.158	83.81
341.386	77.81
341.614	74.81
341.842	81.81
342.07	83.81
342.298	78.81
342.526	91.81
342.754	83.81
342.981	91.81
343.209	86.81
343.437	87.81
343.665	73.81
343.893	87.81
344.12	79.81
344.348	78.81
344.576	80.81
344.804	102.81
345.031	72.81
345.259	70.81
345.487	87.81
345.714	76.81
345.942	74.81
346.17	87.81
346.397	89.81
346.625	86.81
346.853	76.81
347.08	85.81
347.308	86.81
347.535	89.81
347.763	75.81
347.99	83.81
348.218	79.81
348.445	86.81
348.673	97.81
348.9	94.81
349.128	83.81
349.355	74.81
349.583	82.81
349.81	73.81
350.037	83.81
350.265	96.81
350.492	95.81
350.72	97.81
350.947	75.81
351.174	78.81
351.402	73.81
351.629	80.81
351.856	82.81
352.083	100.81
352.311	79.81
352.538	79.81
352.765	97.81
352.992	89.81
353.22	74.81
353.447	70.81
353.674	84.81
353.901	77.81
354.128	79.81
354.355	82.81
354.583	70.81
354.81	96.81
355.037	96.81
355.264	84.81
355.491	95.81
355.718	83.81
355.945	77.81
356.172	78.81
356.399	87.81
356.626	89.81
356.853	70.81
357.08	94.81
357.307	83.81
357.534	93.81
357.761	83.81
357.988	90.81
358.215	86.81
358.441	74.81
358.668	79.81
358.895	86.81
359.122	72.81
359.349	81.81
359.576	81.81
359.802	83.81
360.029	81.81
360.256	89.81
360.483	82.81
360.709	89.81
360.936	89.81
361.163	86.81
361.39	91.81
361.616	81.81
361.843	79.81
362.07	81.81
362.296	93.81
362.523	80.81
362.749	74.81
362.976	83.81
363.203	89.81
363.429	85.81
363.656	77.81
363.882	75.81
364.109	79.81
364.335	91.81
364.562	79.81
364.788	76.81
365.015	82.81
365.241	80.81
365.468	79.81
365.694	77.81
365.92	94.81
366.147	77.81
366.373	73.81
366.599	85.81
366.826	77.81
367.052	83.81
367.278	91.81
367.505	67.81
367.731	83.81
367.957	69.81
368.184	87.81
368.41	77.81
368.636	67.81
368.862	90.81
369.089	86.81
369.315	82.81
369.541	85.81
369.767	81.81
369.993	82.81
370.219	69.81
370.445	78.81
370.672	75.81
370.898	87.81
371.124	80.81
371.35	97.81
371.576	80.81
371.802	94.81
372.028	83.81
372.254	73.81
372.48	65.81
372.706	61.81
372.932	73.81
373.158	79.81
373.384	75.81
373.61	86.81
373.835	75.81
374.061	77.81
374.287	77.81
374.513	86.81
374.739	97.81
374.965	82.81
375.191	86.81
375.416	91.81
375.642	84.81
375.868	81.81
376.094	85.81
376.319	72.81
376.545	81.81
376.771	81.81
376.997	73.81
377.222	71.81
377.448	79.81
377.674	84.81
377.899	81.81
378.125	70.81
378.35	78.81
378.576	82.81
378.802	80.81
379.027	88.81
379.253	91.81
379.478	73.81
379.704	82.81
379.929	60.81
380.155	69.81
380.38	89.81
380.606	80.81
380.831	62.81
381.057	81.81
381.282	73.81
381.507	84.81
381.733	82.81
381.958	73.81
382.184	85.81
382.409	87.81
382.634	89.81
382.86	81.81
383.085	93.81
383.31	80.81
383.535	73.81
383.761	72.81
383.986	81.81
384.211	82.81
384.436	83.81
384.662	83.81
384.887	70.81
385.112	78.81
385.337	74.81
385.562	78.81
385.787	71.81
386.013	86.81
386.238	76.81
386.463	93.81
386.688	115.81
386.913	76.81
387.138	83.81
387.363	76.81
387.588	89.81
387.813	86.81
388.038	85.81
388.263	83.81
388.488	89.81
388.713	79.81
388.938	85.81
389.163	72.81
389.387	91.81
389.612	102.81
389.837	89.81
390.062	78.81
390.287	86.81
390.512	85.81
390.736	71.81
390.961	75.81
391.186	86.81
391.411	79.81
391.636	85.81
391.86	79.81
392.085	87.81
392.31	97.81
392.534	77.81
392.759	85.81
392.984	88.81
393.208	124.81
393.433	131.81
393.658	122.81
393.882	91.81
394.107	85.81
394.331	78.81
394.556	88.81
394.78	89.81
395.005	91.81
395.229	82.81
395.454	88.81
395.678	86.81
395.903	88.81
396.127	81.81
396.352	96.81
396.576	103.81
396.801	125.81
397.025	123.81
397.249	92.81
397.474	83.81
397.698	90.81
397.922	86.81
398.147	69.81
398.371	76.81
398.595	77.81
398.82	75.81
399.044	85.81
399.268	76.81
399.492	67.81
399.717	76.81
399.941	97.81
400.165	84.81
400.389	73.81
400.613	81.81
400.837	70.81
401.062	68.81
401.286	77.81
401.51	74.81
401.734	73.81
401.958	75.81
402.182	76.81
402.406	77.81
402.63	87.81
402.854	86.81
403.078	85.81
403.302	80.81
403.526	72.81
403.75	65.81
403.974	69.81
404.198	75.81
404.422	84.81
404.645	91.81
404.869	86.81
405.093	80.81
405.317	69.81
405.541	94.81
405.765	74.81
405.988	84.81
406.212	80.81
406.436	81.81
406.66	81.81
406.883	96.81
407.107	95.81
407.331	77.81
407.555	76.81
407.778	81.81
408.002	75.81
408.226	84.81
408.449	74.81
408.673	79.81
408.896	79.81
409.12	73.81
409.344	75.81
409.567	88.81
409.791	69.81
410.014	85.81
410.238	67.81
410.461	99.81
410.685	81.81
410.908	75.81
411.132	76.81
411.355	73.81
411.578	65.81
411.802	72.81
412.025	77.81
412.249	73.81
412.472	65.81
412.695	79.81
412.919	80.81
413.142	86.81
413.365	70.81
413.589	89.81
413.812	91.81
414.035	75.81
414.258	69.81
414.482	82.81
414.705	81.81
414.928	79.81
415.151	81.81
415.374	80.81
415.597	73.81
415.821	65.81
416.044	70.81
416.267	87.81
416.49	90.81
416.713	78.81
416.936	82.81
417.159	73.81
417.382	89.81
417.605	77.81
417.828	80.81
418.051	76.81
418.274	71.81
418.497	91.81
418.72	84.81
418.943	82.81
419.166	62.81
419.389	71.81
419.611	82.81
419.834	82.81
420.057	75.81
420.28	70.81
420.503	74.81
420.726	81.81
420.948	79.81
421.171	76.81
421.394	98.81
421.617	80.81
421.839	73.81
422.062	79.81
422.285	74.81
422.507	106.81
422.73	152.81
422.953	143.81
423.175	91.81
423.398	73.81
423.621	81.81
423.843	78.81
424.066	68.81
424.288	100.81
424.511	91.81
424.733	94.81
424.956	81.81
425.178	80.81
425.401	82.81
425.623	84.81
425.846	77.81
426.068	81.81
426.291	87.81
426.513	75.81
426.735	82.81
426.958	95.81
427.18	66.81
427.402	89.81
427.625	79.81
427.847	65.81
428.069	76.81
428.292	91.81
428.514	88.81
428.736	81.81
428.958	81.81
429.181	79.81
429.403	86.81
429.625	76.81
429.847	76.81
430.069	87.81
430.292	81.81
430.514	90.81
430.736	93.81
430.958	75.81
431.18	85.81
431.402	75.81
431.624	93.81
431.846	82.81
432.068	79.81
432.29	88.81
432.512	88.81
432.734	73.81
432.956	88.81
433.178	97.81
433.4	69.81
433.622	77.81
433.844	99.81
434.066	79.81
434.287	71.81
434.509	74.81
434.731	81.81
434.953	75.81
435.175	90.81
435.397	81.81
435.618	83.81
435.84	69.81
436.062	88.81
436.284	78.81
436.505	76.81
436.727	73.81
436.949	74.81
437.17	75.81
437.392	94.81
437.614	74.81
437.835	76.81
438.057	80.81
438.278	77.81
438.5	85.81
438.721	65.81
438.943	82.81
439.165	75.81
439.386	65.81
439.608	83.81
439.829	78.81
440.05	62.81
440.272	78.81
440.493	93.81
440.715	88.81
440.936	93.81
441.158	89.81
441.379	75.81
441.6	99.81
441.822	81.81
442.043	96.81
442.264	103.81
442.486	95.81
442.707	90.81
442.928	79.81
443.149	85.81
443.371	94.81
443.592	92.81
443.813	84.81
444.034	75.81
444.255	85.81
444.476	76.81
444.698	67.81
444.919	72.81
445.14	157.81
445.361	127.81
445.582	108.81
445.803	82.81
446.024	102.81
446.245	89.81
446.466	66.81
446.687	89.81
446.908	80.81
447.129	61.81
447.35	66.81
447.571	76.81
447.792	81.81
448.013	59.81
448.234	79.81
448.455	72.81
448.675	81.81
448.896	78.81
449.117	89.81
449.338	77.81
449.559	76.81
449.779	69.81
450	77.81
450.221	81.81
450.442	79.81
450.662	86.81
450.883	83.81
451.104	90.81
451.324	94.81
451.545	57.81
451.766	81.81
451.986	79.81
452.207	87.81
452.428	80.81
452.648	81.81
452.869	85.81
453.089	73.81
453.31	72.81
453.53	84.81
453.751	85.81
453.971	80.81
454.192	71.81
454.412	77.81
454.633	85.81
454.853	82.81
455.073	79.81
455.294	81.81
455.514	76.81
455.734	71.81
455.955	82.81
456.175	95.81
456.395	65.81
456.616	71.81
456.836	86.81
457.056	70.81
457.276	81.81
457.497	91.81
457.717	81.81
457.937	82.81
458.157	87.81
458.377	90.81
458.598	87.81
458.818	73.81
459.038	76.81
459.258	85.81
459.478	75.81
459.698	82.81
459.918	83.81
460.138	70.81
460.358	59.81
460.578	74.81
460.798	73.81
461.018	76.81
461.238	73.81
461.458	84.81
461.678	70.81
461.898	84.81
462.118	79.81
462.338	83.81
462.558	88.81
462.777	86.81
462.997	79.81
463.217	79.81
463.437	85.81
463.657	74.81
463.876	69.81
464.096	87.81
464.316	71.81
464.536	79.81
464.755	75.81
464.975	68.81
465.195	69.81
465.414	79.81
465.634	72.81
465.854	77.81
466.073	83.81
466.293	85.81
466.512	80.81
466.732	74.81
466.951	78.81
467.171	81.81
467.391	94.81
467.61	89.81
467.829	92.81
468.049	71.81
468.268	85.81
468.488	82.81
468.707	79.81
468.927	70.81
469.146	93.81
469.365	78.81
469.585	84.81
469.804	71.81
470.023	81.81
470.243	86.81
470.462	77.81
470.681	75.81
470.901	77.81
471.12	81.81
471.339	98.81
471.558	83.81
471.777	93.81
471.997	82.81
472.216	93.81
472.435	72.81
472.654	69.81
472.873	78.81
473.092	75.81
473.311	69.81
473.53	87.81
473.749	85.81
473.968	81.81
474.187	78.81
474.406	85.81
474.625	69.81
474.844	88.81
475.063	93.81
475.282	78.81
475.501	69.81
475.72	89.81
475.939	93.81
476.158	83.81
476.377	79.81
476.596	79.81
476.814	85.81
477.033	72.81
477.252	79.81
477.471	81.81
477.69	79.81
477.908	87.81
478.127	78.81
478.346	69.81
478.564	77.81
478.783	79.81
479.002	69.81
479.22	91.81
479.439	77.81
479.658	69.81
479.876	74.81
480.095	94.81
480.313	69.81
480.532	83.81
480.751	75.81
480.969	77.81
481.188	85.81
481.406	91.81
481.624	85.81
481.843	77.81
482.061	73.81
482.28	83.81
482.498	81.81
482.717	76.81
482.935	72.81
483.153	89.81
483.372	79.81
483.59	90.81
483.808	76.81
484.027	90.81
484.245	95.81
484.463	66.81
484.681	85.81
484.9	84.81
485.118	69.81
485.336	70.81
485.554	90.81
485.772	78.81
485.99	84.81
486.209	78.81
486.427	70.81
486.645	82.81
486.863	94.81
487.081	79.81
487.299	87.81
487.517	74.81
487.735	72.81
487.953	87.81
488.171	89.81
488.389	75.81
488.607	91.81
488.825	74.81
489.043	79.81
489.261	79.81
489.479	89.81
489.696	97.81
489.914	83.81
490.132	71.81
490.35	69.81
490.568	85.81
490.786	83.81
491.003	85.81
491.221	78.81
491.439	72.81
491.657	84.81
491.874	84.81
492.092	78.81
492.31	83.81
492.527	82.81
492.745	91.81
492.963	99.81
493.18	97.81
493.398	86.81
493.615	77.81
493.833	86.81
494.05	75.81
494.268	95.81
494.485	80.81
494.703	81.81
494.92	78.81
495.138	85.81
495.355	94.81
495.573	88.81
495.79	81.81
496.008	105.81
496.225	75.81
496.442	79.81
496.66	81.81
496.877	95.81
497.094	95.81
497.312	85.81
497.529	82.81
497.746	99.81
497.963	70.81
498.181	82.81
498.398	79.81
498.615	80.81
498.832	87.81
499.049	76.81
499.267	81.81
499.484	84.81
499.701	88.81
499.918	99.81
500.135	69.81
500.352	94.81
500.569	91.81
500.786	74.81
501.003	73.81
501.22	96.81
501.437	94.81
501.654	82.81
501.871	84.81
502.088	65.81
502.305	74.81
502.522	70.81
502.739	85.81
502.956	71.81
503.172	79.81
503.389	70.81
503.606	90.81
503.823	82.81
504.04	82.81
504.256	92.81
504.473	98.81
504.69	86.81
504.907	98.81
505.123	85.81
505.34	90.81
505.557	85.81
505.773	75.81
505.99	76.81
506.207	89.81
506.423	62.81
506.64	87.81
506.856	81.81
507.073	79.81
507.289	86.81
507.506	77.81
507.722	75.81
507.939	85.81
508.155	81.81
508.372	69.81
508.588	87.81
508.805	71.81
509.021	89.81
509.238	85.81
509.454	91.81
509.67	103.81
509.887	80.81
510.103	69.81
510.319	80.81
510.536	81.81
510.752	74.81
510.968	93.81
511.184	85.81
511.401	83.81
511.617	75.81
511.833	87.81
512.049	85.81
512.265	71.81
512.481	81.81
512.698	87.81
512.914	86.81
513.13	74.81
513.346	76.81
513.562	76.81
513.778	82.81
513.994	96.81
514.21	83.81
514.426	83.81
514.642	73.81
514.858	97.81
515.074	87.81
515.29	82.81
515.506	80.81
515.721	79.81
515.937	86.81
516.153	77.81
516.369	77.81
516.585	83.81
516.801	89.81
517.016	90.81
517.232	85.81
517.448	69.81
517.664	70.81
517.879	83.81
518.095	84.81
518.311	89.81
518.527	99.81
518.742	82.81
518.958	81.81
519.173	81.81
519.389	88.81
519.605	78.81
519.82	94.81
520.036	76.81
