Data from HP_1_HRD10591_00049.txt Node
Date: Mon Jan 19 14:15:32 EST 2026
User: Yrep
Spectrometer: HR+D1059
Trigger mode: 1
Integration Time (sec): 1.000000E-1
Scans to average: 1
Electric dark correction enabled: true
Nonlinearity correction enabled: false
Boxcar width: 0
XAxis mode: Wavelengths
Number of Pixels in Spectrum: 2048
>>>>>Begin Spectral Data<<<<<
223.165	-28.94
223.4	-28.94
223.635	-28.94
223.869	-19.94
224.104	-6.94
224.338	-15.94
224.573	-8.94
224.808	-26.94
225.042	8.06
225.277	-18.94
225.511	-6.94
225.746	13.06
225.98	8.06
226.215	14.06
226.449	17.06
226.683	22.06
226.918	26.06
227.152	25.06
227.387	52.06
227.621	33.06
227.856	39.06
228.09	45.06
228.324	47.06
228.559	37.06
228.793	59.06
229.027	61.06
229.262	64.06
229.496	62.06
229.73	68.06
229.964	68.06
230.199	89.06
230.433	63.06
230.667	76.06
230.901	76.06
231.136	86.06
231.37	67.06
231.604	79.06
231.838	74.06
232.072	63.06
232.306	71.06
232.541	87.06
232.775	68.06
233.009	81.06
233.243	83.06
233.477	75.06
233.711	93.06
233.945	85.06
234.179	72.06
234.413	68.06
234.647	88.06
234.881	94.06
235.115	86.06
235.349	67.06
235.583	84.06
235.817	86.06
236.051	77.06
236.285	71.06
236.519	76.06
236.753	87.06
236.987	81.06
237.221	70.06
237.455	76.06
237.689	76.06
237.922	72.06
238.156	87.06
238.39	76.06
238.624	80.06
238.858	87.06
239.091	101.06
239.325	78.06
239.559	55.06
239.793	81.06
240.027	78.06
240.26	65.06
240.494	71.06
240.728	81.06
240.961	65.06
241.195	66.06
241.429	77.06
241.662	69.06
241.896	81.06
242.13	79.06
242.363	66.06
242.597	76.06
242.83	78.06
243.064	62.06
243.298	88.06
243.531	88.06
243.765	64.06
243.998	68.06
244.232	73.06
244.465	78.06
244.699	81.06
244.932	78.06
245.166	75.06
245.399	77.06
245.633	61.06
245.866	84.06
246.099	89.06
246.333	77.06
246.566	78.06
246.8	79.06
247.033	79.06
247.266	71.06
247.5	73.06
247.733	80.06
247.966	68.06
248.2	83.06
248.433	82.06
248.666	72.06
248.899	81.06
249.133	69.06
249.366	71.06
249.599	73.06
249.832	80.06
250.066	83.06
250.299	72.06
250.532	81.06
250.765	85.06
250.998	82.06
251.231	78.06
251.465	67.06
251.698	67.06
251.931	78.06
252.164	71.06
252.397	72.06
252.63	84.06
252.863	69.06
253.096	85.06
253.329	87.06
253.562	77.06
253.795	85.06
254.028	76.06
254.261	84.06
254.494	94.06
254.727	73.06
254.96	88.06
255.193	78.06
255.426	86.06
255.659	85.06
255.892	67.06
256.124	79.06
256.357	93.06
256.59	89.06
256.823	91.06
257.056	73.06
257.289	89.06
257.521	84.06
257.754	73.06
257.987	73.06
258.22	90.06
258.452	75.06
258.685	83.06
258.918	86.06
259.151	76.06
259.383	72.06
259.616	85.06
259.849	89.06
260.081	93.06
260.314	85.06
260.547	67.06
260.779	83.06
261.012	76.06
261.244	93.06
261.477	92.06
261.71	75.06
261.942	61.06
262.175	88.06
262.407	95.06
262.64	81.06
262.872	81.06
263.105	82.06
263.337	78.06
263.57	79.06
263.802	69.06
264.035	73.06
264.267	92.06
264.499	85.06
264.732	89.06
264.964	77.06
265.197	80.06
265.429	83.06
265.661	78.06
265.894	81.06
266.126	87.06
266.358	88.06
266.591	75.06
266.823	80.06
267.055	83.06
267.287	87.06
267.52	78.06
267.752	82.06
267.984	93.06
268.216	89.06
268.448	87.06
268.681	73.06
268.913	81.06
269.145	64.06
269.377	77.06
269.609	80.06
269.841	87.06
270.073	76.06
270.306	93.06
270.538	74.06
270.77	83.06
271.002	86.06
271.234	92.06
271.466	83.06
271.698	93.06
271.93	88.06
272.162	73.06
272.394	83.06
272.626	80.06
272.858	83.06
273.09	82.06
273.322	78.06
273.553	76.06
273.785	80.06
274.017	85.06
274.249	85.06
274.481	84.06
274.713	94.06
274.945	95.06
275.176	75.06
275.408	70.06
275.64	78.06
275.872	85.06
276.104	70.06
276.335	95.06
276.567	89.06
276.799	93.06
277.031	76.06
277.262	75.06
277.494	94.06
277.726	81.06
277.957	89.06
278.189	103.06
278.421	76.06
278.652	76.06
278.884	83.06
279.115	91.06
279.347	77.06
279.579	83.06
279.81	81.06
280.042	81.06
280.273	89.06
280.505	92.06
280.736	78.06
280.968	76.06
281.199	101.06
281.431	97.06
281.662	85.06
281.894	90.06
282.125	75.06
282.356	81.06
282.588	66.06
282.819	75.06
283.051	82.06
283.282	80.06
283.513	90.06
283.745	92.06
283.976	78.06
284.207	85.06
284.439	82.06
284.67	83.06
284.901	80.06
285.132	84.06
285.364	78.06
285.595	98.06
285.826	73.06
286.057	87.06
286.288	91.06
286.52	73.06
286.751	87.06
286.982	90.06
287.213	71.06
287.444	94.06
287.675	77.06
287.906	93.06
288.138	97.06
288.369	82.06
288.6	75.06
288.831	101.06
289.062	85.06
289.293	85.06
289.524	71.06
289.755	79.06
289.986	81.06
290.217	80.06
290.448	89.06
290.679	81.06
290.91	87.06
291.141	77.06
291.371	84.06
291.602	74.06
291.833	68.06
292.064	77.06
292.295	93.06
292.526	77.06
292.757	87.06
292.987	91.06
293.218	81.06
293.449	77.06
293.68	90.06
293.91	86.06
294.141	89.06
294.372	79.06
294.603	84.06
294.833	85.06
295.064	85.06
295.295	83.06
295.525	77.06
295.756	93.06
295.987	81.06
296.217	92.06
296.448	84.06
296.679	84.06
296.909	87.06
297.14	77.06
297.37	77.06
297.601	75.06
297.831	102.06
298.062	88.06
298.292	75.06
298.523	87.06
298.753	83.06
298.984	84.06
299.214	84.06
299.445	75.06
299.675	83.06
299.905	89.06
300.136	95.06
300.366	71.06
300.597	83.06
300.827	76.06
301.057	67.06
301.288	83.06
301.518	74.06
301.748	93.06
301.979	87.06
302.209	87.06
302.439	90.06
302.669	76.06
302.9	85.06
303.13	80.06
303.36	95.06
303.59	70.06
303.82	94.06
304.051	85.06
304.281	92.06
304.511	91.06
304.741	82.06
304.971	87.06
305.201	85.06
305.431	89.06
305.661	76.06
305.891	85.06
306.121	81.06
306.352	88.06
306.582	90.06
306.812	81.06
307.042	87.06
307.272	77.06
307.502	74.06
307.731	84.06
307.961	82.06
308.191	94.06
308.421	96.06
308.651	89.06
308.881	87.06
309.111	84.06
309.341	95.06
309.571	85.06
309.8	89.06
310.03	77.06
310.26	91.06
310.49	103.06
310.72	87.06
310.949	83.06
311.179	74.06
311.409	63.06
311.639	68.06
311.868	89.06
312.098	91.06
312.328	77.06
312.557	99.06
312.787	83.06
313.017	91.06
313.246	75.06
313.476	97.06
313.706	81.06
313.935	85.06
314.165	81.06
314.394	84.06
314.624	84.06
314.853	78.06
315.083	94.06
315.312	85.06
315.542	76.06
315.771	76.06
316.001	77.06
316.23	85.06
316.46	98.06
316.689	83.06
316.919	83.06
317.148	96.06
317.377	84.06
317.607	91.06
317.836	87.06
318.065	84.06
318.295	82.06
318.524	85.06
318.753	89.06
318.983	89.06
319.212	91.06
319.441	84.06
319.67	88.06
319.9	79.06
320.129	98.06
320.358	82.06
320.587	89.06
320.816	91.06
321.046	89.06
321.275	96.06
321.504	75.06
321.733	88.06
321.962	97.06
322.191	87.06
322.42	85.06
322.649	86.06
322.878	84.06
323.108	95.06
323.337	109.06
323.566	83.06
323.795	87.06
324.024	75.06
324.253	75.06
324.482	76.06
324.71	85.06
324.939	104.06
325.168	84.06
325.397	95.06
325.626	78.06
325.855	72.06
326.084	87.06
326.313	88.06
326.542	79.06
326.77	83.06
326.999	80.06
327.228	79.06
327.457	84.06
327.686	69.06
327.914	89.06
328.143	96.06
328.372	75.06
328.6	68.06
328.829	100.06
329.058	93.06
329.287	82.06
329.515	73.06
329.744	79.06
329.972	87.06
330.201	87.06
330.43	89.06
330.658	80.06
330.887	86.06
331.115	84.06
331.344	81.06
331.572	83.06
331.801	85.06
332.03	84.06
332.258	81.06
332.486	83.06
332.715	79.06
332.943	68.06
333.172	88.06
333.4	89.06
333.629	77.06
333.857	74.06
334.085	72.06
334.314	82.06
334.542	85.06
334.771	72.06
334.999	87.06
335.227	94.06
335.455	96.06
335.684	84.06
335.912	88.06
336.14	96.06
336.369	74.06
336.597	74.06
336.825	61.06
337.053	85.06
337.281	71.06
337.51	73.06
337.738	88.06
337.966	85.06
338.194	104.06
338.422	99.06
338.65	73.06
338.878	82.06
339.106	92.06
339.334	91.06
339.562	81.06
339.79	84.06
340.018	92.06
340.246	78.06
340.474	97.06
340.702	93.06
340.93	87.06
341.158	88.06
341.386	98.06
341.614	85.06
341.842	92.06
342.07	84.06
342.298	88.06
342.526	67.06
342.754	67.06
342.981	72.06
343.209	86.06
343.437	87.06
343.665	86.06
343.893	84.06
344.12	86.06
344.348	79.06
344.576	85.06
344.804	87.06
345.031	80.06
345.259	88.06
345.487	77.06
345.714	89.06
345.942	79.06
346.17	83.06
346.397	88.06
346.625	79.06
346.853	91.06
347.08	72.06
347.308	98.06
347.535	85.06
347.763	76.06
347.99	82.06
348.218	92.06
348.445	83.06
348.673	91.06
348.9	72.06
349.128	91.06
349.355	63.06
349.583	69.06
349.81	99.06
350.037	89.06
350.265	81.06
350.492	85.06
350.72	78.06
350.947	91.06
351.174	94.06
351.402	81.06
351.629	79.06
351.856	96.06
352.083	96.06
352.311	88.06
352.538	70.06
352.765	83.06
352.992	91.06
353.22	85.06
353.447	78.06
353.674	85.06
353.901	97.06
354.128	92.06
354.355	91.06
354.583	85.06
354.81	87.06
355.037	88.06
355.264	85.06
355.491	78.06
355.718	75.06
355.945	75.06
356.172	81.06
356.399	85.06
356.626	81.06
356.853	88.06
357.08	91.06
357.307	95.06
357.534	77.06
357.761	67.06
357.988	78.06
358.215	92.06
358.441	85.06
358.668	92.06
358.895	73.06
359.122	77.06
359.349	75.06
359.576	75.06
359.802	90.06
360.029	94.06
360.256	85.06
360.483	89.06
360.709	90.06
360.936	88.06
361.163	72.06
361.39	81.06
361.616	80.06
361.843	94.06
362.07	87.06
362.296	99.06
362.523	87.06
362.749	85.06
362.976	85.06
363.203	82.06
363.429	82.06
363.656	77.06
363.882	101.06
364.109	88.06
364.335	92.06
364.562	71.06
364.788	87.06
365.015	82.06
365.241	80.06
365.468	84.06
365.694	80.06
365.92	77.06
366.147	95.06
366.373	71.06
366.599	97.06
366.826	75.06
367.052	83.06
367.278	91.06
367.505	80.06
367.731	73.06
367.957	74.06
368.184	92.06
368.41	83.06
368.636	83.06
368.862	79.06
369.089	76.06
369.315	78.06
369.541	79.06
369.767	78.06
369.993	83.06
370.219	81.06
370.445	93.06
370.672	79.06
370.898	79.06
371.124	89.06
371.35	82.06
371.576	78.06
371.802	69.06
372.028	86.06
372.254	85.06
372.48	87.06
372.706	85.06
372.932	70.06
373.158	77.06
373.384	85.06
373.61	92.06
373.835	84.06
374.061	77.06
374.287	89.06
374.513	90.06
374.739	77.06
374.965	79.06
375.191	77.06
375.416	89.06
375.642	95.06
375.868	83.06
376.094	90.06
376.319	87.06
376.545	81.06
376.771	86.06
376.997	79.06
377.222	80.06
377.448	87.06
377.674	84.06
377.899	79.06
378.125	77.06
378.35	95.06
378.576	67.06
378.802	75.06
379.027	95.06
379.253	83.06
379.478	76.06
379.704	74.06
379.929	82.06
380.155	75.06
380.38	76.06
380.606	76.06
380.831	93.06
381.057	86.06
381.282	91.06
381.507	88.06
381.733	81.06
381.958	90.06
382.184	85.06
382.409	72.06
382.634	80.06
382.86	76.06
383.085	99.06
383.31	95.06
383.535	75.06
383.761	73.06
383.986	80.06
384.211	85.06
384.436	85.06
384.662	92.06
384.887	85.06
385.112	87.06
385.337	83.06
385.562	75.06
385.787	92.06
386.013	75.06
386.238	80.06
386.463	74.06
386.688	96.06
386.913	89.06
387.138	83.06
387.363	74.06
387.588	85.06
387.813	84.06
388.038	71.06
388.263	73.06
388.488	80.06
388.713	99.06
388.938	72.06
389.163	78.06
389.387	84.06
389.612	79.06
389.837	85.06
390.062	88.06
390.287	76.06
390.512	80.06
390.736	88.06
390.961	74.06
391.186	72.06
391.411	83.06
391.636	77.06
391.86	84.06
392.085	73.06
392.31	85.06
392.534	76.06
392.759	91.06
392.984	81.06
393.208	112.06
393.433	133.06
393.658	130.06
393.882	99.06
394.107	78.06
394.331	75.06
394.556	69.06
394.78	83.06
395.005	74.06
395.229	71.06
395.454	69.06
395.678	76.06
395.903	84.06
396.127	85.06
396.352	88.06
396.576	99.06
396.801	100.06
397.025	111.06
397.249	93.06
397.474	75.06
397.698	84.06
397.922	77.06
398.147	76.06
398.371	78.06
398.595	77.06
398.82	83.06
399.044	83.06
399.268	82.06
399.492	78.06
399.717	89.06
399.941	83.06
400.165	80.06
400.389	74.06
400.613	75.06
400.837	97.06
401.062	73.06
401.286	83.06
401.51	87.06
401.734	77.06
401.958	90.06
402.182	72.06
402.406	90.06
402.63	79.06
402.854	83.06
403.078	89.06
403.302	94.06
403.526	88.06
403.75	83.06
403.974	89.06
404.198	85.06
404.422	93.06
404.645	102.06
404.869	94.06
405.093	74.06
405.317	87.06
405.541	81.06
405.765	90.06
405.988	90.06
406.212	88.06
406.436	84.06
406.66	76.06
406.883	99.06
407.107	90.06
407.331	95.06
407.555	91.06
407.778	85.06
408.002	92.06
408.226	87.06
408.449	68.06
408.673	88.06
408.896	88.06
409.12	83.06
409.344	81.06
409.567	71.06
409.791	84.06
410.014	72.06
410.238	81.06
410.461	83.06
410.685	89.06
410.908	85.06
411.132	78.06
411.355	79.06
411.578	94.06
411.802	91.06
412.025	79.06
412.249	72.06
412.472	77.06
412.695	66.06
412.919	74.06
413.142	87.06
413.365	89.06
413.589	71.06
413.812	75.06
414.035	66.06
414.258	69.06
414.482	80.06
414.705	75.06
414.928	79.06
415.151	79.06
415.374	77.06
415.597	86.06
415.821	85.06
416.044	76.06
416.267	75.06
416.49	75.06
416.713	69.06
416.936	80.06
417.159	73.06
417.382	85.06
417.605	83.06
417.828	78.06
418.051	63.06
418.274	85.06
418.497	91.06
418.72	86.06
418.943	75.06
419.166	70.06
419.389	75.06
419.611	70.06
419.834	92.06
420.057	80.06
420.28	88.06
420.503	84.06
420.726	81.06
420.948	83.06
421.171	86.06
421.394	72.06
421.617	83.06
421.839	87.06
422.062	83.06
422.285	92.06
422.507	114.06
422.73	127.06
422.953	131.06
423.175	77.06
423.398	83.06
423.621	69.06
423.843	83.06
424.066	65.06
424.288	97.06
424.511	87.06
424.733	74.06
424.956	83.06
425.178	83.06
425.401	88.06
425.623	73.06
425.846	83.06
426.068	65.06
426.291	77.06
426.513	76.06
426.735	78.06
426.958	87.06
427.18	81.06
427.402	84.06
427.625	74.06
427.847	84.06
428.069	75.06
428.292	92.06
428.514	87.06
428.736	87.06
428.958	84.06
429.181	73.06
429.403	87.06
429.625	80.06
429.847	70.06
430.069	75.06
430.292	111.06
430.514	87.06
430.736	81.06
430.958	85.06
431.18	67.06
431.402	76.06
431.624	85.06
431.846	80.06
432.068	84.06
432.29	95.06
432.512	90.06
432.734	75.06
432.956	93.06
433.178	87.06
433.4	66.06
433.622	89.06
433.844	82.06
434.066	78.06
434.287	76.06
434.509	73.06
434.731	70.06
434.953	84.06
435.175	78.06
435.397	65.06
435.618	81.06
435.84	89.06
436.062	87.06
436.284	101.06
436.505	77.06
436.727	84.06
436.949	87.06
437.17	87.06
437.392	99.06
437.614	77.06
437.835	73.06
438.057	89.06
438.278	87.06
438.5	69.06
438.721	83.06
438.943	80.06
439.165	84.06
439.386	87.06
439.608	82.06
439.829	84.06
440.05	74.06
440.272	87.06
440.493	76.06
440.715	65.06
440.936	74.06
441.158	81.06
441.379	89.06
441.6	80.06
441.822	80.06
442.043	70.06
442.264	78.06
442.486	93.06
442.707	86.06
442.928	71.06
443.149	78.06
443.371	75.06
443.592	90.06
443.813	90.06
444.034	85.06
444.255	73.06
444.476	83.06
444.698	81.06
444.919	92.06
445.14	151.06
445.361	133.06
445.582	100.06
445.803	84.06
446.024	100.06
446.245	82.06
446.466	81.06
446.687	78.06
446.908	79.06
447.129	73.06
447.35	79.06
447.571	84.06
447.792	92.06
448.013	86.06
448.234	73.06
448.455	79.06
448.675	83.06
448.896	84.06
449.117	88.06
449.338	77.06
449.559	87.06
449.779	90.06
450	98.06
450.221	69.06
450.442	81.06
450.662	95.06
450.883	89.06
451.104	74.06
451.324	73.06
451.545	53.06
451.766	89.06
451.986	83.06
452.207	91.06
452.428	75.06
452.648	72.06
452.869	71.06
453.089	100.06
453.31	83.06
453.53	88.06
453.751	80.06
453.971	67.06
454.192	82.06
454.412	73.06
454.633	85.06
454.853	79.06
455.073	84.06
455.294	74.06
455.514	79.06
455.734	77.06
455.955	81.06
456.175	78.06
456.395	88.06
456.616	90.06
456.836	75.06
457.056	78.06
457.276	81.06
457.497	74.06
457.717	73.06
457.937	79.06
458.157	73.06
458.377	81.06
458.598	86.06
458.818	85.06
459.038	75.06
459.258	69.06
459.478	91.06
459.698	80.06
459.918	80.06
460.138	69.06
460.358	78.06
460.578	82.06
460.798	94.06
461.018	90.06
461.238	81.06
461.458	89.06
461.678	81.06
461.898	90.06
462.118	84.06
462.338	77.06
462.558	93.06
462.777	81.06
462.997	68.06
463.217	82.06
463.437	81.06
463.657	93.06
463.876	85.06
464.096	91.06
464.316	80.06
464.536	87.06
464.755	69.06
464.975	68.06
465.195	76.06
465.414	83.06
465.634	85.06
465.854	87.06
466.073	78.06
466.293	74.06
466.512	92.06
466.732	88.06
466.951	68.06
467.171	80.06
467.391	82.06
467.61	81.06
467.829	78.06
468.049	84.06
468.268	69.06
468.488	73.06
468.707	83.06
468.927	84.06
469.146	92.06
469.365	80.06
469.585	89.06
469.804	82.06
470.023	74.06
470.243	80.06
470.462	83.06
470.681	76.06
470.901	99.06
471.12	72.06
471.339	79.06
471.558	93.06
471.777	73.06
471.997	84.06
472.216	84.06
472.435	69.06
472.654	90.06
472.873	87.06
473.092	75.06
473.311	81.06
473.53	79.06
473.749	84.06
473.968	88.06
474.187	76.06
474.406	86.06
474.625	79.06
474.844	91.06
475.063	75.06
475.282	89.06
475.501	81.06
475.72	86.06
475.939	82.06
476.158	100.06
476.377	75.06
476.596	76.06
476.814	100.06
477.033	85.06
477.252	79.06
477.471	71.06
477.69	78.06
477.908	87.06
478.127	91.06
478.346	75.06
478.564	85.06
478.783	87.06
479.002	79.06
479.22	70.06
479.439	83.06
479.658	85.06
479.876	67.06
480.095	75.06
480.313	87.06
480.532	83.06
480.751	77.06
480.969	93.06
481.188	79.06
481.406	83.06
481.624	79.06
481.843	78.06
482.061	87.06
482.28	98.06
482.498	92.06
482.717	83.06
482.935	89.06
483.153	95.06
483.372	86.06
483.59	76.06
483.808	81.06
484.027	81.06
484.245	81.06
484.463	80.06
484.681	90.06
484.9	73.06
485.118	78.06
485.336	98.06
485.554	76.06
485.772	81.06
485.99	71.06
486.209	73.06
486.427	76.06
486.645	74.06
486.863	92.06
487.081	89.06
487.299	87.06
487.517	83.06
487.735	92.06
487.953	97.06
488.171	85.06
488.389	91.06
488.607	84.06
488.825	76.06
489.043	76.06
489.261	90.06
489.479	92.06
489.696	89.06
489.914	89.06
490.132	91.06
490.35	85.06
490.568	84.06
490.786	90.06
491.003	85.06
491.221	83.06
491.439	89.06
491.657	72.06
491.874	89.06
492.092	89.06
492.31	83.06
492.527	81.06
492.745	87.06
492.963	87.06
493.18	87.06
493.398	78.06
493.615	76.06
493.833	95.06
494.05	93.06
494.268	83.06
494.485	74.06
494.703	76.06
494.92	87.06
495.138	83.06
495.355	67.06
495.573	97.06
495.79	87.06
496.008	93.06
496.225	69.06
496.442	95.06
496.66	77.06
496.877	74.06
497.094	83.06
497.312	85.06
497.529	103.06
497.746	95.06
497.963	82.06
498.181	77.06
498.398	88.06
498.615	84.06
498.832	89.06
499.049	85.06
499.267	84.06
499.484	93.06
499.701	80.06
499.918	91.06
500.135	87.06
500.352	74.06
500.569	83.06
500.786	87.06
501.003	86.06
501.22	74.06
501.437	89.06
501.654	83.06
501.871	68.06
502.088	85.06
502.305	77.06
502.522	85.06
502.739	84.06
502.956	67.06
503.172	74.06
503.389	90.06
503.606	83.06
503.823	77.06
504.04	96.06
504.256	85.06
504.473	81.06
504.69	88.06
504.907	82.06
505.123	89.06
505.34	91.06
505.557	89.06
505.773	86.06
505.99	85.06
506.207	69.06
506.423	90.06
506.64	80.06
506.856	95.06
507.073	83.06
507.289	78.06
507.506	75.06
507.722	82.06
507.939	79.06
508.155	80.06
508.372	88.06
508.588	91.06
508.805	97.06
509.021	77.06
509.238	81.06
509.454	82.06
509.67	77.06
509.887	82.06
510.103	90.06
510.319	85.06
510.536	76.06
510.752	83.06
510.968	78.06
511.184	85.06
511.401	89.06
511.617	77.06
511.833	82.06
512.049	77.06
512.265	76.06
512.481	99.06
512.698	71.06
512.914	75.06
513.13	86.06
513.346	75.06
513.562	80.06
513.778	83.06
513.994	69.06
514.21	91.06
514.426	77.06
514.642	64.06
514.858	83.06
515.074	83.06
515.29	73.06
515.506	91.06
515.721	89.06
515.937	91.06
516.153	77.06
516.369	76.06
516.585	83.06
516.801	99.06
517.016	91.06
517.232	74.06
517.448	82.06
517.664	91.06
517.879	83.06
518.095	91.06
518.311	92.06
518.527	81.06
518.742	83.06
518.958	91.06
519.173	93.06
519.389	98.06
519.605	91.06
519.82	72.06
520.036	90.06
