Data from HP_1_HRD10591_00010.txt Node
Date: Mon Jan 19 14:15:12 EST 2026
User: Yrep
Spectrometer: HR+D1059
Trigger mode: 1
Integration Time (sec): 1.000000E-1
Scans to average: 1
Electric dark correction enabled: true
Nonlinearity correction enabled: false
Boxcar width: 0
XAxis mode: Wavelengths
Number of Pixels in Spectrum: 2048
>>>>>Begin Spectral Data<<<<<
223.165	-26.88
223.4	-26.88
223.635	-26.88
223.869	-25.88
224.104	-16.88
224.338	-5.88
224.573	-27.88
224.808	-13.88
225.042	2.12
225.277	-5.88
225.511	-18.88
225.746	1.12
225.98	29.12
226.215	25.12
226.449	11.12
226.683	25.12
226.918	20.12
227.152	28.12
227.387	34.12
227.621	35.12
227.856	37.12
228.09	43.12
228.324	49.12
228.559	57.12
228.793	67.12
229.027	68.12
229.262	69.12
229.496	64.12
229.73	55.12
229.964	75.12
230.199	80.12
230.433	77.12
230.667	87.12
230.901	67.12
231.136	70.12
231.37	68.12
231.604	80.12
231.838	92.12
232.072	84.12
232.306	92.12
232.541	84.12
232.775	83.12
233.009	88.12
233.243	80.12
233.477	80.12
233.711	68.12
233.945	75.12
234.179	86.12
234.413	71.12
234.647	87.12
234.881	87.12
235.115	75.12
235.349	80.12
235.583	85.12
235.817	66.12
236.051	82.12
236.285	89.12
236.519	90.12
236.753	79.12
236.987	75.12
237.221	82.12
237.455	84.12
237.689	75.12
237.922	75.12
238.156	80.12
238.39	79.12
238.624	68.12
238.858	87.12
239.091	69.12
239.325	81.12
239.559	84.12
239.793	69.12
240.027	87.12
240.26	81.12
240.494	72.12
240.728	81.12
240.961	71.12
241.195	71.12
241.429	67.12
241.662	76.12
241.896	76.12
242.13	83.12
242.363	85.12
242.597	83.12
242.83	82.12
243.064	75.12
243.298	77.12
243.531	70.12
243.765	77.12
243.998	70.12
244.232	69.12
244.465	96.12
244.699	80.12
244.932	72.12
245.166	77.12
245.399	75.12
245.633	78.12
245.866	86.12
246.099	74.12
246.333	81.12
246.566	84.12
246.8	73.12
247.033	99.12
247.266	79.12
247.5	78.12
247.733	80.12
247.966	79.12
248.2	64.12
248.433	76.12
248.666	93.12
248.899	81.12
249.133	76.12
249.366	83.12
249.599	77.12
249.832	79.12
250.066	77.12
250.299	69.12
250.532	71.12
250.765	67.12
250.998	71.12
251.231	77.12
251.465	75.12
251.698	73.12
251.931	77.12
252.164	69.12
252.397	81.12
252.63	77.12
252.863	84.12
253.096	76.12
253.329	69.12
253.562	79.12
253.795	78.12
254.028	76.12
254.261	77.12
254.494	78.12
254.727	74.12
254.96	82.12
255.193	73.12
255.426	79.12
255.659	77.12
255.892	77.12
256.124	78.12
256.357	81.12
256.59	85.12
256.823	78.12
257.056	73.12
257.289	80.12
257.521	85.12
257.754	84.12
257.987	76.12
258.22	80.12
258.452	95.12
258.685	78.12
258.918	72.12
259.151	71.12
259.383	95.12
259.616	90.12
259.849	77.12
260.081	73.12
260.314	82.12
260.547	83.12
260.779	67.12
261.012	90.12
261.244	83.12
261.477	89.12
261.71	77.12
261.942	105.12
262.175	81.12
262.407	81.12
262.64	77.12
262.872	79.12
263.105	73.12
263.337	82.12
263.57	79.12
263.802	101.12
264.035	79.12
264.267	69.12
264.499	84.12
264.732	79.12
264.964	75.12
265.197	79.12
265.429	80.12
265.661	91.12
265.894	69.12
266.126	84.12
266.358	74.12
266.591	77.12
266.823	93.12
267.055	80.12
267.287	74.12
267.52	84.12
267.752	60.12
267.984	81.12
268.216	81.12
268.448	100.12
268.681	85.12
268.913	84.12
269.145	67.12
269.377	74.12
269.609	80.12
269.841	95.12
270.073	82.12
270.306	69.12
270.538	77.12
270.77	91.12
271.002	108.12
271.234	73.12
271.466	69.12
271.698	79.12
271.93	71.12
272.162	83.12
272.394	93.12
272.626	81.12
272.858	80.12
273.09	84.12
273.322	78.12
273.553	84.12
273.785	98.12
274.017	87.12
274.249	85.12
274.481	89.12
274.713	82.12
274.945	80.12
275.176	73.12
275.408	71.12
275.64	75.12
275.872	93.12
276.104	83.12
276.335	68.12
276.567	71.12
276.799	65.12
277.031	72.12
277.262	81.12
277.494	85.12
277.726	81.12
277.957	95.12
278.189	86.12
278.421	77.12
278.652	73.12
278.884	82.12
279.115	98.12
279.347	87.12
279.579	90.12
279.81	95.12
280.042	91.12
280.273	88.12
280.505	76.12
280.736	89.12
280.968	69.12
281.199	92.12
281.431	93.12
281.662	80.12
281.894	79.12
282.125	85.12
282.356	86.12
282.588	73.12
282.819	81.12
283.051	90.12
283.282	94.12
283.513	93.12
283.745	88.12
283.976	88.12
284.207	83.12
284.439	85.12
284.67	74.12
284.901	93.12
285.132	64.12
285.364	74.12
285.595	100.12
285.826	74.12
286.057	80.12
286.288	69.12
286.52	81.12
286.751	73.12
286.982	84.12
287.213	90.12
287.444	86.12
287.675	90.12
287.906	88.12
288.138	90.12
288.369	91.12
288.6	91.12
288.831	87.12
289.062	85.12
289.293	84.12
289.524	86.12
289.755	86.12
289.986	95.12
290.217	88.12
290.448	88.12
290.679	71.12
290.91	76.12
291.141	84.12
291.371	85.12
291.602	90.12
291.833	76.12
292.064	67.12
292.295	73.12
292.526	69.12
292.757	85.12
292.987	81.12
293.218	72.12
293.449	78.12
293.68	76.12
293.91	91.12
294.141	79.12
294.372	88.12
294.603	63.12
294.833	97.12
295.064	93.12
295.295	87.12
295.525	90.12
295.756	91.12
295.987	93.12
296.217	86.12
296.448	57.12
296.679	78.12
296.909	71.12
297.14	89.12
297.37	81.12
297.601	89.12
297.831	87.12
298.062	101.12
298.292	76.12
298.523	98.12
298.753	87.12
298.984	83.12
299.214	84.12
299.445	94.12
299.675	89.12
299.905	88.12
300.136	73.12
300.366	81.12
300.597	95.12
300.827	65.12
301.057	72.12
301.288	93.12
301.518	85.12
301.748	71.12
301.979	87.12
302.209	83.12
302.439	83.12
302.669	89.12
302.9	90.12
303.13	79.12
303.36	87.12
303.59	91.12
303.82	92.12
304.051	95.12
304.281	87.12
304.511	79.12
304.741	75.12
304.971	79.12
305.201	81.12
305.431	85.12
305.661	84.12
305.891	84.12
306.121	103.12
306.352	79.12
306.582	82.12
306.812	92.12
307.042	82.12
307.272	73.12
307.502	95.12
307.731	91.12
307.961	91.12
308.191	86.12
308.421	73.12
308.651	86.12
308.881	85.12
309.111	87.12
309.341	83.12
309.571	78.12
309.8	83.12
310.03	88.12
310.26	87.12
310.49	93.12
310.72	83.12
310.949	73.12
311.179	82.12
311.409	81.12
311.639	84.12
311.868	87.12
312.098	82.12
312.328	76.12
312.557	88.12
312.787	83.12
313.017	79.12
313.246	91.12
313.476	86.12
313.706	88.12
313.935	91.12
314.165	74.12
314.394	96.12
314.624	92.12
314.853	81.12
315.083	81.12
315.312	74.12
315.542	100.12
315.771	85.12
316.001	75.12
316.23	92.12
316.46	78.12
316.689	72.12
316.919	85.12
317.148	89.12
317.377	96.12
317.607	73.12
317.836	109.12
318.065	87.12
318.295	76.12
318.524	81.12
318.753	73.12
318.983	93.12
319.212	77.12
319.441	91.12
319.67	76.12
319.9	84.12
320.129	88.12
320.358	92.12
320.587	86.12
320.816	95.12
321.046	85.12
321.275	88.12
321.504	87.12
321.733	78.12
321.962	74.12
322.191	70.12
322.42	77.12
322.649	99.12
322.878	76.12
323.108	86.12
323.337	83.12
323.566	107.12
323.795	97.12
324.024	89.12
324.253	80.12
324.482	85.12
324.71	77.12
324.939	83.12
325.168	80.12
325.397	82.12
325.626	76.12
325.855	73.12
326.084	77.12
326.313	78.12
326.542	86.12
326.77	75.12
326.999	87.12
327.228	86.12
327.457	78.12
327.686	83.12
327.914	89.12
328.143	82.12
328.372	71.12
328.6	83.12
328.829	89.12
329.058	79.12
329.287	85.12
329.515	88.12
329.744	79.12
329.972	89.12
330.201	83.12
330.43	62.12
330.658	82.12
330.887	88.12
331.115	78.12
331.344	81.12
331.572	70.12
331.801	96.12
332.03	81.12
332.258	89.12
332.486	87.12
332.715	80.12
332.943	75.12
333.172	76.12
333.4	82.12
333.629	91.12
333.857	65.12
334.085	81.12
334.314	86.12
334.542	90.12
334.771	85.12
334.999	82.12
335.227	92.12
335.455	73.12
335.684	86.12
335.912	101.12
336.14	81.12
336.369	87.12
336.597	89.12
336.825	98.12
337.053	78.12
337.281	77.12
337.51	77.12
337.738	103.12
337.966	83.12
338.194	76.12
338.422	76.12
338.65	75.12
338.878	88.12
339.106	83.12
339.334	95.12
339.562	85.12
339.79	89.12
340.018	88.12
340.246	94.12
340.474	82.12
340.702	99.12
340.93	89.12
341.158	82.12
341.386	95.12
341.614	73.12
341.842	88.12
342.07	74.12
342.298	79.12
342.526	66.12
342.754	81.12
342.981	83.12
343.209	92.12
343.437	104.12
343.665	80.12
343.893	87.12
344.12	80.12
344.348	89.12
344.576	97.12
344.804	75.12
345.031	87.12
345.259	80.12
345.487	91.12
345.714	87.12
345.942	85.12
346.17	76.12
346.397	81.12
346.625	76.12
346.853	89.12
347.08	89.12
347.308	83.12
347.535	96.12
347.763	81.12
347.99	87.12
348.218	92.12
348.445	71.12
348.673	86.12
348.9	83.12
349.128	87.12
349.355	71.12
349.583	88.12
349.81	79.12
350.037	92.12
350.265	91.12
350.492	83.12
350.72	67.12
350.947	87.12
351.174	76.12
351.402	87.12
351.629	86.12
351.856	85.12
352.083	65.12
352.311	88.12
352.538	82.12
352.765	92.12
352.992	100.12
353.22	87.12
353.447	83.12
353.674	85.12
353.901	82.12
354.128	90.12
354.355	95.12
354.583	89.12
354.81	88.12
355.037	79.12
355.264	87.12
355.491	85.12
355.718	99.12
355.945	95.12
356.172	85.12
356.399	86.12
356.626	92.12
356.853	91.12
357.08	94.12
357.307	91.12
357.534	73.12
357.761	86.12
357.988	81.12
358.215	90.12
358.441	64.12
358.668	71.12
358.895	83.12
359.122	87.12
359.349	83.12
359.576	86.12
359.802	88.12
360.029	74.12
360.256	87.12
360.483	77.12
360.709	84.12
360.936	99.12
361.163	75.12
361.39	83.12
361.616	88.12
361.843	87.12
362.07	78.12
362.296	78.12
362.523	72.12
362.749	83.12
362.976	95.12
363.203	93.12
363.429	70.12
363.656	102.12
363.882	89.12
364.109	97.12
364.335	99.12
364.562	88.12
364.788	76.12
365.015	78.12
365.241	79.12
365.468	81.12
365.694	71.12
365.92	91.12
366.147	85.12
366.373	84.12
366.599	82.12
366.826	93.12
367.052	81.12
367.278	90.12
367.505	83.12
367.731	89.12
367.957	84.12
368.184	84.12
368.41	92.12
368.636	100.12
368.862	86.12
369.089	103.12
369.315	74.12
369.541	77.12
369.767	81.12
369.993	76.12
370.219	89.12
370.445	89.12
370.672	85.12
370.898	93.12
371.124	101.12
371.35	90.12
371.576	91.12
371.802	91.12
372.028	77.12
372.254	82.12
372.48	87.12
372.706	95.12
372.932	74.12
373.158	80.12
373.384	88.12
373.61	94.12
373.835	81.12
374.061	76.12
374.287	75.12
374.513	98.12
374.739	93.12
374.965	71.12
375.191	91.12
375.416	80.12
375.642	78.12
375.868	90.12
376.094	69.12
376.319	78.12
376.545	79.12
376.771	83.12
376.997	83.12
377.222	91.12
377.448	82.12
377.674	91.12
377.899	82.12
378.125	80.12
378.35	87.12
378.576	92.12
378.802	87.12
379.027	88.12
379.253	81.12
379.478	76.12
379.704	84.12
379.929	82.12
380.155	89.12
380.38	81.12
380.606	86.12
380.831	85.12
381.057	90.12
381.282	70.12
381.507	77.12
381.733	85.12
381.958	82.12
382.184	86.12
382.409	81.12
382.634	82.12
382.86	72.12
383.085	83.12
383.31	95.12
383.535	78.12
383.761	84.12
383.986	69.12
384.211	81.12
384.436	67.12
384.662	82.12
384.887	81.12
385.112	81.12
385.337	78.12
385.562	81.12
385.787	105.12
386.013	90.12
386.238	77.12
386.463	78.12
386.688	89.12
386.913	82.12
387.138	84.12
387.363	87.12
387.588	80.12
387.813	77.12
388.038	88.12
388.263	87.12
388.488	83.12
388.713	81.12
388.938	73.12
389.163	82.12
389.387	79.12
389.612	89.12
389.837	86.12
390.062	70.12
390.287	93.12
390.512	89.12
390.736	86.12
390.961	81.12
391.186	73.12
391.411	87.12
391.636	77.12
391.86	89.12
392.085	95.12
392.31	82.12
392.534	85.12
392.759	92.12
392.984	122.12
393.208	168.12
393.433	185.12
393.658	175.12
393.882	92.12
394.107	91.12
394.331	87.12
394.556	89.12
394.78	83.12
395.005	88.12
395.229	75.12
395.454	83.12
395.678	88.12
395.903	85.12
396.127	97.12
396.352	84.12
396.576	109.12
396.801	150.12
397.025	175.12
397.249	113.12
397.474	102.12
397.698	75.12
397.922	90.12
398.147	80.12
398.371	81.12
398.595	81.12
398.82	80.12
399.044	72.12
399.268	101.12
399.492	104.12
399.717	89.12
399.941	92.12
400.165	83.12
400.389	73.12
400.613	90.12
400.837	96.12
401.062	76.12
401.286	85.12
401.51	87.12
401.734	68.12
401.958	83.12
402.182	83.12
402.406	90.12
402.63	99.12
402.854	89.12
403.078	81.12
403.302	91.12
403.526	79.12
403.75	81.12
403.974	93.12
404.198	85.12
404.422	89.12
404.645	107.12
404.869	99.12
405.093	92.12
405.317	73.12
405.541	83.12
405.765	85.12
405.988	65.12
406.212	89.12
406.436	87.12
406.66	87.12
406.883	93.12
407.107	83.12
407.331	93.12
407.555	90.12
407.778	92.12
408.002	105.12
408.226	81.12
408.449	67.12
408.673	90.12
408.896	59.12
409.12	77.12
409.344	77.12
409.567	90.12
409.791	91.12
410.014	88.12
410.238	91.12
410.461	85.12
410.685	78.12
410.908	76.12
411.132	83.12
411.355	91.12
411.578	92.12
411.802	88.12
412.025	91.12
412.249	90.12
412.472	97.12
412.695	101.12
412.919	83.12
413.142	92.12
413.365	82.12
413.589	87.12
413.812	68.12
414.035	84.12
414.258	81.12
414.482	83.12
414.705	83.12
414.928	76.12
415.151	78.12
415.374	75.12
415.597	85.12
415.821	104.12
416.044	93.12
416.267	89.12
416.49	89.12
416.713	84.12
416.936	92.12
417.159	74.12
417.382	78.12
417.605	81.12
417.828	83.12
418.051	95.12
418.274	96.12
418.497	92.12
418.72	89.12
418.943	88.12
419.166	77.12
419.389	90.12
419.611	82.12
419.834	72.12
420.057	88.12
420.28	80.12
420.503	92.12
420.726	73.12
420.948	80.12
421.171	92.12
421.394	83.12
421.617	105.12
421.839	107.12
422.062	98.12
422.285	115.12
422.507	187.12
422.73	282.12
422.953	238.12
423.175	127.12
423.398	105.12
423.621	89.12
423.843	91.12
424.066	87.12
424.288	89.12
424.511	62.12
424.733	77.12
424.956	92.12
425.178	73.12
425.401	91.12
425.623	75.12
425.846	87.12
426.068	72.12
426.291	84.12
426.513	85.12
426.735	87.12
426.958	77.12
427.18	81.12
427.402	85.12
427.625	74.12
427.847	96.12
428.069	90.12
428.292	89.12
428.514	101.12
428.736	96.12
428.958	106.12
429.181	98.12
429.403	87.12
429.625	93.12
429.847	105.12
430.069	111.12
430.292	121.12
430.514	128.12
430.736	99.12
430.958	105.12
431.18	85.12
431.402	91.12
431.624	84.12
431.846	99.12
432.068	111.12
432.29	90.12
432.512	86.12
432.734	85.12
432.956	83.12
433.178	68.12
433.4	76.12
433.622	79.12
433.844	85.12
434.066	75.12
434.287	85.12
434.509	76.12
434.731	86.12
434.953	90.12
435.175	87.12
435.397	76.12
435.618	101.12
435.84	83.12
436.062	77.12
436.284	78.12
436.505	72.12
436.727	71.12
436.949	92.12
437.17	78.12
437.392	75.12
437.614	79.12
437.835	84.12
438.057	73.12
438.278	87.12
438.5	68.12
438.721	82.12
438.943	76.12
439.165	80.12
439.386	84.12
439.608	90.12
439.829	91.12
440.05	82.12
440.272	85.12
440.493	94.12
440.715	92.12
440.936	78.12
441.158	84.12
441.379	78.12
441.6	88.12
441.822	84.12
442.043	81.12
442.264	76.12
442.486	115.12
442.707	110.12
442.928	82.12
443.149	88.12
443.371	124.12
443.592	138.12
443.813	133.12
444.034	95.12
444.255	106.12
444.476	87.12
444.698	87.12
444.919	81.12
445.14	166.12
445.361	159.12
445.582	175.12
445.803	140.12
446.024	103.12
446.245	90.12
446.466	82.12
446.687	73.12
446.908	83.12
447.129	84.12
447.35	87.12
447.571	74.12
447.792	80.12
448.013	80.12
448.234	90.12
448.455	67.12
448.675	75.12
448.896	73.12
449.117	80.12
449.338	91.12
449.559	85.12
449.779	80.12
450	81.12
450.221	91.12
450.442	76.12
450.662	76.12
450.883	68.12
451.104	84.12
451.324	87.12
451.545	83.12
451.766	86.12
451.986	84.12
452.207	84.12
452.428	72.12
452.648	89.12
452.869	73.12
453.089	85.12
453.31	69.12
453.53	75.12
453.751	82.12
453.971	78.12
454.192	78.12
454.412	85.12
454.633	90.12
454.853	87.12
455.073	78.12
455.294	73.12
455.514	73.12
455.734	86.12
455.955	95.12
456.175	85.12
456.395	82.12
456.616	79.12
456.836	95.12
457.056	76.12
457.276	65.12
457.497	78.12
457.717	91.12
457.937	92.12
458.157	92.12
458.377	90.12
458.598	70.12
458.818	97.12
459.038	103.12
459.258	89.12
459.478	86.12
459.698	85.12
459.918	78.12
460.138	96.12
460.358	93.12
460.578	97.12
460.798	99.12
461.018	107.12
461.238	71.12
461.458	68.12
461.678	68.12
461.898	84.12
462.118	84.12
462.338	88.12
462.558	82.12
462.777	90.12
462.997	89.12
463.217	86.12
463.437	75.12
463.657	81.12
463.876	83.12
464.096	91.12
464.316	86.12
464.536	95.12
464.755	79.12
464.975	82.12
465.195	78.12
465.414	71.12
465.634	75.12
465.854	81.12
466.073	90.12
466.293	97.12
466.512	91.12
466.732	83.12
466.951	98.12
467.171	88.12
467.391	89.12
467.61	68.12
467.829	78.12
468.049	74.12
468.268	85.12
468.488	83.12
468.707	89.12
468.927	74.12
469.146	63.12
469.365	84.12
469.585	71.12
469.804	78.12
470.023	73.12
470.243	84.12
470.462	99.12
470.681	88.12
470.901	83.12
471.12	89.12
471.339	84.12
471.558	87.12
471.777	85.12
471.997	84.12
472.216	88.12
472.435	79.12
472.654	86.12
472.873	82.12
473.092	75.12
473.311	84.12
473.53	78.12
473.749	99.12
473.968	81.12
474.187	83.12
474.406	73.12
474.625	100.12
474.844	83.12
475.063	88.12
475.282	89.12
475.501	81.12
475.72	88.12
475.939	85.12
476.158	75.12
476.377	87.12
476.596	85.12
476.814	75.12
477.033	77.12
477.252	86.12
477.471	81.12
477.69	84.12
477.908	92.12
478.127	88.12
478.346	81.12
478.564	83.12
478.783	89.12
479.002	71.12
479.22	84.12
479.439	79.12
479.658	90.12
479.876	74.12
480.095	87.12
480.313	77.12
480.532	87.12
480.751	82.12
480.969	87.12
481.188	91.12
481.406	74.12
481.624	95.12
481.843	81.12
482.061	80.12
482.28	82.12
482.498	88.12
482.717	91.12
482.935	86.12
483.153	71.12
483.372	81.12
483.59	89.12
483.808	89.12
484.027	84.12
484.245	81.12
484.463	88.12
484.681	96.12
484.9	83.12
485.118	84.12
485.336	77.12
485.554	74.12
485.772	92.12
485.99	78.12
486.209	83.12
486.427	83.12
486.645	87.12
486.863	68.12
487.081	81.12
487.299	69.12
487.517	82.12
487.735	90.12
487.953	110.12
488.171	105.12
488.389	94.12
488.607	93.12
488.825	83.12
489.043	87.12
489.261	81.12
489.479	82.12
489.696	69.12
489.914	75.12
490.132	81.12
490.35	78.12
490.568	74.12
490.786	81.12
491.003	71.12
491.221	75.12
491.439	98.12
491.657	96.12
491.874	96.12
492.092	96.12
492.31	82.12
492.527	80.12
492.745	74.12
492.963	98.12
493.18	78.12
493.398	76.12
493.615	85.12
493.833	81.12
494.05	85.12
494.268	89.12
494.485	87.12
494.703	115.12
494.92	96.12
495.138	92.12
495.355	92.12
495.573	78.12
495.79	87.12
496.008	105.12
496.225	87.12
496.442	85.12
496.66	85.12
496.877	74.12
497.094	79.12
497.312	81.12
497.529	84.12
497.746	91.12
497.963	82.12
498.181	89.12
498.398	92.12
498.615	89.12
498.832	92.12
499.049	72.12
499.267	93.12
499.484	86.12
499.701	82.12
499.918	80.12
500.135	91.12
500.352	90.12
500.569	89.12
500.786	83.12
501.003	89.12
501.22	84.12
501.437	74.12
501.654	87.12
501.871	69.12
502.088	83.12
502.305	91.12
502.522	97.12
502.739	92.12
502.956	82.12
503.172	78.12
503.389	86.12
503.606	90.12
503.823	94.12
504.04	86.12
504.256	108.12
504.473	93.12
504.69	94.12
504.907	99.12
505.123	73.12
505.34	81.12
505.557	83.12
505.773	84.12
505.99	89.12
506.207	85.12
506.423	86.12
506.64	87.12
506.856	84.12
507.073	81.12
507.289	72.12
507.506	81.12
507.722	98.12
507.939	91.12
508.155	97.12
508.372	88.12
508.588	84.12
508.805	78.12
509.021	89.12
509.238	89.12
509.454	63.12
509.67	73.12
509.887	91.12
510.103	97.12
510.319	96.12
510.536	89.12
510.752	73.12
510.968	80.12
511.184	98.12
511.401	87.12
511.617	75.12
511.833	86.12
512.049	80.12
512.265	84.12
512.481	81.12
512.698	92.12
512.914	84.12
513.13	74.12
513.346	87.12
513.562	80.12
513.778	90.12
513.994	89.12
514.21	90.12
514.426	90.12
514.642	96.12
514.858	87.12
515.074	87.12
515.29	88.12
515.506	98.12
515.721	88.12
515.937	71.12
516.153	86.12
516.369	98.12
516.585	97.12
516.801	102.12
517.016	71.12
517.232	77.12
517.448	98.12
517.664	90.12
517.879	93.12
518.095	92.12
518.311	92.12
518.527	97.12
518.742	89.12
518.958	92.12
519.173	119.12
519.389	75.12
