Data from HP_1_HRD10591_00027.txt Node
Date: Mon Jan 19 14:15:21 EST 2026
User: Yrep
Spectrometer: HR+D1059
Trigger mode: 1
Integration Time (sec): 1.000000E-1
Scans to average: 1
Electric dark correction enabled: true
Nonlinearity correction enabled: false
Boxcar width: 0
XAxis mode: Wavelengths
Number of Pixels in Spectrum: 2048
>>>>>Begin Spectral Data<<<<<
223.165	-18.81
223.4	-18.81
223.635	-18.81
223.869	-11.81
224.104	-16.81
224.338	-2.81
224.573	-36.81
224.808	-10.81
225.042	-7.81
225.277	-12.81
225.511	-10.81
225.746	24.19
225.98	12.19
226.215	4.19
226.449	12.19
226.683	20.19
226.918	25.19
227.152	31.19
227.387	45.19
227.621	58.19
227.856	26.19
228.09	55.19
228.324	49.19
228.559	60.19
228.793	69.19
229.027	69.19
229.262	61.19
229.496	64.19
229.73	63.19
229.964	56.19
230.199	69.19
230.433	76.19
230.667	81.19
230.901	68.19
231.136	73.19
231.37	71.19
231.604	83.19
231.838	86.19
232.072	78.19
232.306	85.19
232.541	81.19
232.775	76.19
233.009	77.19
233.243	93.19
233.477	70.19
233.711	74.19
233.945	74.19
234.179	76.19
234.413	81.19
234.647	90.19
234.881	73.19
235.115	70.19
235.349	77.19
235.583	63.19
235.817	70.19
236.051	79.19
236.285	86.19
236.519	74.19
236.753	74.19
236.987	81.19
237.221	86.19
237.455	81.19
237.689	79.19
237.922	66.19
238.156	58.19
238.39	67.19
238.624	81.19
238.858	76.19
239.091	67.19
239.325	85.19
239.559	63.19
239.793	75.19
240.027	81.19
240.26	68.19
240.494	71.19
240.728	72.19
240.961	74.19
241.195	78.19
241.429	102.19
241.662	77.19
241.896	73.19
242.13	75.19
242.363	69.19
242.597	75.19
242.83	63.19
243.064	82.19
243.298	77.19
243.531	80.19
243.765	77.19
243.998	86.19
244.232	95.19
244.465	81.19
244.699	69.19
244.932	67.19
245.166	79.19
245.399	74.19
245.633	83.19
245.866	81.19
246.099	97.19
246.333	89.19
246.566	82.19
246.8	80.19
247.033	76.19
247.266	81.19
247.5	84.19
247.733	89.19
247.966	82.19
248.2	72.19
248.433	81.19
248.666	63.19
248.899	72.19
249.133	66.19
249.366	81.19
249.599	85.19
249.832	71.19
250.066	75.19
250.299	80.19
250.532	79.19
250.765	90.19
250.998	75.19
251.231	71.19
251.465	81.19
251.698	64.19
251.931	67.19
252.164	73.19
252.397	81.19
252.63	82.19
252.863	72.19
253.096	78.19
253.329	83.19
253.562	79.19
253.795	82.19
254.028	82.19
254.261	82.19
254.494	84.19
254.727	74.19
254.96	65.19
255.193	82.19
255.426	86.19
255.659	64.19
255.892	60.19
256.124	74.19
256.357	68.19
256.59	86.19
256.823	62.19
257.056	85.19
257.289	77.19
257.521	65.19
257.754	77.19
257.987	71.19
258.22	67.19
258.452	67.19
258.685	81.19
258.918	85.19
259.151	58.19
259.383	82.19
259.616	77.19
259.849	74.19
260.081	83.19
260.314	78.19
260.547	87.19
260.779	86.19
261.012	86.19
261.244	75.19
261.477	79.19
261.71	88.19
261.942	93.19
262.175	79.19
262.407	79.19
262.64	75.19
262.872	87.19
263.105	87.19
263.337	84.19
263.57	79.19
263.802	85.19
264.035	79.19
264.267	80.19
264.499	89.19
264.732	93.19
264.964	67.19
265.197	69.19
265.429	84.19
265.661	75.19
265.894	81.19
266.126	87.19
266.358	79.19
266.591	80.19
266.823	63.19
267.055	86.19
267.287	81.19
267.52	71.19
267.752	75.19
267.984	82.19
268.216	69.19
268.448	78.19
268.681	93.19
268.913	87.19
269.145	86.19
269.377	98.19
269.609	89.19
269.841	90.19
270.073	81.19
270.306	79.19
270.538	84.19
270.77	86.19
271.002	76.19
271.234	77.19
271.466	92.19
271.698	89.19
271.93	80.19
272.162	86.19
272.394	65.19
272.626	82.19
272.858	90.19
273.09	73.19
273.322	91.19
273.553	77.19
273.785	81.19
274.017	85.19
274.249	83.19
274.481	95.19
274.713	84.19
274.945	85.19
275.176	73.19
275.408	86.19
275.64	77.19
275.872	82.19
276.104	84.19
276.335	81.19
276.567	77.19
276.799	77.19
277.031	77.19
277.262	82.19
277.494	90.19
277.726	75.19
277.957	85.19
278.189	81.19
278.421	67.19
278.652	81.19
278.884	81.19
279.115	77.19
279.347	94.19
279.579	89.19
279.81	74.19
280.042	81.19
280.273	77.19
280.505	79.19
280.736	84.19
280.968	81.19
281.199	85.19
281.431	86.19
281.662	67.19
281.894	79.19
282.125	89.19
282.356	87.19
282.588	72.19
282.819	87.19
283.051	75.19
283.282	83.19
283.513	73.19
283.745	83.19
283.976	73.19
284.207	95.19
284.439	86.19
284.67	79.19
284.901	82.19
285.132	78.19
285.364	80.19
285.595	75.19
285.826	92.19
286.057	83.19
286.288	97.19
286.52	72.19
286.751	69.19
286.982	73.19
287.213	72.19
287.444	65.19
287.675	83.19
287.906	80.19
288.138	84.19
288.369	83.19
288.6	89.19
288.831	72.19
289.062	85.19
289.293	81.19
289.524	72.19
289.755	82.19
289.986	99.19
290.217	75.19
290.448	81.19
290.679	71.19
290.91	79.19
291.141	87.19
291.371	103.19
291.602	82.19
291.833	90.19
292.064	83.19
292.295	74.19
292.526	77.19
292.757	73.19
292.987	74.19
293.218	75.19
293.449	77.19
293.68	75.19
293.91	79.19
294.141	89.19
294.372	83.19
294.603	92.19
294.833	66.19
295.064	95.19
295.295	75.19
295.525	83.19
295.756	86.19
295.987	90.19
296.217	84.19
296.448	85.19
296.679	102.19
296.909	87.19
297.14	86.19
297.37	86.19
297.601	102.19
297.831	90.19
298.062	93.19
298.292	86.19
298.523	80.19
298.753	66.19
298.984	75.19
299.214	94.19
299.445	79.19
299.675	86.19
299.905	73.19
300.136	89.19
300.366	87.19
300.597	90.19
300.827	82.19
301.057	88.19
301.288	95.19
301.518	81.19
301.748	72.19
301.979	81.19
302.209	86.19
302.439	81.19
302.669	67.19
302.9	88.19
303.13	69.19
303.36	81.19
303.59	79.19
303.82	82.19
304.051	82.19
304.281	83.19
304.511	83.19
304.741	73.19
304.971	99.19
305.201	81.19
305.431	78.19
305.661	81.19
305.891	85.19
306.121	81.19
306.352	79.19
306.582	75.19
306.812	69.19
307.042	92.19
307.272	84.19
307.502	88.19
307.731	94.19
307.961	86.19
308.191	82.19
308.421	73.19
308.651	97.19
308.881	93.19
309.111	94.19
309.341	74.19
309.571	69.19
309.8	81.19
310.03	71.19
310.26	85.19
310.49	80.19
310.72	96.19
310.949	87.19
311.179	73.19
311.409	83.19
311.639	85.19
311.868	81.19
312.098	74.19
312.328	59.19
312.557	97.19
312.787	89.19
313.017	66.19
313.246	74.19
313.476	76.19
313.706	88.19
313.935	68.19
314.165	69.19
314.394	84.19
314.624	85.19
314.853	69.19
315.083	92.19
315.312	85.19
315.542	83.19
315.771	83.19
316.001	75.19
316.23	67.19
316.46	85.19
316.689	86.19
316.919	87.19
317.148	92.19
317.377	71.19
317.607	73.19
317.836	78.19
318.065	91.19
318.295	83.19
318.524	77.19
318.753	76.19
318.983	67.19
319.212	90.19
319.441	86.19
319.67	73.19
319.9	79.19
320.129	81.19
320.358	86.19
320.587	89.19
320.816	76.19
321.046	90.19
321.275	96.19
321.504	81.19
321.733	66.19
321.962	76.19
322.191	81.19
322.42	84.19
322.649	85.19
322.878	85.19
323.108	85.19
323.337	92.19
323.566	84.19
323.795	88.19
324.024	90.19
324.253	78.19
324.482	86.19
324.71	93.19
324.939	75.19
325.168	84.19
325.397	82.19
325.626	86.19
325.855	82.19
326.084	83.19
326.313	82.19
326.542	86.19
326.77	75.19
326.999	65.19
327.228	78.19
327.457	77.19
327.686	78.19
327.914	74.19
328.143	82.19
328.372	81.19
328.6	66.19
328.829	75.19
329.058	78.19
329.287	74.19
329.515	90.19
329.744	89.19
329.972	70.19
330.201	80.19
330.43	91.19
330.658	89.19
330.887	80.19
331.115	83.19
331.344	88.19
331.572	82.19
331.801	86.19
332.03	87.19
332.258	80.19
332.486	93.19
332.715	88.19
332.943	82.19
333.172	75.19
333.4	82.19
333.629	99.19
333.857	86.19
334.085	89.19
334.314	93.19
334.542	81.19
334.771	82.19
334.999	90.19
335.227	91.19
335.455	74.19
335.684	93.19
335.912	89.19
336.14	79.19
336.369	85.19
336.597	84.19
336.825	82.19
337.053	79.19
337.281	90.19
337.51	78.19
337.738	97.19
337.966	72.19
338.194	75.19
338.422	85.19
338.65	87.19
338.878	80.19
339.106	84.19
339.334	77.19
339.562	86.19
339.79	75.19
340.018	74.19
340.246	58.19
340.474	76.19
340.702	82.19
340.93	75.19
341.158	81.19
341.386	83.19
341.614	78.19
341.842	88.19
342.07	83.19
342.298	68.19
342.526	71.19
342.754	61.19
342.981	79.19
343.209	81.19
343.437	87.19
343.665	81.19
343.893	86.19
344.12	80.19
344.348	75.19
344.576	88.19
344.804	58.19
345.031	79.19
345.259	69.19
345.487	85.19
345.714	84.19
345.942	82.19
346.17	82.19
346.397	73.19
346.625	81.19
346.853	73.19
347.08	74.19
347.308	99.19
347.535	85.19
347.763	60.19
347.99	81.19
348.218	75.19
348.445	72.19
348.673	74.19
348.9	63.19
349.128	77.19
349.355	78.19
349.583	85.19
349.81	91.19
350.037	78.19
350.265	73.19
350.492	82.19
350.72	75.19
350.947	69.19
351.174	71.19
351.402	75.19
351.629	68.19
351.856	83.19
352.083	81.19
352.311	71.19
352.538	70.19
352.765	83.19
352.992	91.19
353.22	86.19
353.447	87.19
353.674	69.19
353.901	85.19
354.128	90.19
354.355	73.19
354.583	78.19
354.81	74.19
355.037	79.19
355.264	63.19
355.491	91.19
355.718	85.19
355.945	89.19
356.172	91.19
356.399	98.19
356.626	88.19
356.853	82.19
357.08	83.19
357.307	90.19
357.534	83.19
357.761	90.19
357.988	87.19
358.215	77.19
358.441	80.19
358.668	75.19
358.895	75.19
359.122	81.19
359.349	94.19
359.576	87.19
359.802	94.19
360.029	93.19
360.256	75.19
360.483	83.19
360.709	90.19
360.936	81.19
361.163	73.19
361.39	86.19
361.616	72.19
361.843	87.19
362.07	80.19
362.296	86.19
362.523	73.19
362.749	85.19
362.976	93.19
363.203	94.19
363.429	94.19
363.656	73.19
363.882	95.19
364.109	83.19
364.335	70.19
364.562	85.19
364.788	86.19
365.015	79.19
365.241	84.19
365.468	88.19
365.694	80.19
365.92	76.19
366.147	85.19
366.373	90.19
366.599	57.19
366.826	80.19
367.052	77.19
367.278	91.19
367.505	70.19
367.731	67.19
367.957	77.19
368.184	70.19
368.41	89.19
368.636	75.19
368.862	81.19
369.089	72.19
369.315	77.19
369.541	88.19
369.767	100.19
369.993	81.19
370.219	75.19
370.445	65.19
370.672	77.19
370.898	95.19
371.124	88.19
371.35	87.19
371.576	89.19
371.802	84.19
372.028	89.19
372.254	84.19
372.48	96.19
372.706	86.19
372.932	74.19
373.158	71.19
373.384	85.19
373.61	87.19
373.835	87.19
374.061	95.19
374.287	61.19
374.513	88.19
374.739	87.19
374.965	75.19
375.191	79.19
375.416	89.19
375.642	81.19
375.868	75.19
376.094	89.19
376.319	70.19
376.545	90.19
376.771	75.19
376.997	93.19
377.222	92.19
377.448	89.19
377.674	90.19
377.899	80.19
378.125	87.19
378.35	77.19
378.576	80.19
378.802	71.19
379.027	83.19
379.253	86.19
379.478	98.19
379.704	95.19
379.929	75.19
380.155	76.19
380.38	75.19
380.606	76.19
380.831	85.19
381.057	90.19
381.282	75.19
381.507	89.19
381.733	76.19
381.958	80.19
382.184	79.19
382.409	71.19
382.634	91.19
382.86	89.19
383.085	74.19
383.31	59.19
383.535	78.19
383.761	75.19
383.986	73.19
384.211	88.19
384.436	80.19
384.662	91.19
384.887	90.19
385.112	93.19
385.337	75.19
385.562	73.19
385.787	92.19
386.013	98.19
386.238	79.19
386.463	78.19
386.688	85.19
386.913	90.19
387.138	88.19
387.363	98.19
387.588	87.19
387.813	78.19
388.038	97.19
388.263	81.19
388.488	83.19
388.713	87.19
388.938	76.19
389.163	92.19
389.387	80.19
389.612	85.19
389.837	78.19
390.062	85.19
390.287	96.19
390.512	85.19
390.736	81.19
390.961	92.19
391.186	68.19
391.411	88.19
391.636	85.19
391.86	84.19
392.085	86.19
392.31	84.19
392.534	82.19
392.759	91.19
392.984	125.19
393.208	195.19
393.433	263.19
393.658	205.19
393.882	100.19
394.107	97.19
394.331	86.19
394.556	102.19
394.78	76.19
395.005	77.19
395.229	76.19
395.454	90.19
395.678	94.19
395.903	99.19
396.127	109.19
396.352	111.19
396.576	123.19
396.801	186.19
397.025	213.19
397.249	126.19
397.474	103.19
397.698	82.19
397.922	95.19
398.147	83.19
398.371	71.19
398.595	71.19
398.82	72.19
399.044	76.19
399.268	66.19
399.492	84.19
399.717	81.19
399.941	69.19
400.165	72.19
400.389	75.19
400.613	76.19
400.837	83.19
401.062	77.19
401.286	73.19
401.51	86.19
401.734	73.19
401.958	81.19
402.182	82.19
402.406	85.19
402.63	69.19
402.854	85.19
403.078	68.19
403.302	81.19
403.526	91.19
403.75	82.19
403.974	85.19
404.198	88.19
404.422	102.19
404.645	108.19
404.869	104.19
405.093	99.19
405.317	77.19
405.541	77.19
405.765	91.19
405.988	84.19
406.212	99.19
406.436	82.19
406.66	72.19
406.883	84.19
407.107	75.19
407.331	75.19
407.555	101.19
407.778	96.19
408.002	98.19
408.226	86.19
408.449	79.19
408.673	75.19
408.896	91.19
409.12	69.19
409.344	85.19
409.567	92.19
409.791	91.19
410.014	94.19
410.238	92.19
410.461	89.19
410.685	81.19
410.908	75.19
411.132	99.19
411.355	89.19
411.578	77.19
411.802	71.19
412.025	69.19
412.249	83.19
412.472	81.19
412.695	82.19
412.919	79.19
413.142	93.19
413.365	76.19
413.589	99.19
413.812	80.19
414.035	85.19
414.258	96.19
414.482	75.19
414.705	74.19
414.928	75.19
415.151	70.19
415.374	66.19
415.597	76.19
415.821	71.19
416.044	85.19
416.267	84.19
416.49	99.19
416.713	69.19
416.936	88.19
417.159	80.19
417.382	73.19
417.605	63.19
417.828	90.19
418.051	89.19
418.274	79.19
418.497	93.19
418.72	70.19
418.943	85.19
419.166	77.19
419.389	83.19
419.611	82.19
419.834	85.19
420.057	73.19
420.28	83.19
420.503	93.19
420.726	74.19
420.948	82.19
421.171	83.19
421.394	79.19
421.617	90.19
421.839	101.19
422.062	91.19
422.285	113.19
422.507	177.19
422.73	260.19
422.953	231.19
423.175	113.19
423.398	89.19
423.621	86.19
423.843	70.19
424.066	82.19
424.288	73.19
424.511	97.19
424.733	83.19
424.956	78.19
425.178	98.19
425.401	86.19
425.623	69.19
425.846	83.19
426.068	89.19
426.291	83.19
426.513	87.19
426.735	85.19
426.958	81.19
427.18	89.19
427.402	73.19
427.625	82.19
427.847	93.19
428.069	96.19
428.292	98.19
428.514	106.19
428.736	101.19
428.958	115.19
429.181	109.19
429.403	92.19
429.625	90.19
429.847	96.19
430.069	116.19
430.292	121.19
430.514	116.19
430.736	96.19
430.958	117.19
431.18	79.19
431.402	76.19
431.624	95.19
431.846	96.19
432.068	106.19
432.29	94.19
432.512	74.19
432.734	93.19
432.956	82.19
433.178	74.19
433.4	77.19
433.622	70.19
433.844	79.19
434.066	74.19
434.287	99.19
434.509	86.19
434.731	77.19
434.953	78.19
435.175	88.19
435.397	84.19
435.618	76.19
435.84	84.19
436.062	78.19
436.284	68.19
436.505	81.19
436.727	83.19
436.949	99.19
437.17	75.19
437.392	83.19
437.614	77.19
437.835	70.19
438.057	83.19
438.278	77.19
438.5	76.19
438.721	74.19
438.943	85.19
439.165	73.19
439.386	86.19
439.608	73.19
439.829	76.19
440.05	90.19
440.272	78.19
440.493	85.19
440.715	95.19
440.936	88.19
441.158	69.19
441.379	81.19
441.6	81.19
441.822	81.19
442.043	86.19
442.264	94.19
442.486	93.19
442.707	120.19
442.928	93.19
443.149	95.19
443.371	106.19
443.592	144.19
443.813	123.19
444.034	98.19
444.255	93.19
444.476	77.19
444.698	73.19
444.919	88.19
445.14	173.19
445.361	153.19
445.582	158.19
445.803	133.19
446.024	104.19
446.245	84.19
446.466	81.19
446.687	83.19
446.908	85.19
447.129	82.19
447.35	70.19
447.571	72.19
447.792	86.19
448.013	88.19
448.234	75.19
448.455	68.19
448.675	77.19
448.896	67.19
449.117	83.19
449.338	72.19
449.559	77.19
449.779	81.19
450	80.19
450.221	90.19
450.442	84.19
450.662	85.19
450.883	83.19
451.104	88.19
451.324	75.19
451.545	78.19
451.766	77.19
451.986	93.19
452.207	90.19
452.428	88.19
452.648	85.19
452.869	93.19
453.089	71.19
453.31	88.19
453.53	77.19
453.751	82.19
453.971	82.19
454.192	75.19
454.412	90.19
454.633	58.19
454.853	74.19
455.073	72.19
455.294	86.19
455.514	89.19
455.734	97.19
455.955	65.19
456.175	75.19
456.395	73.19
456.616	72.19
456.836	75.19
457.056	84.19
457.276	69.19
457.497	89.19
457.717	94.19
457.937	73.19
458.157	86.19
458.377	80.19
458.598	100.19
458.818	78.19
459.038	86.19
459.258	77.19
459.478	83.19
459.698	80.19
459.918	86.19
460.138	74.19
460.358	95.19
460.578	94.19
460.798	113.19
461.018	109.19
461.238	87.19
461.458	83.19
461.678	85.19
461.898	66.19
462.118	91.19
462.338	76.19
462.558	72.19
462.777	78.19
462.997	84.19
463.217	75.19
463.437	83.19
463.657	75.19
463.876	79.19
464.096	89.19
464.316	99.19
464.536	92.19
464.755	82.19
464.975	71.19
465.195	85.19
465.414	82.19
465.634	92.19
465.854	80.19
466.073	70.19
466.293	87.19
466.512	96.19
466.732	84.19
466.951	85.19
467.171	82.19
467.391	73.19
467.61	81.19
467.829	86.19
468.049	90.19
468.268	91.19
468.488	85.19
468.707	81.19
468.927	73.19
469.146	95.19
469.365	91.19
469.585	94.19
469.804	73.19
470.023	81.19
470.243	87.19
470.462	77.19
470.681	87.19
470.901	96.19
471.12	71.19
471.339	67.19
471.558	79.19
471.777	86.19
471.997	82.19
472.216	87.19
472.435	91.19
472.654	78.19
472.873	87.19
473.092	69.19
473.311	71.19
473.53	76.19
473.749	85.19
473.968	70.19
474.187	77.19
474.406	74.19
474.625	91.19
474.844	95.19
475.063	92.19
475.282	66.19
475.501	71.19
475.72	78.19
475.939	88.19
476.158	90.19
476.377	73.19
476.596	72.19
476.814	70.19
477.033	77.19
477.252	81.19
477.471	87.19
477.69	83.19
477.908	68.19
478.127	97.19
478.346	92.19
478.564	81.19
478.783	84.19
479.002	69.19
479.22	80.19
479.439	89.19
479.658	71.19
479.876	77.19
480.095	75.19
480.313	85.19
480.532	85.19
480.751	95.19
480.969	90.19
481.188	89.19
481.406	86.19
481.624	85.19
481.843	80.19
482.061	85.19
482.28	86.19
482.498	85.19
482.717	78.19
482.935	81.19
483.153	81.19
483.372	87.19
483.59	82.19
483.808	83.19
484.027	80.19
484.245	80.19
484.463	81.19
484.681	83.19
484.9	82.19
485.118	89.19
485.336	76.19
485.554	83.19
485.772	97.19
485.99	69.19
486.209	89.19
486.427	82.19
486.645	90.19
486.863	96.19
487.081	79.19
487.299	86.19
487.517	83.19
487.735	76.19
487.953	93.19
488.171	103.19
488.389	90.19
488.607	89.19
488.825	91.19
489.043	87.19
489.261	93.19
489.479	87.19
489.696	90.19
489.914	87.19
490.132	75.19
490.35	95.19
490.568	88.19
490.786	85.19
491.003	88.19
491.221	79.19
491.439	80.19
491.657	77.19
491.874	72.19
492.092	74.19
492.31	88.19
492.527	89.19
492.745	100.19
492.963	83.19
493.18	83.19
493.398	90.19
493.615	89.19
493.833	71.19
494.05	80.19
494.268	79.19
494.485	90.19
494.703	84.19
494.92	83.19
495.138	79.19
495.355	79.19
495.573	72.19
495.79	100.19
496.008	88.19
496.225	78.19
496.442	87.19
496.66	80.19
496.877	91.19
497.094	73.19
497.312	79.19
497.529	93.19
497.746	76.19
497.963	83.19
498.181	73.19
498.398	79.19
498.615	84.19
498.832	88.19
499.049	93.19
499.267	78.19
499.484	81.19
499.701	79.19
499.918	74.19
500.135	82.19
500.352	95.19
500.569	79.19
500.786	78.19
501.003	89.19
501.22	67.19
501.437	83.19
501.654	75.19
501.871	83.19
502.088	88.19
502.305	88.19
502.522	90.19
502.739	86.19
502.956	83.19
503.172	84.19
503.389	79.19
503.606	87.19
503.823	92.19
504.04	94.19
504.256	98.19
504.473	91.19
504.69	87.19
504.907	90.19
505.123	73.19
505.34	74.19
505.557	70.19
505.773	85.19
505.99	93.19
506.207	79.19
506.423	62.19
506.64	97.19
506.856	95.19
507.073	81.19
507.289	85.19
507.506	86.19
507.722	64.19
507.939	83.19
508.155	69.19
508.372	78.19
508.588	81.19
508.805	74.19
509.021	76.19
509.238	81.19
509.454	81.19
509.67	72.19
509.887	89.19
510.103	87.19
510.319	80.19
510.536	89.19
510.752	75.19
510.968	66.19
511.184	89.19
511.401	87.19
511.617	80.19
511.833	93.19
512.049	80.19
512.265	84.19
512.481	76.19
512.698	81.19
512.914	67.19
513.13	88.19
513.346	75.19
513.562	95.19
513.778	89.19
513.994	81.19
514.21	78.19
514.426	79.19
514.642	88.19
514.858	87.19
515.074	79.19
515.29	79.19
515.506	81.19
515.721	85.19
515.937	76.19
516.153	93.19
516.369	85.19
516.585	66.19
516.801	95.19
517.016	85.19
517.232	83.19
517.448	94.19
517.664	89.19
517.879	71.19
518.095	87.19
518.311	81.19
518.527	101.19
518.742	80.19
518.958	105.19
519.173	101.19
519.389	94.19
519.605	79.19
