Data from HP_1_HRD10591_00003.txt Node
Date: Mon Jan 19 14:15:09 EST 2026
User: Yrep
Spectrometer: HR+D1059
Trigger mode: 1
Integration Time (sec): 1.000000E-1
Scans to average: 1
Electric dark correction enabled: true
Nonlinearity correction enabled: false
Boxcar width: 0
XAxis mode: Wavelengths
Number of Pixels in Spectrum: 2048
>>>>>Begin Spectral Data<<<<<
223.165	-9.56
223.4	-9.56
223.635	-9.56
223.869	-21.56
224.104	-27.56
224.338	-18.56
224.573	-12.56
224.808	-3.56
225.042	0.44
225.277	-8.56
225.511	8.44
225.746	-5.56
225.98	13.44
226.215	12.44
226.449	6.44
226.683	13.44
226.918	30.44
227.152	22.44
227.387	26.44
227.621	47.44
227.856	54.44
228.09	47.44
228.324	51.44
228.559	51.44
228.793	59.44
229.027	57.44
229.262	58.44
229.496	75.44
229.73	78.44
229.964	86.44
230.199	73.44
230.433	63.44
230.667	83.44
230.901	75.44
231.136	69.44
231.37	85.44
231.604	92.44
231.838	78.44
232.072	79.44
232.306	86.44
232.541	83.44
232.775	89.44
233.009	82.44
233.243	75.44
233.477	90.44
233.711	69.44
233.945	69.44
234.179	79.44
234.413	79.44
234.647	71.44
234.881	75.44
235.115	82.44
235.349	79.44
235.583	79.44
235.817	90.44
236.051	58.44
236.285	88.44
236.519	78.44
236.753	80.44
236.987	83.44
237.221	81.44
237.455	76.44
237.689	85.44
237.922	77.44
238.156	72.44
238.39	87.44
238.624	82.44
238.858	86.44
239.091	80.44
239.325	79.44
239.559	74.44
239.793	70.44
240.027	81.44
240.26	73.44
240.494	86.44
240.728	79.44
240.961	65.44
241.195	75.44
241.429	75.44
241.662	61.44
241.896	71.44
242.13	84.44
242.363	80.44
242.597	92.44
242.83	64.44
243.064	73.44
243.298	63.44
243.531	81.44
243.765	69.44
243.998	83.44
244.232	82.44
244.465	82.44
244.699	77.44
244.932	85.44
245.166	83.44
245.399	70.44
245.633	90.44
245.866	83.44
246.099	73.44
246.333	84.44
246.566	69.44
246.8	66.44
247.033	86.44
247.266	76.44
247.5	89.44
247.733	75.44
247.966	80.44
248.2	78.44
248.433	87.44
248.666	86.44
248.899	75.44
249.133	82.44
249.366	82.44
249.599	85.44
249.832	78.44
250.066	82.44
250.299	85.44
250.532	89.44
250.765	93.44
250.998	90.44
251.231	76.44
251.465	75.44
251.698	79.44
251.931	88.44
252.164	87.44
252.397	86.44
252.63	86.44
252.863	87.44
253.096	91.44
253.329	76.44
253.562	85.44
253.795	75.44
254.028	90.44
254.261	81.44
254.494	84.44
254.727	85.44
254.96	84.44
255.193	79.44
255.426	81.44
255.659	77.44
255.892	87.44
256.124	87.44
256.357	79.44
256.59	82.44
256.823	72.44
257.056	87.44
257.289	91.44
257.521	90.44
257.754	71.44
257.987	80.44
258.22	93.44
258.452	86.44
258.685	74.44
258.918	93.44
259.151	92.44
259.383	81.44
259.616	72.44
259.849	85.44
260.081	81.44
260.314	83.44
260.547	84.44
260.779	69.44
261.012	75.44
261.244	83.44
261.477	87.44
261.71	85.44
261.942	81.44
262.175	67.44
262.407	81.44
262.64	74.44
262.872	70.44
263.105	74.44
263.337	93.44
263.57	89.44
263.802	87.44
264.035	76.44
264.267	85.44
264.499	87.44
264.732	78.44
264.964	77.44
265.197	73.44
265.429	88.44
265.661	79.44
265.894	83.44
266.126	90.44
266.358	88.44
266.591	92.44
266.823	89.44
267.055	90.44
267.287	79.44
267.52	89.44
267.752	85.44
267.984	84.44
268.216	75.44
268.448	78.44
268.681	80.44
268.913	89.44
269.145	93.44
269.377	89.44
269.609	79.44
269.841	83.44
270.073	82.44
270.306	97.44
270.538	75.44
270.77	75.44
271.002	96.44
271.234	109.44
271.466	75.44
271.698	81.44
271.93	83.44
272.162	91.44
272.394	83.44
272.626	83.44
272.858	89.44
273.09	82.44
273.322	96.44
273.553	91.44
273.785	84.44
274.017	79.44
274.249	89.44
274.481	83.44
274.713	77.44
274.945	85.44
275.176	78.44
275.408	94.44
275.64	82.44
275.872	74.44
276.104	74.44
276.335	75.44
276.567	85.44
276.799	76.44
277.031	85.44
277.262	94.44
277.494	77.44
277.726	86.44
277.957	95.44
278.189	91.44
278.421	80.44
278.652	78.44
278.884	84.44
279.115	85.44
279.347	81.44
279.579	77.44
279.81	83.44
280.042	82.44
280.273	73.44
280.505	79.44
280.736	87.44
280.968	71.44
281.199	73.44
281.431	83.44
281.662	84.44
281.894	93.44
282.125	79.44
282.356	83.44
282.588	89.44
282.819	74.44
283.051	87.44
283.282	90.44
283.513	94.44
283.745	89.44
283.976	94.44
284.207	86.44
284.439	96.44
284.67	91.44
284.901	90.44
285.132	103.44
285.364	90.44
285.595	99.44
285.826	97.44
286.057	88.44
286.288	88.44
286.52	89.44
286.751	82.44
286.982	87.44
287.213	95.44
287.444	84.44
287.675	94.44
287.906	98.44
288.138	86.44
288.369	109.44
288.6	85.44
288.831	86.44
289.062	99.44
289.293	91.44
289.524	83.44
289.755	84.44
289.986	91.44
290.217	86.44
290.448	99.44
290.679	80.44
290.91	99.44
291.141	95.44
291.371	93.44
291.602	76.44
291.833	73.44
292.064	92.44
292.295	77.44
292.526	78.44
292.757	94.44
292.987	96.44
293.218	95.44
293.449	89.44
293.68	89.44
293.91	80.44
294.141	87.44
294.372	89.44
294.603	85.44
294.833	85.44
295.064	103.44
295.295	95.44
295.525	87.44
295.756	84.44
295.987	91.44
296.217	97.44
296.448	90.44
296.679	76.44
296.909	84.44
297.14	97.44
297.37	70.44
297.601	92.44
297.831	87.44
298.062	93.44
298.292	84.44
298.523	85.44
298.753	79.44
298.984	93.44
299.214	80.44
299.445	92.44
299.675	93.44
299.905	86.44
300.136	98.44
300.366	91.44
300.597	92.44
300.827	95.44
301.057	92.44
301.288	95.44
301.518	100.44
301.748	88.44
301.979	116.44
302.209	89.44
302.439	82.44
302.669	90.44
302.9	89.44
303.13	80.44
303.36	89.44
303.59	85.44
303.82	81.44
304.051	78.44
304.281	85.44
304.511	96.44
304.741	73.44
304.971	87.44
305.201	65.44
305.431	78.44
305.661	86.44
305.891	86.44
306.121	88.44
306.352	96.44
306.582	76.44
306.812	74.44
307.042	88.44
307.272	83.44
307.502	83.44
307.731	91.44
307.961	92.44
308.191	108.44
308.421	103.44
308.651	95.44
308.881	93.44
309.111	94.44
309.341	98.44
309.571	105.44
309.8	80.44
310.03	83.44
310.26	96.44
310.49	101.44
310.72	78.44
310.949	80.44
311.179	95.44
311.409	97.44
311.639	97.44
311.868	90.44
312.098	67.44
312.328	93.44
312.557	83.44
312.787	94.44
313.017	102.44
313.246	82.44
313.476	86.44
313.706	97.44
313.935	91.44
314.165	98.44
314.394	74.44
314.624	79.44
314.853	94.44
315.083	80.44
315.312	81.44
315.542	89.44
315.771	94.44
316.001	101.44
316.23	106.44
316.46	85.44
316.689	87.44
316.919	94.44
317.148	113.44
317.377	87.44
317.607	86.44
317.836	107.44
318.065	103.44
318.295	113.44
318.524	78.44
318.753	99.44
318.983	109.44
319.212	86.44
319.441	99.44
319.67	95.44
319.9	101.44
320.129	82.44
320.358	99.44
320.587	90.44
320.816	90.44
321.046	84.44
321.275	99.44
321.504	88.44
321.733	89.44
321.962	101.44
322.191	85.44
322.42	93.44
322.649	104.44
322.878	85.44
323.108	89.44
323.337	100.44
323.566	84.44
323.795	82.44
324.024	101.44
324.253	87.44
324.482	97.44
324.71	97.44
324.939	114.44
325.168	94.44
325.397	91.44
325.626	77.44
325.855	74.44
326.084	87.44
326.313	99.44
326.542	90.44
326.77	100.44
326.999	100.44
327.228	108.44
327.457	98.44
327.686	85.44
327.914	86.44
328.143	85.44
328.372	82.44
328.6	93.44
328.829	91.44
329.058	89.44
329.287	93.44
329.515	104.44
329.744	99.44
329.972	93.44
330.201	89.44
330.43	106.44
330.658	91.44
330.887	88.44
331.115	78.44
331.344	86.44
331.572	93.44
331.801	93.44
332.03	85.44
332.258	84.44
332.486	83.44
332.715	90.44
332.943	86.44
333.172	110.44
333.4	83.44
333.629	95.44
333.857	100.44
334.085	98.44
334.314	102.44
334.542	93.44
334.771	82.44
334.999	99.44
335.227	95.44
335.455	97.44
335.684	105.44
335.912	85.44
336.14	119.44
336.369	97.44
336.597	97.44
336.825	86.44
337.053	88.44
337.281	91.44
337.51	91.44
337.738	68.44
337.966	87.44
338.194	87.44
338.422	88.44
338.65	86.44
338.878	96.44
339.106	100.44
339.334	97.44
339.562	85.44
339.79	97.44
340.018	69.44
340.246	91.44
340.474	89.44
340.702	88.44
340.93	74.44
341.158	79.44
341.386	95.44
341.614	106.44
341.842	107.44
342.07	76.44
342.298	102.44
342.526	93.44
342.754	91.44
342.981	92.44
343.209	81.44
343.437	93.44
343.665	87.44
343.893	84.44
344.12	99.44
344.348	108.44
344.576	105.44
344.804	104.44
345.031	97.44
345.259	99.44
345.487	80.44
345.714	84.44
345.942	78.44
346.17	105.44
346.397	78.44
346.625	99.44
346.853	98.44
347.08	98.44
347.308	89.44
347.535	85.44
347.763	90.44
347.99	84.44
348.218	83.44
348.445	84.44
348.673	97.44
348.9	97.44
349.128	98.44
349.355	94.44
349.583	99.44
349.81	92.44
350.037	88.44
350.265	90.44
350.492	106.44
350.72	105.44
350.947	84.44
351.174	98.44
351.402	91.44
351.629	83.44
351.856	89.44
352.083	90.44
352.311	87.44
352.538	89.44
352.765	83.44
352.992	96.44
353.22	83.44
353.447	99.44
353.674	87.44
353.901	86.44
354.128	92.44
354.355	92.44
354.583	93.44
354.81	93.44
355.037	94.44
355.264	96.44
355.491	90.44
355.718	89.44
355.945	84.44
356.172	87.44
356.399	94.44
356.626	109.44
356.853	100.44
357.08	113.44
357.307	107.44
357.534	102.44
357.761	100.44
357.988	104.44
358.215	105.44
358.441	103.44
358.668	94.44
358.895	101.44
359.122	66.44
359.349	82.44
359.576	102.44
359.802	96.44
360.029	87.44
360.256	99.44
360.483	85.44
360.709	90.44
360.936	91.44
361.163	94.44
361.39	81.44
361.616	94.44
361.843	93.44
362.07	105.44
362.296	117.44
362.523	101.44
362.749	118.44
362.976	126.44
363.203	158.44
363.429	113.44
363.656	99.44
363.882	121.44
364.109	124.44
364.335	154.44
364.562	155.44
364.788	117.44
365.015	114.44
365.241	109.44
365.468	91.44
365.694	92.44
365.92	89.44
366.147	87.44
366.373	84.44
366.599	108.44
366.826	98.44
367.052	93.44
367.278	88.44
367.505	86.44
367.731	90.44
367.957	104.44
368.184	95.44
368.41	93.44
368.636	87.44
368.862	90.44
369.089	88.44
369.315	79.44
369.541	83.44
369.767	88.44
369.993	73.44
370.219	93.44
370.445	93.44
370.672	100.44
370.898	97.44
371.124	90.44
371.35	90.44
371.576	92.44
371.802	87.44
372.028	114.44
372.254	102.44
372.48	97.44
372.706	98.44
372.932	98.44
373.158	100.44
373.384	119.44
373.61	109.44
373.835	110.44
374.061	122.44
374.287	98.44
374.513	95.44
374.739	97.44
374.965	102.44
375.191	106.44
375.416	93.44
375.642	91.44
375.868	93.44
376.094	103.44
376.319	86.44
376.545	106.44
376.771	87.44
376.997	93.44
377.222	89.44
377.448	110.44
377.674	94.44
377.899	73.44
378.125	83.44
378.35	89.44
378.576	84.44
378.802	102.44
379.027	107.44
379.253	88.44
379.478	100.44
379.704	90.44
379.929	80.44
380.155	85.44
380.38	78.44
380.606	87.44
380.831	97.44
381.057	92.44
381.282	105.44
381.507	100.44
381.733	96.44
381.958	103.44
382.184	95.44
382.409	110.44
382.634	102.44
382.86	95.44
383.085	108.44
383.31	111.44
383.535	115.44
383.761	100.44
383.986	94.44
384.211	102.44
384.436	93.44
384.662	94.44
384.887	92.44
385.112	73.44
385.337	92.44
385.562	93.44
385.787	89.44
386.013	104.44
386.238	104.44
386.463	100.44
386.688	97.44
386.913	99.44
387.138	103.44
387.363	100.44
387.588	94.44
387.813	108.44
388.038	92.44
388.263	98.44
388.488	101.44
388.713	113.44
388.938	115.44
389.163	98.44
389.387	102.44
389.612	97.44
389.837	105.44
390.062	99.44
390.287	91.44
390.512	109.44
390.736	97.44
390.961	90.44
391.186	95.44
391.411	90.44
391.636	102.44
391.86	85.44
392.085	109.44
392.31	107.44
392.534	107.44
392.759	119.44
392.984	171.44
393.208	308.44
393.433	409.44
393.658	311.44
393.882	157.44
394.107	123.44
394.331	143.44
394.556	153.44
394.78	116.44
395.005	101.44
395.229	127.44
395.454	127.44
395.678	124.44
395.903	130.44
396.127	192.44
396.352	214.44
396.576	213.44
396.801	307.44
397.025	321.44
397.249	189.44
397.474	155.44
397.698	119.44
397.922	122.44
398.147	93.44
398.371	98.44
398.595	84.44
398.82	95.44
399.044	97.44
399.268	90.44
399.492	85.44
399.717	82.44
399.941	86.44
400.165	92.44
400.389	109.44
400.613	93.44
400.837	86.44
401.062	98.44
401.286	92.44
401.51	85.44
401.734	105.44
401.958	98.44
402.182	93.44
402.406	86.44
402.63	65.44
402.854	93.44
403.078	100.44
403.302	102.44
403.526	94.44
403.75	99.44
403.974	103.44
404.198	139.44
404.422	181.44
404.645	208.44
404.869	178.44
405.093	129.44
405.317	103.44
405.541	98.44
405.765	93.44
405.988	76.44
406.212	97.44
406.436	84.44
406.66	99.44
406.883	92.44
407.107	92.44
407.331	89.44
407.555	106.44
407.778	145.44
408.002	119.44
408.226	97.44
408.449	91.44
408.673	90.44
408.896	88.44
409.12	93.44
409.344	109.44
409.567	121.44
409.791	114.44
410.014	115.44
410.238	94.44
410.461	99.44
410.685	111.44
410.908	98.44
411.132	92.44
411.355	78.44
411.578	90.44
411.802	101.44
412.025	89.44
412.249	89.44
412.472	95.44
412.695	78.44
412.919	97.44
413.142	89.44
413.365	104.44
413.589	86.44
413.812	88.44
414.035	105.44
414.258	71.44
414.482	91.44
414.705	91.44
414.928	92.44
415.151	75.44
415.374	89.44
415.597	95.44
415.821	91.44
416.044	89.44
416.267	82.44
416.49	100.44
416.713	89.44
416.936	84.44
417.159	81.44
417.382	71.44
417.605	103.44
417.828	107.44
418.051	96.44
418.274	93.44
418.497	104.44
418.72	91.44
418.943	92.44
419.166	94.44
419.389	83.44
419.611	119.44
419.834	89.44
420.057	94.44
420.28	89.44
420.503	102.44
420.726	107.44
420.948	101.44
421.171	117.44
421.394	132.44
421.617	165.44
421.839	168.44
422.062	187.44
422.285	270.44
422.507	460.44
422.73	643.44
422.953	611.44
423.175	345.44
423.398	199.44
423.621	151.44
423.843	116.44
424.066	122.44
424.288	111.44
424.511	94.44
424.733	105.44
424.956	89.44
425.178	89.44
425.401	100.44
425.623	102.44
425.846	99.44
426.068	108.44
426.291	82.44
426.513	95.44
426.735	87.44
426.958	98.44
427.18	99.44
427.402	107.44
427.625	100.44
427.847	88.44
428.069	98.44
428.292	185.44
428.514	195.44
428.736	137.44
428.958	165.44
429.181	168.44
429.403	109.44
429.625	123.44
429.847	151.44
430.069	243.44
430.292	294.44
430.514	262.44
430.736	207.44
430.958	185.44
431.18	129.44
431.402	104.44
431.624	142.44
431.846	179.44
432.068	204.44
432.29	122.44
432.512	92.44
432.734	94.44
432.956	98.44
433.178	76.44
433.4	81.44
433.622	80.44
433.844	95.44
434.066	87.44
434.287	87.44
434.509	88.44
434.731	83.44
434.953	91.44
435.175	87.44
435.397	105.44
435.618	92.44
435.84	95.44
436.062	98.44
436.284	96.44
436.505	89.44
436.727	100.44
436.949	91.44
437.17	89.44
437.392	79.44
437.614	103.44
437.835	101.44
438.057	98.44
438.278	90.44
438.5	94.44
438.721	98.44
438.943	98.44
439.165	78.44
439.386	72.44
439.608	95.44
439.829	77.44
440.05	93.44
440.272	85.44
440.493	88.44
440.715	89.44
440.936	104.44
441.158	109.44
441.379	95.44
441.6	83.44
441.822	93.44
442.043	106.44
442.264	128.44
442.486	177.44
442.707	253.44
442.928	166.44
443.149	145.44
443.371	216.44
443.592	394.44
443.813	334.44
444.034	155.44
444.255	92.44
444.476	110.44
444.698	116.44
444.919	125.44
445.14	248.44
445.361	333.44
445.582	488.44
445.803	385.44
446.024	157.44
446.245	106.44
446.466	89.44
446.687	80.44
446.908	91.44
447.129	105.44
447.35	102.44
447.571	99.44
447.792	99.44
448.013	78.44
448.234	93.44
448.455	98.44
448.675	110.44
448.896	109.44
449.117	78.44
449.338	84.44
449.559	81.44
449.779	89.44
450	89.44
450.221	78.44
450.442	93.44
450.662	108.44
450.883	92.44
451.104	87.44
451.324	78.44
451.545	86.44
451.766	83.44
451.986	75.44
452.207	87.44
452.428	95.44
452.648	90.44
452.869	96.44
453.089	102.44
453.31	98.44
453.53	97.44
453.751	98.44
453.971	84.44
454.192	101.44
454.412	81.44
454.633	90.44
454.853	82.44
455.073	80.44
455.294	78.44
455.514	92.44
455.734	84.44
455.955	83.44
456.175	105.44
456.395	103.44
456.616	90.44
456.836	91.44
457.056	91.44
457.276	80.44
457.497	93.44
457.717	106.44
457.937	117.44
458.157	139.44
458.377	145.44
458.598	149.44
458.818	161.44
459.038	122.44
459.258	87.44
459.478	79.44
459.698	95.44
459.918	104.44
460.138	79.44
460.358	92.44
460.578	112.44
460.798	177.44
461.018	153.44
461.238	99.44
461.458	89.44
461.678	93.44
461.898	82.44
462.118	82.44
462.338	85.44
462.558	101.44
462.777	72.44
462.997	90.44
463.217	93.44
463.437	79.44
463.657	81.44
463.876	93.44
464.096	77.44
464.316	74.44
464.536	80.44
464.755	97.44
464.975	90.44
465.195	77.44
465.414	86.44
465.634	99.44
465.854	80.44
466.073	87.44
466.293	83.44
466.512	100.44
466.732	87.44
466.951	89.44
467.171	97.44
467.391	89.44
467.61	83.44
467.829	90.44
468.049	106.44
468.268	87.44
468.488	90.44
468.707	79.44
468.927	98.44
469.146	95.44
469.365	88.44
469.585	95.44
469.804	88.44
470.023	84.44
470.243	84.44
470.462	88.44
470.681	83.44
470.901	93.44
471.12	100.44
471.339	78.44
471.558	86.44
471.777	89.44
471.997	86.44
472.216	87.44
472.435	97.44
472.654	96.44
472.873	83.44
473.092	98.44
473.311	96.44
473.53	93.44
473.749	79.44
473.968	99.44
474.187	87.44
474.406	99.44
474.625	89.44
474.844	81.44
475.063	92.44
475.282	75.44
475.501	84.44
475.72	87.44
475.939	92.44
476.158	93.44
476.377	73.44
476.596	79.44
476.814	84.44
477.033	86.44
477.252	80.44
477.471	91.44
477.69	97.44
477.908	114.44
478.127	102.44
478.346	98.44
478.564	97.44
478.783	86.44
479.002	85.44
479.22	99.44
479.439	95.44
479.658	84.44
479.876	83.44
480.095	83.44
480.313	80.44
480.532	104.44
480.751	99.44
480.969	92.44
481.188	89.44
481.406	103.44
481.624	96.44
481.843	80.44
482.061	100.44
482.28	90.44
482.498	99.44
482.717	98.44
482.935	99.44
483.153	94.44
483.372	89.44
483.59	95.44
483.808	82.44
484.027	94.44
484.245	104.44
484.463	90.44
484.681	106.44
484.9	97.44
485.118	88.44
485.336	87.44
485.554	98.44
485.772	106.44
485.99	85.44
486.209	90.44
486.427	79.44
486.645	95.44
486.863	85.44
487.081	93.44
487.299	105.44
487.517	118.44
487.735	137.44
487.953	198.44
488.171	197.44
488.389	120.44
488.607	109.44
488.825	101.44
489.043	98.44
489.261	93.44
489.479	102.44
489.696	89.44
489.914	91.44
490.132	98.44
490.35	117.44
490.568	105.44
490.786	81.44
491.003	92.44
491.221	87.44
491.439	79.44
491.657	86.44
491.874	96.44
492.092	99.44
492.31	115.44
492.527	100.44
492.745	102.44
492.963	99.44
493.18	90.44
493.398	88.44
493.615	86.44
493.833	84.44
494.05	94.44
494.268	105.44
494.485	89.44
494.703	84.44
494.92	95.44
495.138	99.44
495.355	87.44
495.573	110.44
495.79	103.44
496.008	103.44
496.225	95.44
496.442	99.44
496.66	110.44
496.877	83.44
497.094	88.44
497.312	81.44
497.529	93.44
497.746	100.44
497.963	88.44
498.181	100.44
498.398	108.44
498.615	89.44
498.832	97.44
499.049	84.44
499.267	104.44
499.484	96.44
499.701	78.44
499.918	99.44
500.135	103.44
500.352	105.44
500.569	98.44
500.786	111.44
501.003	100.44
501.22	95.44
501.437	108.44
501.654	88.44
501.871	89.44
502.088	77.44
502.305	75.44
502.522	105.44
502.739	102.44
502.956	100.44
503.172	84.44
503.389	88.44
503.606	98.44
503.823	99.44
504.04	136.44
504.256	155.44
504.473	168.44
504.69	120.44
504.907	101.44
505.123	96.44
505.34	91.44
505.557	103.44
505.773	97.44
505.99	102.44
506.207	99.44
506.423	97.44
506.64	87.44
506.856	83.44
507.073	101.44
507.289	87.44
507.506	90.44
507.722	86.44
507.939	80.44
508.155	91.44
508.372	95.44
508.588	94.44
508.805	88.44
509.021	90.44
509.238	95.44
509.454	97.44
509.67	99.44
509.887	86.44
510.103	78.44
510.319	92.44
510.536	85.44
510.752	82.44
510.968	88.44
511.184	101.44
511.401	91.44
511.617	107.44
511.833	91.44
512.049	98.44
512.265	106.44
512.481	87.44
512.698	87.44
512.914	93.44
513.13	106.44
513.346	85.44
513.562	85.44
513.778	91.44
513.994	87.44
514.21	103.44
514.426	84.44
514.642	91.44
514.858	85.44
515.074	90.44
515.29	88.44
515.506	90.44
515.721	92.44
515.937	97.44
