Data from HP_1_HRD10591_00006.txt Node
Date: Mon Jan 19 14:15:10 EST 2026
User: Yrep
Spectrometer: HR+D1059
Trigger mode: 1
Integration Time (sec): 1.000000E-1
Scans to average: 1
Electric dark correction enabled: true
Nonlinearity correction enabled: false
Boxcar width: 0
XAxis mode: Wavelengths
Number of Pixels in Spectrum: 2048
>>>>>Begin Spectral Data<<<<<
223.165	-12.5
223.4	-12.5
223.635	-12.5
223.869	-12.5
224.104	-24.5
224.338	-21.5
224.573	-10.5
224.808	-15.5
225.042	-3.5
225.277	-0.5
225.511	-4.5
225.746	4.5
225.98	32.5
226.215	-4.5
226.449	2.5
226.683	14.5
226.918	33.5
227.152	22.5
227.387	34.5
227.621	36.5
227.856	41.5
228.09	56.5
228.324	41.5
228.559	46.5
228.793	50.5
229.027	52.5
229.262	64.5
229.496	66.5
229.73	61.5
229.964	73.5
230.199	83.5
230.433	83.5
230.667	82.5
230.901	70.5
231.136	66.5
231.37	83.5
231.604	88.5
231.838	75.5
232.072	79.5
232.306	75.5
232.541	78.5
232.775	72.5
233.009	84.5
233.243	78.5
233.477	77.5
233.711	82.5
233.945	88.5
234.179	70.5
234.413	91.5
234.647	74.5
234.881	73.5
235.115	70.5
235.349	90.5
235.583	80.5
235.817	92.5
236.051	76.5
236.285	68.5
236.519	96.5
236.753	77.5
236.987	86.5
237.221	58.5
237.455	78.5
237.689	64.5
237.922	79.5
238.156	78.5
238.39	92.5
238.624	84.5
238.858	90.5
239.091	65.5
239.325	79.5
239.559	89.5
239.793	71.5
240.027	73.5
240.26	73.5
240.494	62.5
240.728	70.5
240.961	64.5
241.195	79.5
241.429	88.5
241.662	87.5
241.896	69.5
242.13	84.5
242.363	68.5
242.597	84.5
242.83	94.5
243.064	64.5
243.298	80.5
243.531	67.5
243.765	81.5
243.998	72.5
244.232	69.5
244.465	74.5
244.699	80.5
244.932	79.5
245.166	66.5
245.399	70.5
245.633	64.5
245.866	66.5
246.099	78.5
246.333	78.5
246.566	82.5
246.8	68.5
247.033	80.5
247.266	84.5
247.5	74.5
247.733	74.5
247.966	74.5
248.2	74.5
248.433	70.5
248.666	69.5
248.899	84.5
249.133	67.5
249.366	79.5
249.599	82.5
249.832	77.5
250.066	84.5
250.299	78.5
250.532	89.5
250.765	73.5
250.998	78.5
251.231	92.5
251.465	85.5
251.698	88.5
251.931	83.5
252.164	93.5
252.397	72.5
252.63	76.5
252.863	76.5
253.096	79.5
253.329	81.5
253.562	82.5
253.795	83.5
254.028	86.5
254.261	78.5
254.494	81.5
254.727	79.5
254.96	77.5
255.193	72.5
255.426	91.5
255.659	86.5
255.892	93.5
256.124	86.5
256.357	75.5
256.59	78.5
256.823	78.5
257.056	75.5
257.289	89.5
257.521	78.5
257.754	83.5
257.987	94.5
258.22	93.5
258.452	74.5
258.685	88.5
258.918	85.5
259.151	84.5
259.383	100.5
259.616	85.5
259.849	74.5
260.081	74.5
260.314	75.5
260.547	74.5
260.779	75.5
261.012	86.5
261.244	96.5
261.477	84.5
261.71	73.5
261.942	76.5
262.175	87.5
262.407	74.5
262.64	84.5
262.872	84.5
263.105	62.5
263.337	79.5
263.57	86.5
263.802	83.5
264.035	96.5
264.267	81.5
264.499	76.5
264.732	84.5
264.964	87.5
265.197	76.5
265.429	78.5
265.661	92.5
265.894	77.5
266.126	89.5
266.358	90.5
266.591	80.5
266.823	78.5
267.055	85.5
267.287	73.5
267.52	86.5
267.752	81.5
267.984	89.5
268.216	93.5
268.448	84.5
268.681	74.5
268.913	86.5
269.145	86.5
269.377	88.5
269.609	85.5
269.841	88.5
270.073	72.5
270.306	76.5
270.538	77.5
270.77	80.5
271.002	77.5
271.234	78.5
271.466	84.5
271.698	90.5
271.93	83.5
272.162	84.5
272.394	101.5
272.626	101.5
272.858	82.5
273.09	68.5
273.322	76.5
273.553	68.5
273.785	79.5
274.017	83.5
274.249	89.5
274.481	81.5
274.713	78.5
274.945	86.5
275.176	93.5
275.408	63.5
275.64	90.5
275.872	90.5
276.104	73.5
276.335	91.5
276.567	80.5
276.799	80.5
277.031	74.5
277.262	83.5
277.494	85.5
277.726	71.5
277.957	93.5
278.189	84.5
278.421	64.5
278.652	79.5
278.884	99.5
279.115	93.5
279.347	79.5
279.579	87.5
279.81	86.5
280.042	98.5
280.273	87.5
280.505	84.5
280.736	98.5
280.968	82.5
281.199	76.5
281.431	91.5
281.662	81.5
281.894	95.5
282.125	79.5
282.356	93.5
282.588	84.5
282.819	72.5
283.051	76.5
283.282	86.5
283.513	80.5
283.745	87.5
283.976	96.5
284.207	77.5
284.439	92.5
284.67	98.5
284.901	86.5
285.132	89.5
285.364	89.5
285.595	97.5
285.826	94.5
286.057	86.5
286.288	75.5
286.52	88.5
286.751	89.5
286.982	80.5
287.213	80.5
287.444	91.5
287.675	87.5
287.906	78.5
288.138	96.5
288.369	92.5
288.6	85.5
288.831	96.5
289.062	93.5
289.293	88.5
289.524	82.5
289.755	92.5
289.986	85.5
290.217	83.5
290.448	92.5
290.679	82.5
290.91	90.5
291.141	77.5
291.371	83.5
291.602	85.5
291.833	88.5
292.064	86.5
292.295	77.5
292.526	75.5
292.757	86.5
292.987	94.5
293.218	84.5
293.449	94.5
293.68	89.5
293.91	75.5
294.141	84.5
294.372	88.5
294.603	78.5
294.833	80.5
295.064	69.5
295.295	97.5
295.525	106.5
295.756	89.5
295.987	93.5
296.217	79.5
296.448	91.5
296.679	69.5
296.909	84.5
297.14	90.5
297.37	90.5
297.601	74.5
297.831	75.5
298.062	89.5
298.292	104.5
298.523	91.5
298.753	82.5
298.984	70.5
299.214	84.5
299.445	86.5
299.675	93.5
299.905	96.5
300.136	88.5
300.366	78.5
300.597	84.5
300.827	82.5
301.057	82.5
301.288	86.5
301.518	74.5
301.748	79.5
301.979	93.5
302.209	88.5
302.439	88.5
302.669	86.5
302.9	79.5
303.13	77.5
303.36	88.5
303.59	90.5
303.82	112.5
304.051	83.5
304.281	90.5
304.511	83.5
304.741	82.5
304.971	101.5
305.201	97.5
305.431	98.5
305.661	89.5
305.891	96.5
306.121	88.5
306.352	87.5
306.582	75.5
306.812	79.5
307.042	88.5
307.272	88.5
307.502	91.5
307.731	86.5
307.961	87.5
308.191	98.5
308.421	109.5
308.651	91.5
308.881	93.5
309.111	89.5
309.341	105.5
309.571	95.5
309.8	94.5
310.03	84.5
310.26	79.5
310.49	94.5
310.72	92.5
310.949	72.5
311.179	90.5
311.409	73.5
311.639	99.5
311.868	75.5
312.098	94.5
312.328	86.5
312.557	83.5
312.787	89.5
313.017	77.5
313.246	88.5
313.476	76.5
313.706	84.5
313.935	91.5
314.165	89.5
314.394	86.5
314.624	85.5
314.853	83.5
315.083	82.5
315.312	84.5
315.542	87.5
315.771	94.5
316.001	83.5
316.23	98.5
316.46	88.5
316.689	103.5
316.919	95.5
317.148	87.5
317.377	84.5
317.607	85.5
317.836	73.5
318.065	89.5
318.295	86.5
318.524	92.5
318.753	86.5
318.983	98.5
319.212	94.5
319.441	75.5
319.67	71.5
319.9	73.5
320.129	90.5
320.358	86.5
320.587	91.5
320.816	95.5
321.046	78.5
321.275	85.5
321.504	88.5
321.733	72.5
321.962	95.5
322.191	82.5
322.42	81.5
322.649	85.5
322.878	85.5
323.108	102.5
323.337	90.5
323.566	92.5
323.795	96.5
324.024	92.5
324.253	77.5
324.482	82.5
324.71	90.5
324.939	96.5
325.168	76.5
325.397	76.5
325.626	80.5
325.855	84.5
326.084	77.5
326.313	74.5
326.542	84.5
326.77	96.5
326.999	88.5
327.228	88.5
327.457	90.5
327.686	99.5
327.914	78.5
328.143	83.5
328.372	74.5
328.6	90.5
328.829	78.5
329.058	85.5
329.287	89.5
329.515	88.5
329.744	79.5
329.972	84.5
330.201	91.5
330.43	79.5
330.658	89.5
330.887	88.5
331.115	78.5
331.344	79.5
331.572	99.5
331.801	95.5
332.03	91.5
332.258	97.5
332.486	79.5
332.715	74.5
332.943	94.5
333.172	94.5
333.4	80.5
333.629	82.5
333.857	91.5
334.085	91.5
334.314	69.5
334.542	90.5
334.771	88.5
334.999	87.5
335.227	96.5
335.455	82.5
335.684	101.5
335.912	101.5
336.14	93.5
336.369	84.5
336.597	73.5
336.825	79.5
337.053	86.5
337.281	78.5
337.51	78.5
337.738	102.5
337.966	74.5
338.194	88.5
338.422	96.5
338.65	100.5
338.878	79.5
339.106	84.5
339.334	101.5
339.562	104.5
339.79	96.5
340.018	95.5
340.246	88.5
340.474	82.5
340.702	83.5
340.93	88.5
341.158	86.5
341.386	77.5
341.614	85.5
341.842	82.5
342.07	93.5
342.298	86.5
342.526	89.5
342.754	76.5
342.981	84.5
343.209	76.5
343.437	87.5
343.665	96.5
343.893	81.5
344.12	90.5
344.348	96.5
344.576	84.5
344.804	108.5
345.031	91.5
345.259	89.5
345.487	74.5
345.714	79.5
345.942	80.5
346.17	81.5
346.397	83.5
346.625	89.5
346.853	87.5
347.08	91.5
347.308	83.5
347.535	81.5
347.763	91.5
347.99	84.5
348.218	71.5
348.445	88.5
348.673	92.5
348.9	70.5
349.128	89.5
349.355	86.5
349.583	100.5
349.81	77.5
350.037	84.5
350.265	88.5
350.492	84.5
350.72	77.5
350.947	94.5
351.174	98.5
351.402	83.5
351.629	86.5
351.856	79.5
352.083	89.5
352.311	92.5
352.538	81.5
352.765	91.5
352.992	99.5
353.22	103.5
353.447	84.5
353.674	90.5
353.901	90.5
354.128	94.5
354.355	81.5
354.583	87.5
354.81	73.5
355.037	81.5
355.264	78.5
355.491	82.5
355.718	85.5
355.945	89.5
356.172	90.5
356.399	98.5
356.626	88.5
356.853	87.5
357.08	91.5
357.307	88.5
357.534	95.5
357.761	74.5
357.988	98.5
358.215	90.5
358.441	94.5
358.668	102.5
358.895	88.5
359.122	84.5
359.349	72.5
359.576	89.5
359.802	90.5
360.029	87.5
360.256	74.5
360.483	100.5
360.709	91.5
360.936	90.5
361.163	94.5
361.39	91.5
361.616	113.5
361.843	90.5
362.07	114.5
362.296	106.5
362.523	93.5
362.749	97.5
362.976	111.5
363.203	122.5
363.429	105.5
363.656	102.5
363.882	96.5
364.109	104.5
364.335	137.5
364.562	133.5
364.788	110.5
365.015	94.5
365.241	101.5
365.468	96.5
365.694	73.5
365.92	90.5
366.147	92.5
366.373	78.5
366.599	100.5
366.826	84.5
367.052	78.5
367.278	88.5
367.505	82.5
367.731	86.5
367.957	89.5
368.184	92.5
368.41	83.5
368.636	97.5
368.862	100.5
369.089	95.5
369.315	78.5
369.541	88.5
369.767	91.5
369.993	83.5
370.219	100.5
370.445	75.5
370.672	80.5
370.898	95.5
371.124	86.5
371.35	94.5
371.576	101.5
371.802	77.5
372.028	94.5
372.254	72.5
372.48	98.5
372.706	94.5
372.932	97.5
373.158	77.5
373.384	98.5
373.61	117.5
373.835	90.5
374.061	89.5
374.287	91.5
374.513	83.5
374.739	105.5
374.965	92.5
375.191	96.5
375.416	82.5
375.642	86.5
375.868	107.5
376.094	79.5
376.319	81.5
376.545	88.5
376.771	78.5
376.997	71.5
377.222	93.5
377.448	84.5
377.674	78.5
377.899	74.5
378.125	92.5
378.35	81.5
378.576	85.5
378.802	77.5
379.027	92.5
379.253	96.5
379.478	92.5
379.704	100.5
379.929	91.5
380.155	89.5
380.38	86.5
380.606	84.5
380.831	94.5
381.057	85.5
381.282	87.5
381.507	97.5
381.733	92.5
381.958	72.5
382.184	112.5
382.409	101.5
382.634	92.5
382.86	109.5
383.085	94.5
383.31	86.5
383.535	89.5
383.761	86.5
383.986	109.5
384.211	96.5
384.436	92.5
384.662	87.5
384.887	79.5
385.112	89.5
385.337	93.5
385.562	86.5
385.787	96.5
386.013	87.5
386.238	100.5
386.463	101.5
386.688	106.5
386.913	101.5
387.138	93.5
387.363	83.5
387.588	101.5
387.813	86.5
388.038	102.5
388.263	85.5
388.488	80.5
388.713	92.5
388.938	83.5
389.163	76.5
389.387	86.5
389.612	100.5
389.837	90.5
390.062	81.5
390.287	78.5
390.512	77.5
390.736	86.5
390.961	90.5
391.186	98.5
391.411	74.5
391.636	80.5
391.86	84.5
392.085	105.5
392.31	84.5
392.534	116.5
392.759	123.5
392.984	149.5
393.208	265.5
393.433	381.5
393.658	289.5
393.882	138.5
394.107	112.5
394.331	129.5
394.556	130.5
394.78	102.5
395.005	101.5
395.229	88.5
395.454	93.5
395.678	117.5
395.903	124.5
396.127	140.5
396.352	171.5
396.576	178.5
396.801	267.5
397.025	290.5
397.249	167.5
397.474	118.5
397.698	114.5
397.922	84.5
398.147	80.5
398.371	92.5
398.595	85.5
398.82	104.5
399.044	86.5
399.268	87.5
399.492	87.5
399.717	90.5
399.941	80.5
400.165	88.5
400.389	98.5
400.613	98.5
400.837	93.5
401.062	91.5
401.286	87.5
401.51	88.5
401.734	87.5
401.958	79.5
402.182	92.5
402.406	84.5
402.63	89.5
402.854	85.5
403.078	93.5
403.302	95.5
403.526	89.5
403.75	74.5
403.974	92.5
404.198	120.5
404.422	168.5
404.645	181.5
404.869	152.5
405.093	122.5
405.317	93.5
405.541	96.5
405.765	79.5
405.988	98.5
406.212	99.5
406.436	85.5
406.66	92.5
406.883	73.5
407.107	78.5
407.331	87.5
407.555	96.5
407.778	103.5
408.002	120.5
408.226	91.5
408.449	91.5
408.673	73.5
408.896	80.5
409.12	80.5
409.344	92.5
409.567	98.5
409.791	96.5
410.014	91.5
410.238	82.5
410.461	80.5
410.685	85.5
410.908	83.5
411.132	103.5
411.355	72.5
411.578	87.5
411.802	88.5
412.025	79.5
412.249	92.5
412.472	88.5
412.695	85.5
412.919	82.5
413.142	77.5
413.365	82.5
413.589	76.5
413.812	89.5
414.035	88.5
414.258	78.5
414.482	72.5
414.705	82.5
414.928	92.5
415.151	81.5
415.374	82.5
415.597	85.5
415.821	75.5
416.044	94.5
416.267	89.5
416.49	64.5
416.713	87.5
416.936	84.5
417.159	76.5
417.382	82.5
417.605	96.5
417.828	77.5
418.051	81.5
418.274	86.5
418.497	83.5
418.72	86.5
418.943	85.5
419.166	86.5
419.389	86.5
419.611	91.5
419.834	85.5
420.057	82.5
420.28	103.5
420.503	80.5
420.726	81.5
420.948	81.5
421.171	88.5
421.394	112.5
421.617	121.5
421.839	129.5
422.062	131.5
422.285	216.5
422.507	344.5
422.73	572.5
422.953	492.5
423.175	253.5
423.398	132.5
423.621	107.5
423.843	110.5
424.066	106.5
424.288	103.5
424.511	90.5
424.733	92.5
424.956	101.5
425.178	94.5
425.401	86.5
425.623	87.5
425.846	81.5
426.068	74.5
426.291	89.5
426.513	81.5
426.735	94.5
426.958	80.5
427.18	84.5
427.402	84.5
427.625	89.5
427.847	105.5
428.069	116.5
428.292	162.5
428.514	163.5
428.736	129.5
428.958	159.5
429.181	152.5
429.403	109.5
429.625	112.5
429.847	134.5
430.069	190.5
430.292	244.5
430.514	208.5
430.736	149.5
430.958	178.5
431.18	117.5
431.402	89.5
431.624	88.5
431.846	132.5
432.068	173.5
432.29	116.5
432.512	94.5
432.734	86.5
432.956	88.5
433.178	89.5
433.4	72.5
433.622	85.5
433.844	95.5
434.066	85.5
434.287	82.5
434.509	78.5
434.731	69.5
434.953	92.5
435.175	68.5
435.397	93.5
435.618	84.5
435.84	96.5
436.062	96.5
436.284	81.5
436.505	86.5
436.727	91.5
436.949	83.5
437.17	86.5
437.392	93.5
437.614	72.5
437.835	78.5
438.057	85.5
438.278	83.5
438.5	94.5
438.721	90.5
438.943	77.5
439.165	85.5
439.386	74.5
439.608	96.5
439.829	83.5
440.05	84.5
440.272	90.5
440.493	81.5
440.715	91.5
440.936	91.5
441.158	79.5
441.379	99.5
441.6	87.5
441.822	80.5
442.043	92.5
442.264	107.5
442.486	142.5
442.707	205.5
442.928	136.5
443.149	117.5
443.371	194.5
443.592	320.5
443.813	254.5
444.034	123.5
444.255	104.5
444.476	98.5
444.698	100.5
444.919	113.5
445.14	216.5
445.361	256.5
445.582	390.5
445.803	323.5
446.024	148.5
446.245	92.5
446.466	90.5
446.687	93.5
446.908	77.5
447.129	86.5
447.35	103.5
447.571	85.5
447.792	81.5
448.013	84.5
448.234	96.5
448.455	87.5
448.675	83.5
448.896	90.5
449.117	96.5
449.338	103.5
449.559	91.5
449.779	94.5
450	93.5
450.221	80.5
450.442	89.5
450.662	86.5
450.883	84.5
451.104	83.5
451.324	91.5
451.545	82.5
451.766	98.5
451.986	90.5
452.207	97.5
452.428	80.5
452.648	95.5
452.869	93.5
453.089	88.5
453.31	79.5
453.53	89.5
453.751	93.5
453.971	87.5
454.192	83.5
454.412	85.5
454.633	82.5
454.853	78.5
455.073	87.5
455.294	80.5
455.514	92.5
455.734	85.5
455.955	90.5
456.175	90.5
456.395	84.5
456.616	100.5
456.836	85.5
457.056	75.5
457.276	75.5
457.497	98.5
457.717	92.5
457.937	101.5
458.157	128.5
458.377	124.5
458.598	121.5
458.818	136.5
459.038	88.5
459.258	97.5
459.478	84.5
459.698	101.5
459.918	85.5
460.138	96.5
460.358	96.5
460.578	97.5
460.798	133.5
461.018	138.5
461.238	94.5
461.458	89.5
461.678	89.5
461.898	89.5
462.118	91.5
462.338	82.5
462.558	88.5
462.777	77.5
462.997	88.5
463.217	81.5
463.437	82.5
463.657	89.5
463.876	84.5
464.096	89.5
464.316	84.5
464.536	78.5
464.755	89.5
464.975	80.5
465.195	79.5
465.414	90.5
465.634	96.5
465.854	90.5
466.073	86.5
466.293	98.5
466.512	78.5
466.732	77.5
466.951	87.5
467.171	86.5
467.391	90.5
467.61	99.5
467.829	77.5
468.049	93.5
468.268	86.5
468.488	84.5
468.707	91.5
468.927	88.5
469.146	83.5
469.365	106.5
469.585	88.5
469.804	82.5
470.023	89.5
470.243	93.5
470.462	93.5
470.681	92.5
470.901	90.5
471.12	97.5
471.339	83.5
471.558	82.5
471.777	90.5
471.997	78.5
472.216	94.5
472.435	85.5
472.654	73.5
472.873	90.5
473.092	84.5
473.311	76.5
473.53	85.5
473.749	87.5
473.968	88.5
474.187	81.5
474.406	88.5
474.625	74.5
474.844	84.5
475.063	80.5
475.282	92.5
475.501	92.5
475.72	89.5
475.939	78.5
476.158	84.5
476.377	87.5
476.596	86.5
476.814	93.5
477.033	96.5
477.252	88.5
477.471	92.5
477.69	88.5
477.908	90.5
478.127	97.5
478.346	83.5
478.564	87.5
478.783	93.5
479.002	78.5
479.22	84.5
479.439	93.5
479.658	102.5
479.876	90.5
480.095	95.5
480.313	97.5
480.532	87.5
480.751	76.5
480.969	89.5
481.188	67.5
481.406	102.5
481.624	93.5
481.843	79.5
482.061	80.5
482.28	92.5
482.498	83.5
482.717	81.5
482.935	89.5
483.153	98.5
483.372	92.5
483.59	77.5
483.808	95.5
484.027	89.5
484.245	98.5
484.463	80.5
484.681	101.5
484.9	75.5
485.118	88.5
485.336	80.5
485.554	89.5
485.772	88.5
485.99	92.5
486.209	107.5
486.427	99.5
486.645	92.5
486.863	78.5
487.081	82.5
487.299	88.5
487.517	85.5
487.735	115.5
487.953	176.5
488.171	160.5
488.389	106.5
488.607	97.5
488.825	90.5
489.043	86.5
489.261	90.5
489.479	77.5
489.696	76.5
489.914	94.5
490.132	98.5
490.35	70.5
490.568	86.5
490.786	100.5
491.003	101.5
491.221	94.5
491.439	90.5
491.657	102.5
491.874	87.5
492.092	88.5
492.31	86.5
492.527	84.5
492.745	101.5
492.963	80.5
493.18	92.5
493.398	94.5
493.615	95.5
493.833	94.5
494.05	97.5
494.268	81.5
494.485	83.5
494.703	94.5
494.92	80.5
495.138	91.5
495.355	72.5
495.573	88.5
495.79	100.5
496.008	113.5
496.225	91.5
496.442	96.5
496.66	84.5
496.877	93.5
497.094	98.5
497.312	96.5
497.529	86.5
497.746	92.5
497.963	88.5
498.181	90.5
498.398	87.5
498.615	86.5
498.832	79.5
499.049	97.5
499.267	72.5
499.484	84.5
499.701	79.5
499.918	94.5
500.135	84.5
500.352	96.5
500.569	91.5
500.786	87.5
501.003	89.5
501.22	77.5
501.437	94.5
501.654	97.5
501.871	86.5
502.088	94.5
502.305	100.5
502.522	93.5
502.739	99.5
502.956	99.5
503.172	75.5
503.389	87.5
503.606	89.5
503.823	85.5
504.04	100.5
504.256	140.5
504.473	129.5
504.69	120.5
504.907	91.5
505.123	83.5
505.34	91.5
505.557	93.5
505.773	86.5
505.99	91.5
506.207	80.5
506.423	90.5
506.64	85.5
506.856	92.5
507.073	84.5
507.289	86.5
507.506	80.5
507.722	97.5
507.939	87.5
508.155	97.5
508.372	97.5
508.588	97.5
508.805	97.5
509.021	96.5
509.238	84.5
509.454	94.5
509.67	92.5
509.887	88.5
510.103	94.5
510.319	97.5
510.536	105.5
510.752	92.5
510.968	84.5
511.184	98.5
511.401	86.5
511.617	94.5
511.833	96.5
512.049	85.5
512.265	88.5
512.481	91.5
512.698	90.5
512.914	83.5
513.13	74.5
513.346	76.5
513.562	91.5
513.778	93.5
513.994	93.5
514.21	85.5
514.426	97.5
514.642	100.5
514.858	93.5
515.074	93.5
515.29	91.5
515.506	92.5
515.721	82.5
515.937	100.5
516.153	89.5
516.369	84.5
516.585	89.5
516.801	78.5
517.016	89.5
517.232	88.5
517.448	100.5
517.664	100.5
517.879	96.5
518.095	84.5
518.311	94.5
518.527	121.5
518.742	117.5
518.958	162.5
519.173	152.5
519.389	119.5
519.605	102.5
519.82	80.5
520.036	88.5
520.251	84.5
520.467	80.5
520.682	79.5
520.898	103.5
521.113	83.5
521.329	97.5
521.544	91.5
521.76	87.5
521.975	89.5
522.19	93.5
522.406	86.5
522.621	102.5
522.836	81.5
523.052	85.5
523.267	91.5
523.482	91.5
523.698	87.5
523.913	85.5
524.128	104.5
524.343	86.5
524.559	97.5
524.774	73.5
524.989	82.5
525.204	92.5
525.419	94.5
525.634	98.5
525.849	107.5
526.064	135.5
526.28	244.5
526.495	345.5
526.71	380.5
526.925	277.5
527.14	338.5
527.355	328.5
527.57	108.5
527.785	88.5
527.999	89.5
528.214	97.5
528.429	100.5
528.644	95.5
528.859	91.5
529.074	96.5
529.289	78.5
529.503	97.5
529.718	88.5
529.933	89.5
530.148	92.5
530.363	83.5
530.577	90.5
530.792	84.5
531.007	102.5
531.221	101.5
531.436	87.5
531.651	94.5
531.865	95.5
532.08	77.5
532.295	101.5
532.509	93.5
532.724	94.5
532.938	88.5
533.153	102.5
533.367	91.5
533.582	90.5
533.796	98.5
534.011	93.5
534.225	96.5
534.44	118.5
534.654	122.5
534.868	126.5
535.083	167.5
535.297	147.5
535.511	123.5
535.726	100.5
535.94	90.5
536.154	106.5
536.369	107.5
536.583	72.5
536.797	103.5
537.011	100.5
537.225	84.5
537.44	94.5
537.654	118.5
