Data from HP_1_HRD10591_00047.txt Node
Date: Mon Jan 19 14:15:31 EST 2026
User: Yrep
Spectrometer: HR+D1059
Trigger mode: 1
Integration Time (sec): 1.000000E-1
Scans to average: 1
Electric dark correction enabled: true
Nonlinearity correction enabled: false
Boxcar width: 0
XAxis mode: Wavelengths
Number of Pixels in Spectrum: 2048
>>>>>Begin Spectral Data<<<<<
223.165	-17
223.4	-17
223.635	-17
223.869	-31
224.104	-30
224.338	-20
224.573	-5
224.808	-10
225.042	3
225.277	-6
225.511	12
225.746	8
225.98	18
226.215	7
226.449	16
226.683	14
226.918	13
227.152	28
227.387	48
227.621	53
227.856	49
228.09	48
228.324	52
228.559	52
228.793	67
229.027	60
229.262	72
229.496	60
229.73	87
229.964	73
230.199	70
230.433	68
230.667	66
230.901	63
231.136	73
231.37	70
231.604	87
231.838	80
232.072	68
232.306	96
232.541	91
232.775	84
233.009	73
233.243	82
233.477	91
233.711	67
233.945	82
234.179	89
234.413	74
234.647	77
234.881	77
235.115	84
235.349	88
235.583	80
235.817	81
236.051	75
236.285	78
236.519	72
236.753	87
236.987	82
237.221	83
237.455	72
237.689	85
237.922	77
238.156	76
238.39	66
238.624	72
238.858	71
239.091	75
239.325	76
239.559	75
239.793	73
240.027	76
240.26	75
240.494	75
240.728	78
240.961	80
241.195	71
241.429	75
241.662	82
241.896	71
242.13	68
242.363	84
242.597	80
242.83	55
243.064	76
243.298	65
243.531	70
243.765	77
243.998	67
244.232	66
244.465	82
244.699	78
244.932	90
245.166	88
245.399	71
245.633	79
245.866	75
246.099	90
246.333	71
246.566	75
246.8	72
247.033	72
247.266	66
247.5	76
247.733	86
247.966	73
248.2	71
248.433	71
248.666	79
248.899	90
249.133	77
249.366	92
249.599	80
249.832	82
250.066	82
250.299	91
250.532	83
250.765	68
250.998	74
251.231	84
251.465	77
251.698	74
251.931	80
252.164	83
252.397	68
252.63	64
252.863	87
253.096	87
253.329	83
253.562	79
253.795	82
254.028	87
254.261	76
254.494	76
254.727	68
254.96	85
255.193	91
255.426	84
255.659	90
255.892	76
256.124	81
256.357	82
256.59	89
256.823	95
257.056	73
257.289	68
257.521	76
257.754	88
257.987	90
258.22	79
258.452	73
258.685	68
258.918	79
259.151	74
259.383	82
259.616	68
259.849	81
260.081	77
260.314	88
260.547	72
260.779	72
261.012	83
261.244	81
261.477	77
261.71	85
261.942	74
262.175	69
262.407	65
262.64	74
262.872	76
263.105	73
263.337	75
263.57	68
263.802	76
264.035	67
264.267	87
264.499	90
264.732	68
264.964	77
265.197	95
265.429	86
265.661	88
265.894	70
266.126	76
266.358	68
266.591	67
266.823	74
267.055	86
267.287	100
267.52	82
267.752	81
267.984	77
268.216	71
268.448	84
268.681	85
268.913	76
269.145	64
269.377	68
269.609	71
269.841	90
270.073	90
270.306	98
270.538	84
270.77	72
271.002	87
271.234	87
271.466	83
271.698	73
271.93	75
272.162	96
272.394	86
272.626	89
272.858	80
273.09	98
273.322	76
273.553	87
273.785	84
274.017	101
274.249	70
274.481	82
274.713	79
274.945	82
275.176	65
275.408	77
275.64	82
275.872	78
276.104	81
276.335	84
276.567	78
276.799	82
277.031	85
277.262	81
277.494	78
277.726	77
277.957	79
278.189	83
278.421	73
278.652	82
278.884	70
279.115	78
279.347	75
279.579	81
279.81	97
280.042	84
280.273	92
280.505	86
280.736	79
280.968	69
281.199	71
281.431	77
281.662	75
281.894	85
282.125	73
282.356	89
282.588	92
282.819	95
283.051	80
283.282	86
283.513	84
283.745	82
283.976	64
284.207	82
284.439	75
284.67	94
284.901	91
285.132	88
285.364	80
285.595	74
285.826	75
286.057	86
286.288	82
286.52	97
286.751	93
286.982	76
287.213	98
287.444	89
287.675	84
287.906	86
288.138	87
288.369	80
288.6	83
288.831	70
289.062	75
289.293	80
289.524	82
289.755	84
289.986	91
290.217	90
290.448	79
290.679	98
290.91	80
291.141	74
291.371	80
291.602	85
291.833	77
292.064	78
292.295	86
292.526	80
292.757	79
292.987	83
293.218	88
293.449	82
293.68	83
293.91	73
294.141	86
294.372	70
294.603	83
294.833	61
295.064	86
295.295	94
295.525	90
295.756	76
295.987	82
296.217	88
296.448	85
296.679	80
296.909	82
297.14	90
297.37	91
297.601	88
297.831	86
298.062	97
298.292	72
298.523	80
298.753	67
298.984	96
299.214	83
299.445	90
299.675	96
299.905	79
300.136	93
300.366	71
300.597	85
300.827	80
301.057	92
301.288	73
301.518	90
301.748	85
301.979	118
302.209	98
302.439	88
302.669	80
302.9	82
303.13	71
303.36	82
303.59	82
303.82	86
304.051	86
304.281	84
304.511	73
304.741	61
304.971	78
305.201	88
305.431	89
305.661	82
305.891	82
306.121	89
306.352	88
306.582	70
306.812	81
307.042	82
307.272	96
307.502	92
307.731	78
307.961	84
308.191	90
308.421	92
308.651	77
308.881	74
309.111	79
309.341	86
309.571	96
309.8	80
310.03	83
310.26	87
310.49	92
310.72	94
310.949	72
311.179	92
311.409	91
311.639	84
311.868	95
312.098	72
312.328	78
312.557	82
312.787	83
313.017	84
313.246	83
313.476	82
313.706	76
313.935	93
314.165	78
314.394	74
314.624	85
314.853	79
315.083	87
315.312	88
315.542	83
315.771	71
316.001	90
316.23	95
316.46	82
316.689	88
316.919	86
317.148	81
317.377	86
317.607	113
317.836	73
318.065	92
318.295	90
318.524	81
318.753	82
318.983	83
319.212	83
319.441	86
319.67	82
319.9	89
320.129	92
320.358	83
320.587	81
320.816	84
321.046	89
321.275	87
321.504	72
321.733	82
321.962	82
322.191	85
322.42	82
322.649	90
322.878	86
323.108	86
323.337	74
323.566	84
323.795	92
324.024	86
324.253	94
324.482	81
324.71	82
324.939	95
325.168	74
325.397	79
325.626	84
325.855	94
326.084	60
326.313	85
326.542	81
326.77	95
326.999	91
327.228	85
327.457	82
327.686	84
327.914	95
328.143	79
328.372	93
328.6	99
328.829	82
329.058	77
329.287	71
329.515	84
329.744	90
329.972	66
330.201	74
330.43	80
330.658	89
330.887	82
331.115	88
331.344	78
331.572	85
331.801	76
332.03	83
332.258	85
332.486	85
332.715	86
332.943	80
333.172	63
333.4	84
333.629	87
333.857	77
334.085	86
334.314	90
334.542	85
334.771	93
334.999	97
335.227	91
335.455	78
335.684	83
335.912	92
336.14	75
336.369	77
336.597	99
336.825	93
337.053	86
337.281	94
337.51	87
337.738	86
337.966	83
338.194	66
338.422	78
338.65	96
338.878	79
339.106	79
339.334	86
339.562	76
339.79	100
340.018	79
340.246	87
340.474	66
340.702	72
340.93	75
341.158	84
341.386	89
341.614	84
341.842	82
342.07	87
342.298	82
342.526	86
342.754	82
342.981	74
343.209	86
343.437	94
343.665	84
343.893	87
344.12	84
344.348	87
344.576	87
344.804	108
345.031	80
345.259	72
345.487	95
345.714	83
345.942	81
346.17	85
346.397	73
346.625	90
346.853	99
347.08	104
347.308	89
347.535	91
347.763	88
347.99	83
348.218	77
348.445	82
348.673	80
348.9	97
349.128	96
349.355	80
349.583	87
349.81	92
350.037	88
350.265	91
350.492	83
350.72	79
350.947	80
351.174	101
351.402	76
351.629	83
351.856	92
352.083	84
352.311	88
352.538	82
352.765	81
352.992	80
353.22	91
353.447	74
353.674	94
353.901	87
354.128	102
354.355	80
354.583	80
354.81	71
355.037	86
355.264	87
355.491	78
355.718	78
355.945	87
356.172	74
356.399	78
356.626	88
356.853	85
357.08	97
357.307	94
357.534	87
357.761	99
357.988	92
358.215	103
358.441	101
358.668	84
358.895	91
359.122	81
359.349	80
359.576	75
359.802	85
360.029	69
360.256	87
360.483	92
360.709	80
360.936	91
361.163	75
361.39	86
361.616	91
361.843	88
362.07	86
362.296	80
362.523	87
362.749	94
362.976	83
363.203	94
363.429	86
363.656	68
363.882	89
364.109	83
364.335	100
364.562	89
364.788	83
365.015	82
365.241	90
365.468	91
365.694	83
365.92	80
366.147	92
366.373	86
366.599	82
366.826	82
367.052	89
367.278	87
367.505	75
367.731	100
367.957	90
368.184	86
368.41	84
368.636	78
368.862	85
369.089	94
369.315	105
369.541	86
369.767	82
369.993	79
370.219	88
370.445	88
370.672	87
370.898	86
371.124	90
371.35	78
371.576	75
371.802	85
372.028	88
372.254	86
372.48	86
372.706	95
372.932	70
373.158	91
373.384	78
373.61	96
373.835	95
374.061	91
374.287	81
374.513	87
374.739	83
374.965	89
375.191	88
375.416	85
375.642	80
375.868	105
376.094	86
376.319	71
376.545	88
376.771	91
376.997	82
377.222	81
377.448	74
377.674	88
377.899	82
378.125	77
378.35	82
378.576	85
378.802	76
379.027	81
379.253	86
379.478	79
379.704	86
379.929	75
380.155	77
380.38	86
380.606	84
380.831	85
381.057	85
381.282	98
381.507	75
381.733	90
381.958	84
382.184	75
382.409	90
382.634	88
382.86	95
383.085	101
383.31	107
383.535	84
383.761	75
383.986	89
384.211	87
384.436	71
384.662	69
384.887	72
385.112	80
385.337	84
385.562	80
385.787	88
386.013	79
386.238	88
386.463	82
386.688	93
386.913	96
387.138	86
387.363	93
387.588	94
387.813	85
388.038	86
388.263	83
388.488	85
388.713	89
388.938	77
389.163	79
389.387	75
389.612	80
389.837	62
390.062	79
390.287	70
390.512	94
390.736	88
390.961	72
391.186	85
391.411	90
391.636	85
391.86	89
392.085	74
392.31	80
392.534	108
392.759	97
392.984	142
393.208	214
393.433	331
393.658	233
393.882	110
394.107	101
394.331	88
394.556	111
394.78	97
395.005	89
395.229	81
395.454	90
395.678	94
395.903	101
396.127	120
396.352	144
396.576	145
396.801	224
397.025	238
397.249	136
397.474	102
397.698	95
397.922	75
398.147	82
398.371	89
398.595	90
398.82	74
399.044	82
399.268	85
399.492	81
399.717	91
399.941	82
400.165	78
400.389	85
400.613	80
400.837	88
401.062	70
401.286	87
401.51	89
401.734	77
401.958	84
402.182	81
402.406	80
402.63	85
402.854	70
403.078	82
403.302	94
403.526	88
403.75	84
403.974	94
404.198	89
404.422	128
404.645	120
404.869	102
405.093	94
405.317	78
405.541	84
405.765	88
405.988	86
406.212	81
406.436	85
406.66	82
406.883	64
407.107	80
407.331	94
407.555	95
407.778	95
408.002	117
408.226	68
408.449	77
408.673	80
408.896	86
409.12	70
409.344	96
409.567	83
409.791	86
410.014	75
410.238	70
410.461	74
410.685	74
410.908	68
411.132	89
411.355	73
411.578	89
411.802	72
412.025	82
412.249	80
412.472	78
412.695	72
412.919	76
413.142	68
413.365	87
413.589	80
413.812	81
414.035	97
414.258	92
414.482	85
414.705	77
414.928	82
415.151	90
415.374	96
415.597	84
415.821	94
416.044	66
416.267	79
416.49	69
416.713	76
416.936	73
417.159	76
417.382	93
417.605	89
417.828	87
418.051	83
418.274	76
418.497	86
418.72	70
418.943	93
419.166	74
419.389	82
419.611	84
419.834	89
420.057	83
420.28	90
420.503	77
420.726	84
420.948	90
421.171	79
421.394	86
421.617	92
421.839	95
422.062	94
422.285	108
422.507	188
422.73	287
422.953	255
423.175	118
423.398	102
423.621	92
423.843	92
424.066	74
424.288	83
424.511	76
424.733	84
424.956	87
425.178	77
425.401	74
425.623	88
425.846	82
426.068	88
426.291	99
426.513	81
426.735	75
426.958	87
427.18	68
427.402	88
427.625	83
427.847	78
428.069	83
428.292	114
428.514	107
428.736	106
428.958	103
429.181	100
429.403	92
429.625	99
429.847	100
430.069	132
430.292	134
430.514	129
430.736	104
430.958	108
431.18	79
431.402	93
431.624	90
431.846	114
432.068	100
432.29	79
432.512	89
432.734	87
432.956	89
433.178	79
433.4	70
433.622	88
433.844	73
434.066	91
434.287	79
434.509	80
434.731	80
434.953	75
435.175	91
435.397	75
435.618	87
435.84	71
436.062	70
436.284	83
436.505	75
436.727	90
436.949	75
437.17	71
437.392	76
437.614	87
437.835	71
438.057	82
438.278	86
438.5	85
438.721	78
438.943	87
439.165	81
439.386	73
439.608	65
439.829	79
440.05	80
440.272	94
440.493	84
440.715	65
440.936	75
441.158	85
441.379	76
441.6	78
441.822	80
442.043	86
442.264	80
442.486	88
442.707	95
442.928	90
443.149	92
443.371	96
443.592	144
443.813	138
444.034	102
444.255	82
444.476	82
444.698	79
444.919	86
445.14	174
445.361	166
445.582	193
445.803	154
446.024	103
446.245	95
446.466	79
446.687	96
446.908	82
447.129	82
447.35	72
447.571	70
447.792	83
448.013	76
448.234	70
448.455	88
448.675	82
448.896	74
449.117	89
449.338	74
449.559	82
449.779	86
450	74
450.221	82
450.442	77
450.662	71
450.883	66
451.104	82
451.324	86
451.545	91
451.766	91
451.986	83
452.207	92
452.428	91
452.648	75
452.869	92
453.089	82
453.31	83
453.53	81
453.751	82
453.971	89
454.192	64
454.412	66
454.633	71
454.853	84
455.073	80
455.294	85
455.514	74
455.734	91
455.955	74
456.175	70
456.395	63
456.616	74
456.836	82
457.056	76
457.276	77
457.497	82
457.717	82
457.937	81
458.157	77
458.377	99
458.598	98
458.818	85
459.038	90
459.258	86
459.478	88
459.698	78
459.918	80
460.138	78
460.358	83
460.578	103
460.798	83
461.018	116
461.238	98
461.458	88
461.678	83
461.898	86
462.118	88
462.338	76
462.558	66
462.777	87
462.997	92
463.217	81
463.437	78
463.657	80
463.876	90
464.096	78
464.316	83
464.536	80
464.755	85
464.975	75
465.195	83
465.414	70
465.634	81
465.854	82
466.073	83
466.293	84
466.512	82
466.732	81
466.951	98
467.171	86
467.391	76
467.61	81
467.829	88
468.049	84
468.268	83
468.488	81
468.707	83
468.927	79
469.146	89
469.365	78
469.585	84
469.804	81
470.023	86
470.243	80
470.462	84
470.681	83
470.901	83
471.12	92
471.339	91
471.558	80
471.777	79
471.997	89
472.216	91
472.435	83
472.654	86
472.873	92
473.092	80
473.311	67
473.53	91
473.749	79
473.968	82
474.187	74
474.406	82
474.625	87
474.844	80
475.063	84
475.282	93
475.501	81
475.72	104
475.939	82
476.158	95
476.377	87
476.596	80
476.814	81
477.033	80
477.252	70
477.471	75
477.69	77
477.908	91
478.127	86
478.346	94
478.564	88
478.783	84
479.002	79
479.22	84
479.439	86
479.658	87
479.876	87
480.095	84
480.313	87
480.532	92
480.751	72
480.969	83
481.188	74
481.406	83
481.624	75
481.843	78
482.061	71
482.28	96
482.498	84
482.717	80
482.935	64
483.153	88
483.372	95
483.59	81
483.808	84
484.027	87
484.245	78
484.463	82
484.681	95
484.9	79
485.118	79
485.336	92
485.554	85
485.772	78
485.99	72
486.209	79
486.427	75
486.645	83
486.863	94
487.081	72
487.299	84
487.517	87
487.735	101
487.953	98
488.171	102
488.389	83
488.607	80
488.825	82
489.043	68
489.261	78
489.479	74
489.696	88
489.914	74
490.132	99
490.35	78
490.568	82
490.786	80
491.003	86
491.221	83
491.439	90
491.657	70
491.874	79
492.092	79
492.31	94
492.527	80
492.745	86
492.963	90
493.18	92
493.398	74
493.615	82
493.833	83
494.05	80
494.268	95
494.485	81
494.703	82
494.92	80
495.138	88
495.355	92
495.573	81
495.79	82
496.008	90
496.225	86
496.442	83
496.66	91
496.877	100
497.094	75
497.312	80
497.529	78
497.746	95
497.963	81
498.181	87
498.398	77
498.615	74
498.832	77
499.049	73
499.267	80
499.484	77
499.701	79
499.918	99
500.135	76
500.352	80
500.569	94
500.786	87
501.003	83
501.22	84
501.437	89
501.654	88
501.871	73
502.088	76
502.305	88
502.522	89
502.739	93
502.956	80
503.172	77
503.389	88
503.606	72
503.823	89
504.04	84
504.256	91
504.473	114
504.69	90
504.907	104
505.123	88
505.34	74
505.557	91
505.773	86
505.99	83
506.207	93
506.423	87
506.64	80
506.856	83
507.073	80
507.289	89
507.506	78
507.722	81
507.939	101
508.155	84
508.372	90
508.588	84
508.805	93
509.021	86
509.238	78
509.454	78
509.67	79
509.887	86
510.103	76
510.319	69
510.536	78
510.752	76
510.968	80
511.184	92
511.401	107
511.617	94
511.833	88
512.049	80
512.265	88
512.481	89
512.698	95
512.914	84
513.13	79
513.346	74
513.562	88
513.778	86
513.994	97
514.21	90
514.426	86
514.642	68
514.858	86
515.074	87
515.29	92
515.506	78
515.721	87
515.937	81
516.153	90
516.369	75
516.585	70
516.801	84
517.016	84
517.232	88
517.448	84
517.664	94
517.879	82
518.095	74
518.311	84
518.527	88
518.742	96
518.958	102
519.173	99
519.389	92
519.605	93
519.82	70
520.036	88
520.251	75
520.467	64
520.682	80
520.898	72
521.113	94
521.329	92
521.544	86
521.76	82
521.975	82
522.19	89
522.406	91
522.621	87
522.836	89
523.052	88
523.267	84
523.482	75
523.698	88
523.913	82
524.128	82
524.343	83
524.559	70
524.774	82
524.989	92
525.204	90
525.419	91
525.634	92
525.849	86
526.064	96
526.28	118
526.495	141
526.71	160
526.925	120
527.14	166
527.355	144
527.57	88
527.785	98
527.999	92
528.214	75
528.429	69
528.644	82
528.859	82
529.074	90
529.289	80
529.503	80
529.718	71
529.933	85
530.148	86
530.363	84
530.577	84
530.792	101
531.007	80
531.221	82
531.436	84
531.651	88
531.865	75
532.08	82
532.295	71
532.509	91
532.724	66
532.938	82
533.153	87
533.367	83
533.582	97
533.796	69
534.011	85
534.225	74
534.44	94
534.654	96
534.868	99
535.083	109
535.297	115
535.511	86
535.726	80
535.94	96
536.154	77
536.369	83
536.583	80
536.797	84
537.011	97
537.225	77
537.44	97
537.654	96
537.868	84
538.082	86
538.296	88
538.51	96
538.724	85
538.938	94
539.153	86
539.367	82
539.581	100
539.795	90
540.009	78
540.222	82
540.436	85
540.65	99
540.864	88
541.078	81
541.292	90
541.506	99
541.72	80
541.934	73
542.147	82
542.361	86
542.575	80
542.789	81
543.002	86
543.216	80
543.43	81
543.644	92
543.857	80
544.071	82
544.285	78
544.498	82
544.712	80
544.925	86
545.139	76
545.352	84
545.566	82
545.779	95
545.993	102
546.206	87
546.42	95
546.633	88
546.847	97
547.06	102
547.274	96
547.487	98
547.7	91
547.914	100
548.127	104
548.34	91
548.554	92
548.767	93
548.98	108
549.193	89
549.407	98
549.62	90
549.833	94
550.046	79
550.259	98
550.473	88
550.686	114
550.899	110
551.112	114
551.325	100
551.538	127
551.751	107
551.964	107
552.177	114
552.39	98
552.603	108
552.816	101
553.029	112
553.242	104
553.455	107
553.667	114
553.88	104
554.093	94
554.306	100
554.519	108
554.732	101
554.944	105
555.157	108
555.37	99
555.583	104
555.795	105
556.008	88
556.221	100
556.433	108
556.646	108
556.859	100
557.071	85
557.284	93
557.496	100
557.709	80
557.921	78
558.134	97
558.346	120
558.559	91
558.771	95
558.984	178
559.196	204
559.409	122
559.621	160
559.833	136
560.046	138
560.258	127
560.47	125
560.683	105
560.895	95
561.107	82
561.32	87
561.532	70
561.744	94
561.956	77
562.168	90
562.381	88
562.593	73
562.805	70
563.017	86
563.229	91
563.441	96
563.653	90
563.865	97
564.077	86
564.289	104
564.501	88
564.713	81
564.925	86
565.137	92
565.349	85
565.561	74
565.773	89
565.985	78
566.197	82
566.408	79
566.62	93
566.832	100
567.044	86
567.255	91
567.467	88
567.679	84
567.891	67
568.102	84
568.314	83
568.526	76
568.737	99
568.949	89
569.161	96
569.372	83
569.584	86
569.795	90
570.007	76
570.218	91
570.43	73
570.641	88
570.853	92
571.064	72
571.276	84
571.487	91
571.698	68
571.91	78
572.121	92
572.333	93
572.544	82
572.755	79
572.966	88
573.178	89
573.389	88
573.6	93
573.811	90
574.023	93
574.234	94
574.445	84
574.656	86
574.867	70
575.078	90
575.289	82
575.501	87
575.712	81
575.923	83
576.134	95
576.345	82
576.556	82
576.767	90
576.978	87
577.188	83
577.399	83
577.61	81
577.821	81
578.032	84
578.243	101
578.454	95
578.665	100
578.875	90
579.086	77
579.297	95
579.508	85
579.718	86
579.929	80
580.14	92
580.35	95
580.561	106
580.772	94
580.982	83
581.193	93
581.403	100
581.614	91
581.825	80
582.035	90
582.246	84
582.456	74
582.667	77
582.877	74
583.087	89
583.298	96
583.508	86
583.719	98
583.929	96
584.139	87
584.35	90
584.56	95
584.77	88
584.981	81
585.191	81
585.401	85
585.611	93
585.821	98
586.032	137
586.242	100
586.452	89
586.662	82
586.872	97
587.082	90
587.292	79
587.502	83
587.713	95
587.923	94
588.133	89
588.343	89
588.553	76
588.762	118
