Data from HP_1_HRD10591_00024.txt Node
Date: Mon Jan 19 14:15:19 EST 2026
User: Yrep
Spectrometer: HR+D1059
Trigger mode: 1
Integration Time (sec): 1.000000E-1
Scans to average: 1
Electric dark correction enabled: true
Nonlinearity correction enabled: false
Boxcar width: 0
XAxis mode: Wavelengths
Number of Pixels in Spectrum: 2048
>>>>>Begin Spectral Data<<<<<
223.165	-18.06
223.4	-18.06
223.635	-18.06
223.869	-18.06
224.104	-8.06
224.338	-18.06
224.573	-18.06
224.808	-5.06
225.042	-4.06
225.277	-1.06
225.511	-9.06
225.746	11.94
225.98	5.94
226.215	10.94
226.449	3.94
226.683	19.94
226.918	15.94
227.152	30.94
227.387	34.94
227.621	48.94
227.856	39.94
228.09	38.94
228.324	58.94
228.559	55.94
228.793	60.94
229.027	73.94
229.262	57.94
229.496	65.94
229.73	54.94
229.964	65.94
230.199	67.94
230.433	83.94
230.667	77.94
230.901	69.94
231.136	78.94
231.37	68.94
231.604	73.94
231.838	76.94
232.072	72.94
232.306	94.94
232.541	80.94
232.775	81.94
233.009	78.94
233.243	86.94
233.477	72.94
233.711	92.94
233.945	71.94
234.179	67.94
234.413	90.94
234.647	86.94
234.881	87.94
235.115	74.94
235.349	73.94
235.583	73.94
235.817	68.94
236.051	66.94
236.285	74.94
236.519	74.94
236.753	74.94
236.987	87.94
237.221	54.94
237.455	78.94
237.689	81.94
237.922	75.94
238.156	62.94
238.39	100.94
238.624	82.94
238.858	72.94
239.091	81.94
239.325	88.94
239.559	65.94
239.793	78.94
240.027	74.94
240.26	71.94
240.494	74.94
240.728	72.94
240.961	85.94
241.195	77.94
241.429	74.94
241.662	74.94
241.896	64.94
242.13	72.94
242.363	66.94
242.597	75.94
242.83	59.94
243.064	72.94
243.298	76.94
243.531	71.94
243.765	67.94
243.998	74.94
244.232	72.94
244.465	61.94
244.699	77.94
244.932	77.94
245.166	55.94
245.399	66.94
245.633	76.94
245.866	69.94
246.099	70.94
246.333	77.94
246.566	79.94
246.8	91.94
247.033	78.94
247.266	67.94
247.5	81.94
247.733	87.94
247.966	71.94
248.2	82.94
248.433	79.94
248.666	71.94
248.899	83.94
249.133	73.94
249.366	86.94
249.599	80.94
249.832	84.94
250.066	88.94
250.299	77.94
250.532	80.94
250.765	75.94
250.998	63.94
251.231	73.94
251.465	81.94
251.698	69.94
251.931	78.94
252.164	81.94
252.397	87.94
252.63	79.94
252.863	76.94
253.096	71.94
253.329	81.94
253.562	89.94
253.795	74.94
254.028	83.94
254.261	90.94
254.494	78.94
254.727	85.94
254.96	79.94
255.193	76.94
255.426	73.94
255.659	66.94
255.892	85.94
256.124	91.94
256.357	63.94
256.59	75.94
256.823	81.94
257.056	81.94
257.289	79.94
257.521	83.94
257.754	91.94
257.987	73.94
258.22	90.94
258.452	86.94
258.685	82.94
258.918	62.94
259.151	75.94
259.383	73.94
259.616	72.94
259.849	78.94
260.081	69.94
260.314	75.94
260.547	81.94
260.779	75.94
261.012	82.94
261.244	74.94
261.477	89.94
261.71	73.94
261.942	83.94
262.175	78.94
262.407	74.94
262.64	81.94
262.872	73.94
263.105	79.94
263.337	101.94
263.57	75.94
263.802	87.94
264.035	80.94
264.267	87.94
264.499	77.94
264.732	86.94
264.964	68.94
265.197	80.94
265.429	63.94
265.661	73.94
265.894	63.94
266.126	95.94
266.358	70.94
266.591	74.94
266.823	75.94
267.055	85.94
267.287	82.94
267.52	81.94
267.752	87.94
267.984	67.94
268.216	78.94
268.448	72.94
268.681	79.94
268.913	89.94
269.145	72.94
269.377	86.94
269.609	70.94
269.841	77.94
270.073	65.94
270.306	75.94
270.538	84.94
270.77	77.94
271.002	76.94
271.234	84.94
271.466	101.94
271.698	80.94
271.93	86.94
272.162	83.94
272.394	90.94
272.626	89.94
272.858	88.94
273.09	84.94
273.322	90.94
273.553	90.94
273.785	84.94
274.017	69.94
274.249	68.94
274.481	86.94
274.713	93.94
274.945	76.94
275.176	91.94
275.408	84.94
275.64	75.94
275.872	93.94
276.104	95.94
276.335	88.94
276.567	89.94
276.799	72.94
277.031	81.94
277.262	71.94
277.494	81.94
277.726	83.94
277.957	69.94
278.189	82.94
278.421	87.94
278.652	91.94
278.884	79.94
279.115	76.94
279.347	86.94
279.579	74.94
279.81	74.94
280.042	92.94
280.273	87.94
280.505	87.94
280.736	87.94
280.968	96.94
281.199	90.94
281.431	80.94
281.662	93.94
281.894	73.94
282.125	91.94
282.356	61.94
282.588	77.94
282.819	77.94
283.051	93.94
283.282	75.94
283.513	85.94
283.745	89.94
283.976	95.94
284.207	72.94
284.439	90.94
284.67	83.94
284.901	90.94
285.132	82.94
285.364	101.94
285.595	97.94
285.826	82.94
286.057	80.94
286.288	76.94
286.52	79.94
286.751	70.94
286.982	81.94
287.213	69.94
287.444	83.94
287.675	82.94
287.906	82.94
288.138	81.94
288.369	93.94
288.6	85.94
288.831	77.94
289.062	90.94
289.293	82.94
289.524	60.94
289.755	91.94
289.986	81.94
290.217	81.94
290.448	73.94
290.679	91.94
290.91	82.94
291.141	83.94
291.371	82.94
291.602	86.94
291.833	85.94
292.064	82.94
292.295	71.94
292.526	94.94
292.757	85.94
292.987	86.94
293.218	87.94
293.449	81.94
293.68	82.94
293.91	88.94
294.141	90.94
294.372	93.94
294.603	84.94
294.833	77.94
295.064	78.94
295.295	89.94
295.525	77.94
295.756	85.94
295.987	94.94
296.217	82.94
296.448	81.94
296.679	91.94
296.909	95.94
297.14	83.94
297.37	93.94
297.601	75.94
297.831	85.94
298.062	86.94
298.292	93.94
298.523	87.94
298.753	93.94
298.984	79.94
299.214	85.94
299.445	84.94
299.675	76.94
299.905	87.94
300.136	86.94
300.366	73.94
300.597	89.94
300.827	90.94
301.057	97.94
301.288	96.94
301.518	89.94
301.748	78.94
301.979	103.94
302.209	78.94
302.439	77.94
302.669	70.94
302.9	89.94
303.13	98.94
303.36	85.94
303.59	82.94
303.82	85.94
304.051	91.94
304.281	76.94
304.511	79.94
304.741	90.94
304.971	96.94
305.201	79.94
305.431	79.94
305.661	78.94
305.891	80.94
306.121	84.94
306.352	78.94
306.582	81.94
306.812	74.94
307.042	79.94
307.272	72.94
307.502	89.94
307.731	90.94
307.961	70.94
308.191	81.94
308.421	103.94
308.651	87.94
308.881	98.94
309.111	90.94
309.341	86.94
309.571	76.94
309.8	76.94
310.03	70.94
310.26	75.94
310.49	72.94
310.72	94.94
310.949	95.94
311.179	85.94
311.409	85.94
311.639	76.94
311.868	79.94
312.098	86.94
312.328	85.94
312.557	80.94
312.787	84.94
313.017	89.94
313.246	93.94
313.476	86.94
313.706	85.94
313.935	85.94
314.165	75.94
314.394	79.94
314.624	77.94
314.853	84.94
315.083	89.94
315.312	72.94
315.542	97.94
315.771	108.94
316.001	98.94
316.23	94.94
316.46	82.94
316.689	78.94
316.919	80.94
317.148	85.94
317.377	73.94
317.607	83.94
317.836	92.94
318.065	102.94
318.295	97.94
318.524	95.94
318.753	89.94
318.983	77.94
319.212	85.94
319.441	87.94
319.67	78.94
319.9	85.94
320.129	88.94
320.358	80.94
320.587	84.94
320.816	77.94
321.046	72.94
321.275	77.94
321.504	92.94
321.733	74.94
321.962	77.94
322.191	85.94
322.42	81.94
322.649	88.94
322.878	96.94
323.108	91.94
323.337	74.94
323.566	82.94
323.795	74.94
324.024	79.94
324.253	85.94
324.482	81.94
324.71	73.94
324.939	76.94
325.168	75.94
325.397	85.94
325.626	86.94
325.855	78.94
326.084	81.94
326.313	88.94
326.542	79.94
326.77	73.94
326.999	79.94
327.228	89.94
327.457	79.94
327.686	77.94
327.914	82.94
328.143	77.94
328.372	79.94
328.6	86.94
328.829	90.94
329.058	82.94
329.287	89.94
329.515	96.94
329.744	72.94
329.972	88.94
330.201	87.94
330.43	61.94
330.658	69.94
330.887	81.94
331.115	89.94
331.344	78.94
331.572	71.94
331.801	91.94
332.03	87.94
332.258	74.94
332.486	82.94
332.715	87.94
332.943	80.94
333.172	82.94
333.4	83.94
333.629	80.94
333.857	82.94
334.085	102.94
334.314	84.94
334.542	95.94
334.771	88.94
334.999	93.94
335.227	61.94
335.455	76.94
335.684	86.94
335.912	81.94
336.14	85.94
336.369	91.94
336.597	91.94
336.825	74.94
337.053	84.94
337.281	72.94
337.51	72.94
337.738	89.94
337.966	79.94
338.194	87.94
338.422	87.94
338.65	89.94
338.878	82.94
339.106	78.94
339.334	82.94
339.562	89.94
339.79	85.94
340.018	74.94
340.246	80.94
340.474	79.94
340.702	83.94
340.93	76.94
341.158	85.94
341.386	82.94
341.614	79.94
341.842	90.94
342.07	77.94
342.298	78.94
342.526	85.94
342.754	95.94
342.981	83.94
343.209	79.94
343.437	96.94
343.665	91.94
343.893	83.94
344.12	85.94
344.348	88.94
344.576	96.94
344.804	72.94
345.031	84.94
345.259	85.94
345.487	76.94
345.714	74.94
345.942	75.94
346.17	72.94
346.397	72.94
346.625	73.94
346.853	87.94
347.08	83.94
347.308	85.94
347.535	77.94
347.763	77.94
347.99	83.94
348.218	71.94
348.445	69.94
348.673	64.94
348.9	99.94
349.128	88.94
349.355	73.94
349.583	89.94
349.81	95.94
350.037	80.94
350.265	73.94
350.492	72.94
350.72	78.94
350.947	81.94
351.174	73.94
351.402	76.94
351.629	90.94
351.856	93.94
352.083	68.94
352.311	71.94
352.538	80.94
352.765	86.94
352.992	85.94
353.22	75.94
353.447	74.94
353.674	73.94
353.901	95.94
354.128	97.94
354.355	87.94
354.583	74.94
354.81	84.94
355.037	71.94
355.264	76.94
355.491	87.94
355.718	81.94
355.945	82.94
356.172	91.94
356.399	79.94
356.626	95.94
356.853	97.94
357.08	103.94
357.307	93.94
357.534	85.94
357.761	94.94
357.988	76.94
358.215	83.94
358.441	87.94
358.668	97.94
358.895	86.94
359.122	79.94
359.349	83.94
359.576	80.94
359.802	76.94
360.029	83.94
360.256	74.94
360.483	73.94
360.709	86.94
360.936	82.94
361.163	85.94
361.39	89.94
361.616	77.94
361.843	84.94
362.07	97.94
362.296	91.94
362.523	73.94
362.749	86.94
362.976	92.94
363.203	95.94
363.429	111.94
363.656	93.94
363.882	94.94
364.109	102.94
364.335	104.94
364.562	132.94
364.788	104.94
365.015	85.94
365.241	86.94
365.468	93.94
365.694	67.94
365.92	60.94
366.147	83.94
366.373	71.94
366.599	74.94
366.826	80.94
367.052	84.94
367.278	69.94
367.505	76.94
367.731	86.94
367.957	78.94
368.184	74.94
368.41	79.94
368.636	79.94
368.862	79.94
369.089	85.94
369.315	67.94
369.541	95.94
369.767	82.94
369.993	90.94
370.219	89.94
370.445	88.94
370.672	87.94
370.898	88.94
371.124	71.94
371.35	91.94
371.576	82.94
371.802	88.94
372.028	107.94
372.254	62.94
372.48	91.94
372.706	93.94
372.932	89.94
373.158	90.94
373.384	99.94
373.61	126.94
373.835	120.94
374.061	83.94
374.287	94.94
374.513	102.94
374.739	103.94
374.965	97.94
375.191	101.94
375.416	96.94
375.642	81.94
375.868	89.94
376.094	100.94
376.319	82.94
376.545	82.94
376.771	78.94
376.997	83.94
377.222	87.94
377.448	66.94
377.674	75.94
377.899	81.94
378.125	75.94
378.35	90.94
378.576	90.94
378.802	88.94
379.027	87.94
379.253	85.94
379.478	85.94
379.704	67.94
379.929	87.94
380.155	97.94
380.38	86.94
380.606	77.94
380.831	95.94
381.057	82.94
381.282	92.94
381.507	83.94
381.733	89.94
381.958	90.94
382.184	98.94
382.409	88.94
382.634	106.94
382.86	103.94
383.085	82.94
383.31	87.94
383.535	90.94
383.761	99.94
383.986	92.94
384.211	91.94
384.436	90.94
384.662	89.94
384.887	92.94
385.112	79.94
385.337	93.94
385.562	82.94
385.787	97.94
386.013	97.94
386.238	95.94
386.463	88.94
386.688	98.94
386.913	89.94
387.138	92.94
387.363	87.94
387.588	97.94
387.813	84.94
388.038	79.94
388.263	99.94
388.488	83.94
388.713	81.94
388.938	83.94
389.163	85.94
389.387	61.94
389.612	83.94
389.837	77.94
390.062	79.94
390.287	82.94
390.512	82.94
390.736	88.94
390.961	94.94
391.186	75.94
391.411	89.94
391.636	91.94
391.86	91.94
392.085	91.94
392.31	86.94
392.534	110.94
392.759	103.94
392.984	159.94
393.208	306.94
393.433	465.94
393.658	339.94
393.882	153.94
394.107	110.94
394.331	119.94
394.556	132.94
394.78	108.94
395.005	92.94
395.229	95.94
395.454	93.94
395.678	97.94
395.903	115.94
396.127	153.94
396.352	174.94
396.576	185.94
396.801	313.94
397.025	359.94
397.249	188.94
397.474	109.94
397.698	89.94
397.922	79.94
398.147	81.94
398.371	86.94
398.595	85.94
398.82	83.94
399.044	75.94
399.268	63.94
399.492	83.94
399.717	80.94
399.941	85.94
400.165	91.94
400.389	70.94
400.613	75.94
400.837	78.94
401.062	79.94
401.286	85.94
401.51	90.94
401.734	89.94
401.958	78.94
402.182	67.94
402.406	79.94
402.63	93.94
402.854	88.94
403.078	73.94
403.302	74.94
403.526	82.94
403.75	79.94
403.974	95.94
404.198	97.94
404.422	103.94
404.645	93.94
404.869	89.94
405.093	76.94
405.317	76.94
405.541	80.94
405.765	84.94
405.988	83.94
406.212	82.94
406.436	79.94
406.66	83.94
406.883	71.94
407.107	83.94
407.331	88.94
407.555	104.94
407.778	128.94
408.002	116.94
408.226	86.94
408.449	81.94
408.673	79.94
408.896	86.94
409.12	73.94
409.344	89.94
409.567	89.94
409.791	91.94
410.014	92.94
410.238	97.94
410.461	74.94
410.685	81.94
410.908	81.94
411.132	80.94
411.355	62.94
411.578	79.94
411.802	80.94
412.025	84.94
412.249	84.94
412.472	83.94
412.695	87.94
412.919	75.94
413.142	86.94
413.365	87.94
413.589	87.94
413.812	72.94
414.035	81.94
414.258	101.94
414.482	74.94
414.705	79.94
414.928	94.94
415.151	79.94
415.374	93.94
415.597	87.94
415.821	72.94
416.044	79.94
416.267	78.94
416.49	66.94
416.713	76.94
416.936	76.94
417.159	74.94
417.382	74.94
417.605	82.94
417.828	76.94
418.051	66.94
418.274	77.94
418.497	84.94
418.72	72.94
418.943	89.94
419.166	77.94
419.389	75.94
419.611	77.94
419.834	87.94
420.057	65.94
420.28	71.94
420.503	78.94
420.726	89.94
420.948	90.94
421.171	91.94
421.394	94.94
421.617	133.94
421.839	111.94
422.062	104.94
422.285	148.94
422.507	211.94
422.73	369.94
422.953	331.94
423.175	158.94
423.398	98.94
423.621	87.94
423.843	89.94
424.066	82.94
424.288	96.94
424.511	91.94
424.733	68.94
424.956	81.94
425.178	85.94
425.401	87.94
425.623	80.94
425.846	64.94
426.068	83.94
426.291	75.94
426.513	89.94
426.735	82.94
426.958	70.94
427.18	83.94
427.402	82.94
427.625	87.94
427.847	81.94
428.069	98.94
428.292	113.94
428.514	134.94
428.736	105.94
428.958	134.94
429.181	139.94
429.403	90.94
429.625	93.94
429.847	115.94
430.069	146.94
430.292	159.94
430.514	153.94
430.736	124.94
430.958	142.94
431.18	100.94
431.402	87.94
431.624	95.94
431.846	120.94
432.068	133.94
432.29	81.94
432.512	75.94
432.734	94.94
432.956	87.94
433.178	88.94
433.4	71.94
433.622	87.94
433.844	75.94
434.066	74.94
434.287	78.94
434.509	78.94
434.731	71.94
434.953	81.94
435.175	83.94
435.397	77.94
435.618	92.94
435.84	94.94
436.062	79.94
436.284	84.94
436.505	82.94
436.727	98.94
436.949	83.94
437.17	85.94
437.392	86.94
437.614	77.94
437.835	88.94
438.057	86.94
438.278	90.94
438.5	91.94
438.721	84.94
438.943	79.94
439.165	70.94
439.386	95.94
439.608	76.94
439.829	63.94
440.05	84.94
440.272	86.94
440.493	75.94
440.715	103.94
440.936	88.94
441.158	80.94
441.379	84.94
441.6	86.94
441.822	73.94
442.043	73.94
442.264	89.94
442.486	118.94
442.707	161.94
442.928	98.94
443.149	89.94
443.371	142.94
443.592	222.94
443.813	198.94
444.034	111.94
444.255	76.94
444.476	75.94
444.698	84.94
444.919	94.94
445.14	175.94
445.361	193.94
445.582	254.94
445.803	218.94
446.024	111.94
446.245	89.94
446.466	89.94
446.687	73.94
446.908	78.94
447.129	102.94
447.35	79.94
447.571	88.94
447.792	73.94
448.013	83.94
448.234	74.94
448.455	77.94
448.675	85.94
448.896	80.94
449.117	80.94
449.338	82.94
449.559	89.94
449.779	86.94
450	79.94
450.221	65.94
450.442	81.94
450.662	66.94
450.883	85.94
451.104	81.94
451.324	82.94
451.545	69.94
451.766	63.94
451.986	78.94
452.207	91.94
452.428	72.94
452.648	96.94
452.869	89.94
453.089	81.94
453.31	87.94
453.53	92.94
453.751	87.94
453.971	90.94
454.192	85.94
454.412	73.94
454.633	81.94
454.853	92.94
455.073	84.94
455.294	79.94
455.514	98.94
455.734	68.94
455.955	72.94
456.175	75.94
456.395	79.94
456.616	66.94
456.836	94.94
457.056	80.94
457.276	80.94
457.497	59.94
457.717	91.94
457.937	96.94
458.157	85.94
458.377	103.94
458.598	96.94
458.818	116.94
459.038	99.94
459.258	76.94
459.478	98.94
459.698	86.94
459.918	82.94
460.138	82.94
460.358	85.94
460.578	90.94
460.798	121.94
461.018	119.94
461.238	91.94
461.458	68.94
461.678	95.94
461.898	82.94
462.118	78.94
462.338	87.94
462.558	80.94
462.777	76.94
462.997	64.94
463.217	79.94
463.437	87.94
463.657	90.94
463.876	87.94
464.096	88.94
464.316	92.94
464.536	78.94
464.755	75.94
464.975	86.94
465.195	78.94
465.414	79.94
465.634	65.94
465.854	81.94
466.073	86.94
466.293	81.94
466.512	74.94
466.732	61.94
466.951	96.94
467.171	78.94
467.391	75.94
467.61	80.94
467.829	92.94
468.049	74.94
468.268	72.94
468.488	80.94
468.707	82.94
468.927	81.94
469.146	72.94
469.365	67.94
469.585	78.94
469.804	74.94
470.023	73.94
470.243	72.94
470.462	80.94
470.681	89.94
470.901	88.94
471.12	85.94
471.339	76.94
471.558	87.94
471.777	97.94
471.997	73.94
472.216	72.94
472.435	84.94
472.654	74.94
472.873	85.94
473.092	76.94
473.311	82.94
473.53	83.94
473.749	76.94
473.968	77.94
474.187	82.94
474.406	82.94
474.625	79.94
474.844	93.94
475.063	72.94
475.282	75.94
475.501	88.94
475.72	79.94
475.939	77.94
476.158	86.94
476.377	83.94
476.596	72.94
476.814	72.94
477.033	75.94
477.252	80.94
477.471	74.94
477.69	81.94
477.908	85.94
478.127	94.94
478.346	87.94
478.564	75.94
478.783	73.94
479.002	77.94
479.22	76.94
479.439	69.94
479.658	79.94
479.876	72.94
480.095	81.94
480.313	80.94
480.532	90.94
480.751	74.94
480.969	90.94
481.188	82.94
481.406	97.94
481.624	90.94
481.843	68.94
482.061	87.94
482.28	71.94
482.498	91.94
482.717	71.94
482.935	93.94
483.153	81.94
483.372	73.94
483.59	79.94
483.808	77.94
484.027	82.94
484.245	75.94
484.463	79.94
484.681	78.94
484.9	87.94
485.118	76.94
485.336	79.94
485.554	79.94
485.772	97.94
485.99	78.94
486.209	82.94
486.427	81.94
486.645	83.94
486.863	82.94
487.081	90.94
487.299	100.94
487.517	84.94
487.735	100.94
487.953	142.94
488.171	125.94
488.389	85.94
488.607	65.94
488.825	79.94
489.043	79.94
489.261	87.94
489.479	79.94
489.696	62.94
489.914	95.94
490.132	91.94
490.35	100.94
490.568	80.94
490.786	85.94
491.003	74.94
491.221	78.94
491.439	82.94
491.657	86.94
491.874	81.94
492.092	81.94
492.31	81.94
492.527	76.94
492.745	97.94
492.963	83.94
493.18	105.94
493.398	98.94
493.615	80.94
493.833	90.94
494.05	85.94
494.268	73.94
494.485	83.94
494.703	74.94
494.92	81.94
495.138	87.94
495.355	83.94
495.573	85.94
495.79	95.94
496.008	90.94
496.225	78.94
496.442	83.94
496.66	100.94
496.877	75.94
497.094	93.94
497.312	88.94
497.529	86.94
497.746	85.94
497.963	82.94
498.181	89.94
498.398	92.94
498.615	72.94
498.832	77.94
499.049	84.94
499.267	91.94
499.484	83.94
499.701	92.94
499.918	83.94
500.135	96.94
500.352	97.94
500.569	91.94
500.786	90.94
501.003	87.94
501.22	84.94
501.437	86.94
501.654	88.94
501.871	87.94
502.088	73.94
502.305	89.94
502.522	76.94
502.739	71.94
502.956	85.94
503.172	90.94
503.389	84.94
503.606	89.94
503.823	73.94
504.04	97.94
504.256	114.94
504.473	104.94
504.69	81.94
504.907	96.94
505.123	97.94
505.34	84.94
505.557	77.94
505.773	87.94
505.99	94.94
506.207	79.94
506.423	81.94
506.64	81.94
506.856	76.94
507.073	77.94
507.289	78.94
507.506	81.94
507.722	78.94
507.939	81.94
508.155	95.94
508.372	85.94
508.588	88.94
508.805	91.94
509.021	77.94
509.238	74.94
509.454	79.94
509.67	81.94
509.887	101.94
510.103	73.94
510.319	76.94
510.536	74.94
510.752	70.94
510.968	93.94
511.184	91.94
511.401	86.94
511.617	84.94
511.833	81.94
512.049	81.94
512.265	87.94
512.481	98.94
512.698	90.94
512.914	82.94
513.13	81.94
513.346	81.94
513.562	70.94
513.778	88.94
513.994	81.94
514.21	93.94
514.426	84.94
514.642	101.94
514.858	81.94
515.074	72.94
515.29	78.94
515.506	73.94
515.721	81.94
515.937	75.94
516.153	75.94
516.369	76.94
516.585	95.94
516.801	80.94
517.016	89.94
517.232	94.94
517.448	94.94
517.664	96.94
517.879	86.94
518.095	86.94
518.311	88.94
518.527	96.94
518.742	106.94
518.958	113.94
