Data from HP_1_HRD10591_00002.txt Node
Date: Mon Jan 19 14:15:08 EST 2026
User: Yrep
Spectrometer: HR+D1059
Trigger mode: 1
Integration Time (sec): 1.000000E-1
Scans to average: 1
Electric dark correction enabled: true
Nonlinearity correction enabled: false
Boxcar width: 0
XAxis mode: Wavelengths
Number of Pixels in Spectrum: 2048
>>>>>Begin Spectral Data<<<<<
223.165	-16.25
223.4	-16.25
223.635	-16.25
223.869	-26.25
224.104	-14.25
224.338	-24.25
224.573	-19.25
224.808	-19.25
225.042	-2.25
225.277	0.75
225.511	9.75
225.746	0.75
225.98	14.75
226.215	6.75
226.449	14.75
226.683	23.75
226.918	26.75
227.152	23.75
227.387	26.75
227.621	32.75
227.856	44.75
228.09	50.75
228.324	53.75
228.559	62.75
228.793	56.75
229.027	67.75
229.262	57.75
229.496	79.75
229.73	80.75
229.964	61.75
230.199	71.75
230.433	80.75
230.667	76.75
230.901	71.75
231.136	68.75
231.37	72.75
231.604	66.75
231.838	78.75
232.072	81.75
232.306	93.75
232.541	69.75
232.775	66.75
233.009	80.75
233.243	90.75
233.477	79.75
233.711	79.75
233.945	83.75
234.179	81.75
234.413	79.75
234.647	69.75
234.881	93.75
235.115	71.75
235.349	77.75
235.583	81.75
235.817	68.75
236.051	80.75
236.285	83.75
236.519	72.75
236.753	78.75
236.987	68.75
237.221	81.75
237.455	83.75
237.689	77.75
237.922	76.75
238.156	88.75
238.39	97.75
238.624	66.75
238.858	74.75
239.091	69.75
239.325	80.75
239.559	83.75
239.793	86.75
240.027	83.75
240.26	72.75
240.494	79.75
240.728	68.75
240.961	66.75
241.195	84.75
241.429	68.75
241.662	86.75
241.896	78.75
242.13	69.75
242.363	71.75
242.597	76.75
242.83	73.75
243.064	91.75
243.298	84.75
243.531	82.75
243.765	79.75
243.998	88.75
244.232	85.75
244.465	88.75
244.699	77.75
244.932	76.75
245.166	70.75
245.399	78.75
245.633	71.75
245.866	78.75
246.099	72.75
246.333	75.75
246.566	84.75
246.8	64.75
247.033	84.75
247.266	85.75
247.5	74.75
247.733	79.75
247.966	77.75
248.2	72.75
248.433	84.75
248.666	80.75
248.899	74.75
249.133	74.75
249.366	63.75
249.599	68.75
249.832	76.75
250.066	80.75
250.299	70.75
250.532	82.75
250.765	78.75
250.998	66.75
251.231	68.75
251.465	86.75
251.698	61.75
251.931	91.75
252.164	73.75
252.397	91.75
252.63	80.75
252.863	74.75
253.096	79.75
253.329	87.75
253.562	73.75
253.795	93.75
254.028	74.75
254.261	86.75
254.494	85.75
254.727	70.75
254.96	68.75
255.193	69.75
255.426	90.75
255.659	91.75
255.892	86.75
256.124	85.75
256.357	74.75
256.59	77.75
256.823	92.75
257.056	90.75
257.289	75.75
257.521	78.75
257.754	84.75
257.987	69.75
258.22	82.75
258.452	78.75
258.685	66.75
258.918	64.75
259.151	77.75
259.383	77.75
259.616	87.75
259.849	83.75
260.081	82.75
260.314	73.75
260.547	71.75
260.779	76.75
261.012	81.75
261.244	71.75
261.477	78.75
261.71	80.75
261.942	88.75
262.175	80.75
262.407	76.75
262.64	80.75
262.872	76.75
263.105	98.75
263.337	70.75
263.57	86.75
263.802	75.75
264.035	73.75
264.267	86.75
264.499	80.75
264.732	82.75
264.964	89.75
265.197	87.75
265.429	88.75
265.661	65.75
265.894	82.75
266.126	75.75
266.358	94.75
266.591	84.75
266.823	83.75
267.055	73.75
267.287	89.75
267.52	94.75
267.752	87.75
267.984	75.75
268.216	76.75
268.448	77.75
268.681	86.75
268.913	89.75
269.145	87.75
269.377	80.75
269.609	92.75
269.841	96.75
270.073	85.75
270.306	85.75
270.538	74.75
270.77	89.75
271.002	87.75
271.234	80.75
271.466	83.75
271.698	79.75
271.93	81.75
272.162	106.75
272.394	90.75
272.626	84.75
272.858	80.75
273.09	94.75
273.322	78.75
273.553	74.75
273.785	81.75
274.017	92.75
274.249	81.75
274.481	83.75
274.713	68.75
274.945	77.75
275.176	84.75
275.408	88.75
275.64	73.75
275.872	88.75
276.104	72.75
276.335	89.75
276.567	86.75
276.799	82.75
277.031	86.75
277.262	72.75
277.494	94.75
277.726	74.75
277.957	85.75
278.189	86.75
278.421	82.75
278.652	71.75
278.884	72.75
279.115	77.75
279.347	72.75
279.579	83.75
279.81	80.75
280.042	89.75
280.273	81.75
280.505	90.75
280.736	80.75
280.968	82.75
281.199	79.75
281.431	74.75
281.662	74.75
281.894	74.75
282.125	88.75
282.356	75.75
282.588	92.75
282.819	76.75
283.051	90.75
283.282	87.75
283.513	86.75
283.745	78.75
283.976	77.75
284.207	72.75
284.439	90.75
284.67	75.75
284.901	82.75
285.132	71.75
285.364	73.75
285.595	85.75
285.826	84.75
286.057	87.75
286.288	82.75
286.52	94.75
286.751	75.75
286.982	75.75
287.213	87.75
287.444	112.75
287.675	104.75
287.906	76.75
288.138	79.75
288.369	91.75
288.6	82.75
288.831	78.75
289.062	93.75
289.293	60.75
289.524	80.75
289.755	80.75
289.986	75.75
290.217	84.75
290.448	84.75
290.679	94.75
290.91	87.75
291.141	78.75
291.371	79.75
291.602	90.75
291.833	92.75
292.064	79.75
292.295	84.75
292.526	91.75
292.757	91.75
292.987	85.75
293.218	93.75
293.449	73.75
293.68	84.75
293.91	86.75
294.141	81.75
294.372	92.75
294.603	80.75
294.833	83.75
295.064	82.75
295.295	86.75
295.525	69.75
295.756	88.75
295.987	84.75
296.217	86.75
296.448	80.75
296.679	84.75
296.909	95.75
297.14	87.75
297.37	72.75
297.601	89.75
297.831	84.75
298.062	69.75
298.292	82.75
298.523	87.75
298.753	88.75
298.984	95.75
299.214	87.75
299.445	96.75
299.675	75.75
299.905	88.75
300.136	81.75
300.366	94.75
300.597	83.75
300.827	90.75
301.057	89.75
301.288	103.75
301.518	90.75
301.748	90.75
301.979	90.75
302.209	86.75
302.439	87.75
302.669	81.75
302.9	74.75
303.13	83.75
303.36	83.75
303.59	73.75
303.82	83.75
304.051	81.75
304.281	100.75
304.511	106.75
304.741	85.75
304.971	80.75
305.201	81.75
305.431	79.75
305.661	88.75
305.891	92.75
306.121	85.75
306.352	86.75
306.582	88.75
306.812	77.75
307.042	92.75
307.272	84.75
307.502	87.75
307.731	80.75
307.961	96.75
308.191	93.75
308.421	72.75
308.651	91.75
308.881	73.75
309.111	95.75
309.341	96.75
309.571	89.75
309.8	82.75
310.03	83.75
310.26	84.75
310.49	84.75
310.72	87.75
310.949	79.75
311.179	70.75
311.409	91.75
311.639	89.75
311.868	97.75
312.098	78.75
312.328	84.75
312.557	72.75
312.787	74.75
313.017	68.75
313.246	101.75
313.476	88.75
313.706	68.75
313.935	90.75
314.165	90.75
314.394	88.75
314.624	93.75
314.853	79.75
315.083	74.75
315.312	75.75
315.542	94.75
315.771	92.75
316.001	82.75
316.23	87.75
316.46	63.75
316.689	78.75
316.919	81.75
317.148	86.75
317.377	95.75
317.607	85.75
317.836	87.75
318.065	89.75
318.295	87.75
318.524	72.75
318.753	88.75
318.983	94.75
319.212	78.75
319.441	86.75
319.67	82.75
319.9	72.75
320.129	98.75
320.358	89.75
320.587	91.75
320.816	81.75
321.046	96.75
321.275	79.75
321.504	84.75
321.733	80.75
321.962	87.75
322.191	86.75
322.42	88.75
322.649	74.75
322.878	98.75
323.108	96.75
323.337	80.75
323.566	81.75
323.795	67.75
324.024	80.75
324.253	80.75
324.482	89.75
324.71	104.75
324.939	80.75
325.168	69.75
325.397	64.75
325.626	80.75
325.855	79.75
326.084	88.75
326.313	74.75
326.542	70.75
326.77	78.75
326.999	88.75
327.228	90.75
327.457	90.75
327.686	97.75
327.914	82.75
328.143	84.75
328.372	78.75
328.6	96.75
328.829	88.75
329.058	89.75
329.287	89.75
329.515	91.75
329.744	75.75
329.972	86.75
330.201	59.75
330.43	83.75
330.658	80.75
330.887	75.75
331.115	88.75
331.344	84.75
331.572	105.75
331.801	85.75
332.03	84.75
332.258	87.75
332.486	84.75
332.715	77.75
332.943	73.75
333.172	92.75
333.4	86.75
333.629	97.75
333.857	79.75
334.085	86.75
334.314	84.75
334.542	88.75
334.771	89.75
334.999	87.75
335.227	83.75
335.455	85.75
335.684	93.75
335.912	87.75
336.14	90.75
336.369	96.75
336.597	98.75
336.825	79.75
337.053	76.75
337.281	95.75
337.51	88.75
337.738	97.75
337.966	73.75
338.194	86.75
338.422	89.75
338.65	97.75
338.878	78.75
339.106	81.75
339.334	89.75
339.562	84.75
339.79	91.75
340.018	82.75
340.246	86.75
340.474	83.75
340.702	92.75
340.93	80.75
341.158	77.75
341.386	96.75
341.614	86.75
341.842	82.75
342.07	84.75
342.298	88.75
342.526	90.75
342.754	86.75
342.981	76.75
343.209	79.75
343.437	88.75
343.665	78.75
343.893	80.75
344.12	84.75
344.348	98.75
344.576	83.75
344.804	88.75
345.031	77.75
345.259	70.75
345.487	78.75
345.714	88.75
345.942	86.75
346.17	84.75
346.397	81.75
346.625	78.75
346.853	71.75
347.08	85.75
347.308	72.75
347.535	74.75
347.763	82.75
347.99	78.75
348.218	84.75
348.445	89.75
348.673	89.75
348.9	87.75
349.128	80.75
349.355	80.75
349.583	76.75
349.81	88.75
350.037	92.75
350.265	78.75
350.492	72.75
350.72	88.75
350.947	82.75
351.174	71.75
351.402	92.75
351.629	94.75
351.856	82.75
352.083	87.75
352.311	69.75
352.538	88.75
352.765	96.75
352.992	81.75
353.22	86.75
353.447	71.75
353.674	78.75
353.901	83.75
354.128	92.75
354.355	84.75
354.583	85.75
354.81	81.75
355.037	95.75
355.264	80.75
355.491	73.75
355.718	90.75
355.945	89.75
356.172	96.75
356.399	83.75
356.626	89.75
356.853	80.75
357.08	74.75
357.307	91.75
357.534	76.75
357.761	92.75
357.988	95.75
358.215	93.75
358.441	86.75
358.668	90.75
358.895	84.75
359.122	87.75
359.349	86.75
359.576	76.75
359.802	83.75
360.029	84.75
360.256	74.75
360.483	79.75
360.709	77.75
360.936	100.75
361.163	88.75
361.39	79.75
361.616	90.75
361.843	85.75
362.07	74.75
362.296	86.75
362.523	86.75
362.749	85.75
362.976	94.75
363.203	107.75
363.429	94.75
363.656	93.75
363.882	85.75
364.109	88.75
364.335	102.75
364.562	100.75
364.788	96.75
365.015	90.75
365.241	85.75
365.468	92.75
365.694	63.75
365.92	97.75
366.147	92.75
366.373	71.75
366.599	86.75
366.826	80.75
367.052	78.75
367.278	82.75
367.505	81.75
367.731	94.75
367.957	89.75
368.184	76.75
368.41	79.75
368.636	69.75
368.862	76.75
369.089	84.75
369.315	84.75
369.541	77.75
369.767	66.75
369.993	82.75
370.219	80.75
370.445	94.75
370.672	101.75
370.898	88.75
371.124	88.75
371.35	66.75
371.576	83.75
371.802	82.75
372.028	96.75
372.254	96.75
372.48	81.75
372.706	89.75
372.932	89.75
373.158	94.75
373.384	86.75
373.61	104.75
373.835	104.75
374.061	85.75
374.287	86.75
374.513	81.75
374.739	75.75
374.965	88.75
375.191	89.75
375.416	82.75
375.642	85.75
375.868	87.75
376.094	91.75
376.319	85.75
376.545	88.75
376.771	77.75
376.997	83.75
377.222	82.75
377.448	83.75
377.674	88.75
377.899	85.75
378.125	87.75
378.35	95.75
378.576	84.75
378.802	86.75
379.027	94.75
379.253	72.75
379.478	74.75
379.704	85.75
379.929	89.75
380.155	94.75
380.38	78.75
380.606	83.75
380.831	88.75
381.057	81.75
381.282	82.75
381.507	87.75
381.733	102.75
381.958	89.75
382.184	80.75
382.409	86.75
382.634	95.75
382.86	99.75
383.085	85.75
383.31	96.75
383.535	97.75
383.761	91.75
383.986	87.75
384.211	88.75
384.436	83.75
384.662	98.75
384.887	84.75
385.112	87.75
385.337	96.75
385.562	79.75
385.787	82.75
386.013	88.75
386.238	95.75
386.463	91.75
386.688	104.75
386.913	94.75
387.138	86.75
387.363	83.75
387.588	72.75
387.813	90.75
388.038	82.75
388.263	106.75
388.488	92.75
388.713	82.75
388.938	72.75
389.163	101.75
389.387	86.75
389.612	78.75
389.837	81.75
390.062	80.75
390.287	75.75
390.512	89.75
390.736	76.75
390.961	73.75
391.186	88.75
391.411	76.75
391.636	68.75
391.86	78.75
392.085	82.75
392.31	70.75
392.534	99.75
392.759	96.75
392.984	111.75
393.208	154.75
393.433	198.75
393.658	174.75
393.882	102.75
394.107	80.75
394.331	94.75
394.556	109.75
394.78	94.75
395.005	79.75
395.229	79.75
395.454	87.75
395.678	86.75
395.903	96.75
396.127	126.75
396.352	122.75
396.576	117.75
396.801	149.75
397.025	167.75
397.249	119.75
397.474	103.75
397.698	85.75
397.922	86.75
398.147	81.75
398.371	88.75
398.595	94.75
398.82	88.75
399.044	82.75
399.268	86.75
399.492	88.75
399.717	68.75
399.941	89.75
400.165	75.75
400.389	88.75
400.613	90.75
400.837	94.75
401.062	80.75
401.286	83.75
401.51	73.75
401.734	82.75
401.958	70.75
402.182	84.75
402.406	82.75
402.63	80.75
402.854	82.75
403.078	87.75
403.302	89.75
403.526	89.75
403.75	80.75
403.974	84.75
404.198	71.75
404.422	110.75
404.645	94.75
404.869	92.75
405.093	79.75
405.317	74.75
405.541	87.75
405.765	68.75
405.988	90.75
406.212	85.75
406.436	92.75
406.66	68.75
406.883	77.75
407.107	82.75
407.331	91.75
407.555	91.75
407.778	102.75
408.002	94.75
408.226	92.75
408.449	82.75
408.673	77.75
408.896	88.75
409.12	92.75
409.344	82.75
409.567	85.75
409.791	77.75
410.014	97.75
410.238	70.75
410.461	73.75
410.685	89.75
410.908	95.75
411.132	108.75
411.355	74.75
411.578	72.75
411.802	90.75
412.025	76.75
412.249	80.75
412.472	85.75
412.695	80.75
412.919	101.75
413.142	85.75
413.365	69.75
413.589	81.75
413.812	84.75
414.035	75.75
414.258	71.75
414.482	91.75
414.705	78.75
414.928	88.75
415.151	81.75
415.374	90.75
415.597	80.75
415.821	88.75
416.044	83.75
416.267	90.75
416.49	98.75
416.713	88.75
416.936	74.75
417.159	89.75
417.382	89.75
417.605	81.75
417.828	72.75
418.051	92.75
418.274	81.75
418.497	86.75
418.72	71.75
418.943	81.75
419.166	96.75
419.389	99.75
419.611	82.75
419.834	80.75
420.057	87.75
420.28	74.75
420.503	73.75
420.726	86.75
420.948	88.75
421.171	80.75
421.394	86.75
421.617	115.75
421.839	95.75
422.062	96.75
422.285	146.75
422.507	198.75
422.73	302.75
422.953	284.75
423.175	169.75
423.398	124.75
423.621	96.75
423.843	86.75
424.066	90.75
424.288	90.75
424.511	87.75
424.733	88.75
424.956	90.75
425.178	78.75
425.401	84.75
425.623	94.75
425.846	88.75
426.068	74.75
426.291	69.75
426.513	63.75
426.735	86.75
426.958	71.75
427.18	86.75
427.402	86.75
427.625	80.75
427.847	88.75
428.069	101.75
428.292	116.75
428.514	122.75
428.736	109.75
428.958	100.75
429.181	114.75
429.403	94.75
429.625	93.75
429.847	96.75
430.069	128.75
430.292	138.75
430.514	137.75
430.736	105.75
430.958	124.75
431.18	98.75
431.402	98.75
431.624	84.75
431.846	105.75
432.068	110.75
432.29	84.75
432.512	87.75
432.734	82.75
432.956	72.75
433.178	75.75
433.4	72.75
433.622	80.75
433.844	99.75
434.066	82.75
434.287	74.75
434.509	70.75
434.731	88.75
434.953	77.75
435.175	91.75
435.397	81.75
435.618	86.75
435.84	90.75
436.062	91.75
436.284	85.75
436.505	82.75
436.727	72.75
436.949	76.75
437.17	82.75
437.392	78.75
437.614	81.75
437.835	87.75
438.057	80.75
438.278	80.75
438.5	88.75
438.721	72.75
438.943	68.75
439.165	94.75
439.386	93.75
439.608	94.75
439.829	88.75
440.05	86.75
440.272	66.75
440.493	77.75
440.715	83.75
440.936	89.75
441.158	84.75
441.379	80.75
441.6	85.75
441.822	89.75
442.043	68.75
442.264	76.75
442.486	110.75
442.707	112.75
442.928	84.75
443.149	103.75
443.371	123.75
443.592	181.75
443.813	164.75
444.034	100.75
444.255	94.75
444.476	85.75
444.698	74.75
444.919	104.75
445.14	184.75
445.361	160.75
445.582	207.75
445.803	180.75
446.024	90.75
446.245	92.75
446.466	84.75
446.687	85.75
446.908	74.75
447.129	88.75
447.35	88.75
447.571	82.75
447.792	65.75
448.013	78.75
448.234	87.75
448.455	80.75
448.675	93.75
448.896	68.75
449.117	74.75
449.338	74.75
449.559	80.75
449.779	74.75
450	81.75
450.221	73.75
450.442	74.75
450.662	80.75
450.883	84.75
451.104	89.75
451.324	90.75
451.545	68.75
451.766	74.75
451.986	77.75
452.207	84.75
452.428	88.75
452.648	86.75
452.869	78.75
453.089	88.75
453.31	76.75
453.53	84.75
453.751	97.75
453.971	82.75
454.192	61.75
454.412	80.75
454.633	87.75
454.853	89.75
455.073	86.75
455.294	96.75
455.514	69.75
455.734	89.75
455.955	93.75
456.175	79.75
456.395	67.75
456.616	90.75
456.836	80.75
457.056	79.75
457.276	84.75
457.497	73.75
457.717	101.75
457.937	85.75
458.157	105.75
458.377	109.75
458.598	110.75
458.818	102.75
459.038	100.75
459.258	79.75
459.478	80.75
459.698	99.75
459.918	86.75
460.138	82.75
460.358	92.75
460.578	89.75
460.798	122.75
461.018	104.75
461.238	78.75
461.458	83.75
461.678	90.75
461.898	86.75
462.118	88.75
462.338	93.75
462.558	81.75
462.777	80.75
462.997	78.75
463.217	80.75
463.437	73.75
463.657	73.75
463.876	88.75
464.096	84.75
464.316	72.75
464.536	94.75
464.755	88.75
464.975	71.75
465.195	76.75
465.414	86.75
465.634	82.75
465.854	78.75
466.073	92.75
466.293	78.75
466.512	81.75
466.732	80.75
466.951	84.75
467.171	78.75
467.391	79.75
467.61	87.75
467.829	83.75
468.049	84.75
468.268	74.75
468.488	70.75
468.707	77.75
468.927	78.75
469.146	77.75
469.365	82.75
469.585	80.75
469.804	74.75
470.023	78.75
470.243	76.75
470.462	79.75
470.681	78.75
470.901	73.75
471.12	80.75
471.339	72.75
471.558	84.75
471.777	71.75
471.997	79.75
472.216	86.75
472.435	77.75
472.654	81.75
472.873	90.75
473.092	88.75
473.311	84.75
473.53	90.75
473.749	89.75
473.968	88.75
474.187	75.75
474.406	82.75
474.625	82.75
474.844	84.75
475.063	75.75
475.282	97.75
475.501	84.75
475.72	93.75
475.939	78.75
476.158	91.75
476.377	81.75
476.596	81.75
476.814	79.75
477.033	89.75
477.252	93.75
477.471	97.75
477.69	83.75
477.908	79.75
478.127	89.75
478.346	86.75
478.564	71.75
478.783	67.75
479.002	85.75
479.22	82.75
479.439	79.75
479.658	73.75
479.876	74.75
480.095	85.75
480.313	73.75
480.532	70.75
480.751	79.75
480.969	85.75
481.188	81.75
481.406	89.75
481.624	85.75
481.843	84.75
482.061	81.75
482.28	78.75
482.498	99.75
482.717	86.75
482.935	66.75
483.153	82.75
483.372	92.75
483.59	92.75
483.808	95.75
484.027	86.75
484.245	80.75
484.463	101.75
484.681	93.75
484.9	89.75
485.118	84.75
485.336	78.75
485.554	88.75
485.772	90.75
485.99	93.75
486.209	80.75
486.427	86.75
486.645	75.75
486.863	84.75
487.081	90.75
487.299	97.75
487.517	90.75
487.735	96.75
487.953	140.75
488.171	121.75
488.389	88.75
488.607	64.75
488.825	94.75
489.043	70.75
489.261	105.75
489.479	85.75
489.696	78.75
489.914	95.75
490.132	91.75
490.35	87.75
490.568	85.75
490.786	97.75
491.003	72.75
491.221	94.75
491.439	86.75
491.657	77.75
491.874	88.75
492.092	90.75
492.31	86.75
492.527	71.75
492.745	95.75
492.963	88.75
493.18	80.75
493.398	86.75
493.615	84.75
493.833	92.75
494.05	72.75
494.268	87.75
494.485	81.75
494.703	92.75
494.92	97.75
495.138	90.75
495.355	94.75
495.573	75.75
495.79	88.75
496.008	86.75
496.225	90.75
496.442	96.75
496.66	76.75
496.877	79.75
497.094	89.75
497.312	80.75
497.529	90.75
497.746	82.75
497.963	91.75
498.181	76.75
498.398	87.75
498.615	88.75
498.832	105.75
499.049	85.75
499.267	110.75
499.484	84.75
499.701	82.75
499.918	85.75
500.135	68.75
500.352	85.75
500.569	73.75
500.786	95.75
501.003	89.75
501.22	92.75
501.437	80.75
501.654	88.75
501.871	97.75
502.088	78.75
502.305	86.75
502.522	82.75
502.739	85.75
502.956	83.75
503.172	101.75
503.389	98.75
503.606	82.75
503.823	104.75
504.04	102.75
504.256	102.75
504.473	110.75
504.69	86.75
504.907	98.75
505.123	94.75
505.34	88.75
505.557	90.75
505.773	106.75
505.99	72.75
506.207	91.75
506.423	76.75
506.64	94.75
506.856	90.75
507.073	85.75
507.289	73.75
507.506	82.75
507.722	77.75
507.939	80.75
508.155	89.75
508.372	87.75
508.588	90.75
508.805	93.75
509.021	82.75
509.238	89.75
509.454	84.75
509.67	81.75
509.887	77.75
510.103	81.75
510.319	96.75
510.536	93.75
510.752	101.75
510.968	88.75
511.184	80.75
511.401	81.75
511.617	73.75
511.833	92.75
512.049	87.75
512.265	86.75
512.481	75.75
512.698	88.75
512.914	84.75
513.13	82.75
513.346	102.75
513.562	89.75
513.778	92.75
513.994	77.75
514.21	104.75
514.426	88.75
514.642	85.75
514.858	96.75
515.074	75.75
515.29	96.75
515.506	90.75
515.721	86.75
515.937	98.75
516.153	92.75
516.369	82.75
516.585	89.75
516.801	82.75
517.016	94.75
517.232	97.75
517.448	101.75
517.664	85.75
517.879	91.75
518.095	92.75
518.311	77.75
518.527	104.75
518.742	101.75
518.958	111.75
