Data from HP_1_HRD10591_00040.txt Node
Date: Mon Jan 19 14:15:27 EST 2026
User: Yrep
Spectrometer: HR+D1059
Trigger mode: 1
Integration Time (sec): 1.000000E-1
Scans to average: 1
Electric dark correction enabled: true
Nonlinearity correction enabled: false
Boxcar width: 0
XAxis mode: Wavelengths
Number of Pixels in Spectrum: 2048
>>>>>Begin Spectral Data<<<<<
223.165	-12.88
223.4	-12.88
223.635	-12.88
223.869	-15.88
224.104	-29.88
224.338	-18.88
224.573	-12.88
224.808	-18.88
225.042	-0.88
225.277	-4.88
225.511	4.12
225.746	17.12
225.98	1.12
226.215	13.12
226.449	8.12
226.683	23.12
226.918	30.12
227.152	18.12
227.387	33.12
227.621	39.12
227.856	37.12
228.09	33.12
228.324	39.12
228.559	58.12
228.793	46.12
229.027	60.12
229.262	68.12
229.496	58.12
229.73	66.12
229.964	66.12
230.199	67.12
230.433	78.12
230.667	74.12
230.901	81.12
231.136	75.12
231.37	81.12
231.604	82.12
231.838	76.12
232.072	78.12
232.306	86.12
232.541	71.12
232.775	79.12
233.009	73.12
233.243	77.12
233.477	89.12
233.711	80.12
233.945	87.12
234.179	73.12
234.413	67.12
234.647	78.12
234.881	81.12
235.115	83.12
235.349	82.12
235.583	72.12
235.817	87.12
236.051	74.12
236.285	70.12
236.519	75.12
236.753	80.12
236.987	89.12
237.221	84.12
237.455	79.12
237.689	71.12
237.922	69.12
238.156	68.12
238.39	75.12
238.624	65.12
238.858	66.12
239.091	78.12
239.325	82.12
239.559	81.12
239.793	61.12
240.027	71.12
240.26	66.12
240.494	78.12
240.728	55.12
240.961	77.12
241.195	70.12
241.429	89.12
241.662	73.12
241.896	66.12
242.13	70.12
242.363	72.12
242.597	70.12
242.83	64.12
243.064	67.12
243.298	74.12
243.531	70.12
243.765	78.12
243.998	74.12
244.232	86.12
244.465	84.12
244.699	74.12
244.932	73.12
245.166	76.12
245.399	77.12
245.633	83.12
245.866	77.12
246.099	67.12
246.333	83.12
246.566	81.12
246.8	89.12
247.033	70.12
247.266	81.12
247.5	77.12
247.733	79.12
247.966	80.12
248.2	76.12
248.433	79.12
248.666	93.12
248.899	65.12
249.133	87.12
249.366	71.12
249.599	75.12
249.832	67.12
250.066	87.12
250.299	66.12
250.532	85.12
250.765	75.12
250.998	91.12
251.231	90.12
251.465	71.12
251.698	76.12
251.931	76.12
252.164	78.12
252.397	90.12
252.63	73.12
252.863	78.12
253.096	69.12
253.329	67.12
253.562	76.12
253.795	97.12
254.028	81.12
254.261	70.12
254.494	81.12
254.727	85.12
254.96	78.12
255.193	75.12
255.426	70.12
255.659	86.12
255.892	82.12
256.124	76.12
256.357	80.12
256.59	81.12
256.823	74.12
257.056	65.12
257.289	84.12
257.521	86.12
257.754	70.12
257.987	72.12
258.22	73.12
258.452	70.12
258.685	69.12
258.918	74.12
259.151	83.12
259.383	81.12
259.616	67.12
259.849	80.12
260.081	81.12
260.314	64.12
260.547	81.12
260.779	73.12
261.012	77.12
261.244	71.12
261.477	82.12
261.71	68.12
261.942	77.12
262.175	76.12
262.407	79.12
262.64	75.12
262.872	82.12
263.105	72.12
263.337	79.12
263.57	73.12
263.802	94.12
264.035	87.12
264.267	73.12
264.499	72.12
264.732	74.12
264.964	81.12
265.197	81.12
265.429	81.12
265.661	75.12
265.894	78.12
266.126	72.12
266.358	86.12
266.591	86.12
266.823	83.12
267.055	89.12
267.287	90.12
267.52	88.12
267.752	91.12
267.984	74.12
268.216	87.12
268.448	77.12
268.681	90.12
268.913	95.12
269.145	80.12
269.377	90.12
269.609	78.12
269.841	78.12
270.073	78.12
270.306	83.12
270.538	79.12
270.77	76.12
271.002	80.12
271.234	74.12
271.466	95.12
271.698	90.12
271.93	77.12
272.162	96.12
272.394	73.12
272.626	77.12
272.858	72.12
273.09	78.12
273.322	96.12
273.553	80.12
273.785	85.12
274.017	86.12
274.249	90.12
274.481	88.12
274.713	82.12
274.945	93.12
275.176	73.12
275.408	97.12
275.64	75.12
275.872	85.12
276.104	86.12
276.335	78.12
276.567	89.12
276.799	79.12
277.031	77.12
277.262	78.12
277.494	87.12
277.726	81.12
277.957	82.12
278.189	67.12
278.421	77.12
278.652	79.12
278.884	69.12
279.115	86.12
279.347	89.12
279.579	75.12
279.81	91.12
280.042	100.12
280.273	75.12
280.505	75.12
280.736	97.12
280.968	82.12
281.199	80.12
281.431	73.12
281.662	75.12
281.894	89.12
282.125	83.12
282.356	79.12
282.588	82.12
282.819	77.12
283.051	89.12
283.282	70.12
283.513	77.12
283.745	84.12
283.976	85.12
284.207	81.12
284.439	87.12
284.67	80.12
284.901	81.12
285.132	85.12
285.364	94.12
285.595	90.12
285.826	80.12
286.057	71.12
286.288	73.12
286.52	91.12
286.751	82.12
286.982	80.12
287.213	87.12
287.444	89.12
287.675	73.12
287.906	81.12
288.138	80.12
288.369	78.12
288.6	83.12
288.831	85.12
289.062	65.12
289.293	79.12
289.524	78.12
289.755	67.12
289.986	101.12
290.217	91.12
290.448	80.12
290.679	86.12
290.91	78.12
291.141	81.12
291.371	73.12
291.602	71.12
291.833	65.12
292.064	89.12
292.295	77.12
292.526	79.12
292.757	84.12
292.987	96.12
293.218	92.12
293.449	85.12
293.68	82.12
293.91	93.12
294.141	78.12
294.372	69.12
294.603	80.12
294.833	88.12
295.064	88.12
295.295	86.12
295.525	89.12
295.756	67.12
295.987	71.12
296.217	71.12
296.448	79.12
296.679	85.12
296.909	79.12
297.14	75.12
297.37	81.12
297.601	85.12
297.831	86.12
298.062	59.12
298.292	87.12
298.523	81.12
298.753	87.12
298.984	102.12
299.214	90.12
299.445	87.12
299.675	80.12
299.905	85.12
300.136	74.12
300.366	87.12
300.597	84.12
300.827	81.12
301.057	87.12
301.288	89.12
301.518	81.12
301.748	85.12
301.979	90.12
302.209	85.12
302.439	95.12
302.669	81.12
302.9	82.12
303.13	98.12
303.36	76.12
303.59	77.12
303.82	75.12
304.051	78.12
304.281	86.12
304.511	97.12
304.741	81.12
304.971	79.12
305.201	92.12
305.431	91.12
305.661	85.12
305.891	96.12
306.121	77.12
306.352	98.12
306.582	81.12
306.812	71.12
307.042	82.12
307.272	75.12
307.502	98.12
307.731	87.12
307.961	76.12
308.191	90.12
308.421	84.12
308.651	86.12
308.881	70.12
309.111	99.12
309.341	76.12
309.571	93.12
309.8	80.12
310.03	85.12
310.26	67.12
310.49	81.12
310.72	94.12
310.949	93.12
311.179	71.12
311.409	73.12
311.639	85.12
311.868	76.12
312.098	89.12
312.328	76.12
312.557	72.12
312.787	99.12
313.017	79.12
313.246	91.12
313.476	72.12
313.706	87.12
313.935	72.12
314.165	77.12
314.394	78.12
314.624	63.12
314.853	80.12
315.083	88.12
315.312	80.12
315.542	106.12
315.771	102.12
316.001	95.12
316.23	96.12
316.46	80.12
316.689	86.12
316.919	91.12
317.148	70.12
317.377	99.12
317.607	86.12
317.836	94.12
318.065	102.12
318.295	95.12
318.524	86.12
318.753	79.12
318.983	83.12
319.212	79.12
319.441	88.12
319.67	77.12
319.9	87.12
320.129	78.12
320.358	75.12
320.587	74.12
320.816	95.12
321.046	83.12
321.275	83.12
321.504	102.12
321.733	88.12
321.962	83.12
322.191	77.12
322.42	85.12
322.649	87.12
322.878	74.12
323.108	93.12
323.337	85.12
323.566	87.12
323.795	86.12
324.024	84.12
324.253	85.12
324.482	85.12
324.71	84.12
324.939	91.12
325.168	79.12
325.397	89.12
325.626	96.12
325.855	93.12
326.084	87.12
326.313	86.12
326.542	78.12
326.77	71.12
326.999	82.12
327.228	89.12
327.457	73.12
327.686	87.12
327.914	89.12
328.143	91.12
328.372	79.12
328.6	82.12
328.829	78.12
329.058	85.12
329.287	90.12
329.515	81.12
329.744	84.12
329.972	96.12
330.201	79.12
330.43	79.12
330.658	89.12
330.887	75.12
331.115	86.12
331.344	83.12
331.572	88.12
331.801	95.12
332.03	93.12
332.258	82.12
332.486	93.12
332.715	85.12
332.943	88.12
333.172	88.12
333.4	81.12
333.629	95.12
333.857	89.12
334.085	88.12
334.314	88.12
334.542	86.12
334.771	93.12
334.999	81.12
335.227	79.12
335.455	89.12
335.684	78.12
335.912	90.12
336.14	81.12
336.369	75.12
336.597	85.12
336.825	79.12
337.053	76.12
337.281	95.12
337.51	88.12
337.738	76.12
337.966	74.12
338.194	83.12
338.422	83.12
338.65	91.12
338.878	95.12
339.106	79.12
339.334	95.12
339.562	72.12
339.79	93.12
340.018	78.12
340.246	87.12
340.474	85.12
340.702	91.12
340.93	74.12
341.158	75.12
341.386	81.12
341.614	87.12
341.842	97.12
342.07	87.12
342.298	91.12
342.526	73.12
342.754	84.12
342.981	81.12
343.209	81.12
343.437	103.12
343.665	80.12
343.893	81.12
344.12	106.12
344.348	83.12
344.576	71.12
344.804	73.12
345.031	86.12
345.259	89.12
345.487	84.12
345.714	81.12
345.942	87.12
346.17	82.12
346.397	73.12
346.625	75.12
346.853	83.12
347.08	76.12
347.308	106.12
347.535	74.12
347.763	73.12
347.99	85.12
348.218	69.12
348.445	86.12
348.673	84.12
348.9	83.12
349.128	83.12
349.355	80.12
349.583	82.12
349.81	87.12
350.037	81.12
350.265	64.12
350.492	79.12
350.72	85.12
350.947	81.12
351.174	86.12
351.402	86.12
351.629	93.12
351.856	75.12
352.083	76.12
352.311	81.12
352.538	81.12
352.765	81.12
352.992	103.12
353.22	82.12
353.447	78.12
353.674	76.12
353.901	82.12
354.128	73.12
354.355	93.12
354.583	74.12
354.81	79.12
355.037	85.12
355.264	80.12
355.491	85.12
355.718	81.12
355.945	81.12
356.172	85.12
356.399	85.12
356.626	84.12
356.853	74.12
357.08	76.12
357.307	91.12
357.534	83.12
357.761	93.12
357.988	102.12
358.215	100.12
358.441	96.12
358.668	73.12
358.895	68.12
359.122	82.12
359.349	94.12
359.576	69.12
359.802	84.12
360.029	85.12
360.256	89.12
360.483	83.12
360.709	82.12
360.936	86.12
361.163	83.12
361.39	79.12
361.616	94.12
361.843	95.12
362.07	103.12
362.296	82.12
362.523	84.12
362.749	95.12
362.976	90.12
363.203	97.12
363.429	90.12
363.656	70.12
363.882	87.12
364.109	101.12
364.335	97.12
364.562	83.12
364.788	95.12
365.015	73.12
365.241	81.12
365.468	85.12
365.694	84.12
365.92	74.12
366.147	97.12
366.373	84.12
366.599	79.12
366.826	85.12
367.052	90.12
367.278	81.12
367.505	86.12
367.731	79.12
367.957	87.12
368.184	96.12
368.41	81.12
368.636	84.12
368.862	74.12
369.089	79.12
369.315	85.12
369.541	78.12
369.767	89.12
369.993	87.12
370.219	97.12
370.445	111.12
370.672	93.12
370.898	90.12
371.124	80.12
371.35	75.12
371.576	83.12
371.802	86.12
372.028	87.12
372.254	93.12
372.48	85.12
372.706	81.12
372.932	86.12
373.158	103.12
373.384	90.12
373.61	98.12
373.835	102.12
374.061	77.12
374.287	90.12
374.513	81.12
374.739	80.12
374.965	87.12
375.191	72.12
375.416	86.12
375.642	86.12
375.868	84.12
376.094	85.12
376.319	83.12
376.545	83.12
376.771	82.12
376.997	80.12
377.222	100.12
377.448	73.12
377.674	89.12
377.899	89.12
378.125	93.12
378.35	99.12
378.576	77.12
378.802	88.12
379.027	79.12
379.253	88.12
379.478	86.12
379.704	70.12
379.929	77.12
380.155	83.12
380.38	50.12
380.606	81.12
380.831	83.12
381.057	85.12
381.282	87.12
381.507	87.12
381.733	95.12
381.958	91.12
382.184	85.12
382.409	97.12
382.634	89.12
382.86	72.12
383.085	96.12
383.31	85.12
383.535	91.12
383.761	87.12
383.986	98.12
384.211	89.12
384.436	65.12
384.662	96.12
384.887	81.12
385.112	76.12
385.337	92.12
385.562	79.12
385.787	102.12
386.013	84.12
386.238	100.12
386.463	81.12
386.688	99.12
386.913	85.12
387.138	91.12
387.363	77.12
387.588	87.12
387.813	103.12
388.038	91.12
388.263	93.12
388.488	90.12
388.713	95.12
388.938	94.12
389.163	76.12
389.387	84.12
389.612	73.12
389.837	67.12
390.062	89.12
390.287	85.12
390.512	94.12
390.736	69.12
390.961	90.12
391.186	85.12
391.411	91.12
391.636	74.12
391.86	85.12
392.085	89.12
392.31	89.12
392.534	109.12
392.759	112.12
392.984	155.12
393.208	253.12
393.433	393.12
393.658	295.12
393.882	118.12
394.107	102.12
394.331	98.12
394.556	121.12
394.78	83.12
395.005	83.12
395.229	93.12
395.454	89.12
395.678	94.12
395.903	100.12
396.127	131.12
396.352	152.12
396.576	171.12
396.801	288.12
397.025	317.12
397.249	164.12
397.474	106.12
397.698	89.12
397.922	86.12
398.147	77.12
398.371	81.12
398.595	88.12
398.82	76.12
399.044	75.12
399.268	88.12
399.492	69.12
399.717	76.12
399.941	85.12
400.165	79.12
400.389	90.12
400.613	82.12
400.837	86.12
401.062	102.12
401.286	66.12
401.51	75.12
401.734	75.12
401.958	95.12
402.182	96.12
402.406	81.12
402.63	89.12
402.854	94.12
403.078	84.12
403.302	83.12
403.526	86.12
403.75	85.12
403.974	95.12
404.198	95.12
404.422	131.12
404.645	128.12
404.869	120.12
405.093	97.12
405.317	85.12
405.541	67.12
405.765	74.12
405.988	79.12
406.212	79.12
406.436	78.12
406.66	79.12
406.883	92.12
407.107	77.12
407.331	94.12
407.555	83.12
407.778	101.12
408.002	107.12
408.226	92.12
408.449	64.12
408.673	82.12
408.896	84.12
409.12	76.12
409.344	86.12
409.567	81.12
409.791	86.12
410.014	90.12
410.238	87.12
410.461	85.12
410.685	88.12
410.908	82.12
411.132	79.12
411.355	85.12
411.578	92.12
411.802	85.12
412.025	92.12
412.249	83.12
412.472	88.12
412.695	87.12
412.919	79.12
413.142	80.12
413.365	83.12
413.589	85.12
413.812	82.12
414.035	80.12
414.258	60.12
414.482	82.12
414.705	81.12
414.928	93.12
415.151	79.12
415.374	92.12
415.597	72.12
415.821	87.12
416.044	86.12
416.267	95.12
416.49	82.12
416.713	81.12
416.936	75.12
417.159	94.12
417.382	80.12
417.605	70.12
417.828	75.12
418.051	81.12
418.274	78.12
418.497	74.12
418.72	73.12
418.943	90.12
419.166	82.12
419.389	105.12
419.611	90.12
419.834	79.12
420.057	85.12
420.28	91.12
420.503	71.12
420.726	87.12
420.948	76.12
421.171	88.12
421.394	109.12
421.617	114.12
421.839	102.12
422.062	103.12
422.285	113.12
422.507	195.12
422.73	335.12
422.953	282.12
423.175	157.12
423.398	99.12
423.621	79.12
423.843	94.12
424.066	83.12
424.288	90.12
424.511	81.12
424.733	73.12
424.956	78.12
425.178	95.12
425.401	86.12
425.623	82.12
425.846	67.12
426.068	69.12
426.291	82.12
426.513	74.12
426.735	76.12
426.958	93.12
427.18	85.12
427.402	90.12
427.625	89.12
427.847	94.12
428.069	102.12
428.292	106.12
428.514	121.12
428.736	98.12
428.958	104.12
429.181	110.12
429.403	93.12
429.625	92.12
429.847	102.12
430.069	127.12
430.292	156.12
430.514	150.12
430.736	106.12
430.958	120.12
431.18	85.12
431.402	87.12
431.624	95.12
431.846	110.12
432.068	125.12
432.29	90.12
432.512	83.12
432.734	84.12
432.956	80.12
433.178	71.12
433.4	75.12
433.622	75.12
433.844	89.12
434.066	79.12
434.287	82.12
434.509	87.12
434.731	78.12
434.953	84.12
435.175	103.12
435.397	91.12
435.618	80.12
435.84	84.12
436.062	93.12
436.284	83.12
436.505	78.12
436.727	85.12
436.949	68.12
437.17	79.12
437.392	90.12
437.614	77.12
437.835	82.12
438.057	82.12
438.278	71.12
438.5	88.12
438.721	79.12
438.943	86.12
439.165	74.12
439.386	69.12
439.608	78.12
439.829	90.12
440.05	83.12
440.272	78.12
440.493	83.12
440.715	89.12
440.936	80.12
441.158	90.12
441.379	64.12
441.6	83.12
441.822	86.12
442.043	98.12
442.264	96.12
442.486	111.12
442.707	134.12
442.928	96.12
443.149	86.12
443.371	111.12
443.592	198.12
443.813	152.12
444.034	115.12
444.255	81.12
444.476	86.12
444.698	85.12
444.919	85.12
445.14	180.12
445.361	159.12
445.582	216.12
445.803	189.12
446.024	103.12
446.245	78.12
446.466	87.12
446.687	84.12
446.908	65.12
447.129	83.12
447.35	72.12
447.571	81.12
447.792	73.12
448.013	65.12
448.234	80.12
448.455	75.12
448.675	84.12
448.896	78.12
449.117	82.12
449.338	90.12
449.559	83.12
449.779	86.12
450	83.12
450.221	73.12
450.442	66.12
450.662	78.12
450.883	82.12
451.104	70.12
451.324	87.12
451.545	87.12
451.766	75.12
451.986	64.12
452.207	93.12
452.428	81.12
452.648	74.12
452.869	85.12
453.089	93.12
453.31	94.12
453.53	85.12
453.751	91.12
453.971	87.12
454.192	82.12
454.412	70.12
454.633	79.12
454.853	83.12
455.073	80.12
455.294	87.12
455.514	83.12
455.734	88.12
455.955	70.12
456.175	80.12
456.395	73.12
456.616	67.12
456.836	82.12
457.056	74.12
457.276	86.12
457.497	82.12
457.717	90.12
457.937	90.12
458.157	95.12
458.377	95.12
458.598	87.12
458.818	96.12
459.038	77.12
459.258	85.12
459.478	75.12
459.698	82.12
459.918	82.12
460.138	67.12
460.358	98.12
460.578	82.12
460.798	111.12
461.018	101.12
461.238	74.12
461.458	79.12
461.678	73.12
461.898	63.12
462.118	86.12
462.338	69.12
462.558	67.12
462.777	78.12
462.997	71.12
463.217	84.12
463.437	83.12
463.657	83.12
463.876	74.12
464.096	84.12
464.316	73.12
464.536	77.12
464.755	69.12
464.975	70.12
465.195	90.12
465.414	90.12
465.634	91.12
465.854	84.12
466.073	71.12
466.293	77.12
466.512	82.12
466.732	80.12
466.951	79.12
467.171	85.12
467.391	74.12
467.61	91.12
467.829	83.12
468.049	95.12
468.268	74.12
468.488	72.12
468.707	79.12
468.927	81.12
469.146	77.12
469.365	81.12
469.585	85.12
469.804	73.12
470.023	75.12
470.243	93.12
470.462	89.12
470.681	82.12
470.901	87.12
471.12	80.12
471.339	75.12
471.558	88.12
471.777	81.12
471.997	82.12
472.216	76.12
472.435	76.12
472.654	73.12
472.873	74.12
473.092	87.12
473.311	73.12
473.53	73.12
473.749	76.12
473.968	89.12
474.187	82.12
474.406	65.12
474.625	71.12
474.844	82.12
475.063	71.12
475.282	90.12
475.501	89.12
475.72	82.12
475.939	64.12
476.158	83.12
476.377	83.12
476.596	90.12
476.814	78.12
477.033	71.12
477.252	77.12
477.471	102.12
477.69	73.12
477.908	83.12
478.127	84.12
478.346	79.12
478.564	93.12
478.783	78.12
479.002	75.12
479.22	89.12
479.439	96.12
479.658	82.12
479.876	78.12
480.095	79.12
480.313	87.12
480.532	87.12
480.751	83.12
480.969	69.12
481.188	81.12
481.406	94.12
481.624	84.12
481.843	68.12
482.061	78.12
482.28	79.12
482.498	86.12
482.717	85.12
482.935	82.12
483.153	78.12
483.372	86.12
483.59	78.12
483.808	84.12
484.027	86.12
484.245	86.12
484.463	87.12
484.681	66.12
484.9	82.12
485.118	97.12
485.336	79.12
485.554	84.12
485.772	84.12
485.99	88.12
486.209	84.12
486.427	83.12
486.645	72.12
486.863	93.12
487.081	90.12
487.299	86.12
487.517	79.12
487.735	92.12
487.953	114.12
488.171	105.12
488.389	88.12
488.607	54.12
488.825	78.12
489.043	87.12
489.261	89.12
489.479	66.12
489.696	85.12
489.914	84.12
490.132	90.12
490.35	78.12
490.568	73.12
490.786	97.12
491.003	70.12
491.221	87.12
491.439	93.12
491.657	89.12
491.874	84.12
492.092	85.12
492.31	84.12
492.527	67.12
492.745	87.12
492.963	87.12
493.18	91.12
493.398	93.12
493.615	85.12
493.833	79.12
494.05	78.12
494.268	86.12
494.485	83.12
494.703	78.12
494.92	83.12
495.138	88.12
495.355	99.12
495.573	81.12
495.79	97.12
496.008	80.12
496.225	97.12
496.442	81.12
496.66	77.12
496.877	88.12
497.094	100.12
497.312	102.12
497.529	74.12
497.746	85.12
497.963	91.12
498.181	74.12
498.398	86.12
498.615	67.12
498.832	74.12
499.049	81.12
499.267	87.12
499.484	81.12
499.701	75.12
499.918	73.12
500.135	84.12
500.352	71.12
500.569	71.12
500.786	93.12
501.003	73.12
501.22	86.12
501.437	92.12
501.654	83.12
501.871	102.12
502.088	66.12
502.305	87.12
502.522	79.12
502.739	98.12
502.956	85.12
503.172	87.12
503.389	73.12
503.606	87.12
503.823	95.12
504.04	84.12
504.256	103.12
504.473	103.12
504.69	86.12
504.907	85.12
505.123	86.12
505.34	86.12
505.557	83.12
505.773	79.12
505.99	81.12
506.207	83.12
506.423	76.12
506.64	95.12
506.856	78.12
507.073	83.12
507.289	73.12
507.506	79.12
507.722	79.12
507.939	70.12
508.155	78.12
508.372	86.12
508.588	75.12
508.805	81.12
509.021	88.12
509.238	75.12
509.454	86.12
509.67	83.12
509.887	67.12
510.103	89.12
510.319	91.12
510.536	76.12
510.752	98.12
510.968	89.12
511.184	72.12
511.401	85.12
511.617	73.12
511.833	61.12
512.049	69.12
512.265	74.12
512.481	83.12
512.698	86.12
512.914	84.12
513.13	91.12
513.346	90.12
513.562	97.12
513.778	91.12
513.994	94.12
514.21	88.12
514.426	83.12
514.642	81.12
514.858	81.12
515.074	97.12
515.29	92.12
515.506	87.12
515.721	80.12
515.937	86.12
516.153	93.12
516.369	62.12
516.585	76.12
516.801	82.12
517.016	86.12
517.232	95.12
517.448	100.12
517.664	87.12
517.879	78.12
518.095	85.12
518.311	94.12
518.527	99.12
518.742	98.12
518.958	105.12
