Data from HP_1_HRD10591_00045.txt Node
Date: Mon Jan 19 14:15:30 EST 2026
User: Yrep
Spectrometer: HR+D1059
Trigger mode: 1
Integration Time (sec): 1.000000E-1
Scans to average: 1
Electric dark correction enabled: true
Nonlinearity correction enabled: false
Boxcar width: 0
XAxis mode: Wavelengths
Number of Pixels in Spectrum: 2048
>>>>>Begin Spectral Data<<<<<
223.165	-10.25
223.4	-10.25
223.635	-10.25
223.869	-34.25
224.104	-18.25
224.338	-13.25
224.573	-12.25
224.808	-21.25
225.042	-5.25
225.277	-3.25
225.511	-0.25
225.746	7.75
225.98	-1.25
226.215	15.75
226.449	8.75
226.683	29.75
226.918	24.75
227.152	32.75
227.387	43.75
227.621	46.75
227.856	37.75
228.09	59.75
228.324	76.75
228.559	56.75
228.793	73.75
229.027	53.75
229.262	64.75
229.496	64.75
229.73	71.75
229.964	79.75
230.199	74.75
230.433	78.75
230.667	77.75
230.901	80.75
231.136	85.75
231.37	76.75
231.604	88.75
231.838	86.75
232.072	86.75
232.306	89.75
232.541	86.75
232.775	86.75
233.009	103.75
233.243	79.75
233.477	84.75
233.711	84.75
233.945	86.75
234.179	84.75
234.413	93.75
234.647	86.75
234.881	99.75
235.115	74.75
235.349	74.75
235.583	79.75
235.817	78.75
236.051	67.75
236.285	75.75
236.519	82.75
236.753	94.75
236.987	84.75
237.221	72.75
237.455	88.75
237.689	75.75
237.922	87.75
238.156	81.75
238.39	84.75
238.624	81.75
238.858	74.75
239.091	80.75
239.325	81.75
239.559	80.75
239.793	100.75
240.027	85.75
240.26	63.75
240.494	77.75
240.728	76.75
240.961	58.75
241.195	85.75
241.429	90.75
241.662	76.75
241.896	79.75
242.13	83.75
242.363	79.75
242.597	65.75
242.83	88.75
243.064	89.75
243.298	90.75
243.531	77.75
243.765	90.75
243.998	90.75
244.232	97.75
244.465	70.75
244.699	88.75
244.932	89.75
245.166	92.75
245.399	80.75
245.633	72.75
245.866	79.75
246.099	76.75
246.333	82.75
246.566	79.75
246.8	75.75
247.033	84.75
247.266	83.75
247.5	79.75
247.733	71.75
247.966	83.75
248.2	80.75
248.433	72.75
248.666	81.75
248.899	76.75
249.133	77.75
249.366	78.75
249.599	80.75
249.832	75.75
250.066	88.75
250.299	75.75
250.532	84.75
250.765	72.75
250.998	74.75
251.231	62.75
251.465	71.75
251.698	81.75
251.931	85.75
252.164	82.75
252.397	74.75
252.63	69.75
252.863	81.75
253.096	89.75
253.329	100.75
253.562	88.75
253.795	79.75
254.028	101.75
254.261	76.75
254.494	94.75
254.727	78.75
254.96	68.75
255.193	77.75
255.426	91.75
255.659	81.75
255.892	92.75
256.124	75.75
256.357	99.75
256.59	88.75
256.823	87.75
257.056	85.75
257.289	76.75
257.521	76.75
257.754	77.75
257.987	87.75
258.22	86.75
258.452	90.75
258.685	81.75
258.918	82.75
259.151	85.75
259.383	76.75
259.616	78.75
259.849	97.75
260.081	90.75
260.314	88.75
260.547	100.75
260.779	90.75
261.012	71.75
261.244	100.75
261.477	91.75
261.71	79.75
261.942	90.75
262.175	90.75
262.407	92.75
262.64	80.75
262.872	88.75
263.105	88.75
263.337	90.75
263.57	93.75
263.802	86.75
264.035	78.75
264.267	82.75
264.499	78.75
264.732	93.75
264.964	86.75
265.197	70.75
265.429	86.75
265.661	79.75
265.894	86.75
266.126	91.75
266.358	86.75
266.591	86.75
266.823	75.75
267.055	78.75
267.287	73.75
267.52	75.75
267.752	82.75
267.984	82.75
268.216	96.75
268.448	86.75
268.681	75.75
268.913	96.75
269.145	100.75
269.377	95.75
269.609	78.75
269.841	84.75
270.073	84.75
270.306	81.75
270.538	100.75
270.77	74.75
271.002	91.75
271.234	88.75
271.466	97.75
271.698	90.75
271.93	79.75
272.162	88.75
272.394	85.75
272.626	76.75
272.858	70.75
273.09	92.75
273.322	84.75
273.553	89.75
273.785	78.75
274.017	81.75
274.249	72.75
274.481	89.75
274.713	78.75
274.945	90.75
275.176	73.75
275.408	88.75
275.64	79.75
275.872	93.75
276.104	80.75
276.335	74.75
276.567	93.75
276.799	96.75
277.031	78.75
277.262	92.75
277.494	111.75
277.726	93.75
277.957	76.75
278.189	86.75
278.421	86.75
278.652	76.75
278.884	97.75
279.115	70.75
279.347	96.75
279.579	93.75
279.81	94.75
280.042	88.75
280.273	99.75
280.505	90.75
280.736	80.75
280.968	91.75
281.199	88.75
281.431	77.75
281.662	86.75
281.894	86.75
282.125	95.75
282.356	87.75
282.588	83.75
282.819	88.75
283.051	90.75
283.282	93.75
283.513	77.75
283.745	92.75
283.976	83.75
284.207	88.75
284.439	81.75
284.67	88.75
284.901	90.75
285.132	94.75
285.364	98.75
285.595	86.75
285.826	79.75
286.057	89.75
286.288	84.75
286.52	81.75
286.751	86.75
286.982	79.75
287.213	88.75
287.444	92.75
287.675	71.75
287.906	91.75
288.138	90.75
288.369	77.75
288.6	86.75
288.831	87.75
289.062	71.75
289.293	96.75
289.524	103.75
289.755	76.75
289.986	88.75
290.217	88.75
290.448	95.75
290.679	81.75
290.91	103.75
291.141	84.75
291.371	88.75
291.602	86.75
291.833	91.75
292.064	82.75
292.295	92.75
292.526	96.75
292.757	95.75
292.987	83.75
293.218	92.75
293.449	88.75
293.68	80.75
293.91	86.75
294.141	94.75
294.372	89.75
294.603	97.75
294.833	89.75
295.064	100.75
295.295	83.75
295.525	90.75
295.756	89.75
295.987	84.75
296.217	98.75
296.448	64.75
296.679	91.75
296.909	82.75
297.14	98.75
297.37	89.75
297.601	91.75
297.831	84.75
298.062	94.75
298.292	94.75
298.523	84.75
298.753	84.75
298.984	73.75
299.214	90.75
299.445	79.75
299.675	72.75
299.905	84.75
300.136	91.75
300.366	95.75
300.597	83.75
300.827	78.75
301.057	88.75
301.288	90.75
301.518	104.75
301.748	89.75
301.979	98.75
302.209	82.75
302.439	95.75
302.669	82.75
302.9	86.75
303.13	79.75
303.36	102.75
303.59	79.75
303.82	94.75
304.051	75.75
304.281	77.75
304.511	91.75
304.741	96.75
304.971	75.75
305.201	77.75
305.431	88.75
305.661	79.75
305.891	83.75
306.121	80.75
306.352	78.75
306.582	86.75
306.812	95.75
307.042	93.75
307.272	81.75
307.502	95.75
307.731	88.75
307.961	85.75
308.191	88.75
308.421	98.75
308.651	93.75
308.881	100.75
309.111	107.75
309.341	75.75
309.571	92.75
309.8	78.75
310.03	86.75
310.26	92.75
310.49	81.75
310.72	66.75
310.949	95.75
311.179	87.75
311.409	101.75
311.639	92.75
311.868	86.75
312.098	84.75
312.328	91.75
312.557	86.75
312.787	79.75
313.017	90.75
313.246	75.75
313.476	82.75
313.706	82.75
313.935	81.75
314.165	92.75
314.394	82.75
314.624	85.75
314.853	87.75
315.083	95.75
315.312	75.75
315.542	93.75
315.771	86.75
316.001	84.75
316.23	86.75
316.46	97.75
316.689	79.75
316.919	93.75
317.148	85.75
317.377	91.75
317.607	92.75
317.836	107.75
318.065	91.75
318.295	90.75
318.524	82.75
318.753	90.75
318.983	94.75
319.212	80.75
319.441	90.75
319.67	94.75
319.9	97.75
320.129	96.75
320.358	93.75
320.587	83.75
320.816	82.75
321.046	79.75
321.275	91.75
321.504	81.75
321.733	76.75
321.962	102.75
322.191	86.75
322.42	76.75
322.649	106.75
322.878	104.75
323.108	82.75
323.337	88.75
323.566	85.75
323.795	104.75
324.024	94.75
324.253	70.75
324.482	85.75
324.71	81.75
324.939	74.75
325.168	88.75
325.397	87.75
325.626	90.75
325.855	91.75
326.084	78.75
326.313	71.75
326.542	91.75
326.77	90.75
326.999	72.75
327.228	88.75
327.457	81.75
327.686	86.75
327.914	80.75
328.143	94.75
328.372	90.75
328.6	80.75
328.829	89.75
329.058	107.75
329.287	88.75
329.515	73.75
329.744	72.75
329.972	108.75
330.201	80.75
330.43	78.75
330.658	91.75
330.887	98.75
331.115	66.75
331.344	75.75
331.572	87.75
331.801	93.75
332.03	110.75
332.258	90.75
332.486	88.75
332.715	89.75
332.943	92.75
333.172	78.75
333.4	81.75
333.629	93.75
333.857	90.75
334.085	92.75
334.314	87.75
334.542	80.75
334.771	75.75
334.999	90.75
335.227	72.75
335.455	88.75
335.684	96.75
335.912	87.75
336.14	87.75
336.369	72.75
336.597	78.75
336.825	90.75
337.053	80.75
337.281	77.75
337.51	80.75
337.738	93.75
337.966	94.75
338.194	95.75
338.422	93.75
338.65	90.75
338.878	90.75
339.106	80.75
339.334	85.75
339.562	73.75
339.79	93.75
340.018	79.75
340.246	93.75
340.474	84.75
340.702	91.75
340.93	85.75
341.158	81.75
341.386	95.75
341.614	80.75
341.842	98.75
342.07	72.75
342.298	88.75
342.526	99.75
342.754	88.75
342.981	88.75
343.209	78.75
343.437	86.75
343.665	83.75
343.893	82.75
344.12	84.75
344.348	82.75
344.576	91.75
344.804	79.75
345.031	91.75
345.259	95.75
345.487	90.75
345.714	88.75
345.942	102.75
346.17	98.75
346.397	76.75
346.625	94.75
346.853	83.75
347.08	75.75
347.308	83.75
347.535	84.75
347.763	87.75
347.99	86.75
348.218	96.75
348.445	88.75
348.673	81.75
348.9	94.75
349.128	79.75
349.355	86.75
349.583	78.75
349.81	73.75
350.037	86.75
350.265	89.75
350.492	90.75
350.72	84.75
350.947	99.75
351.174	81.75
351.402	80.75
351.629	93.75
351.856	80.75
352.083	82.75
352.311	90.75
352.538	85.75
352.765	84.75
352.992	102.75
353.22	90.75
353.447	92.75
353.674	91.75
353.901	97.75
354.128	83.75
354.355	86.75
354.583	78.75
354.81	76.75
355.037	88.75
355.264	80.75
355.491	92.75
355.718	90.75
355.945	90.75
356.172	94.75
356.399	86.75
356.626	87.75
356.853	98.75
357.08	96.75
357.307	94.75
357.534	84.75
357.761	98.75
357.988	84.75
358.215	80.75
358.441	89.75
358.668	86.75
358.895	84.75
359.122	85.75
359.349	97.75
359.576	89.75
359.802	82.75
360.029	100.75
360.256	101.75
360.483	86.75
360.709	77.75
360.936	87.75
361.163	75.75
361.39	82.75
361.616	79.75
361.843	102.75
362.07	85.75
362.296	74.75
362.523	80.75
362.749	77.75
362.976	95.75
363.203	95.75
363.429	86.75
363.656	84.75
363.882	89.75
364.109	98.75
364.335	98.75
364.562	87.75
364.788	88.75
365.015	90.75
365.241	98.75
365.468	74.75
365.694	85.75
365.92	86.75
366.147	88.75
366.373	84.75
366.599	92.75
366.826	73.75
367.052	99.75
367.278	84.75
367.505	98.75
367.731	80.75
367.957	80.75
368.184	92.75
368.41	89.75
368.636	71.75
368.862	78.75
369.089	78.75
369.315	72.75
369.541	72.75
369.767	98.75
369.993	79.75
370.219	86.75
370.445	86.75
370.672	69.75
370.898	77.75
371.124	79.75
371.35	80.75
371.576	98.75
371.802	76.75
372.028	85.75
372.254	88.75
372.48	82.75
372.706	87.75
372.932	89.75
373.158	91.75
373.384	91.75
373.61	95.75
373.835	80.75
374.061	83.75
374.287	97.75
374.513	79.75
374.739	89.75
374.965	88.75
375.191	90.75
375.416	87.75
375.642	87.75
375.868	86.75
376.094	88.75
376.319	86.75
376.545	79.75
376.771	70.75
376.997	90.75
377.222	92.75
377.448	85.75
377.674	82.75
377.899	95.75
378.125	88.75
378.35	78.75
378.576	92.75
378.802	83.75
379.027	75.75
379.253	78.75
379.478	89.75
379.704	79.75
379.929	71.75
380.155	86.75
380.38	84.75
380.606	86.75
380.831	86.75
381.057	91.75
381.282	79.75
381.507	88.75
381.733	89.75
381.958	88.75
382.184	90.75
382.409	88.75
382.634	90.75
382.86	98.75
383.085	83.75
383.31	70.75
383.535	94.75
383.761	86.75
383.986	98.75
384.211	82.75
384.436	76.75
384.662	92.75
384.887	90.75
385.112	88.75
385.337	77.75
385.562	86.75
385.787	90.75
386.013	98.75
386.238	93.75
386.463	98.75
386.688	86.75
386.913	80.75
387.138	77.75
387.363	92.75
387.588	94.75
387.813	95.75
388.038	75.75
388.263	78.75
388.488	84.75
388.713	82.75
388.938	86.75
389.163	77.75
389.387	76.75
389.612	77.75
389.837	89.75
390.062	74.75
390.287	94.75
390.512	81.75
390.736	85.75
390.961	70.75
391.186	88.75
391.411	73.75
391.636	90.75
391.86	72.75
392.085	80.75
392.31	96.75
392.534	78.75
392.759	88.75
392.984	101.75
393.208	114.75
393.433	141.75
393.658	123.75
393.882	80.75
394.107	89.75
394.331	89.75
394.556	90.75
394.78	87.75
395.005	66.75
395.229	83.75
395.454	95.75
395.678	102.75
395.903	82.75
396.127	95.75
396.352	98.75
396.576	96.75
396.801	128.75
397.025	139.75
397.249	99.75
397.474	79.75
397.698	75.75
397.922	81.75
398.147	79.75
398.371	94.75
398.595	78.75
398.82	88.75
399.044	81.75
399.268	76.75
399.492	74.75
399.717	81.75
399.941	91.75
400.165	85.75
400.389	96.75
400.613	73.75
400.837	85.75
401.062	86.75
401.286	86.75
401.51	78.75
401.734	90.75
401.958	76.75
402.182	87.75
402.406	81.75
402.63	79.75
402.854	99.75
403.078	98.75
403.302	91.75
403.526	77.75
403.75	77.75
403.974	82.75
404.198	86.75
404.422	104.75
404.645	99.75
404.869	100.75
405.093	84.75
405.317	87.75
405.541	82.75
405.765	91.75
405.988	74.75
406.212	95.75
406.436	93.75
406.66	79.75
406.883	78.75
407.107	71.75
407.331	79.75
407.555	80.75
407.778	89.75
408.002	72.75
408.226	86.75
408.449	77.75
408.673	98.75
408.896	96.75
409.12	88.75
409.344	83.75
409.567	73.75
409.791	80.75
410.014	96.75
410.238	98.75
410.461	96.75
410.685	70.75
410.908	87.75
411.132	92.75
411.355	88.75
411.578	88.75
411.802	78.75
412.025	72.75
412.249	95.75
412.472	88.75
412.695	74.75
412.919	107.75
413.142	70.75
413.365	95.75
413.589	86.75
413.812	90.75
414.035	86.75
414.258	86.75
414.482	75.75
414.705	94.75
414.928	93.75
415.151	89.75
415.374	78.75
415.597	89.75
415.821	80.75
416.044	76.75
416.267	81.75
416.49	84.75
416.713	77.75
416.936	89.75
417.159	83.75
417.382	87.75
417.605	84.75
417.828	88.75
418.051	76.75
418.274	79.75
418.497	72.75
418.72	87.75
418.943	98.75
419.166	90.75
419.389	93.75
419.611	91.75
419.834	77.75
420.057	85.75
420.28	96.75
420.503	77.75
420.726	86.75
420.948	86.75
421.171	79.75
421.394	98.75
421.617	98.75
421.839	86.75
422.062	86.75
422.285	88.75
422.507	119.75
422.73	150.75
422.953	157.75
423.175	106.75
423.398	81.75
423.621	70.75
423.843	58.75
424.066	85.75
424.288	72.75
424.511	79.75
424.733	86.75
424.956	90.75
425.178	74.75
425.401	90.75
425.623	89.75
425.846	77.75
426.068	88.75
426.291	87.75
426.513	77.75
426.735	86.75
426.958	78.75
427.18	65.75
427.402	91.75
427.625	93.75
427.847	91.75
428.069	68.75
428.292	81.75
428.514	100.75
428.736	73.75
428.958	89.75
429.181	89.75
429.403	82.75
429.625	79.75
429.847	98.75
430.069	90.75
430.292	103.75
430.514	106.75
430.736	107.75
430.958	99.75
431.18	100.75
431.402	71.75
431.624	90.75
431.846	86.75
432.068	79.75
432.29	102.75
432.512	71.75
432.734	71.75
432.956	72.75
433.178	80.75
433.4	89.75
433.622	84.75
433.844	86.75
434.066	86.75
434.287	92.75
434.509	82.75
434.731	91.75
434.953	81.75
435.175	88.75
435.397	92.75
435.618	86.75
435.84	68.75
436.062	84.75
436.284	78.75
436.505	78.75
436.727	87.75
436.949	74.75
437.17	90.75
437.392	92.75
437.614	95.75
437.835	91.75
438.057	87.75
438.278	72.75
438.5	88.75
438.721	87.75
438.943	95.75
439.165	84.75
439.386	88.75
439.608	84.75
439.829	72.75
440.05	80.75
440.272	69.75
440.493	76.75
440.715	88.75
440.936	91.75
441.158	85.75
441.379	92.75
441.6	81.75
441.822	83.75
442.043	92.75
442.264	95.75
442.486	73.75
442.707	91.75
442.928	86.75
443.149	88.75
443.371	98.75
443.592	108.75
443.813	102.75
444.034	89.75
444.255	87.75
444.476	88.75
444.698	73.75
444.919	92.75
445.14	158.75
445.361	151.75
445.582	119.75
445.803	120.75
446.024	96.75
446.245	81.75
446.466	72.75
446.687	90.75
446.908	78.75
447.129	88.75
447.35	89.75
447.571	86.75
447.792	77.75
448.013	72.75
448.234	63.75
448.455	86.75
448.675	98.75
448.896	88.75
449.117	91.75
449.338	80.75
449.559	99.75
449.779	80.75
450	64.75
450.221	68.75
450.442	69.75
450.662	87.75
450.883	92.75
451.104	88.75
451.324	94.75
451.545	80.75
451.766	94.75
451.986	89.75
452.207	88.75
452.428	84.75
452.648	80.75
452.869	71.75
453.089	90.75
453.31	88.75
453.53	82.75
453.751	78.75
453.971	85.75
454.192	77.75
454.412	92.75
454.633	96.75
454.853	80.75
455.073	76.75
455.294	73.75
455.514	91.75
455.734	87.75
455.955	94.75
456.175	91.75
456.395	68.75
456.616	84.75
456.836	82.75
457.056	94.75
457.276	75.75
457.497	86.75
457.717	91.75
457.937	87.75
458.157	80.75
458.377	87.75
458.598	69.75
458.818	80.75
459.038	87.75
459.258	80.75
459.478	87.75
459.698	84.75
459.918	86.75
460.138	85.75
460.358	97.75
460.578	78.75
460.798	80.75
461.018	100.75
461.238	76.75
461.458	95.75
461.678	90.75
461.898	80.75
462.118	84.75
462.338	84.75
462.558	93.75
462.777	85.75
462.997	95.75
463.217	85.75
463.437	93.75
463.657	81.75
463.876	72.75
464.096	88.75
464.316	90.75
464.536	87.75
464.755	89.75
464.975	85.75
465.195	90.75
465.414	91.75
465.634	94.75
465.854	60.75
466.073	83.75
466.293	87.75
466.512	79.75
466.732	79.75
466.951	74.75
467.171	99.75
467.391	77.75
467.61	85.75
467.829	90.75
468.049	76.75
468.268	85.75
468.488	82.75
468.707	88.75
468.927	81.75
469.146	93.75
469.365	94.75
469.585	86.75
469.804	72.75
470.023	64.75
470.243	90.75
470.462	76.75
470.681	87.75
470.901	77.75
471.12	72.75
471.339	87.75
471.558	92.75
471.777	82.75
471.997	84.75
472.216	75.75
472.435	82.75
472.654	74.75
472.873	110.75
473.092	77.75
473.311	92.75
473.53	94.75
473.749	67.75
473.968	93.75
474.187	64.75
474.406	90.75
474.625	80.75
474.844	91.75
475.063	80.75
475.282	83.75
475.501	83.75
475.72	83.75
475.939	88.75
476.158	81.75
476.377	92.75
476.596	97.75
476.814	94.75
477.033	85.75
477.252	86.75
477.471	74.75
477.69	100.75
477.908	88.75
478.127	92.75
478.346	84.75
478.564	88.75
478.783	82.75
479.002	77.75
479.22	85.75
479.439	92.75
479.658	71.75
479.876	83.75
480.095	79.75
480.313	88.75
480.532	98.75
480.751	95.75
480.969	89.75
481.188	81.75
481.406	87.75
481.624	84.75
481.843	85.75
482.061	89.75
482.28	87.75
482.498	70.75
482.717	92.75
482.935	71.75
483.153	78.75
483.372	98.75
483.59	77.75
483.808	90.75
484.027	81.75
484.245	83.75
484.463	92.75
484.681	81.75
484.9	94.75
485.118	109.75
485.336	95.75
485.554	75.75
485.772	98.75
485.99	86.75
486.209	90.75
486.427	90.75
486.645	80.75
486.863	84.75
487.081	86.75
487.299	99.75
487.517	79.75
487.735	118.75
487.953	90.75
488.171	92.75
488.389	88.75
488.607	90.75
488.825	90.75
489.043	87.75
489.261	96.75
489.479	89.75
489.696	94.75
489.914	79.75
490.132	85.75
490.35	90.75
490.568	84.75
490.786	74.75
491.003	82.75
491.221	106.75
491.439	101.75
491.657	86.75
491.874	94.75
492.092	78.75
492.31	85.75
492.527	73.75
492.745	89.75
492.963	84.75
493.18	78.75
493.398	84.75
493.615	97.75
493.833	90.75
494.05	82.75
494.268	94.75
494.485	88.75
494.703	94.75
494.92	81.75
495.138	87.75
495.355	85.75
495.573	85.75
495.79	77.75
496.008	80.75
496.225	90.75
496.442	90.75
496.66	85.75
496.877	99.75
497.094	79.75
497.312	92.75
497.529	78.75
497.746	79.75
497.963	90.75
498.181	81.75
498.398	83.75
498.615	72.75
498.832	86.75
499.049	90.75
499.267	81.75
499.484	90.75
499.701	92.75
499.918	80.75
500.135	80.75
500.352	80.75
500.569	90.75
500.786	91.75
501.003	91.75
501.22	84.75
501.437	96.75
501.654	81.75
501.871	78.75
502.088	88.75
502.305	77.75
502.522	82.75
502.739	86.75
502.956	82.75
503.172	97.75
503.389	97.75
503.606	84.75
503.823	93.75
504.04	95.75
504.256	99.75
504.473	86.75
504.69	88.75
504.907	95.75
505.123	76.75
505.34	90.75
505.557	101.75
505.773	92.75
505.99	96.75
506.207	94.75
506.423	89.75
506.64	98.75
506.856	88.75
507.073	85.75
507.289	77.75
507.506	84.75
507.722	62.75
507.939	79.75
508.155	78.75
508.372	74.75
508.588	70.75
508.805	84.75
509.021	102.75
509.238	106.75
509.454	96.75
509.67	75.75
509.887	80.75
510.103	96.75
510.319	87.75
510.536	95.75
510.752	87.75
510.968	72.75
511.184	85.75
511.401	73.75
511.617	86.75
511.833	97.75
512.049	76.75
512.265	98.75
512.481	84.75
512.698	76.75
512.914	82.75
513.13	90.75
513.346	95.75
513.562	92.75
513.778	95.75
513.994	72.75
514.21	73.75
514.426	86.75
514.642	100.75
514.858	84.75
515.074	97.75
515.29	79.75
515.506	90.75
515.721	90.75
515.937	84.75
516.153	96.75
516.369	85.75
516.585	81.75
516.801	90.75
517.016	91.75
517.232	86.75
517.448	90.75
517.664	77.75
517.879	69.75
518.095	97.75
518.311	85.75
518.527	91.75
518.742	93.75
518.958	82.75
519.173	93.75
519.389	84.75
