Data from HP_1_HRD10591_00029.txt Node
Date: Mon Jan 19 14:15:22 EST 2026
User: Yrep
Spectrometer: HR+D1059
Trigger mode: 1
Integration Time (sec): 1.000000E-1
Scans to average: 1
Electric dark correction enabled: true
Nonlinearity correction enabled: false
Boxcar width: 0
XAxis mode: Wavelengths
Number of Pixels in Spectrum: 2048
>>>>>Begin Spectral Data<<<<<
223.165	-15.75
223.4	-15.75
223.635	-15.75
223.869	-17.75
224.104	-13.75
224.338	-19.75
224.573	-24.75
224.808	-0.75
225.042	-10.75
225.277	-19.75
225.511	-0.75
225.746	4.25
225.98	-0.75
226.215	9.25
226.449	17.25
226.683	31.25
226.918	26.25
227.152	36.25
227.387	18.25
227.621	44.25
227.856	40.25
228.09	40.25
228.324	49.25
228.559	77.25
228.793	68.25
229.027	50.25
229.262	63.25
229.496	62.25
229.73	66.25
229.964	71.25
230.199	63.25
230.433	75.25
230.667	64.25
230.901	78.25
231.136	68.25
231.37	81.25
231.604	95.25
231.838	75.25
232.072	71.25
232.306	72.25
232.541	76.25
232.775	67.25
233.009	83.25
233.243	69.25
233.477	88.25
233.711	79.25
233.945	94.25
234.179	88.25
234.413	87.25
234.647	86.25
234.881	77.25
235.115	74.25
235.349	77.25
235.583	57.25
235.817	70.25
236.051	75.25
236.285	72.25
236.519	79.25
236.753	67.25
236.987	75.25
237.221	73.25
237.455	91.25
237.689	89.25
237.922	90.25
238.156	71.25
238.39	74.25
238.624	66.25
238.858	77.25
239.091	81.25
239.325	66.25
239.559	71.25
239.793	61.25
240.027	79.25
240.26	69.25
240.494	81.25
240.728	70.25
240.961	61.25
241.195	75.25
241.429	75.25
241.662	75.25
241.896	63.25
242.13	70.25
242.363	80.25
242.597	74.25
242.83	84.25
243.064	77.25
243.298	67.25
243.531	83.25
243.765	87.25
243.998	69.25
244.232	76.25
244.465	59.25
244.699	95.25
244.932	76.25
245.166	65.25
245.399	76.25
245.633	78.25
245.866	81.25
246.099	65.25
246.333	72.25
246.566	70.25
246.8	74.25
247.033	69.25
247.266	71.25
247.5	80.25
247.733	93.25
247.966	85.25
248.2	67.25
248.433	85.25
248.666	73.25
248.899	72.25
249.133	73.25
249.366	73.25
249.599	73.25
249.832	88.25
250.066	78.25
250.299	79.25
250.532	59.25
250.765	79.25
250.998	73.25
251.231	77.25
251.465	76.25
251.698	68.25
251.931	81.25
252.164	71.25
252.397	73.25
252.63	72.25
252.863	62.25
253.096	81.25
253.329	83.25
253.562	78.25
253.795	81.25
254.028	66.25
254.261	72.25
254.494	68.25
254.727	90.25
254.96	69.25
255.193	78.25
255.426	76.25
255.659	80.25
255.892	89.25
256.124	70.25
256.357	73.25
256.59	80.25
256.823	91.25
257.056	75.25
257.289	60.25
257.521	71.25
257.754	75.25
257.987	79.25
258.22	106.25
258.452	79.25
258.685	78.25
258.918	73.25
259.151	73.25
259.383	73.25
259.616	69.25
259.849	83.25
260.081	81.25
260.314	73.25
260.547	87.25
260.779	67.25
261.012	78.25
261.244	73.25
261.477	95.25
261.71	74.25
261.942	79.25
262.175	71.25
262.407	80.25
262.64	87.25
262.872	80.25
263.105	75.25
263.337	79.25
263.57	68.25
263.802	75.25
264.035	81.25
264.267	82.25
264.499	69.25
264.732	77.25
264.964	83.25
265.197	80.25
265.429	83.25
265.661	80.25
265.894	75.25
266.126	75.25
266.358	70.25
266.591	71.25
266.823	96.25
267.055	86.25
267.287	73.25
267.52	85.25
267.752	71.25
267.984	78.25
268.216	76.25
268.448	76.25
268.681	74.25
268.913	86.25
269.145	82.25
269.377	67.25
269.609	79.25
269.841	70.25
270.073	90.25
270.306	70.25
270.538	92.25
270.77	81.25
271.002	83.25
271.234	74.25
271.466	78.25
271.698	78.25
271.93	80.25
272.162	85.25
272.394	74.25
272.626	85.25
272.858	77.25
273.09	76.25
273.322	78.25
273.553	90.25
273.785	75.25
274.017	79.25
274.249	88.25
274.481	73.25
274.713	95.25
274.945	75.25
275.176	79.25
275.408	82.25
275.64	94.25
275.872	70.25
276.104	83.25
276.335	77.25
276.567	82.25
276.799	74.25
277.031	70.25
277.262	79.25
277.494	81.25
277.726	78.25
277.957	74.25
278.189	89.25
278.421	81.25
278.652	67.25
278.884	78.25
279.115	70.25
279.347	76.25
279.579	84.25
279.81	76.25
280.042	81.25
280.273	85.25
280.505	73.25
280.736	75.25
280.968	92.25
281.199	63.25
281.431	78.25
281.662	83.25
281.894	86.25
282.125	85.25
282.356	82.25
282.588	94.25
282.819	77.25
283.051	83.25
283.282	74.25
283.513	72.25
283.745	85.25
283.976	81.25
284.207	71.25
284.439	71.25
284.67	85.25
284.901	71.25
285.132	86.25
285.364	75.25
285.595	76.25
285.826	81.25
286.057	77.25
286.288	73.25
286.52	94.25
286.751	72.25
286.982	80.25
287.213	88.25
287.444	85.25
287.675	92.25
287.906	67.25
288.138	74.25
288.369	75.25
288.6	75.25
288.831	84.25
289.062	82.25
289.293	71.25
289.524	75.25
289.755	76.25
289.986	83.25
290.217	95.25
290.448	79.25
290.679	75.25
290.91	91.25
291.141	85.25
291.371	90.25
291.602	92.25
291.833	63.25
292.064	77.25
292.295	77.25
292.526	87.25
292.757	77.25
292.987	79.25
293.218	80.25
293.449	69.25
293.68	89.25
293.91	69.25
294.141	82.25
294.372	83.25
294.603	81.25
294.833	88.25
295.064	82.25
295.295	79.25
295.525	81.25
295.756	89.25
295.987	81.25
296.217	82.25
296.448	83.25
296.679	85.25
296.909	86.25
297.14	99.25
297.37	89.25
297.601	101.25
297.831	79.25
298.062	85.25
298.292	71.25
298.523	82.25
298.753	81.25
298.984	76.25
299.214	74.25
299.445	87.25
299.675	98.25
299.905	91.25
300.136	88.25
300.366	71.25
300.597	79.25
300.827	75.25
301.057	99.25
301.288	96.25
301.518	96.25
301.748	89.25
301.979	89.25
302.209	91.25
302.439	82.25
302.669	97.25
302.9	84.25
303.13	94.25
303.36	63.25
303.59	74.25
303.82	75.25
304.051	86.25
304.281	71.25
304.511	91.25
304.741	87.25
304.971	83.25
305.201	87.25
305.431	72.25
305.661	84.25
305.891	87.25
306.121	79.25
306.352	86.25
306.582	91.25
306.812	77.25
307.042	81.25
307.272	80.25
307.502	73.25
307.731	74.25
307.961	84.25
308.191	83.25
308.421	96.25
308.651	101.25
308.881	89.25
309.111	67.25
309.341	89.25
309.571	93.25
309.8	93.25
310.03	96.25
310.26	86.25
310.49	97.25
310.72	91.25
310.949	86.25
311.179	80.25
311.409	84.25
311.639	73.25
311.868	94.25
312.098	69.25
312.328	83.25
312.557	76.25
312.787	83.25
313.017	71.25
313.246	77.25
313.476	93.25
313.706	70.25
313.935	82.25
314.165	71.25
314.394	71.25
314.624	90.25
314.853	82.25
315.083	78.25
315.312	80.25
315.542	81.25
315.771	87.25
316.001	89.25
316.23	95.25
316.46	85.25
316.689	78.25
316.919	80.25
317.148	82.25
317.377	92.25
317.607	83.25
317.836	94.25
318.065	76.25
318.295	83.25
318.524	75.25
318.753	69.25
318.983	73.25
319.212	73.25
319.441	85.25
319.67	81.25
319.9	75.25
320.129	79.25
320.358	85.25
320.587	66.25
320.816	95.25
321.046	79.25
321.275	78.25
321.504	90.25
321.733	91.25
321.962	84.25
322.191	85.25
322.42	85.25
322.649	88.25
322.878	71.25
323.108	82.25
323.337	81.25
323.566	78.25
323.795	73.25
324.024	75.25
324.253	74.25
324.482	82.25
324.71	74.25
324.939	86.25
325.168	85.25
325.397	89.25
325.626	82.25
325.855	87.25
326.084	93.25
326.313	85.25
326.542	79.25
326.77	78.25
326.999	67.25
327.228	70.25
327.457	78.25
327.686	79.25
327.914	67.25
328.143	78.25
328.372	87.25
328.6	85.25
328.829	86.25
329.058	71.25
329.287	71.25
329.515	82.25
329.744	73.25
329.972	69.25
330.201	86.25
330.43	73.25
330.658	66.25
330.887	82.25
331.115	90.25
331.344	77.25
331.572	81.25
331.801	86.25
332.03	73.25
332.258	81.25
332.486	93.25
332.715	93.25
332.943	83.25
333.172	82.25
333.4	75.25
333.629	84.25
333.857	85.25
334.085	82.25
334.314	77.25
334.542	89.25
334.771	79.25
334.999	83.25
335.227	87.25
335.455	97.25
335.684	92.25
335.912	70.25
336.14	82.25
336.369	85.25
336.597	87.25
336.825	80.25
337.053	82.25
337.281	94.25
337.51	71.25
337.738	89.25
337.966	75.25
338.194	82.25
338.422	71.25
338.65	78.25
338.878	87.25
339.106	70.25
339.334	81.25
339.562	91.25
339.79	93.25
340.018	86.25
340.246	76.25
340.474	77.25
340.702	80.25
340.93	75.25
341.158	90.25
341.386	85.25
341.614	75.25
341.842	88.25
342.07	77.25
342.298	91.25
342.526	83.25
342.754	84.25
342.981	81.25
343.209	83.25
343.437	83.25
343.665	82.25
343.893	85.25
344.12	81.25
344.348	79.25
344.576	72.25
344.804	68.25
345.031	93.25
345.259	85.25
345.487	78.25
345.714	85.25
345.942	81.25
346.17	81.25
346.397	75.25
346.625	77.25
346.853	82.25
347.08	82.25
347.308	80.25
347.535	82.25
347.763	75.25
347.99	65.25
348.218	69.25
348.445	83.25
348.673	87.25
348.9	80.25
349.128	91.25
349.355	82.25
349.583	88.25
349.81	78.25
350.037	79.25
350.265	85.25
350.492	90.25
350.72	78.25
350.947	71.25
351.174	95.25
351.402	80.25
351.629	73.25
351.856	78.25
352.083	89.25
352.311	78.25
352.538	78.25
352.765	88.25
352.992	75.25
353.22	72.25
353.447	83.25
353.674	79.25
353.901	80.25
354.128	94.25
354.355	90.25
354.583	83.25
354.81	75.25
355.037	72.25
355.264	81.25
355.491	91.25
355.718	82.25
355.945	84.25
356.172	93.25
356.399	94.25
356.626	86.25
356.853	73.25
357.08	103.25
357.307	85.25
357.534	80.25
357.761	78.25
357.988	74.25
358.215	89.25
358.441	93.25
358.668	95.25
358.895	90.25
359.122	94.25
359.349	75.25
359.576	85.25
359.802	87.25
360.029	84.25
360.256	83.25
360.483	81.25
360.709	93.25
360.936	89.25
361.163	87.25
361.39	79.25
361.616	79.25
361.843	69.25
362.07	96.25
362.296	82.25
362.523	77.25
362.749	89.25
362.976	87.25
363.203	89.25
363.429	81.25
363.656	74.25
363.882	69.25
364.109	92.25
364.335	93.25
364.562	98.25
364.788	90.25
365.015	80.25
365.241	71.25
365.468	88.25
365.694	74.25
365.92	75.25
366.147	87.25
366.373	95.25
366.599	73.25
366.826	84.25
367.052	91.25
367.278	73.25
367.505	74.25
367.731	86.25
367.957	69.25
368.184	81.25
368.41	81.25
368.636	80.25
368.862	92.25
369.089	75.25
369.315	78.25
369.541	73.25
369.767	87.25
369.993	86.25
370.219	76.25
370.445	62.25
370.672	88.25
370.898	73.25
371.124	96.25
371.35	87.25
371.576	84.25
371.802	88.25
372.028	74.25
372.254	89.25
372.48	77.25
372.706	83.25
372.932	77.25
373.158	90.25
373.384	96.25
373.61	82.25
373.835	89.25
374.061	85.25
374.287	78.25
374.513	74.25
374.739	81.25
374.965	75.25
375.191	86.25
375.416	85.25
375.642	97.25
375.868	86.25
376.094	77.25
376.319	79.25
376.545	79.25
376.771	76.25
376.997	86.25
377.222	76.25
377.448	88.25
377.674	93.25
377.899	71.25
378.125	71.25
378.35	76.25
378.576	74.25
378.802	76.25
379.027	81.25
379.253	95.25
379.478	82.25
379.704	94.25
379.929	89.25
380.155	85.25
380.38	82.25
380.606	85.25
380.831	72.25
381.057	84.25
381.282	72.25
381.507	81.25
381.733	80.25
381.958	88.25
382.184	81.25
382.409	91.25
382.634	80.25
382.86	78.25
383.085	94.25
383.31	91.25
383.535	74.25
383.761	83.25
383.986	89.25
384.211	72.25
384.436	97.25
384.662	82.25
384.887	81.25
385.112	72.25
385.337	83.25
385.562	74.25
385.787	93.25
386.013	81.25
386.238	83.25
386.463	84.25
386.688	95.25
386.913	84.25
387.138	89.25
387.363	81.25
387.588	83.25
387.813	75.25
388.038	97.25
388.263	80.25
388.488	75.25
388.713	85.25
388.938	70.25
389.163	73.25
389.387	83.25
389.612	82.25
389.837	87.25
390.062	70.25
390.287	101.25
390.512	93.25
390.736	79.25
390.961	78.25
391.186	82.25
391.411	80.25
391.636	86.25
391.86	66.25
392.085	87.25
392.31	81.25
392.534	93.25
392.759	72.25
392.984	117.25
393.208	165.25
393.433	190.25
393.658	174.25
393.882	105.25
394.107	84.25
394.331	96.25
394.556	98.25
394.78	90.25
395.005	88.25
395.229	73.25
395.454	83.25
395.678	101.25
395.903	98.25
396.127	103.25
396.352	105.25
396.576	107.25
396.801	126.25
397.025	156.25
397.249	113.25
397.474	86.25
397.698	83.25
397.922	73.25
398.147	80.25
398.371	83.25
398.595	88.25
398.82	87.25
399.044	86.25
399.268	105.25
399.492	82.25
399.717	93.25
399.941	85.25
400.165	92.25
400.389	91.25
400.613	82.25
400.837	73.25
401.062	84.25
401.286	80.25
401.51	83.25
401.734	92.25
401.958	74.25
402.182	83.25
402.406	83.25
402.63	83.25
402.854	89.25
403.078	84.25
403.302	71.25
403.526	87.25
403.75	92.25
403.974	83.25
404.198	88.25
404.422	90.25
404.645	79.25
404.869	75.25
405.093	87.25
405.317	68.25
405.541	62.25
405.765	86.25
405.988	73.25
406.212	89.25
406.436	88.25
406.66	82.25
406.883	82.25
407.107	84.25
407.331	83.25
407.555	80.25
407.778	98.25
408.002	86.25
408.226	85.25
408.449	61.25
408.673	80.25
408.896	79.25
409.12	79.25
409.344	85.25
409.567	85.25
409.791	85.25
410.014	88.25
410.238	74.25
410.461	83.25
410.685	87.25
410.908	88.25
411.132	90.25
411.355	82.25
411.578	74.25
411.802	78.25
412.025	84.25
412.249	84.25
412.472	81.25
412.695	67.25
412.919	75.25
413.142	86.25
413.365	70.25
413.589	68.25
413.812	81.25
414.035	82.25
414.258	75.25
414.482	85.25
414.705	94.25
414.928	81.25
415.151	65.25
415.374	74.25
415.597	81.25
415.821	75.25
416.044	75.25
416.267	75.25
416.49	83.25
416.713	78.25
416.936	84.25
417.159	85.25
417.382	74.25
417.605	79.25
417.828	94.25
418.051	74.25
418.274	90.25
418.497	82.25
418.72	76.25
418.943	79.25
419.166	65.25
419.389	81.25
419.611	82.25
419.834	85.25
420.057	84.25
420.28	85.25
420.503	81.25
420.726	69.25
420.948	77.25
421.171	77.25
421.394	86.25
421.617	98.25
421.839	105.25
422.062	90.25
422.285	95.25
422.507	126.25
422.73	191.25
422.953	190.25
423.175	113.25
423.398	79.25
423.621	75.25
423.843	83.25
424.066	85.25
424.288	76.25
424.511	79.25
424.733	80.25
424.956	86.25
425.178	77.25
425.401	83.25
425.623	90.25
425.846	85.25
426.068	75.25
426.291	81.25
426.513	79.25
426.735	76.25
426.958	90.25
427.18	72.25
427.402	70.25
427.625	82.25
427.847	82.25
428.069	80.25
428.292	101.25
428.514	97.25
428.736	76.25
428.958	93.25
429.181	105.25
429.403	98.25
429.625	88.25
429.847	105.25
430.069	102.25
430.292	128.25
430.514	112.25
430.736	90.25
430.958	105.25
431.18	93.25
431.402	95.25
431.624	62.25
431.846	78.25
432.068	97.25
432.29	101.25
432.512	72.25
432.734	75.25
432.956	72.25
433.178	93.25
433.4	75.25
433.622	89.25
433.844	77.25
434.066	83.25
434.287	91.25
434.509	79.25
434.731	86.25
434.953	85.25
435.175	88.25
435.397	69.25
435.618	76.25
435.84	82.25
436.062	76.25
436.284	71.25
436.505	81.25
436.727	77.25
436.949	85.25
437.17	87.25
437.392	76.25
437.614	81.25
437.835	71.25
438.057	74.25
438.278	85.25
438.5	79.25
438.721	93.25
438.943	91.25
439.165	72.25
439.386	85.25
439.608	84.25
439.829	82.25
440.05	68.25
440.272	83.25
440.493	88.25
440.715	72.25
440.936	99.25
441.158	79.25
441.379	74.25
441.6	80.25
441.822	72.25
442.043	81.25
442.264	84.25
442.486	91.25
442.707	110.25
442.928	86.25
443.149	85.25
443.371	87.25
443.592	130.25
443.813	121.25
444.034	93.25
444.255	93.25
444.476	70.25
444.698	85.25
444.919	91.25
445.14	174.25
445.361	134.25
445.582	144.25
445.803	135.25
446.024	79.25
446.245	90.25
446.466	82.25
446.687	69.25
446.908	80.25
447.129	74.25
447.35	75.25
447.571	75.25
447.792	73.25
448.013	85.25
448.234	79.25
448.455	80.25
448.675	74.25
448.896	82.25
449.117	96.25
449.338	76.25
449.559	73.25
449.779	82.25
450	91.25
450.221	89.25
450.442	73.25
450.662	75.25
450.883	88.25
451.104	81.25
451.324	67.25
451.545	63.25
451.766	73.25
451.986	84.25
452.207	90.25
452.428	95.25
452.648	72.25
452.869	93.25
453.089	73.25
453.31	81.25
453.53	74.25
453.751	75.25
453.971	83.25
454.192	67.25
454.412	81.25
454.633	88.25
454.853	75.25
455.073	86.25
455.294	87.25
455.514	81.25
455.734	67.25
455.955	65.25
456.175	88.25
456.395	65.25
456.616	81.25
456.836	74.25
457.056	80.25
457.276	72.25
457.497	72.25
457.717	72.25
457.937	78.25
458.157	94.25
458.377	84.25
458.598	90.25
458.818	88.25
459.038	71.25
459.258	75.25
459.478	78.25
459.698	87.25
459.918	88.25
460.138	80.25
460.358	89.25
460.578	91.25
460.798	75.25
461.018	100.25
461.238	93.25
461.458	71.25
461.678	69.25
461.898	89.25
462.118	65.25
462.338	81.25
462.558	83.25
462.777	72.25
462.997	68.25
463.217	95.25
463.437	71.25
463.657	69.25
463.876	88.25
464.096	87.25
464.316	76.25
464.536	70.25
464.755	76.25
464.975	82.25
465.195	70.25
465.414	62.25
465.634	74.25
465.854	69.25
466.073	86.25
466.293	74.25
466.512	79.25
466.732	80.25
466.951	71.25
467.171	83.25
467.391	79.25
467.61	86.25
467.829	79.25
468.049	82.25
468.268	98.25
468.488	74.25
468.707	68.25
468.927	65.25
469.146	79.25
469.365	72.25
469.585	74.25
469.804	90.25
470.023	85.25
470.243	87.25
470.462	79.25
470.681	85.25
470.901	79.25
471.12	77.25
471.339	83.25
471.558	74.25
471.777	85.25
471.997	60.25
472.216	65.25
472.435	87.25
472.654	89.25
472.873	81.25
473.092	74.25
473.311	83.25
473.53	96.25
473.749	85.25
473.968	75.25
474.187	81.25
474.406	81.25
474.625	83.25
474.844	92.25
475.063	88.25
475.282	74.25
475.501	77.25
475.72	85.25
475.939	66.25
476.158	85.25
476.377	86.25
476.596	93.25
476.814	79.25
477.033	80.25
477.252	91.25
477.471	83.25
477.69	79.25
477.908	84.25
478.127	80.25
478.346	74.25
478.564	71.25
478.783	80.25
479.002	87.25
479.22	83.25
479.439	85.25
479.658	76.25
479.876	91.25
480.095	75.25
480.313	64.25
480.532	76.25
480.751	96.25
480.969	82.25
481.188	85.25
481.406	78.25
481.624	78.25
481.843	83.25
482.061	83.25
482.28	76.25
482.498	80.25
482.717	83.25
482.935	83.25
483.153	83.25
483.372	75.25
483.59	82.25
483.808	68.25
484.027	75.25
484.245	81.25
484.463	83.25
484.681	88.25
484.9	92.25
485.118	63.25
485.336	82.25
485.554	75.25
485.772	83.25
485.99	89.25
486.209	73.25
486.427	94.25
486.645	74.25
486.863	61.25
487.081	75.25
487.299	75.25
487.517	82.25
487.735	72.25
487.953	91.25
488.171	99.25
488.389	78.25
488.607	60.25
488.825	81.25
489.043	73.25
489.261	81.25
489.479	81.25
489.696	96.25
489.914	75.25
490.132	85.25
490.35	77.25
490.568	92.25
490.786	73.25
491.003	84.25
491.221	75.25
491.439	83.25
491.657	68.25
491.874	77.25
492.092	63.25
492.31	100.25
492.527	86.25
492.745	96.25
492.963	80.25
493.18	90.25
493.398	82.25
493.615	82.25
493.833	79.25
494.05	71.25
494.268	93.25
494.485	105.25
494.703	77.25
494.92	86.25
495.138	97.25
495.355	79.25
495.573	84.25
495.79	79.25
496.008	84.25
496.225	81.25
496.442	85.25
496.66	83.25
496.877	82.25
497.094	83.25
497.312	98.25
497.529	85.25
497.746	82.25
497.963	78.25
498.181	74.25
498.398	86.25
498.615	64.25
498.832	73.25
499.049	87.25
499.267	85.25
499.484	76.25
499.701	85.25
499.918	83.25
500.135	86.25
500.352	78.25
500.569	78.25
500.786	80.25
501.003	84.25
501.22	86.25
501.437	83.25
501.654	72.25
501.871	81.25
502.088	90.25
502.305	69.25
502.522	69.25
502.739	67.25
502.956	84.25
503.172	98.25
503.389	91.25
503.606	85.25
503.823	87.25
504.04	87.25
504.256	88.25
504.473	88.25
504.69	78.25
504.907	96.25
505.123	89.25
505.34	72.25
505.557	85.25
505.773	91.25
505.99	85.25
506.207	81.25
506.423	83.25
506.64	87.25
506.856	85.25
507.073	88.25
507.289	88.25
507.506	80.25
507.722	94.25
507.939	80.25
508.155	77.25
508.372	72.25
508.588	65.25
508.805	72.25
509.021	81.25
509.238	82.25
509.454	73.25
509.67	79.25
509.887	83.25
510.103	87.25
510.319	87.25
510.536	81.25
510.752	86.25
510.968	75.25
511.184	83.25
511.401	81.25
511.617	70.25
511.833	74.25
512.049	72.25
512.265	80.25
512.481	86.25
512.698	79.25
512.914	81.25
513.13	84.25
513.346	79.25
513.562	65.25
513.778	88.25
513.994	76.25
514.21	81.25
514.426	79.25
514.642	90.25
514.858	74.25
515.074	87.25
515.29	85.25
515.506	70.25
515.721	79.25
515.937	93.25
516.153	94.25
516.369	85.25
516.585	63.25
516.801	79.25
517.016	87.25
517.232	82.25
517.448	76.25
517.664	80.25
517.879	84.25
518.095	89.25
518.311	82.25
518.527	78.25
518.742	89.25
518.958	88.25
519.173	101.25
519.389	86.25
519.605	74.25
519.82	86.25
