Data from HP_1_HRD10591_00016.txt Node
Date: Mon Jan 19 14:15:15 EST 2026
User: Yrep
Spectrometer: HR+D1059
Trigger mode: 1
Integration Time (sec): 1.000000E-1
Scans to average: 1
Electric dark correction enabled: true
Nonlinearity correction enabled: false
Boxcar width: 0
XAxis mode: Wavelengths
Number of Pixels in Spectrum: 2048
>>>>>Begin Spectral Data<<<<<
223.165	-11.94
223.4	-11.94
223.635	-11.94
223.869	-6.94
224.104	-24.94
224.338	-11.94
224.573	-10.94
224.808	-24.94
225.042	-14.94
225.277	-6.94
225.511	-0.94
225.746	-7.94
225.98	-5.94
226.215	11.06
226.449	23.06
226.683	24.06
226.918	28.06
227.152	42.06
227.387	26.06
227.621	29.06
227.856	40.06
228.09	43.06
228.324	50.06
228.559	69.06
228.793	57.06
229.027	57.06
229.262	62.06
229.496	63.06
229.73	74.06
229.964	77.06
230.199	71.06
230.433	71.06
230.667	66.06
230.901	65.06
231.136	52.06
231.37	86.06
231.604	79.06
231.838	84.06
232.072	81.06
232.306	72.06
232.541	74.06
232.775	75.06
233.009	82.06
233.243	86.06
233.477	67.06
233.711	72.06
233.945	71.06
234.179	80.06
234.413	71.06
234.647	79.06
234.881	82.06
235.115	79.06
235.349	68.06
235.583	86.06
235.817	66.06
236.051	81.06
236.285	71.06
236.519	68.06
236.753	81.06
236.987	75.06
237.221	76.06
237.455	85.06
237.689	73.06
237.922	72.06
238.156	76.06
238.39	63.06
238.624	75.06
238.858	69.06
239.091	78.06
239.325	88.06
239.559	82.06
239.793	70.06
240.027	78.06
240.26	88.06
240.494	65.06
240.728	76.06
240.961	74.06
241.195	75.06
241.429	76.06
241.662	79.06
241.896	68.06
242.13	68.06
242.363	78.06
242.597	68.06
242.83	66.06
243.064	84.06
243.298	77.06
243.531	71.06
243.765	73.06
243.998	85.06
244.232	81.06
244.465	75.06
244.699	67.06
244.932	77.06
245.166	69.06
245.399	67.06
245.633	72.06
245.866	65.06
246.099	71.06
246.333	73.06
246.566	75.06
246.8	82.06
247.033	65.06
247.266	79.06
247.5	61.06
247.733	90.06
247.966	63.06
248.2	73.06
248.433	80.06
248.666	82.06
248.899	80.06
249.133	73.06
249.366	83.06
249.599	70.06
249.832	74.06
250.066	77.06
250.299	66.06
250.532	88.06
250.765	75.06
250.998	57.06
251.231	71.06
251.465	59.06
251.698	79.06
251.931	80.06
252.164	73.06
252.397	74.06
252.63	82.06
252.863	70.06
253.096	66.06
253.329	72.06
253.562	80.06
253.795	75.06
254.028	83.06
254.261	86.06
254.494	70.06
254.727	86.06
254.96	75.06
255.193	74.06
255.426	83.06
255.659	77.06
255.892	79.06
256.124	78.06
256.357	75.06
256.59	82.06
256.823	97.06
257.056	66.06
257.289	70.06
257.521	74.06
257.754	81.06
257.987	67.06
258.22	77.06
258.452	80.06
258.685	84.06
258.918	75.06
259.151	87.06
259.383	71.06
259.616	77.06
259.849	65.06
260.081	66.06
260.314	93.06
260.547	76.06
260.779	77.06
261.012	91.06
261.244	74.06
261.477	85.06
261.71	79.06
261.942	81.06
262.175	93.06
262.407	89.06
262.64	72.06
262.872	76.06
263.105	88.06
263.337	96.06
263.57	84.06
263.802	71.06
264.035	82.06
264.267	97.06
264.499	66.06
264.732	75.06
264.964	84.06
265.197	73.06
265.429	78.06
265.661	81.06
265.894	88.06
266.126	86.06
266.358	79.06
266.591	75.06
266.823	71.06
267.055	74.06
267.287	74.06
267.52	74.06
267.752	83.06
267.984	79.06
268.216	77.06
268.448	79.06
268.681	84.06
268.913	84.06
269.145	71.06
269.377	86.06
269.609	85.06
269.841	87.06
270.073	88.06
270.306	70.06
270.538	84.06
270.77	74.06
271.002	77.06
271.234	72.06
271.466	70.06
271.698	77.06
271.93	88.06
272.162	80.06
272.394	86.06
272.626	68.06
272.858	81.06
273.09	85.06
273.322	83.06
273.553	86.06
273.785	84.06
274.017	83.06
274.249	83.06
274.481	78.06
274.713	85.06
274.945	94.06
275.176	94.06
275.408	78.06
275.64	83.06
275.872	90.06
276.104	88.06
276.335	93.06
276.567	68.06
276.799	84.06
277.031	71.06
277.262	79.06
277.494	76.06
277.726	74.06
277.957	79.06
278.189	65.06
278.421	85.06
278.652	75.06
278.884	88.06
279.115	65.06
279.347	76.06
279.579	84.06
279.81	93.06
280.042	84.06
280.273	85.06
280.505	82.06
280.736	73.06
280.968	82.06
281.199	83.06
281.431	87.06
281.662	87.06
281.894	79.06
282.125	93.06
282.356	78.06
282.588	76.06
282.819	80.06
283.051	72.06
283.282	69.06
283.513	77.06
283.745	87.06
283.976	70.06
284.207	82.06
284.439	79.06
284.67	80.06
284.901	79.06
285.132	84.06
285.364	82.06
285.595	73.06
285.826	84.06
286.057	81.06
286.288	77.06
286.52	76.06
286.751	72.06
286.982	72.06
287.213	90.06
287.444	84.06
287.675	91.06
287.906	85.06
288.138	89.06
288.369	89.06
288.6	87.06
288.831	75.06
289.062	96.06
289.293	89.06
289.524	77.06
289.755	73.06
289.986	75.06
290.217	92.06
290.448	81.06
290.679	80.06
290.91	87.06
291.141	63.06
291.371	81.06
291.602	89.06
291.833	83.06
292.064	79.06
292.295	65.06
292.526	100.06
292.757	84.06
292.987	72.06
293.218	71.06
293.449	88.06
293.68	74.06
293.91	79.06
294.141	80.06
294.372	83.06
294.603	94.06
294.833	85.06
295.064	78.06
295.295	70.06
295.525	69.06
295.756	73.06
295.987	66.06
296.217	81.06
296.448	97.06
296.679	94.06
296.909	85.06
297.14	97.06
297.37	85.06
297.601	71.06
297.831	82.06
298.062	87.06
298.292	93.06
298.523	79.06
298.753	99.06
298.984	88.06
299.214	77.06
299.445	91.06
299.675	80.06
299.905	87.06
300.136	92.06
300.366	87.06
300.597	73.06
300.827	77.06
301.057	89.06
301.288	84.06
301.518	85.06
301.748	83.06
301.979	90.06
302.209	84.06
302.439	89.06
302.669	100.06
302.9	72.06
303.13	85.06
303.36	83.06
303.59	73.06
303.82	98.06
304.051	91.06
304.281	76.06
304.511	73.06
304.741	85.06
304.971	74.06
305.201	85.06
305.431	83.06
305.661	73.06
305.891	88.06
306.121	79.06
306.352	99.06
306.582	85.06
306.812	85.06
307.042	80.06
307.272	77.06
307.502	69.06
307.731	85.06
307.961	91.06
308.191	61.06
308.421	78.06
308.651	73.06
308.881	81.06
309.111	81.06
309.341	95.06
309.571	83.06
309.8	88.06
310.03	75.06
310.26	93.06
310.49	89.06
310.72	81.06
310.949	88.06
311.179	75.06
311.409	73.06
311.639	87.06
311.868	68.06
312.098	84.06
312.328	90.06
312.557	65.06
312.787	86.06
313.017	80.06
313.246	89.06
313.476	84.06
313.706	73.06
313.935	87.06
314.165	83.06
314.394	84.06
314.624	76.06
314.853	70.06
315.083	66.06
315.312	77.06
315.542	81.06
315.771	98.06
316.001	90.06
316.23	78.06
316.46	85.06
316.689	71.06
316.919	87.06
317.148	89.06
317.377	91.06
317.607	91.06
317.836	97.06
318.065	87.06
318.295	93.06
318.524	87.06
318.753	93.06
318.983	88.06
319.212	102.06
319.441	93.06
319.67	89.06
319.9	92.06
320.129	75.06
320.358	84.06
320.587	74.06
320.816	85.06
321.046	74.06
321.275	79.06
321.504	84.06
321.733	102.06
321.962	80.06
322.191	88.06
322.42	90.06
322.649	79.06
322.878	91.06
323.108	88.06
323.337	88.06
323.566	82.06
323.795	93.06
324.024	82.06
324.253	85.06
324.482	80.06
324.71	71.06
324.939	89.06
325.168	86.06
325.397	76.06
325.626	81.06
325.855	69.06
326.084	70.06
326.313	94.06
326.542	80.06
326.77	82.06
326.999	81.06
327.228	73.06
327.457	96.06
327.686	80.06
327.914	79.06
328.143	83.06
328.372	82.06
328.6	83.06
328.829	65.06
329.058	83.06
329.287	79.06
329.515	75.06
329.744	78.06
329.972	74.06
330.201	80.06
330.43	82.06
330.658	74.06
330.887	95.06
331.115	81.06
331.344	70.06
331.572	69.06
331.801	76.06
332.03	81.06
332.258	78.06
332.486	93.06
332.715	79.06
332.943	82.06
333.172	86.06
333.4	90.06
333.629	87.06
333.857	75.06
334.085	87.06
334.314	73.06
334.542	78.06
334.771	87.06
334.999	75.06
335.227	97.06
335.455	80.06
335.684	86.06
335.912	74.06
336.14	94.06
336.369	64.06
336.597	77.06
336.825	72.06
337.053	77.06
337.281	79.06
337.51	79.06
337.738	79.06
337.966	70.06
338.194	71.06
338.422	94.06
338.65	97.06
338.878	98.06
339.106	81.06
339.334	75.06
339.562	88.06
339.79	76.06
340.018	85.06
340.246	77.06
340.474	89.06
340.702	86.06
340.93	69.06
341.158	93.06
341.386	84.06
341.614	79.06
341.842	90.06
342.07	68.06
342.298	81.06
342.526	92.06
342.754	92.06
342.981	87.06
343.209	85.06
343.437	79.06
343.665	76.06
343.893	79.06
344.12	83.06
344.348	74.06
344.576	92.06
344.804	90.06
345.031	69.06
345.259	79.06
345.487	91.06
345.714	67.06
345.942	81.06
346.17	74.06
346.397	76.06
346.625	85.06
346.853	84.06
347.08	88.06
347.308	71.06
347.535	86.06
347.763	74.06
347.99	87.06
348.218	77.06
348.445	71.06
348.673	90.06
348.9	95.06
349.128	77.06
349.355	63.06
349.583	76.06
349.81	72.06
350.037	77.06
350.265	81.06
350.492	92.06
350.72	83.06
350.947	81.06
351.174	83.06
351.402	73.06
351.629	83.06
351.856	79.06
352.083	86.06
352.311	79.06
352.538	83.06
352.765	87.06
352.992	98.06
353.22	78.06
353.447	65.06
353.674	73.06
353.901	75.06
354.128	88.06
354.355	81.06
354.583	94.06
354.81	79.06
355.037	85.06
355.264	85.06
355.491	95.06
355.718	84.06
355.945	65.06
356.172	69.06
356.399	79.06
356.626	77.06
356.853	85.06
357.08	97.06
357.307	78.06
357.534	85.06
357.761	96.06
357.988	76.06
358.215	90.06
358.441	76.06
358.668	72.06
358.895	89.06
359.122	80.06
359.349	76.06
359.576	90.06
359.802	85.06
360.029	82.06
360.256	74.06
360.483	81.06
360.709	87.06
360.936	87.06
361.163	75.06
361.39	76.06
361.616	84.06
361.843	73.06
362.07	81.06
362.296	82.06
362.523	78.06
362.749	73.06
362.976	87.06
363.203	93.06
363.429	83.06
363.656	86.06
363.882	80.06
364.109	89.06
364.335	82.06
364.562	93.06
364.788	74.06
365.015	80.06
365.241	83.06
365.468	82.06
365.694	79.06
365.92	73.06
366.147	63.06
366.373	86.06
366.599	77.06
366.826	74.06
367.052	84.06
367.278	83.06
367.505	73.06
367.731	89.06
367.957	79.06
368.184	82.06
368.41	79.06
368.636	75.06
368.862	90.06
369.089	81.06
369.315	66.06
369.541	82.06
369.767	83.06
369.993	74.06
370.219	91.06
370.445	77.06
370.672	89.06
370.898	75.06
371.124	84.06
371.35	81.06
371.576	78.06
371.802	80.06
372.028	98.06
372.254	88.06
372.48	83.06
372.706	69.06
372.932	78.06
373.158	86.06
373.384	90.06
373.61	95.06
373.835	91.06
374.061	90.06
374.287	95.06
374.513	91.06
374.739	85.06
374.965	80.06
375.191	88.06
375.416	89.06
375.642	78.06
375.868	81.06
376.094	86.06
376.319	79.06
376.545	75.06
376.771	89.06
376.997	72.06
377.222	72.06
377.448	70.06
377.674	83.06
377.899	84.06
378.125	77.06
378.35	97.06
378.576	69.06
378.802	71.06
379.027	84.06
379.253	76.06
379.478	84.06
379.704	94.06
379.929	80.06
380.155	69.06
380.38	89.06
380.606	92.06
380.831	80.06
381.057	88.06
381.282	69.06
381.507	72.06
381.733	85.06
381.958	72.06
382.184	83.06
382.409	97.06
382.634	88.06
382.86	80.06
383.085	82.06
383.31	89.06
383.535	94.06
383.761	85.06
383.986	97.06
384.211	94.06
384.436	85.06
384.662	61.06
384.887	79.06
385.112	95.06
385.337	95.06
385.562	82.06
385.787	86.06
386.013	96.06
386.238	86.06
386.463	86.06
386.688	98.06
386.913	82.06
387.138	84.06
387.363	83.06
387.588	80.06
387.813	75.06
388.038	75.06
388.263	85.06
388.488	87.06
388.713	84.06
388.938	78.06
389.163	89.06
389.387	70.06
389.612	75.06
389.837	87.06
390.062	80.06
390.287	85.06
390.512	75.06
390.736	75.06
390.961	80.06
391.186	75.06
391.411	83.06
391.636	95.06
391.86	93.06
392.085	87.06
392.31	85.06
392.534	91.06
392.759	101.06
392.984	127.06
393.208	228.06
393.433	329.06
393.658	241.06
393.882	118.06
394.107	96.06
394.331	92.06
394.556	92.06
394.78	65.06
395.005	75.06
395.229	79.06
395.454	74.06
395.678	90.06
395.903	96.06
396.127	113.06
396.352	125.06
396.576	151.06
396.801	246.06
397.025	270.06
397.249	137.06
397.474	91.06
397.698	89.06
397.922	93.06
398.147	88.06
398.371	84.06
398.595	74.06
398.82	70.06
399.044	83.06
399.268	79.06
399.492	71.06
399.717	79.06
399.941	75.06
400.165	83.06
400.389	83.06
400.613	93.06
400.837	79.06
401.062	83.06
401.286	69.06
401.51	78.06
401.734	81.06
401.958	67.06
402.182	83.06
402.406	93.06
402.63	87.06
402.854	73.06
403.078	97.06
403.302	93.06
403.526	86.06
403.75	87.06
403.974	78.06
404.198	73.06
404.422	79.06
404.645	89.06
404.869	81.06
405.093	70.06
405.317	74.06
405.541	74.06
405.765	88.06
405.988	78.06
406.212	87.06
406.436	71.06
406.66	78.06
406.883	83.06
407.107	81.06
407.331	88.06
407.555	88.06
407.778	107.06
408.002	105.06
408.226	89.06
408.449	80.06
408.673	76.06
408.896	73.06
409.12	78.06
409.344	93.06
409.567	81.06
409.791	85.06
410.014	87.06
410.238	63.06
410.461	70.06
410.685	72.06
410.908	89.06
411.132	93.06
411.355	70.06
411.578	69.06
411.802	77.06
412.025	82.06
412.249	81.06
412.472	70.06
412.695	81.06
412.919	82.06
413.142	86.06
413.365	87.06
413.589	82.06
413.812	79.06
414.035	73.06
414.258	80.06
414.482	76.06
414.705	81.06
414.928	77.06
415.151	82.06
415.374	85.06
415.597	70.06
415.821	91.06
416.044	71.06
416.267	80.06
416.49	92.06
416.713	76.06
416.936	81.06
417.159	82.06
417.382	67.06
417.605	70.06
417.828	81.06
418.051	75.06
418.274	84.06
418.497	76.06
418.72	65.06
418.943	86.06
419.166	86.06
419.389	89.06
419.611	78.06
419.834	91.06
420.057	74.06
420.28	71.06
420.503	78.06
420.726	71.06
420.948	75.06
421.171	93.06
421.394	85.06
421.617	93.06
421.839	94.06
422.062	85.06
422.285	114.06
422.507	159.06
422.73	248.06
422.953	206.06
423.175	104.06
423.398	78.06
423.621	87.06
423.843	75.06
424.066	68.06
424.288	90.06
424.511	83.06
424.733	103.06
424.956	69.06
425.178	76.06
425.401	95.06
425.623	71.06
425.846	66.06
426.068	75.06
426.291	80.06
426.513	93.06
426.735	83.06
426.958	86.06
427.18	87.06
427.402	66.06
427.625	84.06
427.847	77.06
428.069	92.06
428.292	90.06
428.514	109.06
428.736	86.06
428.958	102.06
429.181	94.06
429.403	74.06
429.625	94.06
429.847	86.06
430.069	110.06
430.292	128.06
430.514	125.06
430.736	95.06
430.958	94.06
431.18	79.06
431.402	66.06
431.624	76.06
431.846	104.06
432.068	115.06
432.29	83.06
432.512	95.06
432.734	89.06
432.956	97.06
433.178	79.06
433.4	90.06
433.622	85.06
433.844	62.06
434.066	87.06
434.287	63.06
434.509	79.06
434.731	81.06
434.953	78.06
435.175	69.06
435.397	87.06
435.618	84.06
435.84	67.06
436.062	75.06
436.284	82.06
436.505	68.06
436.727	80.06
436.949	82.06
437.17	81.06
437.392	81.06
437.614	72.06
437.835	78.06
438.057	76.06
438.278	75.06
438.5	78.06
438.721	75.06
438.943	85.06
439.165	71.06
439.386	72.06
439.608	70.06
439.829	78.06
440.05	71.06
440.272	76.06
440.493	81.06
440.715	86.06
440.936	79.06
441.158	75.06
441.379	74.06
441.6	82.06
441.822	86.06
442.043	87.06
442.264	75.06
442.486	89.06
442.707	99.06
442.928	81.06
443.149	93.06
443.371	113.06
443.592	128.06
443.813	117.06
444.034	78.06
444.255	93.06
444.476	83.06
444.698	80.06
444.919	81.06
445.14	181.06
445.361	150.06
445.582	161.06
445.803	137.06
446.024	75.06
446.245	78.06
446.466	85.06
446.687	80.06
446.908	92.06
447.129	85.06
447.35	74.06
447.571	85.06
447.792	81.06
448.013	93.06
448.234	79.06
448.455	73.06
448.675	89.06
448.896	72.06
449.117	79.06
449.338	76.06
449.559	75.06
449.779	71.06
450	66.06
450.221	74.06
450.442	81.06
450.662	83.06
450.883	92.06
451.104	83.06
451.324	78.06
451.545	77.06
451.766	78.06
451.986	65.06
452.207	66.06
452.428	86.06
452.648	81.06
452.869	79.06
453.089	73.06
453.31	76.06
453.53	79.06
453.751	78.06
453.971	71.06
454.192	85.06
454.412	80.06
454.633	86.06
454.853	72.06
455.073	75.06
455.294	79.06
455.514	75.06
455.734	71.06
455.955	84.06
456.175	77.06
456.395	64.06
456.616	79.06
456.836	76.06
457.056	80.06
457.276	79.06
457.497	71.06
457.717	81.06
457.937	87.06
458.157	69.06
458.377	77.06
458.598	81.06
458.818	87.06
459.038	90.06
459.258	79.06
459.478	81.06
459.698	75.06
459.918	77.06
460.138	76.06
460.358	85.06
460.578	82.06
460.798	95.06
461.018	97.06
461.238	83.06
461.458	65.06
461.678	75.06
461.898	87.06
462.118	71.06
462.338	70.06
462.558	73.06
462.777	89.06
462.997	75.06
463.217	89.06
463.437	96.06
463.657	88.06
463.876	89.06
464.096	73.06
464.316	64.06
464.536	81.06
464.755	91.06
464.975	91.06
465.195	89.06
465.414	85.06
465.634	71.06
465.854	72.06
466.073	75.06
466.293	83.06
466.512	73.06
466.732	85.06
466.951	79.06
467.171	81.06
467.391	86.06
467.61	81.06
467.829	82.06
468.049	84.06
468.268	78.06
468.488	68.06
468.707	85.06
468.927	77.06
469.146	75.06
469.365	70.06
469.585	78.06
469.804	66.06
470.023	81.06
470.243	79.06
470.462	78.06
470.681	89.06
470.901	76.06
471.12	81.06
471.339	80.06
471.558	77.06
471.777	91.06
471.997	78.06
472.216	71.06
472.435	76.06
472.654	83.06
472.873	80.06
473.092	89.06
473.311	82.06
473.53	74.06
473.749	80.06
473.968	81.06
474.187	63.06
474.406	75.06
474.625	81.06
474.844	91.06
475.063	79.06
475.282	75.06
475.501	89.06
475.72	90.06
475.939	86.06
476.158	72.06
476.377	69.06
476.596	68.06
476.814	60.06
477.033	79.06
477.252	72.06
477.471	75.06
477.69	93.06
477.908	93.06
478.127	72.06
478.346	75.06
478.564	81.06
478.783	86.06
479.002	79.06
479.22	75.06
479.439	75.06
479.658	83.06
479.876	82.06
480.095	91.06
480.313	91.06
480.532	75.06
480.751	79.06
480.969	77.06
481.188	76.06
481.406	88.06
481.624	86.06
481.843	75.06
482.061	75.06
482.28	70.06
482.498	73.06
482.717	77.06
482.935	91.06
483.153	82.06
483.372	86.06
483.59	87.06
483.808	93.06
484.027	79.06
484.245	79.06
484.463	69.06
484.681	83.06
484.9	79.06
485.118	79.06
485.336	77.06
485.554	83.06
485.772	74.06
485.99	81.06
486.209	86.06
486.427	83.06
486.645	79.06
486.863	71.06
487.081	87.06
487.299	82.06
487.517	93.06
487.735	79.06
487.953	92.06
488.171	89.06
488.389	71.06
488.607	81.06
488.825	74.06
489.043	78.06
489.261	90.06
489.479	86.06
489.696	85.06
489.914	68.06
490.132	88.06
490.35	71.06
490.568	76.06
490.786	75.06
491.003	64.06
491.221	79.06
491.439	87.06
491.657	70.06
491.874	83.06
492.092	81.06
492.31	70.06
492.527	81.06
492.745	79.06
492.963	89.06
493.18	75.06
493.398	83.06
493.615	85.06
493.833	82.06
494.05	68.06
494.268	69.06
494.485	59.06
494.703	81.06
494.92	75.06
495.138	86.06
495.355	86.06
495.573	90.06
495.79	89.06
496.008	84.06
496.225	88.06
496.442	81.06
496.66	83.06
496.877	79.06
497.094	95.06
497.312	89.06
497.529	73.06
497.746	87.06
497.963	77.06
498.181	86.06
498.398	74.06
498.615	86.06
498.832	90.06
499.049	83.06
499.267	75.06
499.484	86.06
499.701	77.06
499.918	75.06
500.135	65.06
500.352	76.06
500.569	85.06
500.786	85.06
501.003	74.06
501.22	73.06
501.437	76.06
501.654	79.06
501.871	86.06
502.088	72.06
502.305	93.06
502.522	62.06
502.739	89.06
502.956	87.06
503.172	77.06
503.389	71.06
503.606	84.06
503.823	79.06
504.04	60.06
504.256	76.06
504.473	83.06
504.69	88.06
504.907	87.06
505.123	71.06
505.34	71.06
505.557	80.06
505.773	75.06
505.99	79.06
506.207	74.06
506.423	83.06
506.64	74.06
506.856	80.06
507.073	78.06
507.289	76.06
507.506	95.06
507.722	73.06
507.939	71.06
508.155	70.06
508.372	84.06
508.588	88.06
508.805	87.06
509.021	76.06
509.238	90.06
509.454	73.06
509.67	75.06
509.887	82.06
510.103	76.06
510.319	89.06
510.536	82.06
510.752	85.06
510.968	84.06
511.184	71.06
511.401	70.06
511.617	73.06
511.833	75.06
512.049	68.06
512.265	73.06
512.481	78.06
512.698	83.06
512.914	71.06
513.13	73.06
513.346	84.06
513.562	105.06
513.778	82.06
513.994	81.06
514.21	66.06
514.426	73.06
514.642	85.06
514.858	71.06
515.074	84.06
515.29	88.06
515.506	76.06
515.721	65.06
515.937	80.06
516.153	79.06
516.369	81.06
516.585	79.06
516.801	84.06
517.016	87.06
517.232	73.06
517.448	85.06
517.664	90.06
517.879	87.06
518.095	85.06
518.311	80.06
518.527	90.06
518.742	90.06
518.958	90.06
519.173	89.06
519.389	74.06
519.605	75.06
519.82	74.06
