Data from HP_1_HRD10591_00026.txt Node
Date: Mon Jan 19 14:15:20 EST 2026
User: Yrep
Spectrometer: HR+D1059
Trigger mode: 1
Integration Time (sec): 1.000000E-1
Scans to average: 1
Electric dark correction enabled: true
Nonlinearity correction enabled: false
Boxcar width: 0
XAxis mode: Wavelengths
Number of Pixels in Spectrum: 2048
>>>>>Begin Spectral Data<<<<<
223.165	-21.75
223.4	-21.75
223.635	-21.75
223.869	-26.75
224.104	-3.75
224.338	-7.75
224.573	-7.75
224.808	-8.75
225.042	-15.75
225.277	5.25
225.511	-4.75
225.746	2.25
225.98	-1.75
226.215	-8.75
226.449	6.25
226.683	35.25
226.918	30.25
227.152	28.25
227.387	29.25
227.621	40.25
227.856	50.25
228.09	43.25
228.324	60.25
228.559	73.25
228.793	58.25
229.027	77.25
229.262	62.25
229.496	60.25
229.73	89.25
229.964	76.25
230.199	82.25
230.433	81.25
230.667	88.25
230.901	87.25
231.136	72.25
231.37	69.25
231.604	81.25
231.838	83.25
232.072	90.25
232.306	69.25
232.541	99.25
232.775	83.25
233.009	83.25
233.243	87.25
233.477	74.25
233.711	88.25
233.945	82.25
234.179	84.25
234.413	84.25
234.647	86.25
234.881	87.25
235.115	92.25
235.349	92.25
235.583	74.25
235.817	68.25
236.051	86.25
236.285	74.25
236.519	77.25
236.753	76.25
236.987	82.25
237.221	88.25
237.455	85.25
237.689	76.25
237.922	80.25
238.156	71.25
238.39	65.25
238.624	76.25
238.858	77.25
239.091	70.25
239.325	96.25
239.559	95.25
239.793	78.25
240.027	76.25
240.26	91.25
240.494	79.25
240.728	83.25
240.961	70.25
241.195	84.25
241.429	83.25
241.662	79.25
241.896	66.25
242.13	79.25
242.363	80.25
242.597	88.25
242.83	80.25
243.064	86.25
243.298	84.25
243.531	81.25
243.765	78.25
243.998	91.25
244.232	91.25
244.465	76.25
244.699	75.25
244.932	64.25
245.166	78.25
245.399	91.25
245.633	78.25
245.866	72.25
246.099	86.25
246.333	89.25
246.566	70.25
246.8	90.25
247.033	78.25
247.266	77.25
247.5	75.25
247.733	69.25
247.966	72.25
248.2	86.25
248.433	76.25
248.666	72.25
248.899	83.25
249.133	85.25
249.366	89.25
249.599	78.25
249.832	80.25
250.066	93.25
250.299	78.25
250.532	78.25
250.765	82.25
250.998	87.25
251.231	77.25
251.465	71.25
251.698	83.25
251.931	87.25
252.164	70.25
252.397	81.25
252.63	85.25
252.863	75.25
253.096	74.25
253.329	71.25
253.562	83.25
253.795	75.25
254.028	87.25
254.261	84.25
254.494	99.25
254.727	91.25
254.96	97.25
255.193	80.25
255.426	108.25
255.659	62.25
255.892	75.25
256.124	81.25
256.357	79.25
256.59	66.25
256.823	82.25
257.056	74.25
257.289	85.25
257.521	74.25
257.754	86.25
257.987	72.25
258.22	91.25
258.452	80.25
258.685	92.25
258.918	81.25
259.151	82.25
259.383	79.25
259.616	94.25
259.849	82.25
260.081	85.25
260.314	99.25
260.547	74.25
260.779	89.25
261.012	78.25
261.244	76.25
261.477	86.25
261.71	83.25
261.942	85.25
262.175	79.25
262.407	91.25
262.64	77.25
262.872	73.25
263.105	74.25
263.337	86.25
263.57	94.25
263.802	75.25
264.035	69.25
264.267	76.25
264.499	84.25
264.732	96.25
264.964	90.25
265.197	87.25
265.429	84.25
265.661	74.25
265.894	83.25
266.126	74.25
266.358	79.25
266.591	83.25
266.823	72.25
267.055	88.25
267.287	89.25
267.52	86.25
267.752	81.25
267.984	87.25
268.216	78.25
268.448	88.25
268.681	72.25
268.913	85.25
269.145	87.25
269.377	80.25
269.609	86.25
269.841	89.25
270.073	77.25
270.306	80.25
270.538	83.25
270.77	91.25
271.002	86.25
271.234	94.25
271.466	74.25
271.698	68.25
271.93	86.25
272.162	84.25
272.394	85.25
272.626	80.25
272.858	91.25
273.09	72.25
273.322	81.25
273.553	84.25
273.785	61.25
274.017	84.25
274.249	91.25
274.481	69.25
274.713	85.25
274.945	94.25
275.176	70.25
275.408	78.25
275.64	81.25
275.872	76.25
276.104	79.25
276.335	90.25
276.567	80.25
276.799	87.25
277.031	82.25
277.262	75.25
277.494	91.25
277.726	92.25
277.957	95.25
278.189	95.25
278.421	88.25
278.652	79.25
278.884	100.25
279.115	78.25
279.347	74.25
279.579	93.25
279.81	80.25
280.042	82.25
280.273	87.25
280.505	81.25
280.736	91.25
280.968	72.25
281.199	94.25
281.431	102.25
281.662	84.25
281.894	83.25
282.125	69.25
282.356	84.25
282.588	76.25
282.819	90.25
283.051	92.25
283.282	82.25
283.513	80.25
283.745	94.25
283.976	89.25
284.207	71.25
284.439	85.25
284.67	90.25
284.901	89.25
285.132	91.25
285.364	98.25
285.595	84.25
285.826	88.25
286.057	83.25
286.288	81.25
286.52	91.25
286.751	76.25
286.982	87.25
287.213	89.25
287.444	88.25
287.675	88.25
287.906	88.25
288.138	102.25
288.369	90.25
288.6	70.25
288.831	75.25
289.062	77.25
289.293	83.25
289.524	89.25
289.755	78.25
289.986	84.25
290.217	92.25
290.448	89.25
290.679	92.25
290.91	77.25
291.141	87.25
291.371	94.25
291.602	79.25
291.833	76.25
292.064	82.25
292.295	76.25
292.526	79.25
292.757	86.25
292.987	88.25
293.218	81.25
293.449	87.25
293.68	95.25
293.91	87.25
294.141	85.25
294.372	96.25
294.603	86.25
294.833	85.25
295.064	87.25
295.295	81.25
295.525	90.25
295.756	73.25
295.987	85.25
296.217	78.25
296.448	80.25
296.679	82.25
296.909	96.25
297.14	64.25
297.37	82.25
297.601	90.25
297.831	74.25
298.062	86.25
298.292	94.25
298.523	78.25
298.753	72.25
298.984	87.25
299.214	74.25
299.445	84.25
299.675	83.25
299.905	89.25
300.136	87.25
300.366	92.25
300.597	88.25
300.827	92.25
301.057	80.25
301.288	85.25
301.518	98.25
301.748	84.25
301.979	105.25
302.209	89.25
302.439	81.25
302.669	78.25
302.9	74.25
303.13	106.25
303.36	92.25
303.59	80.25
303.82	94.25
304.051	87.25
304.281	101.25
304.511	91.25
304.741	88.25
304.971	85.25
305.201	94.25
305.431	94.25
305.661	85.25
305.891	94.25
306.121	88.25
306.352	76.25
306.582	81.25
306.812	94.25
307.042	94.25
307.272	83.25
307.502	77.25
307.731	84.25
307.961	79.25
308.191	89.25
308.421	98.25
308.651	88.25
308.881	93.25
309.111	90.25
309.341	87.25
309.571	76.25
309.8	76.25
310.03	88.25
310.26	80.25
310.49	100.25
310.72	102.25
310.949	81.25
311.179	88.25
311.409	100.25
311.639	87.25
311.868	85.25
312.098	90.25
312.328	80.25
312.557	81.25
312.787	95.25
313.017	81.25
313.246	79.25
313.476	80.25
313.706	79.25
313.935	90.25
314.165	76.25
314.394	89.25
314.624	72.25
314.853	86.25
315.083	87.25
315.312	79.25
315.542	89.25
315.771	86.25
316.001	90.25
316.23	79.25
316.46	90.25
316.689	82.25
316.919	75.25
317.148	77.25
317.377	87.25
317.607	82.25
317.836	99.25
318.065	91.25
318.295	93.25
318.524	86.25
318.753	83.25
318.983	90.25
319.212	96.25
319.441	91.25
319.67	77.25
319.9	87.25
320.129	87.25
320.358	89.25
320.587	74.25
320.816	67.25
321.046	80.25
321.275	84.25
321.504	91.25
321.733	75.25
321.962	86.25
322.191	87.25
322.42	86.25
322.649	81.25
322.878	80.25
323.108	75.25
323.337	72.25
323.566	99.25
323.795	79.25
324.024	91.25
324.253	82.25
324.482	83.25
324.71	82.25
324.939	92.25
325.168	87.25
325.397	91.25
325.626	85.25
325.855	84.25
326.084	81.25
326.313	79.25
326.542	85.25
326.77	96.25
326.999	87.25
327.228	95.25
327.457	76.25
327.686	76.25
327.914	83.25
328.143	79.25
328.372	74.25
328.6	74.25
328.829	94.25
329.058	84.25
329.287	86.25
329.515	82.25
329.744	85.25
329.972	95.25
330.201	90.25
330.43	79.25
330.658	82.25
330.887	79.25
331.115	74.25
331.344	84.25
331.572	81.25
331.801	76.25
332.03	88.25
332.258	88.25
332.486	88.25
332.715	81.25
332.943	92.25
333.172	97.25
333.4	72.25
333.629	88.25
333.857	73.25
334.085	84.25
334.314	81.25
334.542	92.25
334.771	88.25
334.999	78.25
335.227	90.25
335.455	98.25
335.684	95.25
335.912	86.25
336.14	79.25
336.369	76.25
336.597	84.25
336.825	85.25
337.053	83.25
337.281	78.25
337.51	97.25
337.738	84.25
337.966	77.25
338.194	81.25
338.422	85.25
338.65	92.25
338.878	91.25
339.106	100.25
339.334	92.25
339.562	94.25
339.79	80.25
340.018	92.25
340.246	77.25
340.474	88.25
340.702	79.25
340.93	67.25
341.158	88.25
341.386	86.25
341.614	79.25
341.842	90.25
342.07	72.25
342.298	82.25
342.526	90.25
342.754	96.25
342.981	81.25
343.209	98.25
343.437	100.25
343.665	80.25
343.893	101.25
344.12	84.25
344.348	92.25
344.576	84.25
344.804	92.25
345.031	81.25
345.259	73.25
345.487	83.25
345.714	91.25
345.942	75.25
346.17	79.25
346.397	77.25
346.625	89.25
346.853	87.25
347.08	91.25
347.308	91.25
347.535	85.25
347.763	89.25
347.99	78.25
348.218	90.25
348.445	82.25
348.673	91.25
348.9	86.25
349.128	94.25
349.355	78.25
349.583	88.25
349.81	98.25
350.037	79.25
350.265	94.25
350.492	92.25
350.72	78.25
350.947	88.25
351.174	94.25
351.402	77.25
351.629	80.25
351.856	89.25
352.083	71.25
352.311	98.25
352.538	80.25
352.765	100.25
352.992	95.25
353.22	101.25
353.447	62.25
353.674	98.25
353.901	97.25
354.128	80.25
354.355	78.25
354.583	86.25
354.81	91.25
355.037	85.25
355.264	80.25
355.491	90.25
355.718	92.25
355.945	78.25
356.172	80.25
356.399	88.25
356.626	94.25
356.853	72.25
357.08	71.25
357.307	79.25
357.534	81.25
357.761	84.25
357.988	96.25
358.215	81.25
358.441	85.25
358.668	84.25
358.895	90.25
359.122	86.25
359.349	83.25
359.576	78.25
359.802	77.25
360.029	92.25
360.256	73.25
360.483	78.25
360.709	80.25
360.936	100.25
361.163	83.25
361.39	79.25
361.616	85.25
361.843	81.25
362.07	90.25
362.296	84.25
362.523	91.25
362.749	80.25
362.976	105.25
363.203	84.25
363.429	84.25
363.656	86.25
363.882	85.25
364.109	94.25
364.335	82.25
364.562	98.25
364.788	96.25
365.015	87.25
365.241	96.25
365.468	94.25
365.694	86.25
365.92	76.25
366.147	94.25
366.373	72.25
366.599	70.25
366.826	91.25
367.052	90.25
367.278	85.25
367.505	84.25
367.731	99.25
367.957	73.25
368.184	95.25
368.41	91.25
368.636	85.25
368.862	88.25
369.089	84.25
369.315	84.25
369.541	92.25
369.767	80.25
369.993	85.25
370.219	82.25
370.445	97.25
370.672	76.25
370.898	105.25
371.124	86.25
371.35	71.25
371.576	82.25
371.802	96.25
372.028	86.25
372.254	81.25
372.48	81.25
372.706	87.25
372.932	85.25
373.158	85.25
373.384	89.25
373.61	88.25
373.835	98.25
374.061	79.25
374.287	86.25
374.513	88.25
374.739	78.25
374.965	75.25
375.191	81.25
375.416	85.25
375.642	101.25
375.868	69.25
376.094	80.25
376.319	87.25
376.545	84.25
376.771	83.25
376.997	83.25
377.222	84.25
377.448	88.25
377.674	99.25
377.899	95.25
378.125	93.25
378.35	91.25
378.576	102.25
378.802	80.25
379.027	86.25
379.253	89.25
379.478	85.25
379.704	86.25
379.929	70.25
380.155	69.25
380.38	67.25
380.606	95.25
380.831	82.25
381.057	98.25
381.282	73.25
381.507	91.25
381.733	86.25
381.958	73.25
382.184	99.25
382.409	83.25
382.634	89.25
382.86	91.25
383.085	92.25
383.31	88.25
383.535	93.25
383.761	93.25
383.986	98.25
384.211	82.25
384.436	69.25
384.662	85.25
384.887	83.25
385.112	93.25
385.337	73.25
385.562	74.25
385.787	98.25
386.013	91.25
386.238	81.25
386.463	85.25
386.688	98.25
386.913	92.25
387.138	79.25
387.363	89.25
387.588	87.25
387.813	70.25
388.038	85.25
388.263	87.25
388.488	95.25
388.713	84.25
388.938	86.25
389.163	83.25
389.387	90.25
389.612	72.25
389.837	81.25
390.062	74.25
390.287	86.25
390.512	77.25
390.736	76.25
390.961	92.25
391.186	83.25
391.411	79.25
391.636	86.25
391.86	84.25
392.085	86.25
392.31	93.25
392.534	102.25
392.759	111.25
392.984	106.25
393.208	139.25
393.433	180.25
393.658	144.25
393.882	103.25
394.107	104.25
394.331	93.25
394.556	104.25
394.78	71.25
395.005	84.25
395.229	93.25
395.454	106.25
395.678	99.25
395.903	98.25
396.127	100.25
396.352	96.25
396.576	109.25
396.801	142.25
397.025	149.25
397.249	106.25
397.474	82.25
397.698	83.25
397.922	95.25
398.147	69.25
398.371	80.25
398.595	82.25
398.82	77.25
399.044	90.25
399.268	87.25
399.492	95.25
399.717	88.25
399.941	83.25
400.165	94.25
400.389	69.25
400.613	80.25
400.837	81.25
401.062	96.25
401.286	90.25
401.51	75.25
401.734	80.25
401.958	87.25
402.182	86.25
402.406	85.25
402.63	78.25
402.854	91.25
403.078	89.25
403.302	81.25
403.526	83.25
403.75	79.25
403.974	87.25
404.198	103.25
404.422	104.25
404.645	99.25
404.869	107.25
405.093	86.25
405.317	84.25
405.541	96.25
405.765	90.25
405.988	81.25
406.212	77.25
406.436	83.25
406.66	84.25
406.883	94.25
407.107	88.25
407.331	76.25
407.555	92.25
407.778	92.25
408.002	92.25
408.226	86.25
408.449	89.25
408.673	82.25
408.896	88.25
409.12	90.25
409.344	90.25
409.567	97.25
409.791	94.25
410.014	79.25
410.238	91.25
410.461	86.25
410.685	90.25
410.908	76.25
411.132	67.25
411.355	64.25
411.578	77.25
411.802	90.25
412.025	76.25
412.249	72.25
412.472	80.25
412.695	80.25
412.919	83.25
413.142	86.25
413.365	78.25
413.589	93.25
413.812	84.25
414.035	87.25
414.258	82.25
414.482	87.25
414.705	69.25
414.928	78.25
415.151	91.25
415.374	80.25
415.597	92.25
415.821	82.25
416.044	81.25
416.267	81.25
416.49	95.25
416.713	74.25
416.936	73.25
417.159	84.25
417.382	71.25
417.605	74.25
417.828	91.25
418.051	84.25
418.274	81.25
418.497	68.25
418.72	86.25
418.943	82.25
419.166	91.25
419.389	100.25
419.611	86.25
419.834	68.25
420.057	78.25
420.28	69.25
420.503	84.25
420.726	80.25
420.948	83.25
421.171	74.25
421.394	84.25
421.617	97.25
421.839	99.25
422.062	94.25
422.285	104.25
422.507	129.25
422.73	166.25
422.953	163.25
423.175	110.25
423.398	78.25
423.621	78.25
423.843	79.25
424.066	73.25
424.288	88.25
424.511	91.25
424.733	81.25
424.956	78.25
425.178	80.25
425.401	76.25
425.623	95.25
425.846	81.25
426.068	76.25
426.291	86.25
426.513	100.25
426.735	93.25
426.958	95.25
427.18	79.25
427.402	90.25
427.625	86.25
427.847	91.25
428.069	98.25
428.292	100.25
428.514	106.25
428.736	74.25
428.958	101.25
429.181	99.25
429.403	78.25
429.625	90.25
429.847	107.25
430.069	110.25
430.292	123.25
430.514	104.25
430.736	82.25
430.958	102.25
431.18	84.25
431.402	77.25
431.624	82.25
431.846	86.25
432.068	101.25
432.29	95.25
432.512	93.25
432.734	93.25
432.956	87.25
433.178	86.25
433.4	81.25
433.622	96.25
433.844	84.25
434.066	94.25
434.287	86.25
434.509	80.25
434.731	78.25
434.953	77.25
435.175	95.25
435.397	71.25
435.618	86.25
435.84	98.25
436.062	84.25
436.284	96.25
436.505	92.25
436.727	87.25
436.949	75.25
437.17	80.25
437.392	84.25
437.614	90.25
437.835	93.25
438.057	90.25
438.278	97.25
438.5	82.25
438.721	88.25
438.943	85.25
439.165	81.25
439.386	77.25
439.608	88.25
439.829	76.25
440.05	94.25
440.272	94.25
440.493	88.25
440.715	87.25
440.936	93.25
441.158	75.25
441.379	86.25
441.6	80.25
441.822	75.25
442.043	96.25
442.264	92.25
442.486	102.25
442.707	107.25
442.928	91.25
443.149	91.25
443.371	93.25
443.592	121.25
443.813	92.25
444.034	90.25
444.255	92.25
444.476	86.25
444.698	83.25
444.919	76.25
445.14	182.25
445.361	140.25
445.582	138.25
445.803	115.25
446.024	84.25
446.245	85.25
446.466	74.25
446.687	82.25
446.908	96.25
447.129	77.25
447.35	89.25
447.571	85.25
447.792	80.25
448.013	80.25
448.234	75.25
448.455	84.25
448.675	96.25
448.896	73.25
449.117	81.25
449.338	82.25
449.559	81.25
449.779	87.25
450	85.25
450.221	86.25
450.442	70.25
450.662	73.25
450.883	85.25
451.104	72.25
451.324	78.25
451.545	85.25
451.766	83.25
451.986	77.25
452.207	80.25
452.428	84.25
452.648	88.25
452.869	76.25
453.089	80.25
453.31	93.25
453.53	97.25
453.751	87.25
453.971	96.25
454.192	83.25
454.412	84.25
454.633	84.25
454.853	80.25
455.073	89.25
455.294	79.25
455.514	90.25
455.734	81.25
455.955	82.25
456.175	96.25
456.395	87.25
456.616	76.25
456.836	88.25
457.056	71.25
457.276	75.25
457.497	74.25
457.717	86.25
457.937	87.25
458.157	88.25
458.377	98.25
458.598	88.25
458.818	90.25
459.038	75.25
459.258	78.25
459.478	90.25
459.698	69.25
459.918	85.25
460.138	74.25
460.358	91.25
460.578	90.25
460.798	98.25
461.018	85.25
461.238	100.25
461.458	76.25
461.678	72.25
461.898	82.25
462.118	100.25
462.338	76.25
462.558	83.25
462.777	78.25
462.997	69.25
463.217	92.25
463.437	86.25
463.657	70.25
463.876	87.25
464.096	77.25
464.316	72.25
464.536	84.25
464.755	83.25
464.975	85.25
465.195	70.25
465.414	76.25
465.634	81.25
465.854	85.25
466.073	87.25
466.293	75.25
466.512	91.25
466.732	87.25
466.951	84.25
467.171	84.25
467.391	79.25
467.61	76.25
467.829	83.25
468.049	91.25
468.268	76.25
468.488	78.25
468.707	72.25
468.927	97.25
469.146	74.25
469.365	84.25
469.585	81.25
469.804	77.25
470.023	82.25
470.243	66.25
470.462	79.25
470.681	70.25
470.901	80.25
471.12	93.25
471.339	78.25
471.558	79.25
471.777	87.25
471.997	81.25
472.216	86.25
472.435	101.25
472.654	102.25
472.873	102.25
473.092	75.25
473.311	84.25
473.53	85.25
473.749	77.25
473.968	83.25
474.187	76.25
474.406	75.25
474.625	77.25
474.844	91.25
475.063	85.25
475.282	78.25
475.501	87.25
475.72	85.25
475.939	80.25
476.158	72.25
476.377	82.25
476.596	86.25
476.814	78.25
477.033	74.25
477.252	78.25
477.471	84.25
477.69	71.25
477.908	95.25
478.127	82.25
478.346	88.25
478.564	74.25
478.783	99.25
479.002	86.25
479.22	87.25
479.439	79.25
479.658	73.25
479.876	77.25
480.095	90.25
480.313	92.25
480.532	84.25
480.751	103.25
480.969	77.25
481.188	74.25
481.406	89.25
481.624	84.25
481.843	86.25
482.061	80.25
482.28	92.25
482.498	83.25
482.717	91.25
482.935	103.25
483.153	80.25
483.372	83.25
483.59	82.25
483.808	84.25
484.027	84.25
484.245	78.25
484.463	84.25
484.681	84.25
484.9	85.25
485.118	98.25
485.336	87.25
485.554	71.25
485.772	83.25
485.99	74.25
486.209	84.25
486.427	75.25
486.645	81.25
486.863	102.25
487.081	68.25
487.299	96.25
487.517	78.25
487.735	70.25
487.953	96.25
488.171	109.25
488.389	91.25
488.607	83.25
488.825	84.25
489.043	77.25
489.261	86.25
489.479	79.25
489.696	74.25
489.914	88.25
490.132	77.25
490.35	93.25
490.568	93.25
490.786	93.25
491.003	70.25
491.221	84.25
491.439	78.25
491.657	88.25
491.874	84.25
492.092	94.25
492.31	92.25
492.527	90.25
492.745	83.25
492.963	90.25
493.18	96.25
493.398	93.25
493.615	71.25
493.833	76.25
494.05	95.25
494.268	86.25
494.485	92.25
494.703	77.25
494.92	76.25
495.138	87.25
495.355	98.25
495.573	103.25
495.79	90.25
496.008	82.25
496.225	87.25
496.442	84.25
496.66	75.25
496.877	82.25
497.094	83.25
497.312	86.25
497.529	90.25
497.746	90.25
497.963	94.25
498.181	87.25
498.398	96.25
498.615	98.25
498.832	80.25
499.049	84.25
499.267	84.25
499.484	83.25
499.701	98.25
499.918	89.25
500.135	84.25
500.352	101.25
500.569	85.25
500.786	93.25
501.003	94.25
501.22	79.25
501.437	86.25
501.654	82.25
501.871	83.25
502.088	86.25
502.305	87.25
502.522	88.25
502.739	67.25
502.956	79.25
503.172	80.25
503.389	73.25
503.606	89.25
503.823	92.25
504.04	80.25
504.256	99.25
504.473	96.25
504.69	93.25
504.907	96.25
505.123	88.25
505.34	88.25
505.557	95.25
505.773	88.25
505.99	84.25
506.207	86.25
506.423	84.25
506.64	69.25
506.856	80.25
507.073	79.25
507.289	93.25
507.506	93.25
507.722	83.25
507.939	84.25
508.155	88.25
508.372	88.25
508.588	82.25
508.805	76.25
509.021	91.25
509.238	91.25
509.454	93.25
509.67	78.25
509.887	75.25
510.103	76.25
510.319	73.25
510.536	88.25
510.752	80.25
510.968	74.25
511.184	84.25
511.401	76.25
511.617	71.25
511.833	85.25
512.049	86.25
512.265	89.25
512.481	87.25
512.698	88.25
512.914	86.25
513.13	82.25
513.346	100.25
513.562	82.25
513.778	92.25
513.994	81.25
514.21	89.25
514.426	98.25
514.642	88.25
514.858	89.25
515.074	95.25
515.29	76.25
515.506	86.25
515.721	92.25
515.937	93.25
516.153	80.25
516.369	86.25
516.585	82.25
516.801	90.25
517.016	88.25
517.232	91.25
517.448	86.25
517.664	84.25
517.879	86.25
518.095	79.25
518.311	92.25
518.527	100.25
518.742	104.25
518.958	81.25
519.173	104.25
519.389	86.25
