Data from HP_1_HRD10591_00033.txt Node
Date: Mon Jan 19 14:15:24 EST 2026
User: Yrep
Spectrometer: HR+D1059
Trigger mode: 1
Integration Time (sec): 1.000000E-1
Scans to average: 1
Electric dark correction enabled: true
Nonlinearity correction enabled: false
Boxcar width: 0
XAxis mode: Wavelengths
Number of Pixels in Spectrum: 2048
>>>>>Begin Spectral Data<<<<<
223.165	-13.19
223.4	-13.19
223.635	-13.19
223.869	-24.19
224.104	-21.19
224.338	-23.19
224.573	-22.19
224.808	-11.19
225.042	-8.19
225.277	-5.19
225.511	7.81
225.746	5.81
225.98	22.81
226.215	12.81
226.449	8.81
226.683	9.81
226.918	25.81
227.152	34.81
227.387	38.81
227.621	33.81
227.856	60.81
228.09	36.81
228.324	60.81
228.559	56.81
228.793	63.81
229.027	50.81
229.262	66.81
229.496	59.81
229.73	57.81
229.964	73.81
230.199	74.81
230.433	74.81
230.667	63.81
230.901	78.81
231.136	74.81
231.37	65.81
231.604	70.81
231.838	75.81
232.072	98.81
232.306	90.81
232.541	72.81
232.775	90.81
233.009	78.81
233.243	82.81
233.477	74.81
233.711	81.81
233.945	84.81
234.179	86.81
234.413	75.81
234.647	78.81
234.881	80.81
235.115	80.81
235.349	82.81
235.583	74.81
235.817	77.81
236.051	80.81
236.285	70.81
236.519	71.81
236.753	91.81
236.987	78.81
237.221	69.81
237.455	85.81
237.689	66.81
237.922	67.81
238.156	73.81
238.39	74.81
238.624	57.81
238.858	73.81
239.091	68.81
239.325	78.81
239.559	81.81
239.793	83.81
240.027	89.81
240.26	84.81
240.494	73.81
240.728	68.81
240.961	60.81
241.195	78.81
241.429	71.81
241.662	75.81
241.896	76.81
242.13	65.81
242.363	85.81
242.597	78.81
242.83	89.81
243.064	82.81
243.298	73.81
243.531	77.81
243.765	75.81
243.998	96.81
244.232	84.81
244.465	77.81
244.699	82.81
244.932	62.81
245.166	74.81
245.399	75.81
245.633	76.81
245.866	81.81
246.099	75.81
246.333	64.81
246.566	83.81
246.8	74.81
247.033	96.81
247.266	95.81
247.5	92.81
247.733	78.81
247.966	78.81
248.2	75.81
248.433	76.81
248.666	82.81
248.899	78.81
249.133	80.81
249.366	84.81
249.599	88.81
249.832	74.81
250.066	69.81
250.299	54.81
250.532	77.81
250.765	78.81
250.998	84.81
251.231	73.81
251.465	84.81
251.698	82.81
251.931	84.81
252.164	80.81
252.397	77.81
252.63	72.81
252.863	77.81
253.096	80.81
253.329	90.81
253.562	88.81
253.795	73.81
254.028	74.81
254.261	79.81
254.494	65.81
254.727	84.81
254.96	68.81
255.193	72.81
255.426	80.81
255.659	75.81
255.892	82.81
256.124	68.81
256.357	86.81
256.59	82.81
256.823	85.81
257.056	79.81
257.289	64.81
257.521	79.81
257.754	84.81
257.987	80.81
258.22	91.81
258.452	88.81
258.685	68.81
258.918	82.81
259.151	77.81
259.383	70.81
259.616	78.81
259.849	75.81
260.081	72.81
260.314	86.81
260.547	70.81
260.779	86.81
261.012	76.81
261.244	79.81
261.477	89.81
261.71	79.81
261.942	64.81
262.175	84.81
262.407	82.81
262.64	84.81
262.872	98.81
263.105	84.81
263.337	70.81
263.57	76.81
263.802	86.81
264.035	82.81
264.267	84.81
264.499	90.81
264.732	75.81
264.964	84.81
265.197	67.81
265.429	80.81
265.661	68.81
265.894	74.81
266.126	81.81
266.358	80.81
266.591	78.81
266.823	84.81
267.055	82.81
267.287	75.81
267.52	74.81
267.752	68.81
267.984	72.81
268.216	70.81
268.448	88.81
268.681	88.81
268.913	90.81
269.145	72.81
269.377	72.81
269.609	84.81
269.841	89.81
270.073	84.81
270.306	66.81
270.538	77.81
270.77	86.81
271.002	76.81
271.234	77.81
271.466	78.81
271.698	83.81
271.93	94.81
272.162	86.81
272.394	74.81
272.626	94.81
272.858	86.81
273.09	88.81
273.322	74.81
273.553	76.81
273.785	71.81
274.017	85.81
274.249	77.81
274.481	72.81
274.713	77.81
274.945	86.81
275.176	73.81
275.408	101.81
275.64	79.81
275.872	84.81
276.104	73.81
276.335	80.81
276.567	80.81
276.799	76.81
277.031	82.81
277.262	79.81
277.494	92.81
277.726	89.81
277.957	88.81
278.189	78.81
278.421	79.81
278.652	86.81
278.884	71.81
279.115	82.81
279.347	80.81
279.579	83.81
279.81	86.81
280.042	78.81
280.273	84.81
280.505	84.81
280.736	78.81
280.968	76.81
281.199	68.81
281.431	85.81
281.662	76.81
281.894	90.81
282.125	87.81
282.356	81.81
282.588	72.81
282.819	93.81
283.051	82.81
283.282	81.81
283.513	94.81
283.745	77.81
283.976	86.81
284.207	83.81
284.439	74.81
284.67	85.81
284.901	81.81
285.132	94.81
285.364	93.81
285.595	85.81
285.826	76.81
286.057	85.81
286.288	80.81
286.52	75.81
286.751	71.81
286.982	65.81
287.213	71.81
287.444	92.81
287.675	82.81
287.906	96.81
288.138	83.81
288.369	78.81
288.6	98.81
288.831	96.81
289.062	91.81
289.293	91.81
289.524	86.81
289.755	91.81
289.986	89.81
290.217	78.81
290.448	88.81
290.679	86.81
290.91	90.81
291.141	86.81
291.371	84.81
291.602	82.81
291.833	88.81
292.064	92.81
292.295	92.81
292.526	89.81
292.757	82.81
292.987	82.81
293.218	77.81
293.449	90.81
293.68	75.81
293.91	72.81
294.141	100.81
294.372	74.81
294.603	77.81
294.833	77.81
295.064	75.81
295.295	93.81
295.525	78.81
295.756	84.81
295.987	76.81
296.217	84.81
296.448	78.81
296.679	84.81
296.909	81.81
297.14	80.81
297.37	97.81
297.601	65.81
297.831	93.81
298.062	82.81
298.292	86.81
298.523	84.81
298.753	75.81
298.984	87.81
299.214	83.81
299.445	85.81
299.675	84.81
299.905	75.81
300.136	91.81
300.366	85.81
300.597	90.81
300.827	91.81
301.057	90.81
301.288	86.81
301.518	81.81
301.748	86.81
301.979	103.81
302.209	96.81
302.439	93.81
302.669	80.81
302.9	74.81
303.13	79.81
303.36	86.81
303.59	85.81
303.82	78.81
304.051	68.81
304.281	73.81
304.511	78.81
304.741	83.81
304.971	72.81
305.201	84.81
305.431	83.81
305.661	103.81
305.891	88.81
306.121	89.81
306.352	77.81
306.582	73.81
306.812	75.81
307.042	96.81
307.272	86.81
307.502	72.81
307.731	86.81
307.961	88.81
308.191	83.81
308.421	89.81
308.651	96.81
308.881	86.81
309.111	86.81
309.341	81.81
309.571	72.81
309.8	81.81
310.03	91.81
310.26	82.81
310.49	91.81
310.72	85.81
310.949	79.81
311.179	80.81
311.409	89.81
311.639	81.81
311.868	90.81
312.098	90.81
312.328	83.81
312.557	89.81
312.787	88.81
313.017	93.81
313.246	96.81
313.476	69.81
313.706	69.81
313.935	84.81
314.165	90.81
314.394	74.81
314.624	88.81
314.853	79.81
315.083	85.81
315.312	86.81
315.542	86.81
315.771	90.81
316.001	108.81
316.23	84.81
316.46	81.81
316.689	91.81
316.919	75.81
317.148	80.81
317.377	88.81
317.607	88.81
317.836	89.81
318.065	73.81
318.295	92.81
318.524	90.81
318.753	77.81
318.983	90.81
319.212	90.81
319.441	77.81
319.67	92.81
319.9	75.81
320.129	93.81
320.358	78.81
320.587	93.81
320.816	86.81
321.046	90.81
321.275	78.81
321.504	100.81
321.733	85.81
321.962	88.81
322.191	74.81
322.42	84.81
322.649	83.81
322.878	96.81
323.108	82.81
323.337	88.81
323.566	76.81
323.795	86.81
324.024	87.81
324.253	85.81
324.482	84.81
324.71	84.81
324.939	86.81
325.168	82.81
325.397	81.81
325.626	89.81
325.855	91.81
326.084	84.81
326.313	86.81
326.542	99.81
326.77	77.81
326.999	91.81
327.228	75.81
327.457	82.81
327.686	97.81
327.914	87.81
328.143	84.81
328.372	91.81
328.6	87.81
328.829	91.81
329.058	83.81
329.287	68.81
329.515	90.81
329.744	88.81
329.972	80.81
330.201	78.81
330.43	92.81
330.658	97.81
330.887	97.81
331.115	96.81
331.344	87.81
331.572	70.81
331.801	78.81
332.03	72.81
332.258	83.81
332.486	90.81
332.715	69.81
332.943	77.81
333.172	89.81
333.4	88.81
333.629	90.81
333.857	90.81
334.085	89.81
334.314	93.81
334.542	90.81
334.771	83.81
334.999	86.81
335.227	99.81
335.455	106.81
335.684	92.81
335.912	89.81
336.14	87.81
336.369	86.81
336.597	93.81
336.825	64.81
337.053	86.81
337.281	85.81
337.51	75.81
337.738	100.81
337.966	88.81
338.194	86.81
338.422	82.81
338.65	99.81
338.878	87.81
339.106	86.81
339.334	84.81
339.562	81.81
339.79	74.81
340.018	92.81
340.246	65.81
340.474	76.81
340.702	84.81
340.93	60.81
341.158	90.81
341.386	85.81
341.614	86.81
341.842	84.81
342.07	75.81
342.298	72.81
342.526	76.81
342.754	96.81
342.981	84.81
343.209	88.81
343.437	99.81
343.665	79.81
343.893	84.81
344.12	102.81
344.348	92.81
344.576	99.81
344.804	92.81
345.031	93.81
345.259	88.81
345.487	83.81
345.714	80.81
345.942	98.81
346.17	105.81
346.397	80.81
346.625	98.81
346.853	93.81
347.08	81.81
347.308	86.81
347.535	90.81
347.763	81.81
347.99	81.81
348.218	73.81
348.445	82.81
348.673	72.81
348.9	95.81
349.128	98.81
349.355	90.81
349.583	87.81
349.81	86.81
350.037	86.81
350.265	84.81
350.492	85.81
350.72	100.81
350.947	96.81
351.174	84.81
351.402	73.81
351.629	84.81
351.856	87.81
352.083	93.81
352.311	86.81
352.538	78.81
352.765	95.81
352.992	102.81
353.22	85.81
353.447	73.81
353.674	84.81
353.901	82.81
354.128	73.81
354.355	83.81
354.583	79.81
354.81	70.81
355.037	93.81
355.264	73.81
355.491	85.81
355.718	96.81
355.945	97.81
356.172	78.81
356.399	91.81
356.626	85.81
356.853	83.81
357.08	86.81
357.307	66.81
357.534	101.81
357.761	75.81
357.988	93.81
358.215	94.81
358.441	89.81
358.668	76.81
358.895	93.81
359.122	89.81
359.349	86.81
359.576	74.81
359.802	86.81
360.029	80.81
360.256	96.81
360.483	88.81
360.709	84.81
360.936	110.81
361.163	83.81
361.39	82.81
361.616	92.81
361.843	94.81
362.07	103.81
362.296	76.81
362.523	89.81
362.749	93.81
362.976	105.81
363.203	99.81
363.429	97.81
363.656	93.81
363.882	78.81
364.109	94.81
364.335	103.81
364.562	95.81
364.788	96.81
365.015	78.81
365.241	92.81
365.468	88.81
365.694	81.81
365.92	89.81
366.147	78.81
366.373	90.81
366.599	85.81
366.826	81.81
367.052	77.81
367.278	78.81
367.505	67.81
367.731	98.81
367.957	77.81
368.184	99.81
368.41	79.81
368.636	97.81
368.862	87.81
369.089	82.81
369.315	82.81
369.541	98.81
369.767	101.81
369.993	79.81
370.219	90.81
370.445	93.81
370.672	93.81
370.898	91.81
371.124	73.81
371.35	97.81
371.576	91.81
371.802	105.81
372.028	96.81
372.254	79.81
372.48	93.81
372.706	74.81
372.932	87.81
373.158	82.81
373.384	88.81
373.61	93.81
373.835	99.81
374.061	90.81
374.287	85.81
374.513	92.81
374.739	73.81
374.965	92.81
375.191	92.81
375.416	76.81
375.642	93.81
375.868	95.81
376.094	88.81
376.319	94.81
376.545	93.81
376.771	80.81
376.997	84.81
377.222	82.81
377.448	77.81
377.674	89.81
377.899	86.81
378.125	98.81
378.35	83.81
378.576	79.81
378.802	75.81
379.027	74.81
379.253	81.81
379.478	88.81
379.704	80.81
379.929	85.81
380.155	73.81
380.38	83.81
380.606	74.81
380.831	89.81
381.057	89.81
381.282	85.81
381.507	78.81
381.733	82.81
381.958	93.81
382.184	87.81
382.409	82.81
382.634	104.81
382.86	92.81
383.085	100.81
383.31	97.81
383.535	103.81
383.761	88.81
383.986	88.81
384.211	94.81
384.436	76.81
384.662	73.81
384.887	73.81
385.112	80.81
385.337	99.81
385.562	98.81
385.787	90.81
386.013	103.81
386.238	101.81
386.463	78.81
386.688	85.81
386.913	76.81
387.138	88.81
387.363	90.81
387.588	90.81
387.813	81.81
388.038	91.81
388.263	84.81
388.488	89.81
388.713	96.81
388.938	94.81
389.163	94.81
389.387	96.81
389.612	79.81
389.837	90.81
390.062	87.81
390.287	76.81
390.512	82.81
390.736	84.81
390.961	87.81
391.186	92.81
391.411	90.81
391.636	81.81
391.86	88.81
392.085	89.81
392.31	84.81
392.534	106.81
392.759	114.81
392.984	142.81
393.208	214.81
393.433	298.81
393.658	225.81
393.882	123.81
394.107	100.81
394.331	88.81
394.556	118.81
394.78	87.81
395.005	69.81
395.229	90.81
395.454	87.81
395.678	103.81
395.903	107.81
396.127	125.81
396.352	139.81
396.576	145.81
396.801	213.81
397.025	240.81
397.249	124.81
397.474	96.81
397.698	93.81
397.922	87.81
398.147	78.81
398.371	93.81
398.595	78.81
398.82	78.81
399.044	88.81
399.268	81.81
399.492	97.81
399.717	87.81
399.941	89.81
400.165	75.81
400.389	94.81
400.613	79.81
400.837	90.81
401.062	84.81
401.286	77.81
401.51	88.81
401.734	84.81
401.958	82.81
402.182	88.81
402.406	81.81
402.63	93.81
402.854	83.81
403.078	84.81
403.302	85.81
403.526	93.81
403.75	67.81
403.974	84.81
404.198	74.81
404.422	98.81
404.645	104.81
404.869	116.81
405.093	81.81
405.317	97.81
405.541	77.81
405.765	85.81
405.988	85.81
406.212	99.81
406.436	92.81
406.66	86.81
406.883	81.81
407.107	78.81
407.331	88.81
407.555	92.81
407.778	110.81
408.002	107.81
408.226	102.81
408.449	85.81
408.673	64.81
408.896	84.81
409.12	78.81
409.344	88.81
409.567	90.81
409.791	96.81
410.014	89.81
410.238	83.81
410.461	89.81
410.685	84.81
410.908	72.81
411.132	73.81
411.355	77.81
411.578	81.81
411.802	79.81
412.025	80.81
412.249	82.81
412.472	86.81
412.695	95.81
412.919	89.81
413.142	84.81
413.365	74.81
413.589	78.81
413.812	71.81
414.035	83.81
414.258	79.81
414.482	80.81
414.705	97.81
414.928	64.81
415.151	72.81
415.374	76.81
415.597	87.81
415.821	88.81
416.044	90.81
416.267	85.81
416.49	76.81
416.713	86.81
416.936	83.81
417.159	86.81
417.382	91.81
417.605	88.81
417.828	92.81
418.051	62.81
418.274	81.81
418.497	87.81
418.72	98.81
418.943	77.81
419.166	73.81
419.389	74.81
419.611	84.81
419.834	89.81
420.057	85.81
420.28	78.81
420.503	87.81
420.726	92.81
420.948	99.81
421.171	95.81
421.394	100.81
421.617	109.81
421.839	100.81
422.062	86.81
422.285	126.81
422.507	198.81
422.73	294.81
422.953	269.81
423.175	144.81
423.398	102.81
423.621	94.81
423.843	82.81
424.066	91.81
424.288	84.81
424.511	83.81
424.733	70.81
424.956	85.81
425.178	82.81
425.401	76.81
425.623	75.81
425.846	81.81
426.068	84.81
426.291	91.81
426.513	89.81
426.735	89.81
426.958	75.81
427.18	72.81
427.402	81.81
427.625	96.81
427.847	74.81
428.069	97.81
428.292	112.81
428.514	128.81
428.736	104.81
428.958	99.81
429.181	116.81
429.403	92.81
429.625	88.81
429.847	106.81
430.069	140.81
430.292	139.81
430.514	142.81
430.736	109.81
430.958	116.81
431.18	110.81
431.402	82.81
431.624	101.81
431.846	108.81
432.068	120.81
432.29	95.81
432.512	81.81
432.734	78.81
432.956	80.81
433.178	83.81
433.4	73.81
433.622	93.81
433.844	87.81
434.066	93.81
434.287	84.81
434.509	95.81
434.731	80.81
434.953	85.81
435.175	68.81
435.397	82.81
435.618	78.81
435.84	79.81
436.062	81.81
436.284	99.81
436.505	100.81
436.727	82.81
436.949	77.81
437.17	80.81
437.392	90.81
437.614	89.81
437.835	78.81
438.057	90.81
438.278	91.81
438.5	78.81
438.721	77.81
438.943	85.81
439.165	83.81
439.386	77.81
439.608	96.81
439.829	72.81
440.05	81.81
440.272	77.81
440.493	85.81
440.715	74.81
440.936	90.81
441.158	93.81
441.379	89.81
441.6	85.81
441.822	77.81
442.043	84.81
442.264	96.81
442.486	108.81
442.707	117.81
442.928	117.81
443.149	113.81
443.371	125.81
443.592	180.81
443.813	150.81
444.034	97.81
444.255	92.81
444.476	88.81
444.698	85.81
444.919	92.81
445.14	187.81
445.361	176.81
445.582	218.81
445.803	180.81
446.024	122.81
446.245	86.81
446.466	79.81
446.687	90.81
446.908	85.81
447.129	84.81
447.35	82.81
447.571	91.81
447.792	87.81
448.013	74.81
448.234	90.81
448.455	79.81
448.675	89.81
448.896	98.81
449.117	79.81
449.338	86.81
449.559	81.81
449.779	88.81
450	74.81
450.221	85.81
450.442	78.81
450.662	86.81
450.883	73.81
451.104	94.81
451.324	83.81
451.545	86.81
451.766	84.81
451.986	92.81
452.207	85.81
452.428	82.81
452.648	97.81
452.869	86.81
453.089	82.81
453.31	90.81
453.53	87.81
453.751	104.81
453.971	93.81
454.192	88.81
454.412	76.81
454.633	83.81
454.853	82.81
455.073	99.81
455.294	87.81
455.514	100.81
455.734	80.81
455.955	82.81
456.175	78.81
456.395	77.81
456.616	79.81
456.836	91.81
457.056	83.81
457.276	78.81
457.497	87.81
457.717	70.81
457.937	103.81
458.157	84.81
458.377	94.81
458.598	89.81
458.818	102.81
459.038	93.81
459.258	100.81
459.478	78.81
459.698	73.81
459.918	83.81
460.138	74.81
460.358	79.81
460.578	82.81
460.798	103.81
461.018	92.81
461.238	87.81
461.458	87.81
461.678	81.81
461.898	85.81
462.118	84.81
462.338	86.81
462.558	84.81
462.777	86.81
462.997	82.81
463.217	86.81
463.437	87.81
463.657	72.81
463.876	80.81
464.096	75.81
464.316	77.81
464.536	92.81
464.755	94.81
464.975	68.81
465.195	90.81
465.414	93.81
465.634	94.81
465.854	72.81
466.073	73.81
466.293	81.81
466.512	91.81
466.732	73.81
466.951	83.81
467.171	73.81
467.391	86.81
467.61	83.81
467.829	83.81
468.049	88.81
468.268	90.81
468.488	84.81
468.707	94.81
468.927	70.81
469.146	89.81
469.365	82.81
469.585	71.81
469.804	77.81
470.023	77.81
470.243	63.81
470.462	86.81
470.681	64.81
470.901	94.81
471.12	88.81
471.339	89.81
471.558	79.81
471.777	72.81
471.997	78.81
472.216	80.81
472.435	97.81
472.654	88.81
472.873	78.81
473.092	85.81
473.311	91.81
473.53	89.81
473.749	75.81
473.968	79.81
474.187	76.81
474.406	65.81
474.625	104.81
474.844	92.81
475.063	84.81
475.282	82.81
475.501	93.81
475.72	86.81
475.939	85.81
476.158	84.81
476.377	77.81
476.596	91.81
476.814	96.81
477.033	88.81
477.252	86.81
477.471	89.81
477.69	81.81
477.908	87.81
478.127	93.81
478.346	72.81
478.564	66.81
478.783	85.81
479.002	74.81
479.22	78.81
479.439	101.81
479.658	91.81
479.876	83.81
480.095	85.81
480.313	77.81
480.532	94.81
480.751	70.81
480.969	97.81
481.188	80.81
481.406	82.81
481.624	99.81
481.843	93.81
482.061	84.81
482.28	78.81
482.498	91.81
482.717	74.81
482.935	75.81
483.153	82.81
483.372	98.81
483.59	91.81
483.808	93.81
484.027	104.81
484.245	79.81
484.463	93.81
484.681	102.81
484.9	88.81
485.118	81.81
485.336	82.81
485.554	86.81
485.772	87.81
485.99	84.81
486.209	88.81
486.427	81.81
486.645	88.81
486.863	97.81
487.081	79.81
487.299	98.81
487.517	96.81
487.735	94.81
487.953	107.81
488.171	116.81
488.389	89.81
488.607	101.81
488.825	83.81
489.043	76.81
489.261	100.81
489.479	85.81
489.696	68.81
489.914	78.81
490.132	84.81
490.35	82.81
490.568	88.81
490.786	83.81
491.003	88.81
491.221	89.81
491.439	83.81
491.657	85.81
491.874	91.81
492.092	92.81
492.31	93.81
492.527	78.81
492.745	96.81
492.963	86.81
493.18	84.81
493.398	97.81
493.615	94.81
493.833	89.81
494.05	81.81
494.268	78.81
494.485	94.81
494.703	93.81
494.92	92.81
495.138	83.81
495.355	85.81
495.573	82.81
495.79	88.81
496.008	89.81
496.225	79.81
496.442	82.81
496.66	92.81
496.877	86.81
497.094	91.81
497.312	75.81
497.529	79.81
497.746	80.81
497.963	88.81
498.181	90.81
498.398	86.81
498.615	80.81
498.832	73.81
499.049	82.81
499.267	79.81
499.484	91.81
499.701	94.81
499.918	76.81
500.135	90.81
500.352	88.81
500.569	77.81
500.786	92.81
501.003	86.81
501.22	70.81
501.437	100.81
501.654	77.81
501.871	83.81
502.088	81.81
502.305	85.81
502.522	86.81
502.739	85.81
502.956	84.81
503.172	83.81
503.389	86.81
503.606	84.81
503.823	93.81
504.04	109.81
504.256	113.81
504.473	87.81
504.69	93.81
504.907	79.81
505.123	87.81
505.34	84.81
505.557	95.81
505.773	86.81
505.99	92.81
506.207	90.81
506.423	92.81
506.64	71.81
506.856	81.81
507.073	93.81
507.289	88.81
507.506	76.81
507.722	87.81
507.939	95.81
508.155	90.81
508.372	86.81
508.588	83.81
508.805	94.81
509.021	89.81
509.238	100.81
509.454	96.81
509.67	81.81
509.887	96.81
510.103	77.81
510.319	89.81
510.536	77.81
510.752	82.81
510.968	95.81
511.184	90.81
511.401	90.81
511.617	87.81
511.833	90.81
512.049	88.81
512.265	78.81
512.481	81.81
512.698	85.81
512.914	69.81
513.13	88.81
513.346	88.81
513.562	84.81
513.778	96.81
513.994	81.81
514.21	89.81
514.426	84.81
514.642	85.81
514.858	79.81
515.074	87.81
515.29	92.81
515.506	86.81
515.721	82.81
515.937	86.81
516.153	93.81
516.369	91.81
516.585	80.81
516.801	80.81
517.016	98.81
517.232	86.81
517.448	87.81
517.664	88.81
517.879	89.81
518.095	79.81
518.311	89.81
518.527	100.81
518.742	95.81
518.958	101.81
