Data from HP_1_HRD10591_00023.txt Node
Date: Mon Jan 19 14:15:19 EST 2026
User: Yrep
Spectrometer: HR+D1059
Trigger mode: 1
Integration Time (sec): 1.000000E-1
Scans to average: 1
Electric dark correction enabled: true
Nonlinearity correction enabled: false
Boxcar width: 0
XAxis mode: Wavelengths
Number of Pixels in Spectrum: 2048
>>>>>Begin Spectral Data<<<<<
223.165	-9.75
223.4	-9.75
223.635	-9.75
223.869	-15.75
224.104	-27.75
224.338	-5.75
224.573	-13.75
224.808	-9.75
225.042	-6.75
225.277	6.25
225.511	-5.75
225.746	6.25
225.98	-3.75
226.215	11.25
226.449	12.25
226.683	12.25
226.918	26.25
227.152	24.25
227.387	32.25
227.621	49.25
227.856	47.25
228.09	40.25
228.324	41.25
228.559	65.25
228.793	59.25
229.027	63.25
229.262	61.25
229.496	62.25
229.73	73.25
229.964	76.25
230.199	73.25
230.433	69.25
230.667	72.25
230.901	84.25
231.136	86.25
231.37	76.25
231.604	81.25
231.838	91.25
232.072	91.25
232.306	83.25
232.541	94.25
232.775	78.25
233.009	83.25
233.243	88.25
233.477	79.25
233.711	76.25
233.945	73.25
234.179	86.25
234.413	80.25
234.647	88.25
234.881	79.25
235.115	87.25
235.349	85.25
235.583	92.25
235.817	83.25
236.051	80.25
236.285	74.25
236.519	72.25
236.753	80.25
236.987	80.25
237.221	78.25
237.455	69.25
237.689	74.25
237.922	82.25
238.156	80.25
238.39	69.25
238.624	62.25
238.858	80.25
239.091	70.25
239.325	86.25
239.559	66.25
239.793	76.25
240.027	76.25
240.26	85.25
240.494	68.25
240.728	75.25
240.961	74.25
241.195	83.25
241.429	70.25
241.662	62.25
241.896	87.25
242.13	77.25
242.363	86.25
242.597	60.25
242.83	80.25
243.064	80.25
243.298	70.25
243.531	74.25
243.765	81.25
243.998	75.25
244.232	74.25
244.465	81.25
244.699	68.25
244.932	72.25
245.166	84.25
245.399	95.25
245.633	78.25
245.866	90.25
246.099	74.25
246.333	68.25
246.566	72.25
246.8	72.25
247.033	73.25
247.266	80.25
247.5	82.25
247.733	70.25
247.966	67.25
248.2	77.25
248.433	81.25
248.666	90.25
248.899	80.25
249.133	66.25
249.366	86.25
249.599	78.25
249.832	82.25
250.066	75.25
250.299	72.25
250.532	89.25
250.765	83.25
250.998	60.25
251.231	84.25
251.465	76.25
251.698	69.25
251.931	76.25
252.164	85.25
252.397	66.25
252.63	87.25
252.863	95.25
253.096	74.25
253.329	69.25
253.562	77.25
253.795	68.25
254.028	71.25
254.261	80.25
254.494	90.25
254.727	86.25
254.96	74.25
255.193	76.25
255.426	80.25
255.659	89.25
255.892	94.25
256.124	79.25
256.357	78.25
256.59	85.25
256.823	89.25
257.056	69.25
257.289	73.25
257.521	75.25
257.754	79.25
257.987	94.25
258.22	83.25
258.452	69.25
258.685	83.25
258.918	90.25
259.151	79.25
259.383	74.25
259.616	62.25
259.849	80.25
260.081	79.25
260.314	82.25
260.547	70.25
260.779	82.25
261.012	70.25
261.244	90.25
261.477	85.25
261.71	90.25
261.942	67.25
262.175	75.25
262.407	76.25
262.64	70.25
262.872	90.25
263.105	72.25
263.337	78.25
263.57	76.25
263.802	86.25
264.035	80.25
264.267	72.25
264.499	68.25
264.732	81.25
264.964	86.25
265.197	81.25
265.429	66.25
265.661	85.25
265.894	76.25
266.126	84.25
266.358	76.25
266.591	71.25
266.823	86.25
267.055	82.25
267.287	94.25
267.52	89.25
267.752	86.25
267.984	84.25
268.216	81.25
268.448	88.25
268.681	88.25
268.913	75.25
269.145	74.25
269.377	82.25
269.609	98.25
269.841	98.25
270.073	91.25
270.306	77.25
270.538	70.25
270.77	82.25
271.002	91.25
271.234	85.25
271.466	90.25
271.698	77.25
271.93	93.25
272.162	90.25
272.394	83.25
272.626	86.25
272.858	97.25
273.09	74.25
273.322	84.25
273.553	84.25
273.785	78.25
274.017	75.25
274.249	82.25
274.481	84.25
274.713	74.25
274.945	81.25
275.176	91.25
275.408	84.25
275.64	93.25
275.872	72.25
276.104	88.25
276.335	85.25
276.567	82.25
276.799	82.25
277.031	77.25
277.262	84.25
277.494	96.25
277.726	89.25
277.957	84.25
278.189	86.25
278.421	75.25
278.652	83.25
278.884	73.25
279.115	87.25
279.347	88.25
279.579	82.25
279.81	88.25
280.042	91.25
280.273	79.25
280.505	92.25
280.736	73.25
280.968	89.25
281.199	90.25
281.431	80.25
281.662	89.25
281.894	86.25
282.125	87.25
282.356	81.25
282.588	85.25
282.819	82.25
283.051	80.25
283.282	76.25
283.513	94.25
283.745	91.25
283.976	83.25
284.207	65.25
284.439	83.25
284.67	84.25
284.901	88.25
285.132	74.25
285.364	86.25
285.595	81.25
285.826	97.25
286.057	83.25
286.288	86.25
286.52	69.25
286.751	90.25
286.982	90.25
287.213	88.25
287.444	79.25
287.675	99.25
287.906	92.25
288.138	78.25
288.369	96.25
288.6	79.25
288.831	72.25
289.062	80.25
289.293	73.25
289.524	76.25
289.755	81.25
289.986	89.25
290.217	80.25
290.448	75.25
290.679	76.25
290.91	89.25
291.141	82.25
291.371	81.25
291.602	83.25
291.833	75.25
292.064	79.25
292.295	88.25
292.526	75.25
292.757	82.25
292.987	74.25
293.218	75.25
293.449	83.25
293.68	92.25
293.91	104.25
294.141	71.25
294.372	85.25
294.603	66.25
294.833	91.25
295.064	77.25
295.295	83.25
295.525	74.25
295.756	90.25
295.987	79.25
296.217	94.25
296.448	96.25
296.679	84.25
296.909	83.25
297.14	68.25
297.37	71.25
297.601	86.25
297.831	78.25
298.062	74.25
298.292	76.25
298.523	85.25
298.753	80.25
298.984	84.25
299.214	78.25
299.445	76.25
299.675	78.25
299.905	92.25
300.136	75.25
300.366	79.25
300.597	80.25
300.827	87.25
301.057	78.25
301.288	82.25
301.518	90.25
301.748	86.25
301.979	88.25
302.209	79.25
302.439	66.25
302.669	88.25
302.9	77.25
303.13	82.25
303.36	82.25
303.59	82.25
303.82	68.25
304.051	73.25
304.281	89.25
304.511	80.25
304.741	76.25
304.971	82.25
305.201	96.25
305.431	93.25
305.661	77.25
305.891	76.25
306.121	76.25
306.352	62.25
306.582	74.25
306.812	82.25
307.042	72.25
307.272	90.25
307.502	84.25
307.731	81.25
307.961	83.25
308.191	91.25
308.421	80.25
308.651	77.25
308.881	94.25
309.111	94.25
309.341	82.25
309.571	99.25
309.8	82.25
310.03	73.25
310.26	92.25
310.49	72.25
310.72	84.25
310.949	91.25
311.179	74.25
311.409	82.25
311.639	71.25
311.868	99.25
312.098	75.25
312.328	87.25
312.557	103.25
312.787	93.25
313.017	86.25
313.246	81.25
313.476	90.25
313.706	70.25
313.935	94.25
314.165	87.25
314.394	75.25
314.624	61.25
314.853	86.25
315.083	94.25
315.312	89.25
315.542	98.25
315.771	95.25
316.001	87.25
316.23	80.25
316.46	82.25
316.689	87.25
316.919	88.25
317.148	82.25
317.377	79.25
317.607	98.25
317.836	84.25
318.065	103.25
318.295	71.25
318.524	79.25
318.753	73.25
318.983	78.25
319.212	78.25
319.441	82.25
319.67	85.25
319.9	88.25
320.129	80.25
320.358	83.25
320.587	87.25
320.816	75.25
321.046	87.25
321.275	74.25
321.504	67.25
321.733	74.25
321.962	92.25
322.191	88.25
322.42	97.25
322.649	76.25
322.878	84.25
323.108	92.25
323.337	84.25
323.566	76.25
323.795	80.25
324.024	94.25
324.253	83.25
324.482	79.25
324.71	90.25
324.939	86.25
325.168	71.25
325.397	86.25
325.626	84.25
325.855	94.25
326.084	83.25
326.313	74.25
326.542	82.25
326.77	89.25
326.999	80.25
327.228	88.25
327.457	83.25
327.686	89.25
327.914	80.25
328.143	82.25
328.372	96.25
328.6	77.25
328.829	71.25
329.058	79.25
329.287	89.25
329.515	80.25
329.744	71.25
329.972	83.25
330.201	79.25
330.43	89.25
330.658	77.25
330.887	86.25
331.115	83.25
331.344	82.25
331.572	75.25
331.801	87.25
332.03	78.25
332.258	88.25
332.486	73.25
332.715	83.25
332.943	75.25
333.172	76.25
333.4	72.25
333.629	81.25
333.857	99.25
334.085	79.25
334.314	88.25
334.542	79.25
334.771	76.25
334.999	81.25
335.227	72.25
335.455	82.25
335.684	82.25
335.912	71.25
336.14	83.25
336.369	81.25
336.597	79.25
336.825	72.25
337.053	96.25
337.281	81.25
337.51	88.25
337.738	85.25
337.966	77.25
338.194	78.25
338.422	88.25
338.65	71.25
338.878	81.25
339.106	65.25
339.334	90.25
339.562	74.25
339.79	91.25
340.018	97.25
340.246	87.25
340.474	82.25
340.702	82.25
340.93	88.25
341.158	86.25
341.386	75.25
341.614	101.25
341.842	89.25
342.07	80.25
342.298	72.25
342.526	73.25
342.754	101.25
342.981	86.25
343.209	82.25
343.437	85.25
343.665	55.25
343.893	75.25
344.12	83.25
344.348	93.25
344.576	84.25
344.804	88.25
345.031	85.25
345.259	72.25
345.487	88.25
345.714	89.25
345.942	71.25
346.17	82.25
346.397	86.25
346.625	84.25
346.853	87.25
347.08	82.25
347.308	76.25
347.535	92.25
347.763	85.25
347.99	82.25
348.218	82.25
348.445	98.25
348.673	101.25
348.9	84.25
349.128	84.25
349.355	82.25
349.583	91.25
349.81	97.25
350.037	87.25
350.265	84.25
350.492	84.25
350.72	81.25
350.947	90.25
351.174	70.25
351.402	82.25
351.629	76.25
351.856	86.25
352.083	84.25
352.311	89.25
352.538	84.25
352.765	74.25
352.992	99.25
353.22	90.25
353.447	74.25
353.674	83.25
353.901	90.25
354.128	90.25
354.355	66.25
354.583	72.25
354.81	88.25
355.037	98.25
355.264	84.25
355.491	72.25
355.718	80.25
355.945	92.25
356.172	87.25
356.399	78.25
356.626	80.25
356.853	97.25
357.08	102.25
357.307	88.25
357.534	88.25
357.761	91.25
357.988	89.25
358.215	74.25
358.441	72.25
358.668	83.25
358.895	76.25
359.122	98.25
359.349	92.25
359.576	95.25
359.802	84.25
360.029	84.25
360.256	64.25
360.483	74.25
360.709	83.25
360.936	82.25
361.163	74.25
361.39	91.25
361.616	73.25
361.843	71.25
362.07	84.25
362.296	90.25
362.523	76.25
362.749	93.25
362.976	90.25
363.203	89.25
363.429	80.25
363.656	74.25
363.882	88.25
364.109	87.25
364.335	66.25
364.562	76.25
364.788	80.25
365.015	74.25
365.241	73.25
365.468	77.25
365.694	74.25
365.92	92.25
366.147	91.25
366.373	98.25
366.599	90.25
366.826	68.25
367.052	80.25
367.278	87.25
367.505	80.25
367.731	82.25
367.957	77.25
368.184	96.25
368.41	95.25
368.636	74.25
368.862	83.25
369.089	83.25
369.315	94.25
369.541	86.25
369.767	96.25
369.993	78.25
370.219	84.25
370.445	92.25
370.672	96.25
370.898	80.25
371.124	93.25
371.35	81.25
371.576	80.25
371.802	82.25
372.028	72.25
372.254	84.25
372.48	104.25
372.706	82.25
372.932	68.25
373.158	82.25
373.384	87.25
373.61	98.25
373.835	94.25
374.061	79.25
374.287	87.25
374.513	92.25
374.739	101.25
374.965	89.25
375.191	94.25
375.416	83.25
375.642	90.25
375.868	86.25
376.094	86.25
376.319	71.25
376.545	73.25
376.771	88.25
376.997	79.25
377.222	88.25
377.448	77.25
377.674	80.25
377.899	86.25
378.125	72.25
378.35	81.25
378.576	84.25
378.802	68.25
379.027	89.25
379.253	81.25
379.478	76.25
379.704	83.25
379.929	75.25
380.155	82.25
380.38	94.25
380.606	72.25
380.831	79.25
381.057	77.25
381.282	84.25
381.507	82.25
381.733	67.25
381.958	97.25
382.184	88.25
382.409	87.25
382.634	94.25
382.86	90.25
383.085	84.25
383.31	84.25
383.535	81.25
383.761	87.25
383.986	97.25
384.211	78.25
384.436	71.25
384.662	78.25
384.887	82.25
385.112	78.25
385.337	81.25
385.562	80.25
385.787	88.25
386.013	87.25
386.238	81.25
386.463	74.25
386.688	88.25
386.913	81.25
387.138	92.25
387.363	66.25
387.588	95.25
387.813	104.25
388.038	82.25
388.263	90.25
388.488	87.25
388.713	84.25
388.938	82.25
389.163	86.25
389.387	80.25
389.612	90.25
389.837	83.25
390.062	79.25
390.287	79.25
390.512	86.25
390.736	92.25
390.961	95.25
391.186	68.25
391.411	83.25
391.636	80.25
391.86	87.25
392.085	85.25
392.31	91.25
392.534	98.25
392.759	98.25
392.984	127.25
393.208	201.25
393.433	323.25
393.658	229.25
393.882	106.25
394.107	102.25
394.331	88.25
394.556	91.25
394.78	93.25
395.005	87.25
395.229	71.25
395.454	74.25
395.678	93.25
395.903	85.25
396.127	87.25
396.352	116.25
396.576	133.25
396.801	205.25
397.025	239.25
397.249	122.25
397.474	95.25
397.698	94.25
397.922	90.25
398.147	83.25
398.371	76.25
398.595	83.25
398.82	80.25
399.044	68.25
399.268	89.25
399.492	68.25
399.717	70.25
399.941	72.25
400.165	82.25
400.389	77.25
400.613	82.25
400.837	86.25
401.062	92.25
401.286	70.25
401.51	61.25
401.734	72.25
401.958	82.25
402.182	84.25
402.406	75.25
402.63	84.25
402.854	83.25
403.078	88.25
403.302	78.25
403.526	87.25
403.75	71.25
403.974	102.25
404.198	92.25
404.422	82.25
404.645	81.25
404.869	90.25
405.093	84.25
405.317	86.25
405.541	82.25
405.765	79.25
405.988	85.25
406.212	92.25
406.436	88.25
406.66	81.25
406.883	97.25
407.107	79.25
407.331	91.25
407.555	77.25
407.778	95.25
408.002	96.25
408.226	80.25
408.449	79.25
408.673	74.25
408.896	86.25
409.12	98.25
409.344	80.25
409.567	86.25
409.791	84.25
410.014	87.25
410.238	77.25
410.461	76.25
410.685	81.25
410.908	81.25
411.132	85.25
411.355	79.25
411.578	89.25
411.802	75.25
412.025	78.25
412.249	70.25
412.472	75.25
412.695	74.25
412.919	83.25
413.142	82.25
413.365	84.25
413.589	83.25
413.812	75.25
414.035	75.25
414.258	69.25
414.482	80.25
414.705	82.25
414.928	73.25
415.151	77.25
415.374	82.25
415.597	79.25
415.821	75.25
416.044	72.25
416.267	68.25
416.49	81.25
416.713	84.25
416.936	74.25
417.159	82.25
417.382	72.25
417.605	81.25
417.828	77.25
418.051	72.25
418.274	90.25
418.497	77.25
418.72	74.25
418.943	100.25
419.166	87.25
419.389	98.25
419.611	77.25
419.834	75.25
420.057	77.25
420.28	71.25
420.503	85.25
420.726	70.25
420.948	85.25
421.171	84.25
421.394	79.25
421.617	94.25
421.839	88.25
422.062	80.25
422.285	88.25
422.507	119.25
422.73	153.25
422.953	142.25
423.175	103.25
423.398	98.25
423.621	82.25
423.843	82.25
424.066	81.25
424.288	75.25
424.511	85.25
424.733	87.25
424.956	74.25
425.178	80.25
425.401	89.25
425.623	78.25
425.846	78.25
426.068	70.25
426.291	71.25
426.513	76.25
426.735	89.25
426.958	79.25
427.18	93.25
427.402	89.25
427.625	78.25
427.847	70.25
428.069	74.25
428.292	94.25
428.514	86.25
428.736	93.25
428.958	80.25
429.181	90.25
429.403	88.25
429.625	89.25
429.847	89.25
430.069	92.25
430.292	87.25
430.514	102.25
430.736	82.25
430.958	76.25
431.18	88.25
431.402	88.25
431.624	85.25
431.846	88.25
432.068	86.25
432.29	80.25
432.512	73.25
432.734	91.25
432.956	86.25
433.178	85.25
433.4	88.25
433.622	80.25
433.844	80.25
434.066	79.25
434.287	64.25
434.509	84.25
434.731	83.25
434.953	91.25
435.175	88.25
435.397	73.25
435.618	82.25
435.84	97.25
436.062	88.25
436.284	88.25
436.505	77.25
436.727	71.25
436.949	85.25
437.17	89.25
437.392	68.25
437.614	60.25
437.835	80.25
438.057	88.25
438.278	75.25
438.5	85.25
438.721	84.25
438.943	74.25
439.165	98.25
439.386	72.25
439.608	77.25
439.829	90.25
440.05	76.25
440.272	79.25
440.493	76.25
440.715	86.25
440.936	92.25
441.158	84.25
441.379	69.25
441.6	88.25
441.822	87.25
442.043	75.25
442.264	81.25
442.486	88.25
442.707	89.25
442.928	88.25
443.149	83.25
443.371	91.25
443.592	101.25
443.813	98.25
444.034	80.25
444.255	83.25
444.476	72.25
444.698	83.25
444.919	84.25
445.14	161.25
445.361	119.25
445.582	104.25
445.803	104.25
446.024	89.25
446.245	75.25
446.466	84.25
446.687	74.25
446.908	83.25
447.129	82.25
447.35	66.25
447.571	72.25
447.792	88.25
448.013	78.25
448.234	75.25
448.455	66.25
448.675	71.25
448.896	77.25
449.117	80.25
449.338	74.25
449.559	70.25
449.779	71.25
450	88.25
450.221	77.25
450.442	90.25
450.662	80.25
450.883	80.25
451.104	82.25
451.324	88.25
451.545	73.25
451.766	87.25
451.986	58.25
452.207	75.25
452.428	87.25
452.648	94.25
452.869	86.25
453.089	66.25
453.31	93.25
453.53	68.25
453.751	74.25
453.971	66.25
454.192	72.25
454.412	86.25
454.633	76.25
454.853	93.25
455.073	82.25
455.294	71.25
455.514	84.25
455.734	70.25
455.955	82.25
456.175	77.25
456.395	95.25
456.616	76.25
456.836	76.25
457.056	67.25
457.276	81.25
457.497	71.25
457.717	74.25
457.937	67.25
458.157	78.25
458.377	83.25
458.598	87.25
458.818	92.25
459.038	95.25
459.258	72.25
459.478	100.25
459.698	65.25
459.918	72.25
460.138	80.25
460.358	87.25
460.578	72.25
460.798	92.25
461.018	86.25
461.238	81.25
461.458	82.25
461.678	82.25
461.898	77.25
462.118	87.25
462.338	71.25
462.558	75.25
462.777	67.25
462.997	78.25
463.217	68.25
463.437	73.25
463.657	73.25
463.876	88.25
464.096	86.25
464.316	75.25
464.536	82.25
464.755	86.25
464.975	77.25
465.195	80.25
465.414	78.25
465.634	72.25
465.854	82.25
466.073	83.25
466.293	82.25
466.512	83.25
466.732	66.25
466.951	74.25
467.171	75.25
467.391	77.25
467.61	72.25
467.829	92.25
468.049	66.25
468.268	89.25
468.488	75.25
468.707	75.25
468.927	66.25
469.146	72.25
469.365	82.25
469.585	80.25
469.804	87.25
470.023	88.25
470.243	87.25
470.462	79.25
470.681	94.25
470.901	104.25
471.12	83.25
471.339	89.25
471.558	84.25
471.777	86.25
471.997	85.25
472.216	86.25
472.435	82.25
472.654	94.25
472.873	87.25
473.092	68.25
473.311	80.25
473.53	72.25
473.749	68.25
473.968	84.25
474.187	74.25
474.406	80.25
474.625	80.25
474.844	75.25
475.063	81.25
475.282	83.25
475.501	81.25
475.72	90.25
475.939	86.25
476.158	76.25
476.377	85.25
476.596	86.25
476.814	72.25
477.033	83.25
477.252	90.25
477.471	82.25
477.69	81.25
477.908	98.25
478.127	82.25
478.346	96.25
478.564	102.25
478.783	77.25
479.002	75.25
479.22	82.25
479.439	73.25
479.658	70.25
479.876	85.25
480.095	80.25
480.313	79.25
480.532	86.25
480.751	78.25
480.969	66.25
481.188	87.25
481.406	68.25
481.624	72.25
481.843	90.25
482.061	78.25
482.28	88.25
482.498	83.25
482.717	90.25
482.935	86.25
483.153	86.25
483.372	89.25
483.59	76.25
483.808	76.25
484.027	85.25
484.245	78.25
484.463	73.25
484.681	85.25
484.9	68.25
485.118	72.25
485.336	68.25
485.554	88.25
485.772	82.25
485.99	81.25
486.209	70.25
486.427	86.25
486.645	83.25
486.863	104.25
487.081	85.25
487.299	86.25
487.517	80.25
487.735	88.25
487.953	92.25
488.171	84.25
488.389	83.25
488.607	86.25
488.825	74.25
489.043	85.25
489.261	84.25
489.479	84.25
489.696	93.25
489.914	89.25
490.132	90.25
490.35	86.25
490.568	83.25
490.786	73.25
491.003	70.25
491.221	89.25
491.439	79.25
491.657	68.25
491.874	89.25
492.092	87.25
492.31	102.25
492.527	80.25
492.745	83.25
492.963	83.25
493.18	85.25
493.398	84.25
493.615	75.25
493.833	72.25
494.05	93.25
494.268	78.25
494.485	76.25
494.703	73.25
494.92	79.25
495.138	74.25
495.355	72.25
495.573	82.25
495.79	76.25
496.008	90.25
496.225	75.25
496.442	98.25
496.66	107.25
496.877	80.25
497.094	84.25
497.312	75.25
497.529	81.25
497.746	94.25
497.963	88.25
498.181	70.25
498.398	82.25
498.615	73.25
498.832	88.25
499.049	73.25
499.267	88.25
499.484	88.25
499.701	84.25
499.918	84.25
500.135	84.25
500.352	88.25
500.569	90.25
500.786	72.25
501.003	87.25
501.22	88.25
501.437	83.25
501.654	71.25
501.871	75.25
502.088	80.25
502.305	83.25
502.522	74.25
502.739	82.25
502.956	80.25
503.172	96.25
503.389	90.25
503.606	76.25
503.823	97.25
504.04	106.25
504.256	85.25
504.473	86.25
504.69	83.25
504.907	76.25
505.123	71.25
505.34	91.25
505.557	90.25
505.773	80.25
505.99	65.25
506.207	65.25
506.423	82.25
506.64	79.25
506.856	85.25
507.073	76.25
507.289	86.25
507.506	85.25
507.722	84.25
507.939	90.25
508.155	83.25
508.372	95.25
508.588	77.25
508.805	74.25
509.021	78.25
509.238	98.25
509.454	91.25
509.67	98.25
509.887	76.25
510.103	70.25
510.319	86.25
510.536	73.25
510.752	87.25
510.968	86.25
511.184	76.25
511.401	73.25
511.617	81.25
511.833	91.25
512.049	82.25
512.265	90.25
512.481	69.25
512.698	98.25
512.914	87.25
513.13	84.25
513.346	83.25
513.562	94.25
513.778	76.25
513.994	80.25
514.21	92.25
514.426	75.25
514.642	92.25
514.858	96.25
515.074	66.25
515.29	89.25
515.506	85.25
515.721	88.25
515.937	81.25
516.153	71.25
516.369	87.25
516.585	72.25
516.801	79.25
517.016	86.25
517.232	71.25
517.448	88.25
517.664	70.25
517.879	86.25
518.095	88.25
518.311	66.25
518.527	81.25
518.742	67.25
518.958	88.25
519.173	88.25
519.389	80.25
519.605	79.25
519.82	81.25
