Data from HP_1_HRD10591_00004.txt Node
Date: Mon Jan 19 14:15:09 EST 2026
User: Yrep
Spectrometer: HR+D1059
Trigger mode: 1
Integration Time (sec): 1.000000E-1
Scans to average: 1
Electric dark correction enabled: true
Nonlinearity correction enabled: false
Boxcar width: 0
XAxis mode: Wavelengths
Number of Pixels in Spectrum: 2048
>>>>>Begin Spectral Data<<<<<
223.165	-9.69
223.4	-9.69
223.635	-9.69
223.869	-16.69
224.104	-8.69
224.338	-16.69
224.573	-13.69
224.808	-21.69
225.042	-13.69
225.277	-19.69
225.511	1.31
225.746	-5.69
225.98	15.31
226.215	10.31
226.449	19.31
226.683	27.31
226.918	27.31
227.152	25.31
227.387	38.31
227.621	38.31
227.856	51.31
228.09	53.31
228.324	58.31
228.559	57.31
228.793	54.31
229.027	61.31
229.262	67.31
229.496	75.31
229.73	65.31
229.964	73.31
230.199	89.31
230.433	89.31
230.667	77.31
230.901	93.31
231.136	75.31
231.37	77.31
231.604	86.31
231.838	89.31
232.072	80.31
232.306	95.31
232.541	77.31
232.775	76.31
233.009	95.31
233.243	93.31
233.477	81.31
233.711	77.31
233.945	69.31
234.179	88.31
234.413	84.31
234.647	76.31
234.881	79.31
235.115	71.31
235.349	83.31
235.583	81.31
235.817	81.31
236.051	88.31
236.285	75.31
236.519	87.31
236.753	79.31
236.987	69.31
237.221	93.31
237.455	70.31
237.689	75.31
237.922	71.31
238.156	77.31
238.39	85.31
238.624	74.31
238.858	87.31
239.091	87.31
239.325	79.31
239.559	91.31
239.793	71.31
240.027	83.31
240.26	92.31
240.494	78.31
240.728	85.31
240.961	75.31
241.195	80.31
241.429	89.31
241.662	88.31
241.896	65.31
242.13	76.31
242.363	75.31
242.597	71.31
242.83	93.31
243.064	87.31
243.298	85.31
243.531	84.31
243.765	91.31
243.998	84.31
244.232	87.31
244.465	67.31
244.699	63.31
244.932	85.31
245.166	90.31
245.399	75.31
245.633	96.31
245.866	89.31
246.099	89.31
246.333	74.31
246.566	69.31
246.8	84.31
247.033	76.31
247.266	83.31
247.5	93.31
247.733	89.31
247.966	69.31
248.2	75.31
248.433	83.31
248.666	81.31
248.899	87.31
249.133	89.31
249.366	69.31
249.599	77.31
249.832	84.31
250.066	97.31
250.299	67.31
250.532	77.31
250.765	71.31
250.998	77.31
251.231	68.31
251.465	74.31
251.698	79.31
251.931	86.31
252.164	87.31
252.397	92.31
252.63	81.31
252.863	81.31
253.096	79.31
253.329	81.31
253.562	89.31
253.795	79.31
254.028	83.31
254.261	87.31
254.494	101.31
254.727	91.31
254.96	71.31
255.193	75.31
255.426	82.31
255.659	86.31
255.892	93.31
256.124	69.31
256.357	78.31
256.59	84.31
256.823	89.31
257.056	65.31
257.289	83.31
257.521	89.31
257.754	69.31
257.987	86.31
258.22	75.31
258.452	81.31
258.685	80.31
258.918	86.31
259.151	86.31
259.383	92.31
259.616	78.31
259.849	91.31
260.081	85.31
260.314	86.31
260.547	82.31
260.779	89.31
261.012	89.31
261.244	85.31
261.477	84.31
261.71	79.31
261.942	75.31
262.175	70.31
262.407	86.31
262.64	93.31
262.872	79.31
263.105	90.31
263.337	96.31
263.57	103.31
263.802	75.31
264.035	93.31
264.267	91.31
264.499	95.31
264.732	94.31
264.964	91.31
265.197	86.31
265.429	88.31
265.661	81.31
265.894	82.31
266.126	85.31
266.358	88.31
266.591	107.31
266.823	96.31
267.055	79.31
267.287	91.31
267.52	67.31
267.752	90.31
267.984	95.31
268.216	85.31
268.448	91.31
268.681	77.31
268.913	84.31
269.145	85.31
269.377	80.31
269.609	79.31
269.841	85.31
270.073	91.31
270.306	87.31
270.538	75.31
270.77	93.31
271.002	83.31
271.234	86.31
271.466	82.31
271.698	75.31
271.93	94.31
272.162	74.31
272.394	87.31
272.626	81.31
272.858	91.31
273.09	90.31
273.322	77.31
273.553	80.31
273.785	90.31
274.017	76.31
274.249	90.31
274.481	91.31
274.713	88.31
274.945	91.31
275.176	77.31
275.408	86.31
275.64	83.31
275.872	83.31
276.104	96.31
276.335	91.31
276.567	79.31
276.799	88.31
277.031	92.31
277.262	92.31
277.494	97.31
277.726	101.31
277.957	82.31
278.189	86.31
278.421	90.31
278.652	96.31
278.884	85.31
279.115	82.31
279.347	86.31
279.579	81.31
279.81	89.31
280.042	82.31
280.273	78.31
280.505	89.31
280.736	78.31
280.968	90.31
281.199	87.31
281.431	80.31
281.662	89.31
281.894	82.31
282.125	79.31
282.356	83.31
282.588	92.31
282.819	89.31
283.051	87.31
283.282	99.31
283.513	83.31
283.745	99.31
283.976	79.31
284.207	76.31
284.439	87.31
284.67	94.31
284.901	90.31
285.132	101.31
285.364	96.31
285.595	93.31
285.826	87.31
286.057	91.31
286.288	98.31
286.52	98.31
286.751	92.31
286.982	93.31
287.213	90.31
287.444	89.31
287.675	91.31
287.906	95.31
288.138	101.31
288.369	99.31
288.6	92.31
288.831	73.31
289.062	85.31
289.293	90.31
289.524	89.31
289.755	85.31
289.986	83.31
290.217	79.31
290.448	79.31
290.679	82.31
290.91	97.31
291.141	99.31
291.371	89.31
291.602	79.31
291.833	83.31
292.064	98.31
292.295	84.31
292.526	92.31
292.757	90.31
292.987	83.31
293.218	98.31
293.449	69.31
293.68	93.31
293.91	89.31
294.141	86.31
294.372	85.31
294.603	80.31
294.833	95.31
295.064	90.31
295.295	88.31
295.525	90.31
295.756	75.31
295.987	90.31
296.217	98.31
296.448	100.31
296.679	77.31
296.909	102.31
297.14	81.31
297.37	89.31
297.601	89.31
297.831	87.31
298.062	97.31
298.292	99.31
298.523	92.31
298.753	92.31
298.984	95.31
299.214	78.31
299.445	116.31
299.675	109.31
299.905	95.31
300.136	110.31
300.366	99.31
300.597	105.31
300.827	108.31
301.057	93.31
301.288	86.31
301.518	88.31
301.748	96.31
301.979	109.31
302.209	97.31
302.439	84.31
302.669	88.31
302.9	91.31
303.13	106.31
303.36	61.31
303.59	93.31
303.82	87.31
304.051	108.31
304.281	97.31
304.511	86.31
304.741	92.31
304.971	91.31
305.201	85.31
305.431	92.31
305.661	91.31
305.891	83.31
306.121	87.31
306.352	84.31
306.582	93.31
306.812	88.31
307.042	82.31
307.272	91.31
307.502	90.31
307.731	94.31
307.961	100.31
308.191	107.31
308.421	123.31
308.651	102.31
308.881	103.31
309.111	121.31
309.341	143.31
309.571	116.31
309.8	97.31
310.03	83.31
310.26	94.31
310.49	95.31
310.72	104.31
310.949	93.31
311.179	96.31
311.409	89.31
311.639	90.31
311.868	87.31
312.098	77.31
312.328	84.31
312.557	99.31
312.787	96.31
313.017	86.31
313.246	80.31
313.476	78.31
313.706	85.31
313.935	86.31
314.165	82.31
314.394	73.31
314.624	99.31
314.853	90.31
315.083	90.31
315.312	84.31
315.542	97.31
315.771	108.31
316.001	107.31
316.23	95.31
316.46	100.31
316.689	95.31
316.919	96.31
317.148	110.31
317.377	102.31
317.607	100.31
317.836	100.31
318.065	100.31
318.295	107.31
318.524	99.31
318.753	109.31
318.983	101.31
319.212	88.31
319.441	99.31
319.67	93.31
319.9	95.31
320.129	86.31
320.358	96.31
320.587	115.31
320.816	99.31
321.046	105.31
321.275	78.31
321.504	101.31
321.733	97.31
321.962	95.31
322.191	104.31
322.42	96.31
322.649	91.31
322.878	103.31
323.108	98.31
323.337	96.31
323.566	90.31
323.795	101.31
324.024	92.31
324.253	90.31
324.482	101.31
324.71	93.31
324.939	98.31
325.168	87.31
325.397	93.31
325.626	93.31
325.855	105.31
326.084	89.31
326.313	87.31
326.542	87.31
326.77	79.31
326.999	85.31
327.228	99.31
327.457	109.31
327.686	99.31
327.914	95.31
328.143	93.31
328.372	94.31
328.6	82.31
328.829	104.31
329.058	91.31
329.287	91.31
329.515	84.31
329.744	89.31
329.972	93.31
330.201	107.31
330.43	93.31
330.658	97.31
330.887	100.31
331.115	99.31
331.344	97.31
331.572	102.31
331.801	101.31
332.03	105.31
332.258	101.31
332.486	107.31
332.715	90.31
332.943	75.31
333.172	98.31
333.4	91.31
333.629	87.31
333.857	84.31
334.085	95.31
334.314	113.31
334.542	117.31
334.771	98.31
334.999	107.31
335.227	97.31
335.455	109.31
335.684	104.31
335.912	101.31
336.14	109.31
336.369	110.31
336.597	103.31
336.825	101.31
337.053	103.31
337.281	102.31
337.51	89.31
337.738	89.31
337.966	92.31
338.194	86.31
338.422	103.31
338.65	100.31
338.878	101.31
339.106	101.31
339.334	90.31
339.562	99.31
339.79	89.31
340.018	78.31
340.246	93.31
340.474	105.31
340.702	85.31
340.93	90.31
341.158	100.31
341.386	97.31
341.614	83.31
341.842	103.31
342.07	86.31
342.298	93.31
342.526	95.31
342.754	81.31
342.981	80.31
343.209	104.31
343.437	122.31
343.665	89.31
343.893	92.31
344.12	103.31
344.348	113.31
344.576	107.31
344.804	94.31
345.031	101.31
345.259	95.31
345.487	91.31
345.714	110.31
345.942	108.31
346.17	100.31
346.397	89.31
346.625	93.31
346.853	87.31
347.08	97.31
347.308	93.31
347.535	89.31
347.763	92.31
347.99	93.31
348.218	100.31
348.445	86.31
348.673	81.31
348.9	100.31
349.128	82.31
349.355	101.31
349.583	99.31
349.81	94.31
350.037	97.31
350.265	95.31
350.492	74.31
350.72	99.31
350.947	88.31
351.174	77.31
351.402	105.31
351.629	83.31
351.856	79.31
352.083	97.31
352.311	97.31
352.538	90.31
352.765	103.31
352.992	99.31
353.22	101.31
353.447	97.31
353.674	94.31
353.901	92.31
354.128	86.31
354.355	99.31
354.583	94.31
354.81	97.31
355.037	92.31
355.264	93.31
355.491	101.31
355.718	101.31
355.945	102.31
356.172	90.31
356.399	95.31
356.626	99.31
356.853	101.31
357.08	106.31
357.307	104.31
357.534	95.31
357.761	96.31
357.988	104.31
358.215	107.31
358.441	99.31
358.668	97.31
358.895	98.31
359.122	96.31
359.349	97.31
359.576	84.31
359.802	95.31
360.029	92.31
360.256	113.31
360.483	101.31
360.709	108.31
360.936	117.31
361.163	107.31
361.39	107.31
361.616	112.31
361.843	103.31
362.07	120.31
362.296	108.31
362.523	126.31
362.749	150.31
362.976	167.31
363.203	163.31
363.429	138.31
363.656	134.31
363.882	135.31
364.109	155.31
364.335	192.31
364.562	204.31
364.788	151.31
365.015	127.31
365.241	113.31
365.468	100.31
365.694	102.31
365.92	90.31
366.147	99.31
366.373	97.31
366.599	93.31
366.826	97.31
367.052	93.31
367.278	94.31
367.505	106.31
367.731	115.31
367.957	96.31
368.184	101.31
368.41	94.31
368.636	87.31
368.862	114.31
369.089	98.31
369.315	94.31
369.541	93.31
369.767	84.31
369.993	85.31
370.219	109.31
370.445	111.31
370.672	113.31
370.898	109.31
371.124	98.31
371.35	94.31
371.576	98.31
371.802	115.31
372.028	120.31
372.254	114.31
372.48	94.31
372.706	99.31
372.932	108.31
373.158	113.31
373.384	125.31
373.61	144.31
373.835	143.31
374.061	113.31
374.287	110.31
374.513	136.31
374.739	132.31
374.965	124.31
375.191	125.31
375.416	101.31
375.642	106.31
375.868	121.31
376.094	95.31
376.319	104.31
376.545	110.31
376.771	97.31
376.997	97.31
377.222	101.31
377.448	101.31
377.674	95.31
377.899	93.31
378.125	84.31
378.35	90.31
378.576	99.31
378.802	95.31
379.027	108.31
379.253	95.31
379.478	93.31
379.704	99.31
379.929	103.31
380.155	101.31
380.38	87.31
380.606	93.31
380.831	100.31
381.057	103.31
381.282	108.31
381.507	98.31
381.733	113.31
381.958	115.31
382.184	119.31
382.409	104.31
382.634	119.31
382.86	114.31
383.085	119.31
383.31	106.31
383.535	137.31
383.761	117.31
383.986	143.31
384.211	108.31
384.436	94.31
384.662	104.31
384.887	101.31
385.112	100.31
385.337	114.31
385.562	104.31
385.787	113.31
386.013	129.31
386.238	107.31
386.463	103.31
386.688	106.31
386.913	117.31
387.138	103.31
387.363	107.31
387.588	119.31
387.813	115.31
388.038	108.31
388.263	100.31
388.488	110.31
388.713	101.31
388.938	106.31
389.163	99.31
389.387	107.31
389.612	95.31
389.837	94.31
390.062	113.31
390.287	110.31
390.512	103.31
390.736	108.31
390.961	97.31
391.186	94.31
391.411	104.31
391.636	115.31
391.86	111.31
392.085	116.31
392.31	127.31
392.534	148.31
392.759	174.31
392.984	257.31
393.208	499.31
393.433	737.31
393.658	551.31
393.882	229.31
394.107	155.31
394.331	193.31
394.556	220.31
394.78	137.31
395.005	114.31
395.229	127.31
395.454	148.31
395.678	146.31
395.903	189.31
396.127	262.31
396.352	297.31
396.576	305.31
396.801	494.31
397.025	567.31
397.249	297.31
397.474	187.31
397.698	133.31
397.922	110.31
398.147	99.31
398.371	103.31
398.595	99.31
398.82	101.31
399.044	110.31
399.268	105.31
399.492	106.31
399.717	105.31
399.941	116.31
400.165	93.31
400.389	106.31
400.613	97.31
400.837	75.31
401.062	97.31
401.286	86.31
401.51	91.31
401.734	110.31
401.958	102.31
402.182	97.31
402.406	97.31
402.63	92.31
402.854	89.31
403.078	102.31
403.302	106.31
403.526	107.31
403.75	124.31
403.974	134.31
404.198	171.31
404.422	298.31
404.645	343.31
404.869	260.31
405.093	168.31
405.317	110.31
405.541	107.31
405.765	106.31
405.988	87.31
406.212	93.31
406.436	105.31
406.66	109.31
406.883	117.31
407.107	115.31
407.331	113.31
407.555	114.31
407.778	153.31
408.002	171.31
408.226	111.31
408.449	107.31
408.673	87.31
408.896	104.31
409.12	94.31
409.344	116.31
409.567	136.31
409.791	123.31
410.014	135.31
410.238	119.31
410.461	126.31
410.685	108.31
410.908	105.31
411.132	116.31
411.355	120.31
411.578	98.31
411.802	97.31
412.025	97.31
412.249	103.31
412.472	105.31
412.695	99.31
412.919	96.31
413.142	106.31
413.365	92.31
413.589	105.31
413.812	93.31
414.035	103.31
414.258	99.31
414.482	102.31
414.705	107.31
414.928	88.31
415.151	84.31
415.374	95.31
415.597	97.31
415.821	107.31
416.044	101.31
416.267	103.31
416.49	102.31
416.713	85.31
416.936	87.31
417.159	95.31
417.382	100.31
417.605	111.31
417.828	106.31
418.051	81.31
418.274	97.31
418.497	102.31
418.72	92.31
418.943	95.31
419.166	89.31
419.389	104.31
419.611	107.31
419.834	102.31
420.057	115.31
420.28	103.31
420.503	124.31
420.726	121.31
420.948	110.31
421.171	120.31
421.394	161.31
421.617	193.31
421.839	212.31
422.062	235.31
422.285	405.31
422.507	779.31
422.73	1211.31
422.953	1108.31
423.175	538.31
423.398	264.31
423.621	179.31
423.843	152.31
424.066	136.31
424.288	130.31
424.511	120.31
424.733	104.31
424.956	110.31
425.178	125.31
425.401	102.31
425.623	119.31
425.846	104.31
426.068	105.31
426.291	106.31
426.513	101.31
426.735	103.31
426.958	102.31
427.18	93.31
427.402	115.31
427.625	102.31
427.847	91.31
428.069	144.31
428.292	258.31
428.514	285.31
428.736	191.31
428.958	231.31
429.181	271.31
429.403	159.31
429.625	151.31
429.847	232.31
430.069	355.31
430.292	473.31
430.514	409.31
430.736	285.31
430.958	279.31
431.18	157.31
431.402	115.31
431.624	143.31
431.846	227.31
432.068	285.31
432.29	159.31
432.512	127.31
432.734	96.31
432.956	95.31
433.178	102.31
433.4	87.31
433.622	88.31
433.844	102.31
434.066	87.31
434.287	98.31
434.509	95.31
434.731	103.31
434.953	94.31
435.175	97.31
435.397	103.31
435.618	119.31
435.84	99.31
436.062	87.31
436.284	106.31
436.505	97.31
436.727	106.31
436.949	88.31
437.17	91.31
437.392	74.31
437.614	90.31
437.835	96.31
438.057	87.31
438.278	107.31
438.5	104.31
438.721	100.31
438.943	77.31
439.165	90.31
439.386	75.31
439.608	94.31
439.829	84.31
440.05	92.31
440.272	95.31
440.493	105.31
440.715	96.31
440.936	108.31
441.158	113.31
441.379	97.31
441.6	95.31
441.822	110.31
442.043	114.31
442.264	150.31
442.486	276.31
442.707	378.31
442.928	238.31
443.149	187.31
443.371	336.31
443.592	654.31
443.813	526.31
444.034	206.31
444.255	122.31
444.476	119.31
444.698	129.31
444.919	141.31
445.14	299.31
445.361	453.31
445.582	825.31
445.803	653.31
446.024	249.31
446.245	128.31
446.466	99.31
446.687	108.31
446.908	102.31
447.129	93.31
447.35	91.31
447.571	99.31
447.792	93.31
448.013	104.31
448.234	86.31
448.455	102.31
448.675	71.31
448.896	99.31
449.117	104.31
449.338	84.31
449.559	94.31
449.779	90.31
450	86.31
450.221	90.31
450.442	87.31
450.662	90.31
450.883	108.31
451.104	93.31
451.324	99.31
451.545	79.31
451.766	83.31
451.986	93.31
452.207	96.31
452.428	109.31
452.648	103.31
452.869	129.31
453.089	132.31
453.31	113.31
453.53	105.31
453.751	116.31
453.971	99.31
454.192	97.31
454.412	87.31
454.633	90.31
454.853	104.31
455.073	91.31
455.294	91.31
455.514	90.31
455.734	82.31
455.955	85.31
456.175	105.31
456.395	89.31
456.616	91.31
456.836	109.31
457.056	96.31
457.276	85.31
457.497	97.31
457.717	121.31
457.937	150.31
458.157	181.31
458.377	208.31
458.598	198.31
458.818	208.31
459.038	150.31
459.258	105.31
459.478	100.31
459.698	83.31
459.918	91.31
460.138	111.31
460.358	117.31
460.578	151.31
460.798	245.31
461.018	238.31
461.238	118.31
461.458	102.31
461.678	90.31
461.898	94.31
462.118	94.31
462.338	86.31
462.558	95.31
462.777	109.31
462.997	91.31
463.217	89.31
463.437	95.31
463.657	105.31
463.876	93.31
464.096	99.31
464.316	89.31
464.536	87.31
464.755	99.31
464.975	126.31
465.195	90.31
465.414	99.31
465.634	95.31
465.854	88.31
466.073	86.31
466.293	77.31
466.512	100.31
466.732	90.31
466.951	81.31
467.171	101.31
467.391	106.31
467.61	89.31
467.829	108.31
468.049	117.31
468.268	91.31
468.488	102.31
468.707	102.31
468.927	90.31
469.146	105.31
469.365	111.31
469.585	98.31
469.804	104.31
470.023	90.31
470.243	89.31
470.462	93.31
470.681	102.31
470.901	92.31
471.12	97.31
471.339	98.31
471.558	97.31
471.777	105.31
471.997	94.31
472.216	102.31
472.435	104.31
472.654	103.31
472.873	97.31
473.092	105.31
473.311	102.31
473.53	102.31
473.749	86.31
473.968	108.31
474.187	104.31
474.406	90.31
474.625	94.31
474.844	100.31
475.063	101.31
475.282	100.31
475.501	87.31
475.72	91.31
475.939	98.31
476.158	86.31
476.377	104.31
476.596	112.31
476.814	97.31
477.033	92.31
477.252	83.31
477.471	96.31
477.69	90.31
477.908	83.31
478.127	99.31
478.346	103.31
478.564	93.31
478.783	85.31
479.002	92.31
479.22	91.31
479.439	92.31
479.658	91.31
479.876	105.31
480.095	94.31
480.313	99.31
480.532	97.31
480.751	118.31
480.969	93.31
481.188	98.31
481.406	102.31
481.624	93.31
481.843	96.31
482.061	106.31
482.28	115.31
482.498	96.31
482.717	105.31
482.935	98.31
483.153	103.31
483.372	94.31
483.59	99.31
483.808	87.31
484.027	93.31
484.245	105.31
484.463	100.31
484.681	97.31
484.9	108.31
485.118	103.31
485.336	100.31
485.554	99.31
485.772	89.31
485.99	95.31
486.209	111.31
486.427	114.31
486.645	104.31
486.863	121.31
487.081	103.31
487.299	113.31
487.517	133.31
487.735	174.31
487.953	301.31
488.171	275.31
488.389	136.31
488.607	106.31
488.825	97.31
489.043	110.31
489.261	107.31
489.479	101.31
489.696	99.31
489.914	94.31
490.132	106.31
490.35	103.31
490.568	90.31
490.786	105.31
491.003	101.31
491.221	101.31
491.439	109.31
491.657	92.31
491.874	101.31
492.092	98.31
492.31	111.31
492.527	86.31
492.745	108.31
492.963	91.31
493.18	107.31
493.398	105.31
493.615	101.31
493.833	113.31
494.05	98.31
494.268	97.31
494.485	105.31
494.703	101.31
494.92	93.31
495.138	91.31
495.355	99.31
495.573	85.31
495.79	107.31
496.008	111.31
496.225	119.31
496.442	131.31
496.66	123.31
496.877	98.31
497.094	110.31
497.312	102.31
497.529	108.31
497.746	107.31
497.963	111.31
498.181	103.31
498.398	111.31
498.615	102.31
498.832	95.31
499.049	93.31
499.267	129.31
499.484	109.31
499.701	105.31
499.918	102.31
500.135	113.31
500.352	100.31
500.569	101.31
500.786	116.31
501.003	108.31
501.22	107.31
501.437	109.31
501.654	123.31
501.871	103.31
502.088	101.31
502.305	114.31
502.522	87.31
502.739	93.31
502.956	104.31
503.172	106.31
503.389	109.31
503.606	113.31
503.823	111.31
504.04	143.31
504.256	204.31
504.473	211.31
504.69	151.31
504.907	126.31
505.123	119.31
505.34	101.31
505.557	94.31
505.773	109.31
505.99	95.31
506.207	94.31
506.423	113.31
506.64	104.31
506.856	93.31
507.073	97.31
507.289	99.31
507.506	98.31
507.722	108.31
507.939	104.31
508.155	97.31
508.372	100.31
508.588	106.31
508.805	104.31
509.021	98.31
509.238	93.31
509.454	95.31
509.67	99.31
509.887	103.31
510.103	115.31
510.319	98.31
510.536	115.31
510.752	99.31
510.968	100.31
511.184	98.31
511.401	103.31
511.617	100.31
511.833	89.31
512.049	102.31
512.265	104.31
512.481	101.31
512.698	116.31
