Data from HP_1_HRD10591_00050.txt Node
Date: Mon Jan 19 14:15:32 EST 2026
User: Yrep
Spectrometer: HR+D1059
Trigger mode: 1
Integration Time (sec): 1.000000E-1
Scans to average: 1
Electric dark correction enabled: true
Nonlinearity correction enabled: false
Boxcar width: 0
XAxis mode: Wavelengths
Number of Pixels in Spectrum: 2048
>>>>>Begin Spectral Data<<<<<
223.165	-21.81
223.4	-21.81
223.635	-21.81
223.869	-30.81
224.104	-16.81
224.338	-27.81
224.573	-11.81
224.808	-3.81
225.042	-15.81
225.277	-8.81
225.511	4.19
225.746	8.19
225.98	-6.81
226.215	20.19
226.449	17.19
226.683	26.19
226.918	35.19
227.152	33.19
227.387	35.19
227.621	37.19
227.856	27.19
228.09	53.19
228.324	37.19
228.559	60.19
228.793	57.19
229.027	70.19
229.262	59.19
229.496	63.19
229.73	65.19
229.964	76.19
230.199	73.19
230.433	74.19
230.667	84.19
230.901	84.19
231.136	84.19
231.37	73.19
231.604	88.19
231.838	83.19
232.072	87.19
232.306	83.19
232.541	78.19
232.775	77.19
233.009	73.19
233.243	92.19
233.477	90.19
233.711	78.19
233.945	62.19
234.179	82.19
234.413	78.19
234.647	65.19
234.881	88.19
235.115	78.19
235.349	73.19
235.583	78.19
235.817	77.19
236.051	79.19
236.285	81.19
236.519	94.19
236.753	59.19
236.987	81.19
237.221	71.19
237.455	72.19
237.689	77.19
237.922	68.19
238.156	59.19
238.39	66.19
238.624	64.19
238.858	75.19
239.091	63.19
239.325	81.19
239.559	83.19
239.793	85.19
240.027	82.19
240.26	70.19
240.494	69.19
240.728	64.19
240.961	71.19
241.195	73.19
241.429	76.19
241.662	76.19
241.896	64.19
242.13	68.19
242.363	62.19
242.597	72.19
242.83	74.19
243.064	76.19
243.298	84.19
243.531	67.19
243.765	85.19
243.998	84.19
244.232	78.19
244.465	78.19
244.699	72.19
244.932	83.19
245.166	73.19
245.399	85.19
245.633	77.19
245.866	65.19
246.099	84.19
246.333	76.19
246.566	58.19
246.8	72.19
247.033	61.19
247.266	83.19
247.5	78.19
247.733	83.19
247.966	87.19
248.2	70.19
248.433	80.19
248.666	74.19
248.899	73.19
249.133	83.19
249.366	83.19
249.599	81.19
249.832	72.19
250.066	95.19
250.299	85.19
250.532	72.19
250.765	75.19
250.998	67.19
251.231	82.19
251.465	81.19
251.698	71.19
251.931	76.19
252.164	68.19
252.397	86.19
252.63	75.19
252.863	85.19
253.096	67.19
253.329	83.19
253.562	89.19
253.795	74.19
254.028	77.19
254.261	74.19
254.494	87.19
254.727	89.19
254.96	86.19
255.193	80.19
255.426	77.19
255.659	77.19
255.892	93.19
256.124	82.19
256.357	79.19
256.59	76.19
256.823	68.19
257.056	74.19
257.289	88.19
257.521	71.19
257.754	70.19
257.987	78.19
258.22	85.19
258.452	64.19
258.685	85.19
258.918	75.19
259.151	82.19
259.383	78.19
259.616	87.19
259.849	75.19
260.081	80.19
260.314	71.19
260.547	71.19
260.779	83.19
261.012	83.19
261.244	88.19
261.477	97.19
261.71	75.19
261.942	80.19
262.175	81.19
262.407	83.19
262.64	85.19
262.872	73.19
263.105	77.19
263.337	85.19
263.57	83.19
263.802	70.19
264.035	76.19
264.267	80.19
264.499	105.19
264.732	72.19
264.964	75.19
265.197	71.19
265.429	82.19
265.661	86.19
265.894	87.19
266.126	81.19
266.358	72.19
266.591	65.19
266.823	77.19
267.055	92.19
267.287	85.19
267.52	85.19
267.752	82.19
267.984	92.19
268.216	81.19
268.448	70.19
268.681	81.19
268.913	91.19
269.145	104.19
269.377	87.19
269.609	74.19
269.841	85.19
270.073	71.19
270.306	76.19
270.538	78.19
270.77	85.19
271.002	79.19
271.234	71.19
271.466	75.19
271.698	74.19
271.93	91.19
272.162	96.19
272.394	81.19
272.626	71.19
272.858	82.19
273.09	89.19
273.322	82.19
273.553	77.19
273.785	88.19
274.017	88.19
274.249	86.19
274.481	85.19
274.713	85.19
274.945	74.19
275.176	79.19
275.408	77.19
275.64	83.19
275.872	104.19
276.104	86.19
276.335	80.19
276.567	83.19
276.799	69.19
277.031	69.19
277.262	82.19
277.494	85.19
277.726	83.19
277.957	71.19
278.189	90.19
278.421	82.19
278.652	78.19
278.884	64.19
279.115	98.19
279.347	93.19
279.579	72.19
279.81	84.19
280.042	91.19
280.273	82.19
280.505	77.19
280.736	80.19
280.968	78.19
281.199	85.19
281.431	78.19
281.662	91.19
281.894	84.19
282.125	84.19
282.356	83.19
282.588	86.19
282.819	75.19
283.051	75.19
283.282	72.19
283.513	85.19
283.745	76.19
283.976	83.19
284.207	93.19
284.439	94.19
284.67	84.19
284.901	80.19
285.132	83.19
285.364	83.19
285.595	84.19
285.826	81.19
286.057	96.19
286.288	101.19
286.52	95.19
286.751	81.19
286.982	99.19
287.213	86.19
287.444	92.19
287.675	67.19
287.906	83.19
288.138	76.19
288.369	76.19
288.6	87.19
288.831	89.19
289.062	89.19
289.293	86.19
289.524	81.19
289.755	77.19
289.986	81.19
290.217	102.19
290.448	90.19
290.679	86.19
290.91	84.19
291.141	81.19
291.371	82.19
291.602	83.19
291.833	90.19
292.064	83.19
292.295	93.19
292.526	85.19
292.757	80.19
292.987	86.19
293.218	76.19
293.449	75.19
293.68	81.19
293.91	81.19
294.141	87.19
294.372	72.19
294.603	79.19
294.833	79.19
295.064	84.19
295.295	95.19
295.525	90.19
295.756	77.19
295.987	85.19
296.217	88.19
296.448	92.19
296.679	72.19
296.909	83.19
297.14	92.19
297.37	91.19
297.601	63.19
297.831	82.19
298.062	84.19
298.292	84.19
298.523	93.19
298.753	89.19
298.984	82.19
299.214	95.19
299.445	72.19
299.675	83.19
299.905	73.19
300.136	91.19
300.366	87.19
300.597	90.19
300.827	95.19
301.057	88.19
301.288	83.19
301.518	81.19
301.748	83.19
301.979	86.19
302.209	96.19
302.439	85.19
302.669	90.19
302.9	80.19
303.13	87.19
303.36	78.19
303.59	91.19
303.82	77.19
304.051	59.19
304.281	86.19
304.511	90.19
304.741	83.19
304.971	83.19
305.201	90.19
305.431	87.19
305.661	68.19
305.891	87.19
306.121	96.19
306.352	77.19
306.582	81.19
306.812	73.19
307.042	79.19
307.272	84.19
307.502	95.19
307.731	80.19
307.961	86.19
308.191	87.19
308.421	73.19
308.651	81.19
308.881	85.19
309.111	90.19
309.341	76.19
309.571	86.19
309.8	72.19
310.03	66.19
310.26	84.19
310.49	97.19
310.72	71.19
310.949	68.19
311.179	95.19
311.409	78.19
311.639	73.19
311.868	85.19
312.098	89.19
312.328	87.19
312.557	85.19
312.787	96.19
313.017	85.19
313.246	96.19
313.476	94.19
313.706	99.19
313.935	98.19
314.165	93.19
314.394	68.19
314.624	84.19
314.853	88.19
315.083	74.19
315.312	79.19
315.542	79.19
315.771	100.19
316.001	92.19
316.23	98.19
316.46	78.19
316.689	88.19
316.919	88.19
317.148	92.19
317.377	84.19
317.607	84.19
317.836	75.19
318.065	91.19
318.295	89.19
318.524	82.19
318.753	88.19
318.983	78.19
319.212	95.19
319.441	93.19
319.67	83.19
319.9	90.19
320.129	87.19
320.358	87.19
320.587	80.19
320.816	77.19
321.046	87.19
321.275	96.19
321.504	91.19
321.733	99.19
321.962	85.19
322.191	78.19
322.42	81.19
322.649	89.19
322.878	77.19
323.108	92.19
323.337	85.19
323.566	74.19
323.795	91.19
324.024	82.19
324.253	99.19
324.482	92.19
324.71	87.19
324.939	66.19
325.168	90.19
325.397	82.19
325.626	74.19
325.855	75.19
326.084	84.19
326.313	73.19
326.542	75.19
326.77	90.19
326.999	84.19
327.228	87.19
327.457	89.19
327.686	88.19
327.914	72.19
328.143	75.19
328.372	71.19
328.6	82.19
328.829	89.19
329.058	67.19
329.287	69.19
329.515	75.19
329.744	78.19
329.972	92.19
330.201	89.19
330.43	74.19
330.658	91.19
330.887	85.19
331.115	76.19
331.344	82.19
331.572	95.19
331.801	72.19
332.03	75.19
332.258	84.19
332.486	87.19
332.715	87.19
332.943	72.19
333.172	62.19
333.4	85.19
333.629	73.19
333.857	96.19
334.085	93.19
334.314	85.19
334.542	82.19
334.771	78.19
334.999	85.19
335.227	74.19
335.455	77.19
335.684	91.19
335.912	92.19
336.14	82.19
336.369	85.19
336.597	82.19
336.825	91.19
337.053	74.19
337.281	77.19
337.51	77.19
337.738	93.19
337.966	85.19
338.194	77.19
338.422	75.19
338.65	81.19
338.878	81.19
339.106	77.19
339.334	75.19
339.562	78.19
339.79	87.19
340.018	87.19
340.246	100.19
340.474	82.19
340.702	88.19
340.93	85.19
341.158	88.19
341.386	86.19
341.614	75.19
341.842	83.19
342.07	78.19
342.298	84.19
342.526	83.19
342.754	98.19
342.981	83.19
343.209	86.19
343.437	104.19
343.665	91.19
343.893	76.19
344.12	76.19
344.348	80.19
344.576	92.19
344.804	80.19
345.031	92.19
345.259	70.19
345.487	97.19
345.714	81.19
345.942	85.19
346.17	91.19
346.397	75.19
346.625	82.19
346.853	65.19
347.08	77.19
347.308	94.19
347.535	75.19
347.763	81.19
347.99	83.19
348.218	80.19
348.445	68.19
348.673	81.19
348.9	77.19
349.128	91.19
349.355	86.19
349.583	69.19
349.81	81.19
350.037	78.19
350.265	69.19
350.492	78.19
350.72	73.19
350.947	81.19
351.174	94.19
351.402	89.19
351.629	74.19
351.856	90.19
352.083	93.19
352.311	82.19
352.538	91.19
352.765	88.19
352.992	95.19
353.22	97.19
353.447	67.19
353.674	85.19
353.901	83.19
354.128	73.19
354.355	75.19
354.583	72.19
354.81	84.19
355.037	77.19
355.264	83.19
355.491	80.19
355.718	73.19
355.945	75.19
356.172	60.19
356.399	64.19
356.626	84.19
356.853	94.19
357.08	94.19
357.307	77.19
357.534	82.19
357.761	83.19
357.988	95.19
358.215	85.19
358.441	88.19
358.668	78.19
358.895	96.19
359.122	86.19
359.349	86.19
359.576	68.19
359.802	77.19
360.029	84.19
360.256	77.19
360.483	73.19
360.709	83.19
360.936	83.19
361.163	92.19
361.39	90.19
361.616	95.19
361.843	73.19
362.07	95.19
362.296	81.19
362.523	95.19
362.749	82.19
362.976	69.19
363.203	93.19
363.429	87.19
363.656	100.19
363.882	71.19
364.109	92.19
364.335	95.19
364.562	99.19
364.788	80.19
365.015	93.19
365.241	87.19
365.468	81.19
365.694	74.19
365.92	81.19
366.147	76.19
366.373	87.19
366.599	89.19
366.826	108.19
367.052	82.19
367.278	95.19
367.505	85.19
367.731	92.19
367.957	87.19
368.184	74.19
368.41	80.19
368.636	72.19
368.862	87.19
369.089	91.19
369.315	69.19
369.541	90.19
369.767	87.19
369.993	88.19
370.219	81.19
370.445	81.19
370.672	83.19
370.898	90.19
371.124	83.19
371.35	83.19
371.576	85.19
371.802	90.19
372.028	87.19
372.254	92.19
372.48	90.19
372.706	85.19
372.932	76.19
373.158	75.19
373.384	95.19
373.61	107.19
373.835	95.19
374.061	104.19
374.287	86.19
374.513	96.19
374.739	73.19
374.965	88.19
375.191	79.19
375.416	77.19
375.642	79.19
375.868	95.19
376.094	89.19
376.319	78.19
376.545	84.19
376.771	93.19
376.997	76.19
377.222	84.19
377.448	86.19
377.674	94.19
377.899	78.19
378.125	77.19
378.35	82.19
378.576	76.19
378.802	73.19
379.027	95.19
379.253	75.19
379.478	88.19
379.704	77.19
379.929	83.19
380.155	81.19
380.38	86.19
380.606	83.19
380.831	70.19
381.057	91.19
381.282	83.19
381.507	95.19
381.733	95.19
381.958	88.19
382.184	78.19
382.409	96.19
382.634	89.19
382.86	93.19
383.085	86.19
383.31	91.19
383.535	92.19
383.761	85.19
383.986	92.19
384.211	85.19
384.436	96.19
384.662	91.19
384.887	86.19
385.112	86.19
385.337	92.19
385.562	91.19
385.787	79.19
386.013	96.19
386.238	92.19
386.463	95.19
386.688	89.19
386.913	73.19
387.138	75.19
387.363	93.19
387.588	76.19
387.813	95.19
388.038	87.19
388.263	95.19
388.488	81.19
388.713	85.19
388.938	82.19
389.163	68.19
389.387	74.19
389.612	75.19
389.837	89.19
390.062	79.19
390.287	79.19
390.512	86.19
390.736	88.19
390.961	77.19
391.186	85.19
391.411	84.19
391.636	75.19
391.86	95.19
392.085	89.19
392.31	85.19
392.534	91.19
392.759	107.19
392.984	147.19
393.208	250.19
393.433	364.19
393.658	267.19
393.882	121.19
394.107	109.19
394.331	100.19
394.556	112.19
394.78	86.19
395.005	79.19
395.229	97.19
395.454	84.19
395.678	77.19
395.903	109.19
396.127	123.19
396.352	128.19
396.576	170.19
396.801	273.19
397.025	295.19
397.249	169.19
397.474	105.19
397.698	74.19
397.922	92.19
398.147	87.19
398.371	83.19
398.595	84.19
398.82	86.19
399.044	87.19
399.268	80.19
399.492	84.19
399.717	72.19
399.941	76.19
400.165	88.19
400.389	85.19
400.613	81.19
400.837	70.19
401.062	84.19
401.286	91.19
401.51	81.19
401.734	83.19
401.958	87.19
402.182	74.19
402.406	66.19
402.63	84.19
402.854	89.19
403.078	75.19
403.302	77.19
403.526	83.19
403.75	72.19
403.974	84.19
404.198	89.19
404.422	96.19
404.645	106.19
404.869	101.19
405.093	92.19
405.317	91.19
405.541	89.19
405.765	73.19
405.988	84.19
406.212	78.19
406.436	82.19
406.66	74.19
406.883	63.19
407.107	76.19
407.331	97.19
407.555	100.19
407.778	109.19
408.002	106.19
408.226	86.19
408.449	73.19
408.673	81.19
408.896	76.19
409.12	80.19
409.344	82.19
409.567	79.19
409.791	87.19
410.014	78.19
410.238	83.19
410.461	80.19
410.685	59.19
410.908	83.19
411.132	80.19
411.355	74.19
411.578	79.19
411.802	75.19
412.025	81.19
412.249	91.19
412.472	74.19
412.695	89.19
412.919	79.19
413.142	80.19
413.365	82.19
413.589	91.19
413.812	83.19
414.035	82.19
414.258	77.19
414.482	86.19
414.705	82.19
414.928	83.19
415.151	81.19
415.374	86.19
415.597	75.19
415.821	74.19
416.044	79.19
416.267	88.19
416.49	82.19
416.713	86.19
416.936	89.19
417.159	90.19
417.382	75.19
417.605	87.19
417.828	86.19
418.051	64.19
418.274	77.19
418.497	88.19
418.72	79.19
418.943	92.19
419.166	90.19
419.389	89.19
419.611	73.19
419.834	68.19
420.057	87.19
420.28	68.19
420.503	88.19
420.726	81.19
420.948	76.19
421.171	117.19
421.394	93.19
421.617	114.19
421.839	113.19
422.062	101.19
422.285	116.19
422.507	180.19
422.73	275.19
422.953	254.19
423.175	115.19
423.398	101.19
423.621	95.19
423.843	83.19
424.066	85.19
424.288	97.19
424.511	89.19
424.733	93.19
424.956	82.19
425.178	75.19
425.401	81.19
425.623	81.19
425.846	83.19
426.068	71.19
426.291	82.19
426.513	77.19
426.735	88.19
426.958	77.19
427.18	84.19
427.402	91.19
427.625	83.19
427.847	72.19
428.069	68.19
428.292	108.19
428.514	113.19
428.736	109.19
428.958	98.19
429.181	111.19
429.403	87.19
429.625	77.19
429.847	98.19
430.069	128.19
430.292	140.19
430.514	132.19
430.736	105.19
430.958	113.19
431.18	92.19
431.402	91.19
431.624	91.19
431.846	101.19
432.068	115.19
432.29	91.19
432.512	87.19
432.734	84.19
432.956	80.19
433.178	85.19
433.4	87.19
433.622	84.19
433.844	69.19
434.066	85.19
434.287	89.19
434.509	94.19
434.731	86.19
434.953	75.19
435.175	77.19
435.397	72.19
435.618	78.19
435.84	79.19
436.062	81.19
436.284	89.19
436.505	69.19
436.727	73.19
436.949	91.19
437.17	77.19
437.392	88.19
437.614	91.19
437.835	85.19
438.057	81.19
438.278	86.19
438.5	81.19
438.721	90.19
438.943	98.19
439.165	71.19
439.386	77.19
439.608	91.19
439.829	81.19
440.05	87.19
440.272	71.19
440.493	93.19
440.715	97.19
440.936	85.19
441.158	83.19
441.379	74.19
441.6	74.19
441.822	78.19
442.043	89.19
442.264	78.19
442.486	104.19
442.707	112.19
442.928	91.19
443.149	99.19
443.371	112.19
443.592	146.19
443.813	131.19
444.034	74.19
444.255	77.19
444.476	81.19
444.698	99.19
444.919	88.19
445.14	177.19
445.361	174.19
445.582	178.19
445.803	156.19
446.024	116.19
446.245	88.19
446.466	81.19
446.687	73.19
446.908	73.19
447.129	83.19
447.35	81.19
447.571	69.19
447.792	69.19
448.013	87.19
448.234	74.19
448.455	75.19
448.675	84.19
448.896	77.19
449.117	73.19
449.338	72.19
449.559	78.19
449.779	93.19
450	74.19
450.221	65.19
450.442	64.19
450.662	92.19
450.883	86.19
451.104	90.19
451.324	81.19
451.545	85.19
451.766	90.19
451.986	69.19
452.207	61.19
452.428	77.19
452.648	85.19
452.869	93.19
453.089	85.19
453.31	100.19
453.53	83.19
453.751	74.19
453.971	84.19
454.192	84.19
454.412	90.19
454.633	83.19
454.853	89.19
455.073	80.19
455.294	83.19
455.514	88.19
455.734	81.19
455.955	78.19
456.175	84.19
456.395	77.19
456.616	91.19
456.836	84.19
457.056	80.19
457.276	81.19
457.497	78.19
457.717	81.19
457.937	96.19
458.157	99.19
458.377	84.19
458.598	93.19
458.818	79.19
459.038	82.19
459.258	84.19
459.478	77.19
459.698	83.19
459.918	89.19
460.138	91.19
460.358	73.19
460.578	89.19
460.798	92.19
461.018	94.19
461.238	75.19
461.458	65.19
461.678	84.19
461.898	97.19
462.118	92.19
462.338	78.19
462.558	74.19
462.777	72.19
462.997	87.19
463.217	91.19
463.437	78.19
463.657	90.19
463.876	75.19
464.096	87.19
464.316	69.19
464.536	80.19
464.755	81.19
464.975	94.19
465.195	95.19
465.414	74.19
465.634	84.19
465.854	89.19
466.073	67.19
466.293	79.19
466.512	89.19
466.732	91.19
466.951	74.19
467.171	85.19
467.391	87.19
467.61	83.19
467.829	76.19
468.049	93.19
468.268	73.19
468.488	81.19
468.707	78.19
468.927	79.19
469.146	76.19
469.365	93.19
469.585	84.19
469.804	84.19
470.023	88.19
470.243	91.19
470.462	71.19
470.681	83.19
470.901	87.19
471.12	85.19
471.339	73.19
471.558	91.19
471.777	80.19
471.997	73.19
472.216	86.19
472.435	82.19
472.654	91.19
472.873	86.19
473.092	77.19
473.311	83.19
473.53	82.19
473.749	87.19
473.968	93.19
474.187	97.19
474.406	80.19
474.625	84.19
474.844	93.19
475.063	76.19
475.282	66.19
475.501	71.19
475.72	90.19
475.939	84.19
476.158	91.19
476.377	77.19
476.596	70.19
476.814	75.19
477.033	84.19
477.252	84.19
477.471	104.19
477.69	82.19
477.908	94.19
478.127	96.19
478.346	77.19
478.564	87.19
478.783	91.19
479.002	82.19
479.22	76.19
479.439	90.19
479.658	73.19
479.876	82.19
480.095	87.19
480.313	77.19
480.532	88.19
480.751	96.19
480.969	73.19
481.188	81.19
481.406	73.19
481.624	77.19
481.843	80.19
482.061	65.19
482.28	91.19
482.498	80.19
482.717	81.19
482.935	92.19
483.153	84.19
483.372	84.19
483.59	72.19
483.808	87.19
484.027	76.19
484.245	84.19
484.463	76.19
484.681	95.19
484.9	92.19
485.118	73.19
485.336	99.19
485.554	97.19
485.772	85.19
485.99	94.19
486.209	83.19
486.427	82.19
486.645	83.19
486.863	82.19
487.081	84.19
487.299	76.19
487.517	83.19
487.735	89.19
487.953	98.19
488.171	121.19
488.389	73.19
488.607	83.19
488.825	87.19
489.043	74.19
489.261	99.19
489.479	89.19
489.696	77.19
489.914	78.19
490.132	56.19
490.35	77.19
490.568	91.19
490.786	90.19
491.003	79.19
491.221	86.19
491.439	80.19
491.657	88.19
491.874	93.19
492.092	67.19
492.31	85.19
492.527	73.19
492.745	79.19
492.963	95.19
493.18	87.19
493.398	89.19
493.615	74.19
493.833	75.19
494.05	70.19
494.268	81.19
494.485	92.19
494.703	91.19
494.92	81.19
495.138	88.19
495.355	96.19
495.573	91.19
495.79	86.19
496.008	88.19
496.225	84.19
496.442	91.19
496.66	89.19
496.877	84.19
497.094	88.19
497.312	73.19
497.529	90.19
497.746	71.19
497.963	87.19
498.181	87.19
498.398	70.19
498.615	88.19
498.832	87.19
499.049	90.19
499.267	90.19
499.484	93.19
499.701	77.19
499.918	78.19
500.135	85.19
500.352	85.19
500.569	87.19
500.786	96.19
501.003	81.19
501.22	74.19
501.437	85.19
501.654	77.19
501.871	91.19
502.088	81.19
502.305	78.19
502.522	70.19
502.739	79.19
502.956	89.19
503.172	92.19
503.389	100.19
503.606	83.19
503.823	85.19
504.04	85.19
504.256	108.19
504.473	105.19
504.69	80.19
504.907	85.19
505.123	77.19
505.34	95.19
505.557	88.19
505.773	93.19
505.99	88.19
506.207	76.19
506.423	82.19
506.64	86.19
506.856	80.19
507.073	80.19
507.289	88.19
507.506	86.19
507.722	57.19
507.939	75.19
508.155	95.19
508.372	84.19
508.588	77.19
508.805	81.19
509.021	87.19
509.238	93.19
509.454	81.19
509.67	74.19
509.887	75.19
510.103	85.19
510.319	74.19
510.536	87.19
510.752	77.19
510.968	74.19
511.184	72.19
511.401	91.19
511.617	84.19
511.833	103.19
512.049	76.19
512.265	84.19
512.481	100.19
512.698	83.19
512.914	84.19
513.13	86.19
513.346	89.19
513.562	81.19
513.778	91.19
513.994	89.19
514.21	82.19
514.426	93.19
514.642	81.19
514.858	83.19
515.074	89.19
515.29	83.19
515.506	74.19
515.721	86.19
515.937	97.19
516.153	89.19
516.369	88.19
516.585	84.19
516.801	90.19
517.016	89.19
517.232	91.19
517.448	92.19
517.664	89.19
517.879	84.19
518.095	95.19
518.311	93.19
518.527	83.19
518.742	100.19
518.958	92.19
519.173	109.19
