Data from HP_1_HRD10591_00018.txt Node
Date: Mon Jan 19 14:15:16 EST 2026
User: Yrep
Spectrometer: HR+D1059
Trigger mode: 1
Integration Time (sec): 1.000000E-1
Scans to average: 1
Electric dark correction enabled: true
Nonlinearity correction enabled: false
Boxcar width: 0
XAxis mode: Wavelengths
Number of Pixels in Spectrum: 2048
>>>>>Begin Spectral Data<<<<<
223.165	-23.81
223.4	-23.81
223.635	-23.81
223.869	-13.81
224.104	-3.81
224.338	-14.81
224.573	-17.81
224.808	-13.81
225.042	-15.81
225.277	-7.81
225.511	5.19
225.746	3.19
225.98	10.19
226.215	-2.81
226.449	10.19
226.683	25.19
226.918	28.19
227.152	32.19
227.387	24.19
227.621	35.19
227.856	50.19
228.09	48.19
228.324	56.19
228.559	54.19
228.793	54.19
229.027	64.19
229.262	64.19
229.496	60.19
229.73	64.19
229.964	72.19
230.199	80.19
230.433	68.19
230.667	81.19
230.901	81.19
231.136	84.19
231.37	79.19
231.604	72.19
231.838	76.19
232.072	76.19
232.306	71.19
232.541	70.19
232.775	84.19
233.009	73.19
233.243	86.19
233.477	73.19
233.711	81.19
233.945	85.19
234.179	69.19
234.413	89.19
234.647	74.19
234.881	84.19
235.115	75.19
235.349	78.19
235.583	81.19
235.817	89.19
236.051	68.19
236.285	78.19
236.519	74.19
236.753	69.19
236.987	85.19
237.221	85.19
237.455	70.19
237.689	73.19
237.922	74.19
238.156	74.19
238.39	69.19
238.624	64.19
238.858	68.19
239.091	69.19
239.325	82.19
239.559	61.19
239.793	89.19
240.027	81.19
240.26	77.19
240.494	85.19
240.728	75.19
240.961	69.19
241.195	75.19
241.429	67.19
241.662	62.19
241.896	97.19
242.13	94.19
242.363	90.19
242.597	74.19
242.83	65.19
243.064	81.19
243.298	72.19
243.531	80.19
243.765	73.19
243.998	72.19
244.232	76.19
244.465	74.19
244.699	69.19
244.932	90.19
245.166	85.19
245.399	70.19
245.633	77.19
245.866	86.19
246.099	77.19
246.333	94.19
246.566	89.19
246.8	97.19
247.033	69.19
247.266	81.19
247.5	76.19
247.733	79.19
247.966	80.19
248.2	71.19
248.433	71.19
248.666	78.19
248.899	82.19
249.133	70.19
249.366	79.19
249.599	86.19
249.832	73.19
250.066	93.19
250.299	75.19
250.532	88.19
250.765	82.19
250.998	84.19
251.231	81.19
251.465	86.19
251.698	74.19
251.931	90.19
252.164	90.19
252.397	75.19
252.63	81.19
252.863	80.19
253.096	80.19
253.329	83.19
253.562	79.19
253.795	96.19
254.028	85.19
254.261	89.19
254.494	82.19
254.727	76.19
254.96	68.19
255.193	83.19
255.426	68.19
255.659	77.19
255.892	94.19
256.124	84.19
256.357	94.19
256.59	77.19
256.823	82.19
257.056	77.19
257.289	78.19
257.521	77.19
257.754	74.19
257.987	79.19
258.22	82.19
258.452	77.19
258.685	81.19
258.918	74.19
259.151	88.19
259.383	72.19
259.616	75.19
259.849	60.19
260.081	89.19
260.314	76.19
260.547	76.19
260.779	90.19
261.012	89.19
261.244	85.19
261.477	84.19
261.71	81.19
261.942	66.19
262.175	82.19
262.407	85.19
262.64	86.19
262.872	83.19
263.105	68.19
263.337	84.19
263.57	88.19
263.802	98.19
264.035	76.19
264.267	72.19
264.499	68.19
264.732	85.19
264.964	77.19
265.197	90.19
265.429	81.19
265.661	81.19
265.894	89.19
266.126	81.19
266.358	61.19
266.591	72.19
266.823	83.19
267.055	73.19
267.287	93.19
267.52	98.19
267.752	69.19
267.984	77.19
268.216	91.19
268.448	95.19
268.681	84.19
268.913	73.19
269.145	79.19
269.377	84.19
269.609	81.19
269.841	80.19
270.073	88.19
270.306	77.19
270.538	82.19
270.77	91.19
271.002	77.19
271.234	91.19
271.466	77.19
271.698	79.19
271.93	96.19
272.162	90.19
272.394	92.19
272.626	70.19
272.858	85.19
273.09	80.19
273.322	100.19
273.553	88.19
273.785	94.19
274.017	86.19
274.249	94.19
274.481	81.19
274.713	75.19
274.945	79.19
275.176	72.19
275.408	100.19
275.64	76.19
275.872	86.19
276.104	67.19
276.335	86.19
276.567	84.19
276.799	88.19
277.031	78.19
277.262	79.19
277.494	105.19
277.726	92.19
277.957	86.19
278.189	73.19
278.421	98.19
278.652	79.19
278.884	92.19
279.115	77.19
279.347	98.19
279.579	84.19
279.81	97.19
280.042	70.19
280.273	84.19
280.505	86.19
280.736	75.19
280.968	85.19
281.199	81.19
281.431	92.19
281.662	80.19
281.894	73.19
282.125	91.19
282.356	75.19
282.588	80.19
282.819	82.19
283.051	88.19
283.282	81.19
283.513	71.19
283.745	82.19
283.976	93.19
284.207	75.19
284.439	78.19
284.67	94.19
284.901	82.19
285.132	93.19
285.364	89.19
285.595	92.19
285.826	79.19
286.057	72.19
286.288	87.19
286.52	75.19
286.751	93.19
286.982	79.19
287.213	88.19
287.444	87.19
287.675	97.19
287.906	80.19
288.138	89.19
288.369	76.19
288.6	92.19
288.831	69.19
289.062	91.19
289.293	74.19
289.524	78.19
289.755	96.19
289.986	86.19
290.217	83.19
290.448	79.19
290.679	75.19
290.91	90.19
291.141	99.19
291.371	82.19
291.602	86.19
291.833	65.19
292.064	70.19
292.295	75.19
292.526	92.19
292.757	76.19
292.987	74.19
293.218	76.19
293.449	65.19
293.68	71.19
293.91	94.19
294.141	85.19
294.372	81.19
294.603	85.19
294.833	92.19
295.064	85.19
295.295	92.19
295.525	99.19
295.756	79.19
295.987	90.19
296.217	69.19
296.448	68.19
296.679	87.19
296.909	74.19
297.14	66.19
297.37	88.19
297.601	77.19
297.831	73.19
298.062	85.19
298.292	82.19
298.523	82.19
298.753	96.19
298.984	85.19
299.214	73.19
299.445	84.19
299.675	90.19
299.905	94.19
300.136	86.19
300.366	83.19
300.597	87.19
300.827	78.19
301.057	82.19
301.288	74.19
301.518	87.19
301.748	76.19
301.979	99.19
302.209	91.19
302.439	90.19
302.669	82.19
302.9	86.19
303.13	71.19
303.36	88.19
303.59	89.19
303.82	76.19
304.051	89.19
304.281	96.19
304.511	99.19
304.741	83.19
304.971	83.19
305.201	92.19
305.431	83.19
305.661	86.19
305.891	82.19
306.121	71.19
306.352	89.19
306.582	88.19
306.812	77.19
307.042	81.19
307.272	97.19
307.502	79.19
307.731	77.19
307.961	78.19
308.191	80.19
308.421	93.19
308.651	80.19
308.881	81.19
309.111	88.19
309.341	88.19
309.571	76.19
309.8	80.19
310.03	72.19
310.26	75.19
310.49	82.19
310.72	77.19
310.949	82.19
311.179	93.19
311.409	70.19
311.639	85.19
311.868	85.19
312.098	108.19
312.328	83.19
312.557	96.19
312.787	88.19
313.017	83.19
313.246	78.19
313.476	96.19
313.706	101.19
313.935	95.19
314.165	101.19
314.394	84.19
314.624	91.19
314.853	92.19
315.083	81.19
315.312	77.19
315.542	83.19
315.771	79.19
316.001	85.19
316.23	100.19
316.46	84.19
316.689	75.19
316.919	70.19
317.148	70.19
317.377	87.19
317.607	84.19
317.836	86.19
318.065	99.19
318.295	98.19
318.524	76.19
318.753	80.19
318.983	92.19
319.212	84.19
319.441	82.19
319.67	88.19
319.9	77.19
320.129	87.19
320.358	89.19
320.587	86.19
320.816	94.19
321.046	86.19
321.275	81.19
321.504	67.19
321.733	90.19
321.962	82.19
322.191	94.19
322.42	90.19
322.649	84.19
322.878	78.19
323.108	86.19
323.337	96.19
323.566	90.19
323.795	86.19
324.024	76.19
324.253	84.19
324.482	84.19
324.71	91.19
324.939	88.19
325.168	84.19
325.397	81.19
325.626	71.19
325.855	85.19
326.084	82.19
326.313	97.19
326.542	94.19
326.77	96.19
326.999	88.19
327.228	90.19
327.457	83.19
327.686	94.19
327.914	85.19
328.143	82.19
328.372	92.19
328.6	82.19
328.829	89.19
329.058	74.19
329.287	74.19
329.515	80.19
329.744	84.19
329.972	87.19
330.201	93.19
330.43	76.19
330.658	85.19
330.887	90.19
331.115	91.19
331.344	90.19
331.572	88.19
331.801	91.19
332.03	85.19
332.258	88.19
332.486	78.19
332.715	88.19
332.943	90.19
333.172	91.19
333.4	83.19
333.629	81.19
333.857	92.19
334.085	86.19
334.314	93.19
334.542	86.19
334.771	97.19
334.999	90.19
335.227	89.19
335.455	82.19
335.684	100.19
335.912	86.19
336.14	86.19
336.369	93.19
336.597	79.19
336.825	102.19
337.053	80.19
337.281	72.19
337.51	80.19
337.738	88.19
337.966	84.19
338.194	72.19
338.422	86.19
338.65	84.19
338.878	85.19
339.106	75.19
339.334	84.19
339.562	88.19
339.79	86.19
340.018	87.19
340.246	85.19
340.474	88.19
340.702	87.19
340.93	81.19
341.158	85.19
341.386	87.19
341.614	74.19
341.842	83.19
342.07	71.19
342.298	83.19
342.526	80.19
342.754	81.19
342.981	87.19
343.209	88.19
343.437	98.19
343.665	88.19
343.893	82.19
344.12	88.19
344.348	89.19
344.576	93.19
344.804	85.19
345.031	95.19
345.259	75.19
345.487	85.19
345.714	78.19
345.942	81.19
346.17	84.19
346.397	84.19
346.625	89.19
346.853	71.19
347.08	69.19
347.308	102.19
347.535	96.19
347.763	85.19
347.99	87.19
348.218	76.19
348.445	90.19
348.673	84.19
348.9	89.19
349.128	94.19
349.355	97.19
349.583	86.19
349.81	91.19
350.037	95.19
350.265	93.19
350.492	81.19
350.72	89.19
350.947	85.19
351.174	87.19
351.402	98.19
351.629	98.19
351.856	86.19
352.083	86.19
352.311	92.19
352.538	84.19
352.765	74.19
352.992	96.19
353.22	91.19
353.447	89.19
353.674	92.19
353.901	92.19
354.128	85.19
354.355	72.19
354.583	91.19
354.81	83.19
355.037	98.19
355.264	88.19
355.491	94.19
355.718	85.19
355.945	88.19
356.172	89.19
356.399	71.19
356.626	82.19
356.853	72.19
357.08	91.19
357.307	88.19
357.534	87.19
357.761	83.19
357.988	87.19
358.215	94.19
358.441	92.19
358.668	96.19
358.895	93.19
359.122	82.19
359.349	83.19
359.576	93.19
359.802	81.19
360.029	79.19
360.256	90.19
360.483	66.19
360.709	96.19
360.936	78.19
361.163	94.19
361.39	86.19
361.616	80.19
361.843	109.19
362.07	92.19
362.296	82.19
362.523	90.19
362.749	78.19
362.976	85.19
363.203	93.19
363.429	100.19
363.656	102.19
363.882	87.19
364.109	94.19
364.335	89.19
364.562	80.19
364.788	82.19
365.015	84.19
365.241	88.19
365.468	100.19
365.694	78.19
365.92	84.19
366.147	87.19
366.373	94.19
366.599	82.19
366.826	77.19
367.052	98.19
367.278	90.19
367.505	82.19
367.731	92.19
367.957	84.19
368.184	86.19
368.41	86.19
368.636	82.19
368.862	91.19
369.089	88.19
369.315	85.19
369.541	72.19
369.767	84.19
369.993	84.19
370.219	81.19
370.445	96.19
370.672	91.19
370.898	97.19
371.124	74.19
371.35	82.19
371.576	96.19
371.802	90.19
372.028	92.19
372.254	93.19
372.48	98.19
372.706	78.19
372.932	83.19
373.158	88.19
373.384	96.19
373.61	106.19
373.835	108.19
374.061	84.19
374.287	85.19
374.513	96.19
374.739	76.19
374.965	88.19
375.191	88.19
375.416	85.19
375.642	79.19
375.868	99.19
376.094	91.19
376.319	89.19
376.545	89.19
376.771	93.19
376.997	80.19
377.222	78.19
377.448	90.19
377.674	85.19
377.899	90.19
378.125	72.19
378.35	90.19
378.576	89.19
378.802	89.19
379.027	93.19
379.253	75.19
379.478	79.19
379.704	72.19
379.929	92.19
380.155	87.19
380.38	69.19
380.606	90.19
380.831	80.19
381.057	84.19
381.282	86.19
381.507	94.19
381.733	82.19
381.958	84.19
382.184	72.19
382.409	94.19
382.634	106.19
382.86	96.19
383.085	87.19
383.31	91.19
383.535	78.19
383.761	96.19
383.986	82.19
384.211	102.19
384.436	105.19
384.662	83.19
384.887	81.19
385.112	93.19
385.337	81.19
385.562	83.19
385.787	90.19
386.013	92.19
386.238	96.19
386.463	92.19
386.688	88.19
386.913	91.19
387.138	80.19
387.363	94.19
387.588	83.19
387.813	81.19
388.038	89.19
388.263	96.19
388.488	90.19
388.713	83.19
388.938	78.19
389.163	80.19
389.387	76.19
389.612	77.19
389.837	83.19
390.062	83.19
390.287	77.19
390.512	92.19
390.736	81.19
390.961	91.19
391.186	93.19
391.411	73.19
391.636	93.19
391.86	80.19
392.085	96.19
392.31	92.19
392.534	92.19
392.759	80.19
392.984	137.19
393.208	213.19
393.433	338.19
393.658	258.19
393.882	114.19
394.107	105.19
394.331	87.19
394.556	98.19
394.78	88.19
395.005	85.19
395.229	103.19
395.454	68.19
395.678	92.19
395.903	105.19
396.127	107.19
396.352	126.19
396.576	160.19
396.801	231.19
397.025	278.19
397.249	135.19
397.474	100.19
397.698	90.19
397.922	84.19
398.147	94.19
398.371	89.19
398.595	81.19
398.82	84.19
399.044	86.19
399.268	74.19
399.492	82.19
399.717	80.19
399.941	73.19
400.165	92.19
400.389	86.19
400.613	78.19
400.837	82.19
401.062	80.19
401.286	75.19
401.51	79.19
401.734	79.19
401.958	92.19
402.182	90.19
402.406	91.19
402.63	92.19
402.854	89.19
403.078	94.19
403.302	81.19
403.526	78.19
403.75	88.19
403.974	84.19
404.198	83.19
404.422	74.19
404.645	96.19
404.869	78.19
405.093	90.19
405.317	87.19
405.541	78.19
405.765	93.19
405.988	86.19
406.212	75.19
406.436	77.19
406.66	80.19
406.883	94.19
407.107	85.19
407.331	77.19
407.555	98.19
407.778	121.19
408.002	106.19
408.226	101.19
408.449	81.19
408.673	66.19
408.896	78.19
409.12	85.19
409.344	84.19
409.567	84.19
409.791	76.19
410.014	77.19
410.238	85.19
410.461	76.19
410.685	78.19
410.908	88.19
411.132	97.19
411.355	76.19
411.578	87.19
411.802	88.19
412.025	90.19
412.249	75.19
412.472	86.19
412.695	85.19
412.919	87.19
413.142	91.19
413.365	89.19
413.589	100.19
413.812	83.19
414.035	77.19
414.258	89.19
414.482	73.19
414.705	83.19
414.928	97.19
415.151	85.19
415.374	82.19
415.597	82.19
415.821	82.19
416.044	86.19
416.267	74.19
416.49	84.19
416.713	70.19
416.936	78.19
417.159	92.19
417.382	78.19
417.605	77.19
417.828	85.19
418.051	59.19
418.274	70.19
418.497	79.19
418.72	75.19
418.943	82.19
419.166	87.19
419.389	75.19
419.611	89.19
419.834	88.19
420.057	88.19
420.28	81.19
420.503	81.19
420.726	84.19
420.948	100.19
421.171	85.19
421.394	86.19
421.617	107.19
421.839	102.19
422.062	92.19
422.285	101.19
422.507	165.19
422.73	281.19
422.953	252.19
423.175	116.19
423.398	96.19
423.621	79.19
423.843	88.19
424.066	79.19
424.288	78.19
424.511	88.19
424.733	89.19
424.956	97.19
425.178	83.19
425.401	93.19
425.623	83.19
425.846	81.19
426.068	86.19
426.291	88.19
426.513	79.19
426.735	89.19
426.958	91.19
427.18	87.19
427.402	95.19
427.625	89.19
427.847	73.19
428.069	96.19
428.292	87.19
428.514	120.19
428.736	87.19
428.958	91.19
429.181	103.19
429.403	74.19
429.625	79.19
429.847	92.19
430.069	94.19
430.292	133.19
430.514	118.19
430.736	105.19
430.958	104.19
431.18	95.19
431.402	82.19
431.624	70.19
431.846	93.19
432.068	113.19
432.29	84.19
432.512	76.19
432.734	85.19
432.956	90.19
433.178	84.19
433.4	76.19
433.622	84.19
433.844	73.19
434.066	77.19
434.287	78.19
434.509	75.19
434.731	77.19
434.953	85.19
435.175	75.19
435.397	92.19
435.618	81.19
435.84	85.19
436.062	93.19
436.284	72.19
436.505	84.19
436.727	83.19
436.949	99.19
437.17	82.19
437.392	86.19
437.614	88.19
437.835	84.19
438.057	79.19
438.278	89.19
438.5	99.19
438.721	69.19
438.943	85.19
439.165	97.19
439.386	80.19
439.608	90.19
439.829	78.19
440.05	83.19
440.272	79.19
440.493	66.19
440.715	84.19
440.936	93.19
441.158	80.19
441.379	90.19
441.6	95.19
441.822	90.19
442.043	70.19
442.264	89.19
442.486	96.19
442.707	84.19
442.928	92.19
443.149	98.19
443.371	105.19
443.592	149.19
443.813	125.19
444.034	83.19
444.255	78.19
444.476	76.19
444.698	93.19
444.919	93.19
445.14	155.19
445.361	140.19
445.582	168.19
445.803	132.19
446.024	86.19
446.245	90.19
446.466	93.19
446.687	84.19
446.908	77.19
447.129	84.19
447.35	91.19
447.571	92.19
447.792	94.19
448.013	76.19
448.234	82.19
448.455	79.19
448.675	85.19
448.896	79.19
449.117	85.19
449.338	97.19
449.559	92.19
449.779	72.19
450	69.19
450.221	78.19
450.442	88.19
450.662	77.19
450.883	76.19
451.104	88.19
451.324	80.19
451.545	93.19
451.766	83.19
451.986	86.19
452.207	81.19
452.428	85.19
452.648	101.19
452.869	89.19
453.089	77.19
453.31	68.19
453.53	96.19
453.751	87.19
453.971	83.19
454.192	77.19
454.412	79.19
454.633	81.19
454.853	72.19
455.073	87.19
455.294	100.19
455.514	84.19
455.734	71.19
455.955	79.19
456.175	83.19
456.395	97.19
456.616	95.19
456.836	71.19
457.056	82.19
457.276	92.19
457.497	88.19
457.717	82.19
457.937	79.19
458.157	79.19
458.377	89.19
458.598	92.19
458.818	93.19
459.038	87.19
459.258	78.19
459.478	78.19
459.698	72.19
459.918	83.19
460.138	69.19
460.358	79.19
460.578	74.19
460.798	96.19
461.018	91.19
461.238	98.19
461.458	85.19
461.678	70.19
461.898	82.19
462.118	95.19
462.338	92.19
462.558	87.19
462.777	79.19
462.997	74.19
463.217	84.19
463.437	84.19
463.657	85.19
463.876	93.19
464.096	71.19
464.316	85.19
464.536	85.19
464.755	86.19
464.975	82.19
465.195	88.19
465.414	81.19
465.634	90.19
465.854	91.19
466.073	79.19
466.293	92.19
466.512	84.19
466.732	83.19
466.951	78.19
467.171	74.19
467.391	75.19
467.61	81.19
467.829	67.19
468.049	77.19
468.268	84.19
468.488	67.19
468.707	69.19
468.927	80.19
469.146	90.19
469.365	74.19
469.585	83.19
469.804	76.19
470.023	72.19
470.243	80.19
470.462	78.19
470.681	70.19
470.901	78.19
471.12	83.19
471.339	73.19
471.558	77.19
471.777	84.19
471.997	79.19
472.216	82.19
472.435	78.19
472.654	88.19
472.873	80.19
473.092	82.19
473.311	80.19
473.53	66.19
473.749	78.19
473.968	93.19
474.187	77.19
474.406	68.19
474.625	75.19
474.844	94.19
475.063	95.19
475.282	80.19
475.501	85.19
475.72	86.19
475.939	77.19
476.158	78.19
476.377	89.19
476.596	79.19
476.814	73.19
477.033	78.19
477.252	74.19
477.471	73.19
477.69	67.19
477.908	84.19
478.127	90.19
478.346	92.19
478.564	80.19
478.783	94.19
479.002	96.19
479.22	80.19
479.439	88.19
479.658	89.19
479.876	76.19
480.095	83.19
480.313	92.19
480.532	72.19
480.751	68.19
480.969	82.19
481.188	94.19
481.406	81.19
481.624	90.19
481.843	97.19
482.061	74.19
482.28	76.19
482.498	81.19
482.717	87.19
482.935	87.19
483.153	77.19
483.372	95.19
483.59	83.19
483.808	73.19
484.027	80.19
484.245	86.19
484.463	82.19
484.681	101.19
484.9	75.19
485.118	79.19
485.336	77.19
485.554	90.19
485.772	84.19
485.99	90.19
486.209	82.19
486.427	65.19
486.645	77.19
486.863	96.19
487.081	79.19
487.299	85.19
487.517	97.19
487.735	86.19
487.953	102.19
488.171	101.19
488.389	77.19
488.607	70.19
488.825	85.19
489.043	87.19
489.261	101.19
489.479	78.19
489.696	90.19
489.914	84.19
490.132	90.19
490.35	89.19
490.568	89.19
490.786	79.19
491.003	88.19
491.221	70.19
491.439	82.19
491.657	92.19
491.874	69.19
492.092	91.19
492.31	85.19
492.527	96.19
492.745	74.19
492.963	76.19
493.18	90.19
493.398	73.19
493.615	82.19
493.833	84.19
494.05	83.19
494.268	92.19
494.485	82.19
494.703	89.19
494.92	82.19
495.138	84.19
495.355	86.19
495.573	87.19
495.79	92.19
496.008	68.19
496.225	93.19
496.442	82.19
496.66	74.19
496.877	88.19
497.094	72.19
497.312	78.19
497.529	87.19
497.746	84.19
497.963	82.19
498.181	83.19
498.398	85.19
498.615	88.19
498.832	76.19
499.049	94.19
499.267	84.19
499.484	81.19
499.701	79.19
499.918	86.19
500.135	87.19
500.352	69.19
500.569	78.19
500.786	90.19
501.003	94.19
501.22	82.19
501.437	78.19
501.654	84.19
501.871	77.19
502.088	90.19
502.305	94.19
502.522	88.19
502.739	76.19
502.956	77.19
503.172	80.19
503.389	92.19
503.606	89.19
503.823	83.19
504.04	76.19
504.256	85.19
504.473	93.19
504.69	71.19
504.907	85.19
505.123	78.19
505.34	86.19
505.557	90.19
505.773	96.19
505.99	81.19
506.207	93.19
506.423	90.19
506.64	82.19
506.856	79.19
507.073	88.19
507.289	88.19
507.506	77.19
507.722	99.19
507.939	94.19
508.155	93.19
508.372	88.19
508.588	75.19
508.805	82.19
509.021	89.19
509.238	78.19
509.454	92.19
509.67	78.19
509.887	93.19
510.103	63.19
510.319	92.19
510.536	100.19
510.752	82.19
510.968	62.19
511.184	92.19
511.401	91.19
511.617	90.19
511.833	78.19
512.049	84.19
512.265	82.19
512.481	83.19
512.698	82.19
512.914	97.19
513.13	84.19
513.346	82.19
513.562	91.19
513.778	76.19
513.994	71.19
514.21	91.19
514.426	81.19
514.642	87.19
514.858	72.19
515.074	79.19
515.29	82.19
515.506	84.19
515.721	82.19
515.937	93.19
516.153	76.19
516.369	78.19
516.585	93.19
516.801	84.19
517.016	77.19
517.232	92.19
517.448	91.19
517.664	84.19
517.879	88.19
518.095	85.19
518.311	82.19
518.527	95.19
518.742	93.19
518.958	81.19
519.173	105.19
519.389	85.19
