Data from HP_1_HRD10591_00025.txt Node
Date: Mon Jan 19 14:15:20 EST 2026
User: Yrep
Spectrometer: HR+D1059
Trigger mode: 1
Integration Time (sec): 1.000000E-1
Scans to average: 1
Electric dark correction enabled: true
Nonlinearity correction enabled: false
Boxcar width: 0
XAxis mode: Wavelengths
Number of Pixels in Spectrum: 2048
>>>>>Begin Spectral Data<<<<<
223.165	-26.56
223.4	-26.56
223.635	-26.56
223.869	-21.56
224.104	-11.56
224.338	-12.56
224.573	-26.56
224.808	-9.56
225.042	-11.56
225.277	-6.56
225.511	7.44
225.746	1.44
225.98	10.44
226.215	5.44
226.449	17.44
226.683	12.44
226.918	30.44
227.152	41.44
227.387	34.44
227.621	45.44
227.856	52.44
228.09	41.44
228.324	42.44
228.559	54.44
228.793	60.44
229.027	71.44
229.262	83.44
229.496	70.44
229.73	83.44
229.964	85.44
230.199	74.44
230.433	85.44
230.667	85.44
230.901	79.44
231.136	69.44
231.37	86.44
231.604	83.44
231.838	78.44
232.072	78.44
232.306	84.44
232.541	77.44
232.775	89.44
233.009	87.44
233.243	79.44
233.477	81.44
233.711	79.44
233.945	67.44
234.179	81.44
234.413	79.44
234.647	77.44
234.881	75.44
235.115	81.44
235.349	77.44
235.583	78.44
235.817	80.44
236.051	78.44
236.285	79.44
236.519	90.44
236.753	72.44
236.987	86.44
237.221	76.44
237.455	74.44
237.689	78.44
237.922	84.44
238.156	84.44
238.39	67.44
238.624	84.44
238.858	61.44
239.091	82.44
239.325	84.44
239.559	85.44
239.793	77.44
240.027	85.44
240.26	72.44
240.494	58.44
240.728	72.44
240.961	69.44
241.195	83.44
241.429	92.44
241.662	73.44
241.896	80.44
242.13	86.44
242.363	87.44
242.597	71.44
242.83	66.44
243.064	57.44
243.298	83.44
243.531	90.44
243.765	69.44
243.998	85.44
244.232	93.44
244.465	79.44
244.699	78.44
244.932	99.44
245.166	98.44
245.399	77.44
245.633	92.44
245.866	73.44
246.099	76.44
246.333	85.44
246.566	79.44
246.8	80.44
247.033	81.44
247.266	61.44
247.5	80.44
247.733	86.44
247.966	85.44
248.2	92.44
248.433	83.44
248.666	71.44
248.899	77.44
249.133	79.44
249.366	85.44
249.599	83.44
249.832	92.44
250.066	72.44
250.299	85.44
250.532	95.44
250.765	80.44
250.998	89.44
251.231	90.44
251.465	86.44
251.698	78.44
251.931	79.44
252.164	86.44
252.397	87.44
252.63	86.44
252.863	75.44
253.096	67.44
253.329	84.44
253.562	66.44
253.795	76.44
254.028	73.44
254.261	83.44
254.494	98.44
254.727	89.44
254.96	74.44
255.193	87.44
255.426	67.44
255.659	79.44
255.892	76.44
256.124	85.44
256.357	81.44
256.59	72.44
256.823	75.44
257.056	77.44
257.289	82.44
257.521	93.44
257.754	78.44
257.987	71.44
258.22	75.44
258.452	89.44
258.685	74.44
258.918	81.44
259.151	68.44
259.383	93.44
259.616	85.44
259.849	83.44
260.081	78.44
260.314	85.44
260.547	83.44
260.779	85.44
261.012	91.44
261.244	74.44
261.477	83.44
261.71	90.44
261.942	82.44
262.175	91.44
262.407	79.44
262.64	79.44
262.872	71.44
263.105	90.44
263.337	87.44
263.57	86.44
263.802	69.44
264.035	82.44
264.267	93.44
264.499	91.44
264.732	87.44
264.964	73.44
265.197	85.44
265.429	79.44
265.661	79.44
265.894	80.44
266.126	75.44
266.358	85.44
266.591	72.44
266.823	87.44
267.055	75.44
267.287	80.44
267.52	82.44
267.752	92.44
267.984	84.44
268.216	95.44
268.448	86.44
268.681	80.44
268.913	87.44
269.145	94.44
269.377	82.44
269.609	78.44
269.841	93.44
270.073	82.44
270.306	80.44
270.538	79.44
270.77	83.44
271.002	77.44
271.234	85.44
271.466	97.44
271.698	88.44
271.93	90.44
272.162	80.44
272.394	94.44
272.626	100.44
272.858	84.44
273.09	90.44
273.322	86.44
273.553	85.44
273.785	81.44
274.017	77.44
274.249	73.44
274.481	92.44
274.713	82.44
274.945	77.44
275.176	94.44
275.408	99.44
275.64	89.44
275.872	80.44
276.104	94.44
276.335	87.44
276.567	93.44
276.799	89.44
277.031	86.44
277.262	83.44
277.494	91.44
277.726	88.44
277.957	95.44
278.189	82.44
278.421	82.44
278.652	88.44
278.884	101.44
279.115	85.44
279.347	82.44
279.579	76.44
279.81	92.44
280.042	85.44
280.273	89.44
280.505	101.44
280.736	75.44
280.968	89.44
281.199	79.44
281.431	69.44
281.662	87.44
281.894	89.44
282.125	89.44
282.356	101.44
282.588	94.44
282.819	89.44
283.051	75.44
283.282	74.44
283.513	96.44
283.745	96.44
283.976	87.44
284.207	92.44
284.439	74.44
284.67	74.44
284.901	90.44
285.132	95.44
285.364	87.44
285.595	92.44
285.826	89.44
286.057	83.44
286.288	81.44
286.52	97.44
286.751	92.44
286.982	86.44
287.213	97.44
287.444	93.44
287.675	70.44
287.906	78.44
288.138	80.44
288.369	93.44
288.6	79.44
288.831	78.44
289.062	103.44
289.293	88.44
289.524	79.44
289.755	78.44
289.986	89.44
290.217	79.44
290.448	87.44
290.679	81.44
290.91	78.44
291.141	81.44
291.371	89.44
291.602	82.44
291.833	87.44
292.064	65.44
292.295	81.44
292.526	91.44
292.757	86.44
292.987	90.44
293.218	78.44
293.449	85.44
293.68	89.44
293.91	94.44
294.141	87.44
294.372	91.44
294.603	81.44
294.833	86.44
295.064	97.44
295.295	77.44
295.525	82.44
295.756	81.44
295.987	101.44
296.217	90.44
296.448	87.44
296.679	86.44
296.909	87.44
297.14	87.44
297.37	85.44
297.601	95.44
297.831	83.44
298.062	76.44
298.292	86.44
298.523	98.44
298.753	96.44
298.984	88.44
299.214	94.44
299.445	90.44
299.675	93.44
299.905	99.44
300.136	99.44
300.366	85.44
300.597	85.44
300.827	80.44
301.057	77.44
301.288	88.44
301.518	93.44
301.748	93.44
301.979	76.44
302.209	103.44
302.439	66.44
302.669	79.44
302.9	86.44
303.13	85.44
303.36	88.44
303.59	77.44
303.82	89.44
304.051	85.44
304.281	91.44
304.511	99.44
304.741	87.44
304.971	85.44
305.201	86.44
305.431	84.44
305.661	77.44
305.891	90.44
306.121	83.44
306.352	95.44
306.582	75.44
306.812	82.44
307.042	84.44
307.272	79.44
307.502	80.44
307.731	81.44
307.961	95.44
308.191	92.44
308.421	97.44
308.651	89.44
308.881	89.44
309.111	86.44
309.341	79.44
309.571	93.44
309.8	91.44
310.03	94.44
310.26	84.44
310.49	95.44
310.72	84.44
310.949	77.44
311.179	80.44
311.409	85.44
311.639	86.44
311.868	95.44
312.098	94.44
312.328	79.44
312.557	92.44
312.787	82.44
313.017	96.44
313.246	85.44
313.476	93.44
313.706	82.44
313.935	81.44
314.165	87.44
314.394	85.44
314.624	85.44
314.853	94.44
315.083	101.44
315.312	72.44
315.542	85.44
315.771	77.44
316.001	100.44
316.23	91.44
316.46	94.44
316.689	82.44
316.919	85.44
317.148	92.44
317.377	80.44
317.607	83.44
317.836	78.44
318.065	90.44
318.295	88.44
318.524	91.44
318.753	95.44
318.983	91.44
319.212	90.44
319.441	86.44
319.67	89.44
319.9	75.44
320.129	77.44
320.358	96.44
320.587	90.44
320.816	94.44
321.046	78.44
321.275	95.44
321.504	87.44
321.733	85.44
321.962	79.44
322.191	70.44
322.42	92.44
322.649	91.44
322.878	89.44
323.108	99.44
323.337	86.44
323.566	75.44
323.795	95.44
324.024	77.44
324.253	86.44
324.482	76.44
324.71	86.44
324.939	98.44
325.168	85.44
325.397	71.44
325.626	79.44
325.855	85.44
326.084	91.44
326.313	70.44
326.542	73.44
326.77	87.44
326.999	91.44
327.228	85.44
327.457	77.44
327.686	97.44
327.914	88.44
328.143	100.44
328.372	85.44
328.6	92.44
328.829	77.44
329.058	83.44
329.287	83.44
329.515	89.44
329.744	83.44
329.972	87.44
330.201	85.44
330.43	97.44
330.658	92.44
330.887	103.44
331.115	91.44
331.344	74.44
331.572	83.44
331.801	94.44
332.03	102.44
332.258	89.44
332.486	77.44
332.715	64.44
332.943	88.44
333.172	97.44
333.4	71.44
333.629	76.44
333.857	90.44
334.085	90.44
334.314	79.44
334.542	71.44
334.771	98.44
334.999	75.44
335.227	77.44
335.455	82.44
335.684	80.44
335.912	77.44
336.14	94.44
336.369	87.44
336.597	85.44
336.825	85.44
337.053	84.44
337.281	86.44
337.51	86.44
337.738	94.44
337.966	71.44
338.194	93.44
338.422	83.44
338.65	85.44
338.878	89.44
339.106	76.44
339.334	89.44
339.562	84.44
339.79	100.44
340.018	87.44
340.246	81.44
340.474	82.44
340.702	91.44
340.93	82.44
341.158	86.44
341.386	83.44
341.614	100.44
341.842	83.44
342.07	90.44
342.298	91.44
342.526	89.44
342.754	83.44
342.981	70.44
343.209	85.44
343.437	95.44
343.665	82.44
343.893	88.44
344.12	96.44
344.348	87.44
344.576	85.44
344.804	71.44
345.031	88.44
345.259	90.44
345.487	90.44
345.714	83.44
345.942	87.44
346.17	72.44
346.397	93.44
346.625	89.44
346.853	92.44
347.08	89.44
347.308	76.44
347.535	79.44
347.763	82.44
347.99	87.44
348.218	73.44
348.445	83.44
348.673	87.44
348.9	78.44
349.128	93.44
349.355	90.44
349.583	88.44
349.81	93.44
350.037	80.44
350.265	79.44
350.492	83.44
350.72	86.44
350.947	99.44
351.174	79.44
351.402	83.44
351.629	77.44
351.856	81.44
352.083	73.44
352.311	88.44
352.538	91.44
352.765	73.44
352.992	82.44
353.22	77.44
353.447	92.44
353.674	99.44
353.901	90.44
354.128	74.44
354.355	94.44
354.583	85.44
354.81	91.44
355.037	87.44
355.264	79.44
355.491	83.44
355.718	81.44
355.945	89.44
356.172	90.44
356.399	100.44
356.626	97.44
356.853	81.44
357.08	98.44
357.307	85.44
357.534	85.44
357.761	95.44
357.988	77.44
358.215	81.44
358.441	82.44
358.668	76.44
358.895	78.44
359.122	79.44
359.349	81.44
359.576	88.44
359.802	84.44
360.029	91.44
360.256	74.44
360.483	82.44
360.709	92.44
360.936	80.44
361.163	83.44
361.39	86.44
361.616	76.44
361.843	86.44
362.07	87.44
362.296	82.44
362.523	89.44
362.749	88.44
362.976	94.44
363.203	92.44
363.429	90.44
363.656	67.44
363.882	79.44
364.109	85.44
364.335	87.44
364.562	97.44
364.788	82.44
365.015	75.44
365.241	88.44
365.468	83.44
365.694	91.44
365.92	95.44
366.147	95.44
366.373	95.44
366.599	85.44
366.826	91.44
367.052	77.44
367.278	79.44
367.505	93.44
367.731	87.44
367.957	85.44
368.184	91.44
368.41	80.44
368.636	100.44
368.862	88.44
369.089	73.44
369.315	87.44
369.541	78.44
369.767	84.44
369.993	88.44
370.219	73.44
370.445	79.44
370.672	84.44
370.898	72.44
371.124	91.44
371.35	68.44
371.576	84.44
371.802	90.44
372.028	87.44
372.254	88.44
372.48	87.44
372.706	93.44
372.932	92.44
373.158	90.44
373.384	92.44
373.61	89.44
373.835	95.44
374.061	66.44
374.287	92.44
374.513	85.44
374.739	86.44
374.965	85.44
375.191	95.44
375.416	79.44
375.642	94.44
375.868	85.44
376.094	101.44
376.319	82.44
376.545	86.44
376.771	90.44
376.997	77.44
377.222	84.44
377.448	92.44
377.674	76.44
377.899	84.44
378.125	71.44
378.35	80.44
378.576	76.44
378.802	88.44
379.027	84.44
379.253	83.44
379.478	82.44
379.704	89.44
379.929	92.44
380.155	88.44
380.38	84.44
380.606	77.44
380.831	72.44
381.057	105.44
381.282	83.44
381.507	83.44
381.733	92.44
381.958	91.44
382.184	89.44
382.409	89.44
382.634	83.44
382.86	86.44
383.085	92.44
383.31	85.44
383.535	88.44
383.761	84.44
383.986	91.44
384.211	104.44
384.436	81.44
384.662	75.44
384.887	81.44
385.112	82.44
385.337	79.44
385.562	73.44
385.787	101.44
386.013	94.44
386.238	92.44
386.463	89.44
386.688	82.44
386.913	84.44
387.138	83.44
387.363	71.44
387.588	96.44
387.813	90.44
388.038	79.44
388.263	78.44
388.488	75.44
388.713	76.44
388.938	97.44
389.163	88.44
389.387	98.44
389.612	93.44
389.837	85.44
390.062	93.44
390.287	92.44
390.512	78.44
390.736	77.44
390.961	97.44
391.186	71.44
391.411	92.44
391.636	69.44
391.86	79.44
392.085	90.44
392.31	100.44
392.534	85.44
392.759	101.44
392.984	103.44
393.208	151.44
393.433	211.44
393.658	161.44
393.882	85.44
394.107	82.44
394.331	87.44
394.556	78.44
394.78	97.44
395.005	75.44
395.229	70.44
395.454	91.44
395.678	73.44
395.903	85.44
396.127	85.44
396.352	91.44
396.576	114.44
396.801	145.44
397.025	171.44
397.249	118.44
397.474	99.44
397.698	87.44
397.922	84.44
398.147	84.44
398.371	86.44
398.595	78.44
398.82	84.44
399.044	82.44
399.268	86.44
399.492	84.44
399.717	82.44
399.941	70.44
400.165	94.44
400.389	74.44
400.613	71.44
400.837	87.44
401.062	95.44
401.286	75.44
401.51	83.44
401.734	85.44
401.958	82.44
402.182	83.44
402.406	88.44
402.63	73.44
402.854	71.44
403.078	69.44
403.302	81.44
403.526	91.44
403.75	90.44
403.974	90.44
404.198	74.44
404.422	100.44
404.645	82.44
404.869	94.44
405.093	78.44
405.317	79.44
405.541	80.44
405.765	85.44
405.988	79.44
406.212	85.44
406.436	84.44
406.66	95.44
406.883	99.44
407.107	90.44
407.331	90.44
407.555	82.44
407.778	95.44
408.002	87.44
408.226	83.44
408.449	100.44
408.673	78.44
408.896	89.44
409.12	80.44
409.344	80.44
409.567	86.44
409.791	83.44
410.014	79.44
410.238	77.44
410.461	87.44
410.685	87.44
410.908	93.44
411.132	70.44
411.355	83.44
411.578	84.44
411.802	89.44
412.025	87.44
412.249	65.44
412.472	85.44
412.695	91.44
412.919	86.44
413.142	79.44
413.365	85.44
413.589	94.44
413.812	71.44
414.035	77.44
414.258	88.44
414.482	88.44
414.705	83.44
414.928	69.44
415.151	77.44
415.374	88.44
415.597	86.44
415.821	78.44
416.044	72.44
416.267	94.44
416.49	83.44
416.713	83.44
416.936	80.44
417.159	75.44
417.382	78.44
417.605	107.44
417.828	84.44
418.051	87.44
418.274	80.44
418.497	82.44
418.72	65.44
418.943	83.44
419.166	77.44
419.389	80.44
419.611	78.44
419.834	81.44
420.057	87.44
420.28	76.44
420.503	81.44
420.726	89.44
420.948	80.44
421.171	101.44
421.394	103.44
421.617	96.44
421.839	79.44
422.062	99.44
422.285	108.44
422.507	119.44
422.73	154.44
422.953	153.44
423.175	90.44
423.398	78.44
423.621	83.44
423.843	75.44
424.066	79.44
424.288	76.44
424.511	85.44
424.733	87.44
424.956	94.44
425.178	77.44
425.401	88.44
425.623	87.44
425.846	76.44
426.068	76.44
426.291	75.44
426.513	85.44
426.735	74.44
426.958	81.44
427.18	87.44
427.402	79.44
427.625	87.44
427.847	87.44
428.069	77.44
428.292	91.44
428.514	75.44
428.736	77.44
428.958	79.44
429.181	83.44
429.403	75.44
429.625	78.44
429.847	95.44
430.069	89.44
430.292	100.44
430.514	75.44
430.736	77.44
430.958	95.44
431.18	89.44
431.402	93.44
431.624	77.44
431.846	83.44
432.068	85.44
432.29	91.44
432.512	96.44
432.734	88.44
432.956	87.44
433.178	83.44
433.4	95.44
433.622	88.44
433.844	84.44
434.066	89.44
434.287	80.44
434.509	89.44
434.731	78.44
434.953	73.44
435.175	77.44
435.397	78.44
435.618	75.44
435.84	81.44
436.062	84.44
436.284	83.44
436.505	86.44
436.727	86.44
436.949	77.44
437.17	70.44
437.392	90.44
437.614	74.44
437.835	75.44
438.057	74.44
438.278	95.44
438.5	92.44
438.721	79.44
438.943	86.44
439.165	69.44
439.386	83.44
439.608	90.44
439.829	87.44
440.05	71.44
440.272	89.44
440.493	75.44
440.715	71.44
440.936	104.44
441.158	79.44
441.379	74.44
441.6	77.44
441.822	80.44
442.043	85.44
442.264	82.44
442.486	75.44
442.707	89.44
442.928	73.44
443.149	75.44
443.371	79.44
443.592	99.44
443.813	102.44
444.034	90.44
444.255	76.44
444.476	85.44
444.698	83.44
444.919	80.44
445.14	157.44
445.361	127.44
445.582	99.44
445.803	87.44
446.024	96.44
446.245	106.44
446.466	94.44
446.687	76.44
446.908	77.44
447.129	94.44
447.35	85.44
447.571	74.44
447.792	87.44
448.013	69.44
448.234	93.44
448.455	77.44
448.675	89.44
448.896	76.44
449.117	77.44
449.338	86.44
449.559	88.44
449.779	81.44
450	90.44
450.221	89.44
450.442	81.44
450.662	75.44
450.883	80.44
451.104	78.44
451.324	85.44
451.545	84.44
451.766	80.44
451.986	85.44
452.207	95.44
452.428	95.44
452.648	90.44
452.869	76.44
453.089	81.44
453.31	72.44
453.53	82.44
453.751	69.44
453.971	88.44
454.192	84.44
454.412	78.44
454.633	79.44
454.853	82.44
455.073	85.44
455.294	82.44
455.514	77.44
455.734	71.44
455.955	87.44
456.175	76.44
456.395	81.44
456.616	75.44
456.836	72.44
457.056	69.44
457.276	91.44
457.497	79.44
457.717	79.44
457.937	85.44
458.157	72.44
458.377	73.44
458.598	72.44
458.818	87.44
459.038	77.44
459.258	78.44
459.478	76.44
459.698	89.44
459.918	84.44
460.138	66.44
460.358	90.44
460.578	101.44
460.798	87.44
461.018	90.44
461.238	92.44
461.458	90.44
461.678	83.44
461.898	90.44
462.118	78.44
462.338	88.44
462.558	89.44
462.777	76.44
462.997	89.44
463.217	88.44
463.437	71.44
463.657	78.44
463.876	85.44
464.096	83.44
464.316	83.44
464.536	91.44
464.755	75.44
464.975	77.44
465.195	79.44
465.414	64.44
465.634	91.44
465.854	77.44
466.073	93.44
466.293	66.44
466.512	76.44
466.732	94.44
466.951	95.44
467.171	67.44
467.391	80.44
467.61	85.44
467.829	81.44
468.049	84.44
468.268	93.44
468.488	97.44
468.707	85.44
468.927	72.44
469.146	73.44
469.365	81.44
469.585	89.44
469.804	63.44
470.023	85.44
470.243	90.44
470.462	75.44
470.681	97.44
470.901	98.44
471.12	85.44
471.339	79.44
471.558	84.44
471.777	81.44
471.997	77.44
472.216	73.44
472.435	76.44
472.654	76.44
472.873	89.44
473.092	90.44
473.311	76.44
473.53	75.44
473.749	95.44
473.968	95.44
474.187	83.44
474.406	86.44
474.625	77.44
474.844	85.44
475.063	85.44
475.282	86.44
475.501	75.44
475.72	97.44
475.939	83.44
476.158	79.44
476.377	78.44
476.596	75.44
476.814	92.44
477.033	67.44
477.252	87.44
477.471	85.44
477.69	86.44
477.908	73.44
478.127	81.44
478.346	94.44
478.564	89.44
478.783	79.44
479.002	91.44
479.22	82.44
479.439	78.44
479.658	86.44
479.876	80.44
480.095	84.44
480.313	76.44
480.532	91.44
480.751	66.44
480.969	87.44
481.188	89.44
481.406	87.44
481.624	80.44
481.843	81.44
482.061	88.44
482.28	73.44
482.498	87.44
482.717	91.44
482.935	92.44
483.153	81.44
483.372	91.44
483.59	92.44
483.808	83.44
484.027	87.44
484.245	79.44
484.463	85.44
484.681	97.44
484.9	90.44
485.118	77.44
485.336	85.44
485.554	90.44
485.772	84.44
485.99	81.44
486.209	80.44
486.427	69.44
486.645	85.44
486.863	77.44
487.081	83.44
487.299	87.44
487.517	83.44
487.735	90.44
487.953	87.44
488.171	82.44
488.389	91.44
488.607	75.44
488.825	92.44
489.043	77.44
489.261	87.44
489.479	85.44
489.696	89.44
489.914	92.44
490.132	85.44
490.35	85.44
490.568	73.44
490.786	76.44
491.003	80.44
491.221	91.44
491.439	89.44
491.657	72.44
491.874	85.44
492.092	76.44
492.31	96.44
492.527	100.44
492.745	104.44
492.963	89.44
493.18	89.44
493.398	83.44
493.615	89.44
493.833	83.44
494.05	70.44
494.268	79.44
494.485	97.44
494.703	76.44
494.92	83.44
495.138	85.44
495.355	78.44
495.573	92.44
495.79	85.44
496.008	89.44
496.225	86.44
496.442	73.44
496.66	88.44
496.877	87.44
497.094	85.44
497.312	80.44
497.529	88.44
497.746	86.44
497.963	71.44
498.181	83.44
498.398	85.44
498.615	84.44
498.832	91.44
499.049	84.44
499.267	96.44
499.484	82.44
499.701	85.44
499.918	99.44
500.135	102.44
500.352	84.44
500.569	80.44
500.786	84.44
501.003	89.44
501.22	82.44
501.437	92.44
501.654	74.44
501.871	92.44
502.088	95.44
502.305	85.44
502.522	67.44
502.739	101.44
502.956	84.44
503.172	98.44
503.389	102.44
503.606	77.44
503.823	77.44
504.04	89.44
504.256	82.44
504.473	97.44
504.69	84.44
504.907	78.44
505.123	94.44
505.34	87.44
505.557	89.44
505.773	75.44
505.99	80.44
506.207	92.44
506.423	94.44
506.64	84.44
506.856	79.44
507.073	85.44
507.289	88.44
507.506	73.44
507.722	93.44
507.939	94.44
508.155	91.44
508.372	75.44
508.588	85.44
508.805	87.44
509.021	83.44
509.238	94.44
509.454	88.44
509.67	81.44
509.887	97.44
510.103	92.44
510.319	81.44
510.536	92.44
510.752	77.44
510.968	94.44
511.184	81.44
511.401	81.44
511.617	86.44
511.833	88.44
512.049	89.44
512.265	87.44
512.481	85.44
512.698	79.44
512.914	87.44
513.13	89.44
513.346	100.44
513.562	83.44
513.778	85.44
513.994	91.44
514.21	99.44
514.426	79.44
514.642	78.44
514.858	85.44
515.074	97.44
515.29	84.44
515.506	90.44
515.721	88.44
515.937	85.44
516.153	78.44
516.369	91.44
516.585	76.44
516.801	97.44
517.016	89.44
517.232	83.44
517.448	82.44
517.664	72.44
517.879	106.44
518.095	83.44
518.311	97.44
518.527	81.44
518.742	95.44
518.958	84.44
519.173	84.44
519.389	87.44
519.605	91.44
