Data from HP_1_HRD10591_00039.txt Node
Date: Mon Jan 19 14:15:27 EST 2026
User: Yrep
Spectrometer: HR+D1059
Trigger mode: 1
Integration Time (sec): 1.000000E-1
Scans to average: 1
Electric dark correction enabled: true
Nonlinearity correction enabled: false
Boxcar width: 0
XAxis mode: Wavelengths
Number of Pixels in Spectrum: 2048
>>>>>Begin Spectral Data<<<<<
223.165	-15.88
223.4	-15.88
223.635	-15.88
223.869	-17.88
224.104	-34.88
224.338	-19.88
224.573	-7.88
224.808	-15.88
225.042	-1.88
225.277	6.12
225.511	-15.88
225.746	15.12
225.98	11.12
226.215	16.12
226.449	7.12
226.683	27.12
226.918	17.12
227.152	30.12
227.387	56.12
227.621	42.12
227.856	46.12
228.09	54.12
228.324	66.12
228.559	48.12
228.793	60.12
229.027	80.12
229.262	74.12
229.496	62.12
229.73	68.12
229.964	67.12
230.199	75.12
230.433	80.12
230.667	90.12
230.901	75.12
231.136	68.12
231.37	74.12
231.604	76.12
231.838	63.12
232.072	78.12
232.306	89.12
232.541	92.12
232.775	93.12
233.009	82.12
233.243	77.12
233.477	84.12
233.711	80.12
233.945	76.12
234.179	94.12
234.413	89.12
234.647	75.12
234.881	76.12
235.115	76.12
235.349	81.12
235.583	70.12
235.817	73.12
236.051	76.12
236.285	82.12
236.519	67.12
236.753	79.12
236.987	80.12
237.221	90.12
237.455	89.12
237.689	80.12
237.922	77.12
238.156	83.12
238.39	82.12
238.624	76.12
238.858	69.12
239.091	73.12
239.325	76.12
239.559	80.12
239.793	72.12
240.027	74.12
240.26	86.12
240.494	66.12
240.728	76.12
240.961	78.12
241.195	83.12
241.429	72.12
241.662	78.12
241.896	70.12
242.13	80.12
242.363	74.12
242.597	81.12
242.83	89.12
243.064	74.12
243.298	91.12
243.531	83.12
243.765	86.12
243.998	79.12
244.232	78.12
244.465	91.12
244.699	90.12
244.932	83.12
245.166	83.12
245.399	79.12
245.633	75.12
245.866	79.12
246.099	72.12
246.333	73.12
246.566	85.12
246.8	85.12
247.033	75.12
247.266	93.12
247.5	87.12
247.733	83.12
247.966	92.12
248.2	79.12
248.433	97.12
248.666	93.12
248.899	80.12
249.133	72.12
249.366	81.12
249.599	78.12
249.832	68.12
250.066	72.12
250.299	86.12
250.532	75.12
250.765	82.12
250.998	74.12
251.231	86.12
251.465	90.12
251.698	84.12
251.931	91.12
252.164	82.12
252.397	83.12
252.63	88.12
252.863	97.12
253.096	91.12
253.329	86.12
253.562	81.12
253.795	84.12
254.028	82.12
254.261	79.12
254.494	80.12
254.727	94.12
254.96	91.12
255.193	77.12
255.426	84.12
255.659	88.12
255.892	83.12
256.124	83.12
256.357	90.12
256.59	87.12
256.823	87.12
257.056	86.12
257.289	84.12
257.521	73.12
257.754	82.12
257.987	84.12
258.22	74.12
258.452	77.12
258.685	78.12
258.918	81.12
259.151	87.12
259.383	89.12
259.616	72.12
259.849	83.12
260.081	84.12
260.314	77.12
260.547	88.12
260.779	78.12
261.012	86.12
261.244	76.12
261.477	88.12
261.71	93.12
261.942	86.12
262.175	83.12
262.407	90.12
262.64	94.12
262.872	80.12
263.105	77.12
263.337	92.12
263.57	106.12
263.802	76.12
264.035	81.12
264.267	74.12
264.499	92.12
264.732	84.12
264.964	76.12
265.197	88.12
265.429	96.12
265.661	98.12
265.894	86.12
266.126	78.12
266.358	86.12
266.591	98.12
266.823	93.12
267.055	84.12
267.287	97.12
267.52	84.12
267.752	79.12
267.984	76.12
268.216	86.12
268.448	91.12
268.681	82.12
268.913	81.12
269.145	79.12
269.377	69.12
269.609	68.12
269.841	97.12
270.073	94.12
270.306	74.12
270.538	81.12
270.77	83.12
271.002	74.12
271.234	89.12
271.466	80.12
271.698	77.12
271.93	79.12
272.162	95.12
272.394	94.12
272.626	82.12
272.858	96.12
273.09	90.12
273.322	88.12
273.553	86.12
273.785	83.12
274.017	95.12
274.249	97.12
274.481	96.12
274.713	76.12
274.945	88.12
275.176	90.12
275.408	85.12
275.64	98.12
275.872	90.12
276.104	85.12
276.335	93.12
276.567	87.12
276.799	83.12
277.031	84.12
277.262	80.12
277.494	74.12
277.726	94.12
277.957	93.12
278.189	77.12
278.421	80.12
278.652	78.12
278.884	89.12
279.115	75.12
279.347	100.12
279.579	92.12
279.81	89.12
280.042	82.12
280.273	80.12
280.505	80.12
280.736	89.12
280.968	94.12
281.199	77.12
281.431	82.12
281.662	85.12
281.894	76.12
282.125	86.12
282.356	76.12
282.588	81.12
282.819	90.12
283.051	79.12
283.282	80.12
283.513	82.12
283.745	75.12
283.976	92.12
284.207	74.12
284.439	81.12
284.67	83.12
284.901	92.12
285.132	85.12
285.364	84.12
285.595	86.12
285.826	80.12
286.057	85.12
286.288	88.12
286.52	88.12
286.751	94.12
286.982	85.12
287.213	92.12
287.444	82.12
287.675	96.12
287.906	86.12
288.138	82.12
288.369	89.12
288.6	92.12
288.831	86.12
289.062	88.12
289.293	74.12
289.524	96.12
289.755	72.12
289.986	82.12
290.217	92.12
290.448	90.12
290.679	95.12
290.91	88.12
291.141	76.12
291.371	88.12
291.602	86.12
291.833	104.12
292.064	81.12
292.295	88.12
292.526	90.12
292.757	95.12
292.987	98.12
293.218	78.12
293.449	88.12
293.68	87.12
293.91	90.12
294.141	103.12
294.372	99.12
294.603	100.12
294.833	102.12
295.064	93.12
295.295	86.12
295.525	84.12
295.756	82.12
295.987	86.12
296.217	80.12
296.448	84.12
296.679	90.12
296.909	83.12
297.14	89.12
297.37	100.12
297.601	94.12
297.831	78.12
298.062	87.12
298.292	89.12
298.523	87.12
298.753	74.12
298.984	97.12
299.214	96.12
299.445	76.12
299.675	78.12
299.905	100.12
300.136	73.12
300.366	86.12
300.597	81.12
300.827	84.12
301.057	80.12
301.288	92.12
301.518	100.12
301.748	82.12
301.979	100.12
302.209	80.12
302.439	95.12
302.669	89.12
302.9	87.12
303.13	94.12
303.36	100.12
303.59	81.12
303.82	79.12
304.051	86.12
304.281	71.12
304.511	98.12
304.741	93.12
304.971	82.12
305.201	87.12
305.431	90.12
305.661	80.12
305.891	104.12
306.121	91.12
306.352	80.12
306.582	92.12
306.812	86.12
307.042	90.12
307.272	66.12
307.502	83.12
307.731	88.12
307.961	96.12
308.191	85.12
308.421	90.12
308.651	90.12
308.881	79.12
309.111	100.12
309.341	83.12
309.571	96.12
309.8	96.12
310.03	94.12
310.26	86.12
310.49	87.12
310.72	74.12
310.949	88.12
311.179	100.12
311.409	92.12
311.639	77.12
311.868	83.12
312.098	100.12
312.328	97.12
312.557	88.12
312.787	88.12
313.017	88.12
313.246	92.12
313.476	89.12
313.706	100.12
313.935	81.12
314.165	96.12
314.394	81.12
314.624	88.12
314.853	84.12
315.083	101.12
315.312	85.12
315.542	98.12
315.771	89.12
316.001	91.12
316.23	96.12
316.46	95.12
316.689	77.12
316.919	91.12
317.148	73.12
317.377	95.12
317.607	87.12
317.836	89.12
318.065	100.12
318.295	91.12
318.524	78.12
318.753	86.12
318.983	89.12
319.212	80.12
319.441	89.12
319.67	93.12
319.9	88.12
320.129	104.12
320.358	101.12
320.587	85.12
320.816	86.12
321.046	92.12
321.275	82.12
321.504	82.12
321.733	92.12
321.962	84.12
322.191	83.12
322.42	94.12
322.649	91.12
322.878	96.12
323.108	83.12
323.337	96.12
323.566	92.12
323.795	96.12
324.024	100.12
324.253	100.12
324.482	104.12
324.71	87.12
324.939	80.12
325.168	82.12
325.397	92.12
325.626	84.12
325.855	96.12
326.084	95.12
326.313	94.12
326.542	87.12
326.77	92.12
326.999	100.12
327.228	82.12
327.457	74.12
327.686	90.12
327.914	94.12
328.143	90.12
328.372	88.12
328.6	89.12
328.829	100.12
329.058	74.12
329.287	89.12
329.515	87.12
329.744	78.12
329.972	85.12
330.201	83.12
330.43	91.12
330.658	78.12
330.887	96.12
331.115	87.12
331.344	90.12
331.572	86.12
331.801	85.12
332.03	88.12
332.258	84.12
332.486	86.12
332.715	73.12
332.943	81.12
333.172	92.12
333.4	90.12
333.629	87.12
333.857	98.12
334.085	105.12
334.314	88.12
334.542	73.12
334.771	92.12
334.999	83.12
335.227	89.12
335.455	78.12
335.684	72.12
335.912	78.12
336.14	100.12
336.369	108.12
336.597	77.12
336.825	86.12
337.053	99.12
337.281	77.12
337.51	92.12
337.738	88.12
337.966	84.12
338.194	96.12
338.422	82.12
338.65	94.12
338.878	84.12
339.106	96.12
339.334	88.12
339.562	91.12
339.79	78.12
340.018	91.12
340.246	94.12
340.474	91.12
340.702	92.12
340.93	76.12
341.158	93.12
341.386	96.12
341.614	85.12
341.842	83.12
342.07	99.12
342.298	89.12
342.526	93.12
342.754	90.12
342.981	82.12
343.209	96.12
343.437	106.12
343.665	81.12
343.893	80.12
344.12	84.12
344.348	84.12
344.576	78.12
344.804	92.12
345.031	95.12
345.259	89.12
345.487	93.12
345.714	96.12
345.942	82.12
346.17	85.12
346.397	94.12
346.625	76.12
346.853	96.12
347.08	89.12
347.308	103.12
347.535	81.12
347.763	88.12
347.99	88.12
348.218	92.12
348.445	77.12
348.673	91.12
348.9	78.12
349.128	92.12
349.355	83.12
349.583	88.12
349.81	80.12
350.037	87.12
350.265	95.12
350.492	95.12
350.72	91.12
350.947	96.12
351.174	98.12
351.402	79.12
351.629	94.12
351.856	94.12
352.083	94.12
352.311	99.12
352.538	81.12
352.765	78.12
352.992	94.12
353.22	90.12
353.447	92.12
353.674	95.12
353.901	90.12
354.128	88.12
354.355	97.12
354.583	81.12
354.81	87.12
355.037	79.12
355.264	82.12
355.491	88.12
355.718	87.12
355.945	91.12
356.172	92.12
356.399	86.12
356.626	80.12
356.853	89.12
357.08	94.12
357.307	101.12
357.534	80.12
357.761	93.12
357.988	95.12
358.215	82.12
358.441	81.12
358.668	96.12
358.895	87.12
359.122	87.12
359.349	96.12
359.576	95.12
359.802	88.12
360.029	98.12
360.256	88.12
360.483	83.12
360.709	83.12
360.936	79.12
361.163	103.12
361.39	89.12
361.616	106.12
361.843	84.12
362.07	99.12
362.296	72.12
362.523	79.12
362.749	100.12
362.976	100.12
363.203	93.12
363.429	94.12
363.656	78.12
363.882	93.12
364.109	88.12
364.335	95.12
364.562	90.12
364.788	96.12
365.015	91.12
365.241	102.12
365.468	102.12
365.694	82.12
365.92	85.12
366.147	80.12
366.373	83.12
366.599	88.12
366.826	91.12
367.052	89.12
367.278	99.12
367.505	93.12
367.731	89.12
367.957	86.12
368.184	85.12
368.41	103.12
368.636	95.12
368.862	98.12
369.089	91.12
369.315	87.12
369.541	87.12
369.767	90.12
369.993	92.12
370.219	92.12
370.445	90.12
370.672	87.12
370.898	67.12
371.124	79.12
371.35	73.12
371.576	89.12
371.802	76.12
372.028	95.12
372.254	101.12
372.48	79.12
372.706	102.12
372.932	93.12
373.158	92.12
373.384	92.12
373.61	94.12
373.835	108.12
374.061	81.12
374.287	87.12
374.513	88.12
374.739	103.12
374.965	72.12
375.191	92.12
375.416	96.12
375.642	85.12
375.868	90.12
376.094	98.12
376.319	105.12
376.545	91.12
376.771	87.12
376.997	82.12
377.222	87.12
377.448	96.12
377.674	94.12
377.899	104.12
378.125	79.12
378.35	87.12
378.576	88.12
378.802	87.12
379.027	85.12
379.253	83.12
379.478	99.12
379.704	81.12
379.929	85.12
380.155	95.12
380.38	74.12
380.606	82.12
380.831	89.12
381.057	88.12
381.282	99.12
381.507	89.12
381.733	87.12
381.958	103.12
382.184	88.12
382.409	87.12
382.634	98.12
382.86	92.12
383.085	85.12
383.31	98.12
383.535	76.12
383.761	82.12
383.986	96.12
384.211	77.12
384.436	82.12
384.662	97.12
384.887	92.12
385.112	77.12
385.337	89.12
385.562	86.12
385.787	88.12
386.013	102.12
386.238	102.12
386.463	95.12
386.688	95.12
386.913	81.12
387.138	87.12
387.363	93.12
387.588	92.12
387.813	100.12
388.038	98.12
388.263	89.12
388.488	80.12
388.713	76.12
388.938	82.12
389.163	93.12
389.387	96.12
389.612	90.12
389.837	91.12
390.062	86.12
390.287	92.12
390.512	80.12
390.736	85.12
390.961	72.12
391.186	79.12
391.411	90.12
391.636	86.12
391.86	74.12
392.085	86.12
392.31	100.12
392.534	73.12
392.759	102.12
392.984	130.12
393.208	157.12
393.433	186.12
393.658	145.12
393.882	104.12
394.107	90.12
394.331	93.12
394.556	93.12
394.78	98.12
395.005	102.12
395.229	82.12
395.454	87.12
395.678	100.12
395.903	90.12
396.127	116.12
396.352	110.12
396.576	112.12
396.801	126.12
397.025	145.12
397.249	114.12
397.474	97.12
397.698	85.12
397.922	92.12
398.147	90.12
398.371	76.12
398.595	83.12
398.82	84.12
399.044	89.12
399.268	81.12
399.492	89.12
399.717	95.12
399.941	92.12
400.165	90.12
400.389	80.12
400.613	92.12
400.837	90.12
401.062	94.12
401.286	79.12
401.51	81.12
401.734	82.12
401.958	86.12
402.182	76.12
402.406	99.12
402.63	90.12
402.854	79.12
403.078	77.12
403.302	72.12
403.526	82.12
403.75	94.12
403.974	90.12
404.198	106.12
404.422	103.12
404.645	109.12
404.869	106.12
405.093	88.12
405.317	96.12
405.541	83.12
405.765	80.12
405.988	85.12
406.212	76.12
406.436	92.12
406.66	101.12
406.883	82.12
407.107	82.12
407.331	92.12
407.555	87.12
407.778	83.12
408.002	96.12
408.226	90.12
408.449	89.12
408.673	84.12
408.896	78.12
409.12	98.12
409.344	90.12
409.567	79.12
409.791	109.12
410.014	88.12
410.238	86.12
410.461	86.12
410.685	95.12
410.908	86.12
411.132	90.12
411.355	85.12
411.578	87.12
411.802	81.12
412.025	94.12
412.249	75.12
412.472	74.12
412.695	100.12
412.919	77.12
413.142	83.12
413.365	90.12
413.589	78.12
413.812	91.12
414.035	90.12
414.258	93.12
414.482	81.12
414.705	85.12
414.928	93.12
415.151	95.12
415.374	92.12
415.597	108.12
415.821	80.12
416.044	98.12
416.267	78.12
416.49	99.12
416.713	95.12
416.936	85.12
417.159	90.12
417.382	99.12
417.605	84.12
417.828	96.12
418.051	78.12
418.274	78.12
418.497	100.12
418.72	83.12
418.943	101.12
419.166	86.12
419.389	88.12
419.611	83.12
419.834	91.12
420.057	95.12
420.28	97.12
420.503	105.12
420.726	80.12
420.948	80.12
421.171	77.12
421.394	98.12
421.617	101.12
421.839	115.12
422.062	97.12
422.285	109.12
422.507	138.12
422.73	183.12
422.953	164.12
423.175	103.12
423.398	93.12
423.621	99.12
423.843	90.12
424.066	98.12
424.288	93.12
424.511	92.12
424.733	93.12
424.956	94.12
425.178	86.12
425.401	85.12
425.623	101.12
425.846	85.12
426.068	89.12
426.291	101.12
426.513	93.12
426.735	90.12
426.958	93.12
427.18	89.12
427.402	92.12
427.625	88.12
427.847	82.12
428.069	101.12
428.292	105.12
428.514	92.12
428.736	96.12
428.958	98.12
429.181	108.12
429.403	86.12
429.625	79.12
429.847	106.12
430.069	103.12
430.292	109.12
430.514	110.12
430.736	102.12
430.958	90.12
431.18	79.12
431.402	78.12
431.624	98.12
431.846	102.12
432.068	98.12
432.29	94.12
432.512	84.12
432.734	95.12
432.956	83.12
433.178	81.12
433.4	83.12
433.622	76.12
433.844	94.12
434.066	88.12
434.287	72.12
434.509	92.12
434.731	81.12
434.953	102.12
435.175	92.12
435.397	93.12
435.618	100.12
435.84	96.12
436.062	88.12
436.284	78.12
436.505	89.12
436.727	85.12
436.949	85.12
437.17	79.12
437.392	85.12
437.614	84.12
437.835	87.12
438.057	84.12
438.278	82.12
438.5	87.12
438.721	100.12
438.943	81.12
439.165	96.12
439.386	77.12
439.608	81.12
439.829	91.12
440.05	70.12
440.272	82.12
440.493	80.12
440.715	79.12
440.936	79.12
441.158	85.12
441.379	84.12
441.6	69.12
441.822	101.12
442.043	102.12
442.264	96.12
442.486	106.12
442.707	117.12
442.928	93.12
443.149	79.12
443.371	111.12
443.592	134.12
443.813	121.12
444.034	101.12
444.255	84.12
444.476	68.12
444.698	74.12
444.919	77.12
445.14	178.12
445.361	136.12
445.582	127.12
445.803	139.12
446.024	92.12
446.245	86.12
446.466	85.12
446.687	87.12
446.908	103.12
447.129	77.12
447.35	77.12
447.571	97.12
447.792	88.12
448.013	79.12
448.234	77.12
448.455	84.12
448.675	76.12
448.896	85.12
449.117	80.12
449.338	79.12
449.559	87.12
449.779	88.12
450	74.12
450.221	68.12
450.442	82.12
450.662	88.12
450.883	70.12
451.104	101.12
451.324	95.12
451.545	94.12
451.766	81.12
451.986	88.12
452.207	80.12
452.428	81.12
452.648	79.12
452.869	81.12
453.089	82.12
453.31	86.12
453.53	82.12
453.751	96.12
453.971	88.12
454.192	81.12
454.412	93.12
454.633	81.12
454.853	94.12
455.073	85.12
455.294	94.12
455.514	97.12
455.734	91.12
455.955	89.12
456.175	83.12
456.395	90.12
456.616	68.12
456.836	84.12
457.056	97.12
457.276	96.12
457.497	72.12
457.717	86.12
457.937	83.12
458.157	96.12
458.377	101.12
458.598	87.12
458.818	100.12
459.038	91.12
459.258	78.12
459.478	93.12
459.698	84.12
459.918	91.12
460.138	85.12
460.358	80.12
460.578	80.12
460.798	89.12
461.018	89.12
461.238	96.12
461.458	87.12
461.678	93.12
461.898	92.12
462.118	96.12
462.338	95.12
462.558	75.12
462.777	85.12
462.997	65.12
463.217	65.12
463.437	91.12
463.657	100.12
463.876	95.12
464.096	81.12
464.316	94.12
464.536	83.12
464.755	78.12
464.975	73.12
465.195	86.12
465.414	94.12
465.634	92.12
465.854	92.12
466.073	72.12
466.293	89.12
466.512	75.12
466.732	74.12
466.951	92.12
467.171	90.12
467.391	85.12
467.61	92.12
467.829	94.12
468.049	89.12
468.268	72.12
468.488	82.12
468.707	86.12
468.927	96.12
469.146	88.12
469.365	101.12
469.585	100.12
469.804	84.12
470.023	94.12
470.243	87.12
470.462	92.12
470.681	91.12
470.901	91.12
471.12	102.12
471.339	81.12
471.558	69.12
471.777	70.12
471.997	89.12
472.216	89.12
472.435	89.12
472.654	93.12
472.873	92.12
473.092	96.12
473.311	88.12
473.53	87.12
473.749	85.12
473.968	86.12
474.187	85.12
474.406	86.12
474.625	102.12
474.844	90.12
475.063	88.12
475.282	91.12
475.501	76.12
475.72	88.12
475.939	77.12
476.158	84.12
476.377	88.12
476.596	84.12
476.814	81.12
477.033	96.12
477.252	96.12
477.471	95.12
477.69	79.12
477.908	86.12
478.127	88.12
478.346	86.12
478.564	82.12
478.783	81.12
479.002	109.12
479.22	80.12
479.439	92.12
479.658	86.12
479.876	92.12
480.095	79.12
480.313	71.12
480.532	86.12
480.751	88.12
480.969	83.12
481.188	86.12
481.406	80.12
481.624	94.12
481.843	83.12
482.061	68.12
482.28	84.12
482.498	97.12
482.717	93.12
482.935	83.12
483.153	92.12
483.372	80.12
483.59	91.12
483.808	94.12
484.027	92.12
484.245	93.12
484.463	96.12
484.681	96.12
484.9	90.12
485.118	103.12
485.336	88.12
485.554	86.12
485.772	92.12
485.99	80.12
486.209	92.12
486.427	91.12
486.645	80.12
486.863	83.12
487.081	90.12
487.299	73.12
487.517	64.12
487.735	96.12
487.953	102.12
488.171	107.12
488.389	92.12
488.607	92.12
488.825	87.12
489.043	87.12
489.261	99.12
489.479	86.12
489.696	100.12
489.914	88.12
490.132	80.12
490.35	89.12
490.568	88.12
490.786	96.12
491.003	92.12
491.221	90.12
491.439	86.12
491.657	103.12
491.874	81.12
492.092	99.12
492.31	89.12
492.527	81.12
492.745	82.12
492.963	74.12
493.18	95.12
493.398	90.12
493.615	105.12
493.833	89.12
494.05	79.12
494.268	77.12
494.485	88.12
494.703	97.12
494.92	97.12
495.138	91.12
495.355	91.12
495.573	83.12
495.79	91.12
496.008	97.12
496.225	88.12
496.442	96.12
496.66	101.12
496.877	89.12
497.094	87.12
497.312	81.12
497.529	92.12
497.746	94.12
497.963	76.12
498.181	89.12
498.398	101.12
498.615	92.12
498.832	101.12
499.049	94.12
499.267	87.12
499.484	92.12
499.701	84.12
499.918	93.12
500.135	86.12
500.352	77.12
500.569	66.12
500.786	79.12
501.003	81.12
501.22	75.12
501.437	93.12
501.654	89.12
501.871	93.12
502.088	98.12
502.305	90.12
502.522	91.12
502.739	99.12
502.956	86.12
503.172	103.12
503.389	78.12
503.606	83.12
503.823	86.12
504.04	86.12
504.256	86.12
504.473	84.12
504.69	90.12
504.907	82.12
505.123	81.12
505.34	98.12
505.557	81.12
505.773	89.12
505.99	86.12
506.207	73.12
506.423	81.12
506.64	90.12
506.856	75.12
507.073	90.12
507.289	79.12
507.506	93.12
507.722	94.12
507.939	80.12
508.155	87.12
508.372	88.12
508.588	91.12
508.805	84.12
509.021	86.12
509.238	89.12
509.454	89.12
509.67	100.12
509.887	86.12
510.103	92.12
510.319	80.12
510.536	88.12
510.752	93.12
510.968	72.12
511.184	79.12
511.401	90.12
511.617	84.12
511.833	90.12
512.049	110.12
512.265	83.12
512.481	91.12
512.698	82.12
512.914	78.12
513.13	99.12
513.346	87.12
513.562	93.12
513.778	96.12
513.994	78.12
514.21	79.12
514.426	77.12
514.642	83.12
514.858	108.12
515.074	92.12
515.29	95.12
515.506	103.12
515.721	76.12
515.937	84.12
516.153	94.12
516.369	91.12
516.585	89.12
516.801	90.12
517.016	92.12
517.232	77.12
517.448	88.12
517.664	94.12
517.879	90.12
518.095	91.12
518.311	97.12
518.527	95.12
