Data from HP_1_HRD10591_00001.txt Node
Date: Mon Jan 19 14:15:08 EST 2026
User: Yrep
Spectrometer: HR+D1059
Trigger mode: 1
Integration Time (sec): 1.000000E-1
Scans to average: 1
Electric dark correction enabled: true
Nonlinearity correction enabled: false
Boxcar width: 0
XAxis mode: Wavelengths
Number of Pixels in Spectrum: 2048
>>>>>Begin Spectral Data<<<<<
223.165	-21.12
223.4	-21.12
223.635	-21.12
223.869	-26.12
224.104	-16.12
224.338	-9.12
224.573	-14.12
224.808	-14.12
225.042	-17.12
225.277	3.88
225.511	2.88
225.746	10.88
225.98	18.88
226.215	3.88
226.449	15.88
226.683	11.88
226.918	27.88
227.152	21.88
227.387	44.88
227.621	25.88
227.856	42.88
228.09	39.88
228.324	33.88
228.559	55.88
228.793	65.88
229.027	59.88
229.262	73.88
229.496	63.88
229.73	60.88
229.964	67.88
230.199	59.88
230.433	70.88
230.667	78.88
230.901	71.88
231.136	80.88
231.37	76.88
231.604	75.88
231.838	67.88
232.072	66.88
232.306	66.88
232.541	75.88
232.775	78.88
233.009	79.88
233.243	76.88
233.477	70.88
233.711	72.88
233.945	73.88
234.179	88.88
234.413	79.88
234.647	74.88
234.881	72.88
235.115	69.88
235.349	77.88
235.583	66.88
235.817	74.88
236.051	66.88
236.285	71.88
236.519	81.88
236.753	77.88
236.987	69.88
237.221	75.88
237.455	74.88
237.689	83.88
237.922	77.88
238.156	66.88
238.39	64.88
238.624	70.88
238.858	75.88
239.091	86.88
239.325	81.88
239.559	73.88
239.793	68.88
240.027	73.88
240.26	62.88
240.494	73.88
240.728	71.88
240.961	69.88
241.195	79.88
241.429	75.88
241.662	66.88
241.896	66.88
242.13	80.88
242.363	76.88
242.597	71.88
242.83	67.88
243.064	82.88
243.298	81.88
243.531	65.88
243.765	88.88
243.998	82.88
244.232	67.88
244.465	66.88
244.699	73.88
244.932	75.88
245.166	75.88
245.399	74.88
245.633	91.88
245.866	93.88
246.099	72.88
246.333	86.88
246.566	79.88
246.8	83.88
247.033	72.88
247.266	72.88
247.5	78.88
247.733	77.88
247.966	72.88
248.2	76.88
248.433	77.88
248.666	74.88
248.899	77.88
249.133	73.88
249.366	77.88
249.599	84.88
249.832	71.88
250.066	66.88
250.299	67.88
250.532	66.88
250.765	69.88
250.998	88.88
251.231	69.88
251.465	82.88
251.698	63.88
251.931	77.88
252.164	91.88
252.397	81.88
252.63	82.88
252.863	74.88
253.096	75.88
253.329	76.88
253.562	87.88
253.795	70.88
254.028	79.88
254.261	74.88
254.494	84.88
254.727	65.88
254.96	71.88
255.193	73.88
255.426	81.88
255.659	79.88
255.892	80.88
256.124	75.88
256.357	81.88
256.59	78.88
256.823	87.88
257.056	84.88
257.289	65.88
257.521	81.88
257.754	70.88
257.987	75.88
258.22	58.88
258.452	75.88
258.685	87.88
258.918	81.88
259.151	93.88
259.383	98.88
259.616	64.88
259.849	67.88
260.081	87.88
260.314	85.88
260.547	78.88
260.779	86.88
261.012	78.88
261.244	75.88
261.477	89.88
261.71	73.88
261.942	73.88
262.175	86.88
262.407	77.88
262.64	90.88
262.872	82.88
263.105	80.88
263.337	75.88
263.57	69.88
263.802	80.88
264.035	91.88
264.267	85.88
264.499	81.88
264.732	80.88
264.964	82.88
265.197	75.88
265.429	85.88
265.661	83.88
265.894	80.88
266.126	86.88
266.358	80.88
266.591	75.88
266.823	69.88
267.055	84.88
267.287	79.88
267.52	83.88
267.752	80.88
267.984	74.88
268.216	80.88
268.448	70.88
268.681	86.88
268.913	73.88
269.145	81.88
269.377	90.88
269.609	78.88
269.841	91.88
270.073	89.88
270.306	82.88
270.538	81.88
270.77	63.88
271.002	65.88
271.234	74.88
271.466	82.88
271.698	86.88
271.93	84.88
272.162	74.88
272.394	99.88
272.626	79.88
272.858	84.88
273.09	79.88
273.322	79.88
273.553	76.88
273.785	103.88
274.017	70.88
274.249	87.88
274.481	75.88
274.713	81.88
274.945	93.88
275.176	86.88
275.408	70.88
275.64	82.88
275.872	86.88
276.104	75.88
276.335	79.88
276.567	87.88
276.799	78.88
277.031	79.88
277.262	74.88
277.494	83.88
277.726	86.88
277.957	75.88
278.189	94.88
278.421	75.88
278.652	81.88
278.884	86.88
279.115	75.88
279.347	95.88
279.579	93.88
279.81	74.88
280.042	99.88
280.273	74.88
280.505	76.88
280.736	79.88
280.968	69.88
281.199	84.88
281.431	85.88
281.662	95.88
281.894	81.88
282.125	96.88
282.356	87.88
282.588	87.88
282.819	94.88
283.051	74.88
283.282	72.88
283.513	86.88
283.745	89.88
283.976	88.88
284.207	86.88
284.439	85.88
284.67	86.88
284.901	82.88
285.132	79.88
285.364	76.88
285.595	91.88
285.826	79.88
286.057	73.88
286.288	86.88
286.52	81.88
286.751	86.88
286.982	62.88
287.213	94.88
287.444	98.88
287.675	79.88
287.906	75.88
288.138	77.88
288.369	85.88
288.6	88.88
288.831	82.88
289.062	82.88
289.293	88.88
289.524	72.88
289.755	80.88
289.986	69.88
290.217	70.88
290.448	84.88
290.679	74.88
290.91	70.88
291.141	86.88
291.371	76.88
291.602	100.88
291.833	81.88
292.064	78.88
292.295	69.88
292.526	82.88
292.757	85.88
292.987	56.88
293.218	73.88
293.449	86.88
293.68	87.88
293.91	93.88
294.141	84.88
294.372	86.88
294.603	86.88
294.833	79.88
295.064	84.88
295.295	86.88
295.525	69.88
295.756	88.88
295.987	63.88
296.217	80.88
296.448	91.88
296.679	83.88
296.909	96.88
297.14	101.88
297.37	101.88
297.601	70.88
297.831	87.88
298.062	83.88
298.292	80.88
298.523	80.88
298.753	95.88
298.984	78.88
299.214	71.88
299.445	78.88
299.675	83.88
299.905	95.88
300.136	95.88
300.366	84.88
300.597	89.88
300.827	78.88
301.057	73.88
301.288	86.88
301.518	104.88
301.748	88.88
301.979	97.88
302.209	97.88
302.439	86.88
302.669	90.88
302.9	82.88
303.13	81.88
303.36	85.88
303.59	98.88
303.82	57.88
304.051	78.88
304.281	90.88
304.511	81.88
304.741	83.88
304.971	87.88
305.201	83.88
305.431	86.88
305.661	93.88
305.891	85.88
306.121	80.88
306.352	87.88
306.582	90.88
306.812	101.88
307.042	93.88
307.272	94.88
307.502	75.88
307.731	88.88
307.961	82.88
308.191	80.88
308.421	84.88
308.651	101.88
308.881	81.88
309.111	79.88
309.341	80.88
309.571	93.88
309.8	83.88
310.03	90.88
310.26	78.88
310.49	74.88
310.72	81.88
310.949	96.88
311.179	88.88
311.409	87.88
311.639	92.88
311.868	92.88
312.098	81.88
312.328	81.88
312.557	81.88
312.787	71.88
313.017	81.88
313.246	83.88
313.476	86.88
313.706	85.88
313.935	86.88
314.165	84.88
314.394	99.88
314.624	102.88
314.853	95.88
315.083	80.88
315.312	81.88
315.542	94.88
315.771	78.88
316.001	95.88
316.23	82.88
316.46	89.88
316.689	92.88
316.919	83.88
317.148	89.88
317.377	78.88
317.607	73.88
317.836	84.88
318.065	84.88
318.295	78.88
318.524	74.88
318.753	97.88
318.983	87.88
319.212	89.88
319.441	79.88
319.67	86.88
319.9	91.88
320.129	82.88
320.358	88.88
320.587	84.88
320.816	85.88
321.046	99.88
321.275	87.88
321.504	97.88
321.733	81.88
321.962	86.88
322.191	84.88
322.42	85.88
322.649	87.88
322.878	91.88
323.108	73.88
323.337	86.88
323.566	85.88
323.795	79.88
324.024	95.88
324.253	90.88
324.482	94.88
324.71	89.88
324.939	76.88
325.168	90.88
325.397	86.88
325.626	80.88
325.855	75.88
326.084	85.88
326.313	87.88
326.542	81.88
326.77	84.88
326.999	95.88
327.228	79.88
327.457	84.88
327.686	77.88
327.914	94.88
328.143	83.88
328.372	83.88
328.6	92.88
328.829	78.88
329.058	71.88
329.287	90.88
329.515	69.88
329.744	76.88
329.972	92.88
330.201	85.88
330.43	88.88
330.658	89.88
330.887	83.88
331.115	78.88
331.344	79.88
331.572	88.88
331.801	72.88
332.03	78.88
332.258	91.88
332.486	86.88
332.715	75.88
332.943	87.88
333.172	82.88
333.4	74.88
333.629	82.88
333.857	97.88
334.085	89.88
334.314	82.88
334.542	97.88
334.771	91.88
334.999	90.88
335.227	75.88
335.455	95.88
335.684	83.88
335.912	97.88
336.14	96.88
336.369	84.88
336.597	70.88
336.825	63.88
337.053	79.88
337.281	89.88
337.51	78.88
337.738	80.88
337.966	89.88
338.194	93.88
338.422	88.88
338.65	82.88
338.878	86.88
339.106	94.88
339.334	102.88
339.562	95.88
339.79	83.88
340.018	85.88
340.246	84.88
340.474	100.88
340.702	94.88
340.93	88.88
341.158	74.88
341.386	86.88
341.614	93.88
341.842	79.88
342.07	95.88
342.298	81.88
342.526	81.88
342.754	87.88
342.981	79.88
343.209	91.88
343.437	95.88
343.665	82.88
343.893	86.88
344.12	90.88
344.348	87.88
344.576	86.88
344.804	89.88
345.031	84.88
345.259	79.88
345.487	85.88
345.714	93.88
345.942	88.88
346.17	81.88
346.397	94.88
346.625	89.88
346.853	70.88
347.08	85.88
347.308	99.88
347.535	87.88
347.763	95.88
347.99	92.88
348.218	102.88
348.445	89.88
348.673	109.88
348.9	78.88
349.128	92.88
349.355	78.88
349.583	90.88
349.81	74.88
350.037	83.88
350.265	81.88
350.492	86.88
350.72	78.88
350.947	88.88
351.174	71.88
351.402	85.88
351.629	86.88
351.856	99.88
352.083	89.88
352.311	80.88
352.538	83.88
352.765	82.88
352.992	88.88
353.22	75.88
353.447	90.88
353.674	81.88
353.901	91.88
354.128	86.88
354.355	81.88
354.583	79.88
354.81	94.88
355.037	93.88
355.264	74.88
355.491	76.88
355.718	94.88
355.945	91.88
356.172	89.88
356.399	76.88
356.626	89.88
356.853	92.88
357.08	86.88
357.307	85.88
357.534	87.88
357.761	96.88
357.988	79.88
358.215	99.88
358.441	89.88
358.668	68.88
358.895	79.88
359.122	89.88
359.349	73.88
359.576	69.88
359.802	73.88
360.029	88.88
360.256	88.88
360.483	82.88
360.709	87.88
360.936	88.88
361.163	87.88
361.39	95.88
361.616	88.88
361.843	90.88
362.07	83.88
362.296	92.88
362.523	98.88
362.749	93.88
362.976	101.88
363.203	106.88
363.429	110.88
363.656	90.88
363.882	89.88
364.109	103.88
364.335	127.88
364.562	108.88
364.788	109.88
365.015	87.88
365.241	96.88
365.468	86.88
365.694	80.88
365.92	84.88
366.147	87.88
366.373	66.88
366.599	77.88
366.826	86.88
367.052	82.88
367.278	100.88
367.505	84.88
367.731	94.88
367.957	98.88
368.184	80.88
368.41	75.88
368.636	75.88
368.862	94.88
369.089	83.88
369.315	67.88
369.541	83.88
369.767	97.88
369.993	87.88
370.219	94.88
370.445	69.88
370.672	104.88
370.898	79.88
371.124	90.88
371.35	99.88
371.576	82.88
371.802	74.88
372.028	97.88
372.254	89.88
372.48	75.88
372.706	79.88
372.932	88.88
373.158	83.88
373.384	97.88
373.61	106.88
373.835	104.88
374.061	105.88
374.287	80.88
374.513	85.88
374.739	106.88
374.965	78.88
375.191	106.88
375.416	85.88
375.642	96.88
375.868	97.88
376.094	85.88
376.319	90.88
376.545	93.88
376.771	88.88
376.997	83.88
377.222	86.88
377.448	95.88
377.674	91.88
377.899	84.88
378.125	90.88
378.35	87.88
378.576	88.88
378.802	81.88
379.027	87.88
379.253	89.88
379.478	85.88
379.704	86.88
379.929	93.88
380.155	68.88
380.38	95.88
380.606	83.88
380.831	90.88
381.057	91.88
381.282	82.88
381.507	78.88
381.733	112.88
381.958	85.88
382.184	90.88
382.409	103.88
382.634	96.88
382.86	85.88
383.085	107.88
383.31	87.88
383.535	97.88
383.761	93.88
383.986	119.88
384.211	86.88
384.436	93.88
384.662	79.88
384.887	81.88
385.112	81.88
385.337	86.88
385.562	90.88
385.787	77.88
386.013	118.88
386.238	90.88
386.463	80.88
386.688	98.88
386.913	99.88
387.138	86.88
387.363	95.88
387.588	85.88
387.813	101.88
388.038	91.88
388.263	102.88
388.488	82.88
388.713	83.88
388.938	77.88
389.163	80.88
389.387	80.88
389.612	84.88
389.837	94.88
390.062	95.88
390.287	95.88
390.512	89.88
390.736	85.88
390.961	83.88
391.186	90.88
391.411	88.88
391.636	78.88
391.86	84.88
392.085	96.88
392.31	91.88
392.534	91.88
392.759	95.88
392.984	137.88
393.208	201.88
393.433	278.88
393.658	218.88
393.882	115.88
394.107	121.88
394.331	119.88
394.556	116.88
394.78	88.88
395.005	94.88
395.229	92.88
395.454	99.88
395.678	90.88
395.903	119.88
396.127	125.88
396.352	152.88
396.576	145.88
396.801	211.88
397.025	233.88
397.249	147.88
397.474	128.88
397.698	90.88
397.922	102.88
398.147	94.88
398.371	83.88
398.595	81.88
398.82	85.88
399.044	109.88
399.268	81.88
399.492	81.88
399.717	86.88
399.941	93.88
400.165	89.88
400.389	87.88
400.613	82.88
400.837	93.88
401.062	77.88
401.286	80.88
401.51	87.88
401.734	80.88
401.958	82.88
402.182	85.88
402.406	90.88
402.63	75.88
402.854	76.88
403.078	89.88
403.302	78.88
403.526	80.88
403.75	94.88
403.974	84.88
404.198	93.88
404.422	101.88
404.645	100.88
404.869	95.88
405.093	82.88
405.317	100.88
405.541	82.88
405.765	71.88
405.988	89.88
406.212	91.88
406.436	88.88
406.66	95.88
406.883	84.88
407.107	86.88
407.331	84.88
407.555	94.88
407.778	89.88
408.002	90.88
408.226	79.88
408.449	87.88
408.673	77.88
408.896	90.88
409.12	78.88
409.344	105.88
409.567	101.88
409.791	94.88
410.014	103.88
410.238	94.88
410.461	83.88
410.685	87.88
410.908	86.88
411.132	98.88
411.355	76.88
411.578	92.88
411.802	95.88
412.025	97.88
412.249	86.88
412.472	93.88
412.695	88.88
412.919	74.88
413.142	87.88
413.365	75.88
413.589	84.88
413.812	90.88
414.035	94.88
414.258	93.88
414.482	89.88
414.705	87.88
414.928	81.88
415.151	85.88
415.374	89.88
415.597	74.88
415.821	94.88
416.044	71.88
416.267	75.88
416.49	71.88
416.713	76.88
416.936	83.88
417.159	75.88
417.382	70.88
417.605	71.88
417.828	88.88
418.051	83.88
418.274	83.88
418.497	85.88
418.72	95.88
418.943	82.88
419.166	83.88
419.389	88.88
419.611	80.88
419.834	73.88
420.057	94.88
420.28	91.88
420.503	84.88
420.726	88.88
420.948	80.88
421.171	97.88
421.394	100.88
421.617	121.88
421.839	129.88
422.062	127.88
422.285	154.88
422.507	278.88
422.73	377.88
422.953	334.88
423.175	198.88
423.398	139.88
423.621	114.88
423.843	105.88
424.066	99.88
424.288	101.88
424.511	93.88
424.733	98.88
424.956	96.88
425.178	89.88
425.401	79.88
425.623	87.88
425.846	99.88
426.068	97.88
426.291	85.88
426.513	91.88
426.735	90.88
426.958	85.88
427.18	100.88
427.402	88.88
427.625	95.88
427.847	79.88
428.069	87.88
428.292	135.88
428.514	140.88
428.736	115.88
428.958	127.88
429.181	122.88
429.403	91.88
429.625	96.88
429.847	119.88
430.069	153.88
430.292	169.88
430.514	160.88
430.736	121.88
430.958	136.88
431.18	104.88
431.402	82.88
431.624	95.88
431.846	107.88
432.068	129.88
432.29	91.88
432.512	87.88
432.734	89.88
432.956	98.88
433.178	93.88
433.4	82.88
433.622	73.88
433.844	85.88
434.066	89.88
434.287	87.88
434.509	72.88
434.731	86.88
434.953	79.88
435.175	94.88
435.397	87.88
435.618	90.88
435.84	79.88
436.062	96.88
436.284	72.88
436.505	84.88
436.727	93.88
436.949	89.88
437.17	91.88
437.392	89.88
437.614	76.88
437.835	88.88
438.057	94.88
438.278	90.88
438.5	93.88
438.721	87.88
438.943	85.88
439.165	78.88
439.386	83.88
439.608	74.88
439.829	87.88
440.05	82.88
440.272	80.88
440.493	86.88
440.715	86.88
440.936	76.88
441.158	80.88
441.379	81.88
441.6	77.88
441.822	85.88
442.043	74.88
442.264	104.88
442.486	126.88
442.707	157.88
442.928	121.88
443.149	120.88
443.371	137.88
443.592	221.88
443.813	190.88
444.034	109.88
444.255	82.88
444.476	95.88
444.698	95.88
444.919	99.88
445.14	182.88
445.361	189.88
445.582	267.88
445.803	232.88
446.024	125.88
446.245	97.88
446.466	81.88
446.687	92.88
446.908	85.88
447.129	83.88
447.35	82.88
447.571	81.88
447.792	86.88
448.013	84.88
448.234	82.88
448.455	82.88
448.675	89.88
448.896	92.88
449.117	74.88
449.338	89.88
449.559	85.88
449.779	84.88
450	83.88
450.221	85.88
450.442	93.88
450.662	91.88
450.883	82.88
451.104	84.88
451.324	90.88
451.545	90.88
451.766	99.88
451.986	85.88
452.207	75.88
452.428	85.88
452.648	105.88
452.869	103.88
453.089	83.88
453.31	95.88
453.53	83.88
453.751	100.88
453.971	75.88
454.192	89.88
454.412	73.88
454.633	98.88
454.853	89.88
455.073	70.88
455.294	79.88
455.514	89.88
455.734	70.88
455.955	89.88
456.175	90.88
456.395	94.88
456.616	98.88
456.836	83.88
457.056	65.88
457.276	71.88
457.497	95.88
457.717	93.88
457.937	121.88
458.157	102.88
458.377	126.88
458.598	110.88
458.818	122.88
459.038	86.88
459.258	82.88
459.478	96.88
459.698	77.88
459.918	92.88
460.138	87.88
460.358	86.88
460.578	94.88
460.798	113.88
461.018	117.88
461.238	84.88
461.458	95.88
461.678	82.88
461.898	76.88
462.118	71.88
462.338	85.88
462.558	86.88
462.777	69.88
462.997	83.88
463.217	80.88
463.437	86.88
463.657	85.88
463.876	86.88
464.096	88.88
464.316	91.88
464.536	91.88
464.755	85.88
464.975	90.88
465.195	72.88
465.414	85.88
465.634	77.88
465.854	62.88
466.073	82.88
466.293	85.88
466.512	81.88
466.732	78.88
466.951	82.88
467.171	74.88
467.391	74.88
467.61	76.88
467.829	83.88
468.049	77.88
468.268	90.88
468.488	87.88
468.707	79.88
468.927	95.88
469.146	78.88
469.365	89.88
469.585	85.88
469.804	87.88
470.023	66.88
470.243	87.88
470.462	79.88
470.681	90.88
470.901	87.88
471.12	84.88
471.339	75.88
471.558	91.88
471.777	68.88
471.997	79.88
472.216	79.88
472.435	74.88
472.654	87.88
472.873	87.88
473.092	83.88
473.311	83.88
473.53	87.88
473.749	83.88
473.968	88.88
474.187	79.88
474.406	78.88
474.625	95.88
474.844	79.88
475.063	82.88
475.282	80.88
475.501	95.88
475.72	81.88
475.939	86.88
476.158	84.88
476.377	93.88
476.596	78.88
476.814	86.88
477.033	74.88
477.252	76.88
477.471	95.88
477.69	74.88
477.908	86.88
478.127	83.88
478.346	73.88
478.564	90.88
478.783	80.88
479.002	81.88
479.22	80.88
479.439	96.88
479.658	83.88
479.876	93.88
480.095	76.88
480.313	89.88
480.532	79.88
480.751	75.88
480.969	87.88
481.188	88.88
481.406	85.88
481.624	75.88
481.843	78.88
482.061	83.88
482.28	75.88
482.498	81.88
482.717	93.88
482.935	93.88
483.153	81.88
483.372	98.88
483.59	93.88
483.808	87.88
484.027	91.88
484.245	94.88
484.463	97.88
484.681	104.88
484.9	101.88
485.118	99.88
485.336	86.88
485.554	84.88
485.772	94.88
485.99	79.88
486.209	96.88
486.427	97.88
486.645	93.88
486.863	89.88
487.081	94.88
487.299	78.88
487.517	102.88
487.735	106.88
487.953	157.88
488.171	123.88
488.389	94.88
488.607	84.88
488.825	87.88
489.043	91.88
489.261	96.88
489.479	80.88
489.696	98.88
489.914	80.88
490.132	82.88
490.35	98.88
490.568	97.88
490.786	101.88
491.003	79.88
491.221	97.88
491.439	101.88
491.657	87.88
491.874	88.88
492.092	64.88
492.31	90.88
492.527	85.88
492.745	98.88
492.963	74.88
493.18	83.88
493.398	71.88
493.615	84.88
493.833	86.88
494.05	88.88
494.268	99.88
494.485	96.88
494.703	96.88
494.92	83.88
495.138	88.88
495.355	75.88
495.573	89.88
495.79	77.88
496.008	92.88
496.225	82.88
496.442	82.88
496.66	85.88
496.877	86.88
497.094	101.88
497.312	77.88
497.529	93.88
497.746	98.88
497.963	80.88
498.181	87.88
498.398	87.88
498.615	84.88
498.832	88.88
499.049	95.88
499.267	102.88
499.484	95.88
499.701	89.88
499.918	94.88
500.135	99.88
500.352	96.88
500.569	87.88
500.786	97.88
501.003	101.88
501.22	89.88
501.437	97.88
501.654	90.88
501.871	88.88
502.088	85.88
502.305	89.88
502.522	93.88
502.739	82.88
502.956	86.88
503.172	91.88
503.389	79.88
503.606	83.88
503.823	98.88
504.04	100.88
504.256	128.88
504.473	121.88
504.69	95.88
504.907	94.88
505.123	77.88
505.34	83.88
505.557	93.88
505.773	87.88
505.99	89.88
506.207	86.88
506.423	87.88
506.64	91.88
506.856	90.88
507.073	95.88
507.289	84.88
507.506	78.88
507.722	93.88
507.939	87.88
508.155	77.88
508.372	93.88
508.588	101.88
508.805	94.88
509.021	67.88
509.238	104.88
509.454	83.88
509.67	81.88
509.887	94.88
510.103	97.88
510.319	98.88
510.536	87.88
510.752	91.88
510.968	87.88
511.184	99.88
511.401	89.88
511.617	93.88
511.833	91.88
512.049	86.88
512.265	81.88
512.481	91.88
512.698	74.88
512.914	80.88
513.13	86.88
513.346	76.88
513.562	90.88
513.778	87.88
513.994	88.88
514.21	89.88
514.426	91.88
514.642	99.88
514.858	89.88
515.074	89.88
515.29	87.88
515.506	79.88
515.721	90.88
515.937	90.88
516.153	87.88
516.369	91.88
516.585	92.88
516.801	76.88
517.016	97.88
517.232	101.88
517.448	121.88
517.664	99.88
517.879	96.88
518.095	96.88
518.311	102.88
518.527	130.88
