Data from HP_1_HRD10591_00008.txt Node
Date: Mon Jan 19 14:15:11 EST 2026
User: Yrep
Spectrometer: HR+D1059
Trigger mode: 1
Integration Time (sec): 1.000000E-1
Scans to average: 1
Electric dark correction enabled: true
Nonlinearity correction enabled: false
Boxcar width: 0
XAxis mode: Wavelengths
Number of Pixels in Spectrum: 2048
>>>>>Begin Spectral Data<<<<<
223.165	-21.12
223.4	-21.12
223.635	-21.12
223.869	-11.12
224.104	-26.12
224.338	-4.12
224.573	-17.12
224.808	-14.12
225.042	-1.12
225.277	-13.12
225.511	-11.12
225.746	5.88
225.98	11.88
226.215	12.88
226.449	16.88
226.683	25.88
226.918	22.88
227.152	22.88
227.387	24.88
227.621	44.88
227.856	36.88
228.09	52.88
228.324	58.88
228.559	56.88
228.793	67.88
229.027	70.88
229.262	61.88
229.496	74.88
229.73	68.88
229.964	63.88
230.199	72.88
230.433	76.88
230.667	65.88
230.901	72.88
231.136	65.88
231.37	89.88
231.604	71.88
231.838	72.88
232.072	83.88
232.306	82.88
232.541	85.88
232.775	85.88
233.009	79.88
233.243	82.88
233.477	71.88
233.711	77.88
233.945	78.88
234.179	77.88
234.413	80.88
234.647	76.88
234.881	80.88
235.115	71.88
235.349	85.88
235.583	78.88
235.817	85.88
236.051	69.88
236.285	73.88
236.519	72.88
236.753	81.88
236.987	89.88
237.221	74.88
237.455	72.88
237.689	77.88
237.922	83.88
238.156	95.88
238.39	76.88
238.624	65.88
238.858	77.88
239.091	63.88
239.325	81.88
239.559	79.88
239.793	75.88
240.027	80.88
240.26	73.88
240.494	73.88
240.728	76.88
240.961	96.88
241.195	66.88
241.429	80.88
241.662	70.88
241.896	75.88
242.13	68.88
242.363	95.88
242.597	75.88
242.83	71.88
243.064	72.88
243.298	62.88
243.531	76.88
243.765	74.88
243.998	72.88
244.232	88.88
244.465	79.88
244.699	77.88
244.932	82.88
245.166	73.88
245.399	70.88
245.633	82.88
245.866	99.88
246.099	85.88
246.333	79.88
246.566	66.88
246.8	74.88
247.033	64.88
247.266	66.88
247.5	81.88
247.733	75.88
247.966	82.88
248.2	79.88
248.433	72.88
248.666	71.88
248.899	78.88
249.133	74.88
249.366	84.88
249.599	78.88
249.832	74.88
250.066	92.88
250.299	72.88
250.532	72.88
250.765	73.88
250.998	82.88
251.231	76.88
251.465	82.88
251.698	82.88
251.931	70.88
252.164	76.88
252.397	83.88
252.63	95.88
252.863	80.88
253.096	66.88
253.329	75.88
253.562	81.88
253.795	82.88
254.028	68.88
254.261	76.88
254.494	72.88
254.727	75.88
254.96	70.88
255.193	75.88
255.426	82.88
255.659	76.88
255.892	88.88
256.124	65.88
256.357	74.88
256.59	84.88
256.823	75.88
257.056	88.88
257.289	77.88
257.521	82.88
257.754	84.88
257.987	74.88
258.22	74.88
258.452	72.88
258.685	88.88
258.918	74.88
259.151	77.88
259.383	70.88
259.616	71.88
259.849	90.88
260.081	78.88
260.314	80.88
260.547	92.88
260.779	97.88
261.012	80.88
261.244	74.88
261.477	83.88
261.71	81.88
261.942	72.88
262.175	73.88
262.407	89.88
262.64	76.88
262.872	71.88
263.105	72.88
263.337	75.88
263.57	83.88
263.802	87.88
264.035	69.88
264.267	80.88
264.499	86.88
264.732	91.88
264.964	54.88
265.197	75.88
265.429	77.88
265.661	60.88
265.894	70.88
266.126	86.88
266.358	75.88
266.591	80.88
266.823	80.88
267.055	82.88
267.287	88.88
267.52	76.88
267.752	77.88
267.984	71.88
268.216	73.88
268.448	81.88
268.681	71.88
268.913	80.88
269.145	108.88
269.377	73.88
269.609	55.88
269.841	80.88
270.073	75.88
270.306	86.88
270.538	74.88
270.77	87.88
271.002	69.88
271.234	78.88
271.466	73.88
271.698	76.88
271.93	84.88
272.162	70.88
272.394	85.88
272.626	74.88
272.858	74.88
273.09	75.88
273.322	73.88
273.553	86.88
273.785	77.88
274.017	74.88
274.249	90.88
274.481	70.88
274.713	82.88
274.945	88.88
275.176	72.88
275.408	84.88
275.64	85.88
275.872	86.88
276.104	70.88
276.335	74.88
276.567	86.88
276.799	83.88
277.031	75.88
277.262	74.88
277.494	84.88
277.726	66.88
277.957	76.88
278.189	91.88
278.421	83.88
278.652	84.88
278.884	92.88
279.115	84.88
279.347	69.88
279.579	80.88
279.81	90.88
280.042	75.88
280.273	80.88
280.505	70.88
280.736	80.88
280.968	80.88
281.199	91.88
281.431	88.88
281.662	72.88
281.894	84.88
282.125	79.88
282.356	80.88
282.588	96.88
282.819	83.88
283.051	83.88
283.282	84.88
283.513	77.88
283.745	90.88
283.976	69.88
284.207	72.88
284.439	79.88
284.67	68.88
284.901	76.88
285.132	99.88
285.364	85.88
285.595	91.88
285.826	79.88
286.057	75.88
286.288	89.88
286.52	84.88
286.751	73.88
286.982	78.88
287.213	72.88
287.444	78.88
287.675	86.88
287.906	81.88
288.138	82.88
288.369	71.88
288.6	86.88
288.831	82.88
289.062	77.88
289.293	74.88
289.524	87.88
289.755	88.88
289.986	89.88
290.217	80.88
290.448	80.88
290.679	103.88
290.91	100.88
291.141	85.88
291.371	82.88
291.602	80.88
291.833	91.88
292.064	68.88
292.295	80.88
292.526	62.88
292.757	81.88
292.987	76.88
293.218	90.88
293.449	85.88
293.68	88.88
293.91	81.88
294.141	87.88
294.372	82.88
294.603	84.88
294.833	89.88
295.064	82.88
295.295	94.88
295.525	81.88
295.756	72.88
295.987	82.88
296.217	80.88
296.448	79.88
296.679	73.88
296.909	81.88
297.14	80.88
297.37	77.88
297.601	77.88
297.831	81.88
298.062	85.88
298.292	82.88
298.523	86.88
298.753	70.88
298.984	82.88
299.214	69.88
299.445	95.88
299.675	89.88
299.905	74.88
300.136	68.88
300.366	76.88
300.597	81.88
300.827	83.88
301.057	90.88
301.288	75.88
301.518	87.88
301.748	82.88
301.979	87.88
302.209	78.88
302.439	75.88
302.669	66.88
302.9	72.88
303.13	73.88
303.36	86.88
303.59	90.88
303.82	76.88
304.051	71.88
304.281	90.88
304.511	80.88
304.741	72.88
304.971	79.88
305.201	83.88
305.431	87.88
305.661	87.88
305.891	82.88
306.121	74.88
306.352	79.88
306.582	87.88
306.812	83.88
307.042	80.88
307.272	84.88
307.502	72.88
307.731	74.88
307.961	80.88
308.191	82.88
308.421	79.88
308.651	84.88
308.881	76.88
309.111	78.88
309.341	94.88
309.571	79.88
309.8	79.88
310.03	85.88
310.26	87.88
310.49	82.88
310.72	84.88
310.949	86.88
311.179	90.88
311.409	82.88
311.639	99.88
311.868	87.88
312.098	64.88
312.328	89.88
312.557	84.88
312.787	86.88
313.017	82.88
313.246	73.88
313.476	66.88
313.706	82.88
313.935	76.88
314.165	91.88
314.394	75.88
314.624	95.88
314.853	80.88
315.083	85.88
315.312	77.88
315.542	89.88
315.771	81.88
316.001	94.88
316.23	88.88
316.46	69.88
316.689	87.88
316.919	86.88
317.148	79.88
317.377	90.88
317.607	85.88
317.836	88.88
318.065	105.88
318.295	80.88
318.524	71.88
318.753	78.88
318.983	82.88
319.212	89.88
319.441	105.88
319.67	92.88
319.9	75.88
320.129	80.88
320.358	83.88
320.587	76.88
320.816	72.88
321.046	75.88
321.275	76.88
321.504	85.88
321.733	74.88
321.962	71.88
322.191	76.88
322.42	82.88
322.649	72.88
322.878	92.88
323.108	102.88
323.337	90.88
323.566	67.88
323.795	76.88
324.024	80.88
324.253	75.88
324.482	84.88
324.71	89.88
324.939	82.88
325.168	82.88
325.397	98.88
325.626	99.88
325.855	73.88
326.084	73.88
326.313	77.88
326.542	90.88
326.77	89.88
326.999	77.88
327.228	70.88
327.457	90.88
327.686	68.88
327.914	96.88
328.143	87.88
328.372	88.88
328.6	76.88
328.829	92.88
329.058	87.88
329.287	80.88
329.515	65.88
329.744	81.88
329.972	86.88
330.201	92.88
330.43	88.88
330.658	82.88
330.887	79.88
331.115	89.88
331.344	65.88
331.572	84.88
331.801	80.88
332.03	83.88
332.258	104.88
332.486	99.88
332.715	82.88
332.943	74.88
333.172	78.88
333.4	88.88
333.629	77.88
333.857	87.88
334.085	83.88
334.314	74.88
334.542	106.88
334.771	85.88
334.999	80.88
335.227	86.88
335.455	78.88
335.684	103.88
335.912	87.88
336.14	74.88
336.369	99.88
336.597	94.88
336.825	88.88
337.053	73.88
337.281	76.88
337.51	77.88
337.738	98.88
337.966	72.88
338.194	72.88
338.422	95.88
338.65	85.88
338.878	82.88
339.106	88.88
339.334	82.88
339.562	83.88
339.79	83.88
340.018	72.88
340.246	80.88
340.474	80.88
340.702	94.88
340.93	72.88
341.158	71.88
341.386	90.88
341.614	83.88
341.842	84.88
342.07	86.88
342.298	75.88
342.526	94.88
342.754	84.88
342.981	88.88
343.209	96.88
343.437	82.88
343.665	80.88
343.893	82.88
344.12	84.88
344.348	81.88
344.576	95.88
344.804	98.88
345.031	88.88
345.259	80.88
345.487	90.88
345.714	95.88
345.942	82.88
346.17	70.88
346.397	61.88
346.625	84.88
346.853	85.88
347.08	75.88
347.308	83.88
347.535	73.88
347.763	76.88
347.99	76.88
348.218	76.88
348.445	86.88
348.673	76.88
348.9	88.88
349.128	79.88
349.355	76.88
349.583	72.88
349.81	86.88
350.037	88.88
350.265	85.88
350.492	85.88
350.72	75.88
350.947	80.88
351.174	91.88
351.402	90.88
351.629	76.88
351.856	78.88
352.083	83.88
352.311	83.88
352.538	80.88
352.765	100.88
352.992	89.88
353.22	93.88
353.447	94.88
353.674	81.88
353.901	81.88
354.128	88.88
354.355	77.88
354.583	73.88
354.81	84.88
355.037	92.88
355.264	83.88
355.491	84.88
355.718	92.88
355.945	90.88
356.172	82.88
356.399	81.88
356.626	76.88
356.853	100.88
357.08	80.88
357.307	75.88
357.534	79.88
357.761	76.88
357.988	104.88
358.215	73.88
358.441	75.88
358.668	85.88
358.895	91.88
359.122	100.88
359.349	88.88
359.576	88.88
359.802	71.88
360.029	70.88
360.256	83.88
360.483	80.88
360.709	80.88
360.936	88.88
361.163	82.88
361.39	76.88
361.616	82.88
361.843	58.88
362.07	72.88
362.296	94.88
362.523	78.88
362.749	86.88
362.976	84.88
363.203	102.88
363.429	94.88
363.656	76.88
363.882	80.88
364.109	87.88
364.335	89.88
364.562	99.88
364.788	78.88
365.015	101.88
365.241	96.88
365.468	81.88
365.694	82.88
365.92	81.88
366.147	92.88
366.373	63.88
366.599	76.88
366.826	76.88
367.052	86.88
367.278	80.88
367.505	80.88
367.731	92.88
367.957	77.88
368.184	88.88
368.41	93.88
368.636	79.88
368.862	94.88
369.089	86.88
369.315	76.88
369.541	84.88
369.767	75.88
369.993	84.88
370.219	83.88
370.445	76.88
370.672	95.88
370.898	84.88
371.124	66.88
371.35	80.88
371.576	81.88
371.802	86.88
372.028	72.88
372.254	83.88
372.48	91.88
372.706	88.88
372.932	87.88
373.158	103.88
373.384	90.88
373.61	101.88
373.835	96.88
374.061	77.88
374.287	75.88
374.513	86.88
374.739	70.88
374.965	80.88
375.191	80.88
375.416	75.88
375.642	76.88
375.868	95.88
376.094	99.88
376.319	77.88
376.545	86.88
376.771	90.88
376.997	92.88
377.222	71.88
377.448	68.88
377.674	91.88
377.899	84.88
378.125	77.88
378.35	94.88
378.576	85.88
378.802	82.88
379.027	67.88
379.253	71.88
379.478	78.88
379.704	84.88
379.929	79.88
380.155	80.88
380.38	93.88
380.606	86.88
380.831	87.88
381.057	84.88
381.282	91.88
381.507	83.88
381.733	74.88
381.958	76.88
382.184	83.88
382.409	90.88
382.634	76.88
382.86	91.88
383.085	77.88
383.31	84.88
383.535	73.88
383.761	72.88
383.986	93.88
384.211	86.88
384.436	93.88
384.662	84.88
384.887	78.88
385.112	73.88
385.337	84.88
385.562	88.88
385.787	83.88
386.013	76.88
386.238	86.88
386.463	72.88
386.688	86.88
386.913	94.88
387.138	79.88
387.363	99.88
387.588	81.88
387.813	83.88
388.038	80.88
388.263	78.88
388.488	60.88
388.713	74.88
388.938	86.88
389.163	70.88
389.387	61.88
389.612	84.88
389.837	68.88
390.062	91.88
390.287	81.88
390.512	78.88
390.736	85.88
390.961	90.88
391.186	89.88
391.411	93.88
391.636	91.88
391.86	92.88
392.085	75.88
392.31	79.88
392.534	83.88
392.759	91.88
392.984	106.88
393.208	124.88
393.433	144.88
393.658	117.88
393.882	90.88
394.107	86.88
394.331	85.88
394.556	94.88
394.78	88.88
395.005	81.88
395.229	80.88
395.454	76.88
395.678	78.88
395.903	107.88
396.127	88.88
396.352	103.88
396.576	107.88
396.801	103.88
397.025	135.88
397.249	94.88
397.474	86.88
397.698	79.88
397.922	80.88
398.147	88.88
398.371	72.88
398.595	84.88
398.82	72.88
399.044	84.88
399.268	80.88
399.492	78.88
399.717	90.88
399.941	88.88
400.165	72.88
400.389	89.88
400.613	96.88
400.837	82.88
401.062	84.88
401.286	94.88
401.51	76.88
401.734	68.88
401.958	72.88
402.182	86.88
402.406	67.88
402.63	71.88
402.854	85.88
403.078	90.88
403.302	76.88
403.526	83.88
403.75	82.88
403.974	85.88
404.198	84.88
404.422	97.88
404.645	84.88
404.869	72.88
405.093	89.88
405.317	74.88
405.541	83.88
405.765	73.88
405.988	70.88
406.212	86.88
406.436	89.88
406.66	80.88
406.883	75.88
407.107	92.88
407.331	72.88
407.555	82.88
407.778	96.88
408.002	87.88
408.226	84.88
408.449	92.88
408.673	86.88
408.896	80.88
409.12	68.88
409.344	68.88
409.567	82.88
409.791	91.88
410.014	70.88
410.238	82.88
410.461	78.88
410.685	72.88
410.908	83.88
411.132	80.88
411.355	72.88
411.578	86.88
411.802	76.88
412.025	90.88
412.249	78.88
412.472	86.88
412.695	84.88
412.919	81.88
413.142	70.88
413.365	74.88
413.589	81.88
413.812	72.88
414.035	72.88
414.258	71.88
414.482	92.88
414.705	77.88
414.928	79.88
415.151	83.88
415.374	91.88
415.597	82.88
415.821	78.88
416.044	74.88
416.267	67.88
416.49	80.88
416.713	89.88
416.936	74.88
417.159	90.88
417.382	87.88
417.605	84.88
417.828	80.88
418.051	84.88
418.274	86.88
418.497	70.88
418.72	87.88
418.943	86.88
419.166	75.88
419.389	77.88
419.611	71.88
419.834	96.88
420.057	86.88
420.28	89.88
420.503	72.88
420.726	76.88
420.948	81.88
421.171	82.88
421.394	84.88
421.617	74.88
421.839	81.88
422.062	80.88
422.285	102.88
422.507	145.88
422.73	193.88
422.953	187.88
423.175	100.88
423.398	80.88
423.621	77.88
423.843	92.88
424.066	80.88
424.288	83.88
424.511	89.88
424.733	82.88
424.956	85.88
425.178	84.88
425.401	86.88
425.623	95.88
425.846	79.88
426.068	75.88
426.291	70.88
426.513	77.88
426.735	90.88
426.958	74.88
427.18	83.88
427.402	88.88
427.625	88.88
427.847	82.88
428.069	72.88
428.292	87.88
428.514	98.88
428.736	95.88
428.958	93.88
429.181	91.88
429.403	82.88
429.625	79.88
429.847	79.88
430.069	105.88
430.292	109.88
430.514	99.88
430.736	86.88
430.958	100.88
431.18	83.88
431.402	85.88
431.624	75.88
431.846	77.88
432.068	101.88
432.29	95.88
432.512	74.88
432.734	85.88
432.956	84.88
433.178	82.88
433.4	72.88
433.622	82.88
433.844	81.88
434.066	95.88
434.287	86.88
434.509	82.88
434.731	80.88
434.953	98.88
435.175	80.88
435.397	72.88
435.618	82.88
435.84	82.88
436.062	73.88
436.284	77.88
436.505	74.88
436.727	76.88
436.949	81.88
437.17	87.88
437.392	86.88
437.614	84.88
437.835	74.88
438.057	81.88
438.278	86.88
438.5	77.88
438.721	80.88
438.943	82.88
439.165	91.88
439.386	85.88
439.608	80.88
439.829	85.88
440.05	71.88
440.272	90.88
440.493	86.88
440.715	81.88
440.936	82.88
441.158	80.88
441.379	73.88
441.6	86.88
441.822	89.88
442.043	81.88
442.264	87.88
442.486	83.88
442.707	108.88
442.928	66.88
443.149	76.88
443.371	95.88
443.592	127.88
443.813	105.88
444.034	88.88
444.255	81.88
444.476	89.88
444.698	70.88
444.919	78.88
445.14	173.88
445.361	146.88
445.582	136.88
445.803	110.88
446.024	80.88
446.245	86.88
446.466	77.88
446.687	85.88
446.908	82.88
447.129	79.88
447.35	78.88
447.571	81.88
447.792	90.88
448.013	80.88
448.234	78.88
448.455	74.88
448.675	70.88
448.896	81.88
449.117	92.88
449.338	74.88
449.559	91.88
449.779	78.88
450	82.88
450.221	84.88
450.442	86.88
450.662	80.88
450.883	95.88
451.104	87.88
451.324	84.88
451.545	82.88
451.766	87.88
451.986	66.88
452.207	88.88
452.428	77.88
452.648	74.88
452.869	89.88
453.089	87.88
453.31	71.88
453.53	68.88
453.751	91.88
453.971	80.88
454.192	74.88
454.412	72.88
454.633	60.88
454.853	83.88
455.073	82.88
455.294	75.88
455.514	80.88
455.734	86.88
455.955	70.88
456.175	66.88
456.395	69.88
456.616	71.88
456.836	90.88
457.056	70.88
457.276	84.88
457.497	83.88
457.717	91.88
457.937	84.88
458.157	80.88
458.377	74.88
458.598	82.88
458.818	78.88
459.038	70.88
459.258	75.88
459.478	69.88
459.698	77.88
459.918	98.88
460.138	77.88
460.358	76.88
460.578	76.88
460.798	100.88
461.018	102.88
461.238	92.88
461.458	73.88
461.678	80.88
461.898	81.88
462.118	77.88
462.338	75.88
462.558	80.88
462.777	75.88
462.997	71.88
463.217	79.88
463.437	73.88
463.657	80.88
463.876	93.88
464.096	65.88
464.316	73.88
464.536	85.88
464.755	78.88
464.975	82.88
465.195	84.88
465.414	95.88
465.634	79.88
465.854	87.88
466.073	83.88
466.293	95.88
466.512	81.88
466.732	73.88
466.951	82.88
467.171	77.88
467.391	85.88
467.61	79.88
467.829	72.88
468.049	83.88
468.268	88.88
468.488	76.88
468.707	73.88
468.927	79.88
469.146	73.88
469.365	88.88
469.585	75.88
469.804	76.88
470.023	75.88
470.243	77.88
470.462	80.88
470.681	69.88
470.901	85.88
471.12	64.88
471.339	82.88
471.558	70.88
471.777	87.88
471.997	76.88
472.216	81.88
472.435	82.88
472.654	77.88
472.873	79.88
473.092	66.88
473.311	86.88
473.53	87.88
473.749	81.88
473.968	86.88
474.187	80.88
474.406	76.88
474.625	76.88
474.844	76.88
475.063	74.88
475.282	77.88
475.501	88.88
475.72	94.88
475.939	74.88
476.158	74.88
476.377	67.88
476.596	77.88
476.814	91.88
477.033	76.88
477.252	74.88
477.471	75.88
477.69	85.88
477.908	76.88
478.127	63.88
478.346	67.88
478.564	84.88
478.783	90.88
479.002	84.88
479.22	82.88
479.439	90.88
479.658	83.88
479.876	81.88
480.095	76.88
480.313	70.88
480.532	80.88
480.751	89.88
480.969	82.88
481.188	91.88
481.406	90.88
481.624	87.88
481.843	76.88
482.061	78.88
482.28	88.88
482.498	75.88
482.717	80.88
482.935	94.88
483.153	90.88
483.372	72.88
483.59	94.88
483.808	75.88
484.027	95.88
484.245	82.88
484.463	86.88
484.681	88.88
484.9	82.88
485.118	79.88
485.336	82.88
485.554	80.88
485.772	79.88
485.99	85.88
486.209	76.88
486.427	75.88
486.645	90.88
486.863	89.88
487.081	84.88
487.299	75.88
487.517	88.88
487.735	94.88
487.953	96.88
488.171	88.88
488.389	101.88
488.607	78.88
488.825	84.88
489.043	88.88
489.261	96.88
489.479	84.88
489.696	89.88
489.914	86.88
490.132	90.88
490.35	90.88
490.568	78.88
490.786	82.88
491.003	70.88
491.221	75.88
491.439	92.88
491.657	69.88
491.874	77.88
492.092	91.88
492.31	58.88
492.527	75.88
492.745	74.88
492.963	88.88
493.18	80.88
493.398	81.88
493.615	94.88
493.833	89.88
494.05	78.88
494.268	66.88
494.485	72.88
494.703	76.88
494.92	76.88
495.138	93.88
495.355	91.88
495.573	93.88
495.79	84.88
496.008	73.88
496.225	84.88
496.442	79.88
496.66	79.88
496.877	81.88
497.094	82.88
497.312	82.88
497.529	91.88
497.746	84.88
497.963	83.88
498.181	80.88
498.398	91.88
498.615	89.88
498.832	57.88
499.049	88.88
499.267	75.88
499.484	80.88
499.701	93.88
499.918	89.88
500.135	94.88
500.352	80.88
500.569	90.88
500.786	84.88
501.003	82.88
501.22	82.88
501.437	81.88
501.654	92.88
501.871	76.88
502.088	84.88
502.305	82.88
502.522	80.88
502.739	91.88
502.956	79.88
503.172	74.88
503.389	80.88
503.606	97.88
503.823	106.88
504.04	71.88
504.256	78.88
504.473	77.88
504.69	86.88
504.907	94.88
505.123	84.88
505.34	83.88
505.557	84.88
505.773	89.88
505.99	94.88
506.207	81.88
506.423	85.88
506.64	78.88
506.856	88.88
507.073	85.88
507.289	82.88
507.506	81.88
507.722	87.88
507.939	91.88
508.155	83.88
508.372	82.88
508.588	76.88
508.805	86.88
509.021	74.88
509.238	83.88
509.454	73.88
509.67	73.88
509.887	78.88
510.103	80.88
510.319	72.88
510.536	83.88
510.752	84.88
510.968	84.88
511.184	87.88
511.401	86.88
511.617	78.88
511.833	91.88
512.049	76.88
512.265	86.88
512.481	76.88
512.698	81.88
512.914	91.88
513.13	84.88
513.346	103.88
513.562	74.88
513.778	83.88
513.994	87.88
514.21	86.88
514.426	78.88
514.642	99.88
514.858	87.88
515.074	86.88
515.29	90.88
515.506	79.88
515.721	79.88
515.937	85.88
516.153	72.88
516.369	83.88
516.585	84.88
516.801	87.88
517.016	99.88
517.232	89.88
517.448	86.88
517.664	92.88
517.879	89.88
518.095	63.88
518.311	80.88
518.527	96.88
518.742	76.88
518.958	103.88
519.173	102.88
519.389	76.88
519.605	84.88
