Data from HP_1_HRD10591_00019.txt Node
Date: Mon Jan 19 14:15:17 EST 2026
User: Yrep
Spectrometer: HR+D1059
Trigger mode: 1
Integration Time (sec): 1.000000E-1
Scans to average: 1
Electric dark correction enabled: true
Nonlinearity correction enabled: false
Boxcar width: 0
XAxis mode: Wavelengths
Number of Pixels in Spectrum: 2048
>>>>>Begin Spectral Data<<<<<
223.165	-20.88
223.4	-20.88
223.635	-20.88
223.869	-9.88
224.104	-22.88
224.338	-14.88
224.573	-11.88
224.808	-9.88
225.042	-12.88
225.277	-8.88
225.511	-3.88
225.746	15.12
225.98	11.12
226.215	19.12
226.449	11.12
226.683	15.12
226.918	24.12
227.152	20.12
227.387	29.12
227.621	41.12
227.856	40.12
228.09	52.12
228.324	57.12
228.559	58.12
228.793	61.12
229.027	55.12
229.262	59.12
229.496	64.12
229.73	79.12
229.964	78.12
230.199	66.12
230.433	71.12
230.667	74.12
230.901	67.12
231.136	78.12
231.37	59.12
231.604	74.12
231.838	80.12
232.072	68.12
232.306	89.12
232.541	87.12
232.775	77.12
233.009	75.12
233.243	63.12
233.477	87.12
233.711	84.12
233.945	74.12
234.179	85.12
234.413	87.12
234.647	84.12
234.881	91.12
235.115	86.12
235.349	73.12
235.583	76.12
235.817	78.12
236.051	91.12
236.285	78.12
236.519	82.12
236.753	74.12
236.987	84.12
237.221	67.12
237.455	72.12
237.689	79.12
237.922	65.12
238.156	77.12
238.39	67.12
238.624	87.12
238.858	88.12
239.091	65.12
239.325	75.12
239.559	71.12
239.793	72.12
240.027	72.12
240.26	75.12
240.494	71.12
240.728	77.12
240.961	74.12
241.195	83.12
241.429	82.12
241.662	73.12
241.896	67.12
242.13	75.12
242.363	72.12
242.597	85.12
242.83	75.12
243.064	83.12
243.298	76.12
243.531	73.12
243.765	85.12
243.998	67.12
244.232	85.12
244.465	71.12
244.699	69.12
244.932	76.12
245.166	76.12
245.399	74.12
245.633	81.12
245.866	73.12
246.099	76.12
246.333	80.12
246.566	86.12
246.8	80.12
247.033	71.12
247.266	75.12
247.5	81.12
247.733	63.12
247.966	81.12
248.2	74.12
248.433	79.12
248.666	78.12
248.899	91.12
249.133	83.12
249.366	83.12
249.599	76.12
249.832	84.12
250.066	97.12
250.299	75.12
250.532	68.12
250.765	76.12
250.998	76.12
251.231	77.12
251.465	95.12
251.698	77.12
251.931	74.12
252.164	93.12
252.397	90.12
252.63	75.12
252.863	97.12
253.096	73.12
253.329	69.12
253.562	92.12
253.795	86.12
254.028	92.12
254.261	81.12
254.494	85.12
254.727	92.12
254.96	73.12
255.193	83.12
255.426	87.12
255.659	89.12
255.892	86.12
256.124	98.12
256.357	94.12
256.59	76.12
256.823	65.12
257.056	76.12
257.289	78.12
257.521	77.12
257.754	83.12
257.987	87.12
258.22	86.12
258.452	81.12
258.685	68.12
258.918	78.12
259.151	83.12
259.383	82.12
259.616	85.12
259.849	85.12
260.081	80.12
260.314	82.12
260.547	84.12
260.779	75.12
261.012	66.12
261.244	87.12
261.477	83.12
261.71	73.12
261.942	84.12
262.175	73.12
262.407	81.12
262.64	79.12
262.872	61.12
263.105	83.12
263.337	80.12
263.57	69.12
263.802	84.12
264.035	87.12
264.267	93.12
264.499	92.12
264.732	90.12
264.964	71.12
265.197	85.12
265.429	85.12
265.661	76.12
265.894	90.12
266.126	89.12
266.358	77.12
266.591	76.12
266.823	67.12
267.055	69.12
267.287	75.12
267.52	76.12
267.752	92.12
267.984	69.12
268.216	92.12
268.448	92.12
268.681	93.12
268.913	77.12
269.145	81.12
269.377	83.12
269.609	84.12
269.841	84.12
270.073	82.12
270.306	81.12
270.538	86.12
270.77	81.12
271.002	65.12
271.234	91.12
271.466	70.12
271.698	67.12
271.93	95.12
272.162	96.12
272.394	87.12
272.626	82.12
272.858	91.12
273.09	84.12
273.322	77.12
273.553	67.12
273.785	75.12
274.017	73.12
274.249	67.12
274.481	71.12
274.713	85.12
274.945	81.12
275.176	79.12
275.408	75.12
275.64	91.12
275.872	85.12
276.104	85.12
276.335	86.12
276.567	73.12
276.799	86.12
277.031	71.12
277.262	71.12
277.494	93.12
277.726	87.12
277.957	90.12
278.189	82.12
278.421	77.12
278.652	86.12
278.884	89.12
279.115	90.12
279.347	94.12
279.579	74.12
279.81	99.12
280.042	78.12
280.273	93.12
280.505	89.12
280.736	83.12
280.968	87.12
281.199	96.12
281.431	92.12
281.662	79.12
281.894	77.12
282.125	85.12
282.356	65.12
282.588	82.12
282.819	91.12
283.051	86.12
283.282	74.12
283.513	101.12
283.745	77.12
283.976	98.12
284.207	83.12
284.439	76.12
284.67	85.12
284.901	78.12
285.132	75.12
285.364	83.12
285.595	79.12
285.826	91.12
286.057	78.12
286.288	82.12
286.52	84.12
286.751	83.12
286.982	83.12
287.213	88.12
287.444	98.12
287.675	85.12
287.906	70.12
288.138	87.12
288.369	74.12
288.6	75.12
288.831	90.12
289.062	87.12
289.293	84.12
289.524	83.12
289.755	83.12
289.986	81.12
290.217	96.12
290.448	83.12
290.679	87.12
290.91	90.12
291.141	97.12
291.371	99.12
291.602	93.12
291.833	77.12
292.064	70.12
292.295	97.12
292.526	87.12
292.757	83.12
292.987	89.12
293.218	85.12
293.449	84.12
293.68	82.12
293.91	87.12
294.141	80.12
294.372	76.12
294.603	74.12
294.833	86.12
295.064	97.12
295.295	77.12
295.525	85.12
295.756	80.12
295.987	80.12
296.217	76.12
296.448	97.12
296.679	83.12
296.909	98.12
297.14	75.12
297.37	92.12
297.601	92.12
297.831	77.12
298.062	85.12
298.292	90.12
298.523	93.12
298.753	89.12
298.984	76.12
299.214	81.12
299.445	63.12
299.675	81.12
299.905	92.12
300.136	79.12
300.366	87.12
300.597	91.12
300.827	87.12
301.057	85.12
301.288	75.12
301.518	74.12
301.748	91.12
301.979	103.12
302.209	81.12
302.439	91.12
302.669	74.12
302.9	82.12
303.13	85.12
303.36	76.12
303.59	84.12
303.82	79.12
304.051	89.12
304.281	88.12
304.511	101.12
304.741	95.12
304.971	93.12
305.201	88.12
305.431	99.12
305.661	83.12
305.891	71.12
306.121	79.12
306.352	84.12
306.582	71.12
306.812	79.12
307.042	63.12
307.272	77.12
307.502	89.12
307.731	92.12
307.961	92.12
308.191	91.12
308.421	84.12
308.651	97.12
308.881	95.12
309.111	82.12
309.341	77.12
309.571	83.12
309.8	78.12
310.03	86.12
310.26	103.12
310.49	82.12
310.72	81.12
310.949	85.12
311.179	78.12
311.409	90.12
311.639	75.12
311.868	83.12
312.098	95.12
312.328	71.12
312.557	90.12
312.787	77.12
313.017	82.12
313.246	84.12
313.476	84.12
313.706	86.12
313.935	87.12
314.165	106.12
314.394	85.12
314.624	87.12
314.853	90.12
315.083	91.12
315.312	79.12
315.542	77.12
315.771	83.12
316.001	97.12
316.23	77.12
316.46	89.12
316.689	97.12
316.919	91.12
317.148	91.12
317.377	90.12
317.607	89.12
317.836	103.12
318.065	101.12
318.295	86.12
318.524	75.12
318.753	95.12
318.983	75.12
319.212	88.12
319.441	93.12
319.67	90.12
319.9	87.12
320.129	81.12
320.358	93.12
320.587	87.12
320.816	90.12
321.046	99.12
321.275	88.12
321.504	94.12
321.733	85.12
321.962	75.12
322.191	96.12
322.42	77.12
322.649	91.12
322.878	80.12
323.108	85.12
323.337	87.12
323.566	89.12
323.795	87.12
324.024	83.12
324.253	87.12
324.482	99.12
324.71	91.12
324.939	93.12
325.168	82.12
325.397	90.12
325.626	88.12
325.855	74.12
326.084	77.12
326.313	80.12
326.542	83.12
326.77	78.12
326.999	89.12
327.228	74.12
327.457	95.12
327.686	83.12
327.914	79.12
328.143	81.12
328.372	93.12
328.6	91.12
328.829	93.12
329.058	111.12
329.287	93.12
329.515	89.12
329.744	93.12
329.972	97.12
330.201	83.12
330.43	87.12
330.658	77.12
330.887	89.12
331.115	85.12
331.344	83.12
331.572	83.12
331.801	84.12
332.03	81.12
332.258	94.12
332.486	91.12
332.715	89.12
332.943	93.12
333.172	92.12
333.4	78.12
333.629	81.12
333.857	83.12
334.085	87.12
334.314	76.12
334.542	81.12
334.771	87.12
334.999	92.12
335.227	92.12
335.455	81.12
335.684	101.12
335.912	99.12
336.14	83.12
336.369	89.12
336.597	93.12
336.825	78.12
337.053	69.12
337.281	83.12
337.51	77.12
337.738	66.12
337.966	89.12
338.194	69.12
338.422	78.12
338.65	73.12
338.878	86.12
339.106	89.12
339.334	81.12
339.562	99.12
339.79	81.12
340.018	73.12
340.246	80.12
340.474	92.12
340.702	88.12
340.93	87.12
341.158	75.12
341.386	87.12
341.614	85.12
341.842	75.12
342.07	89.12
342.298	91.12
342.526	86.12
342.754	99.12
342.981	75.12
343.209	81.12
343.437	77.12
343.665	100.12
343.893	87.12
344.12	87.12
344.348	83.12
344.576	76.12
344.804	94.12
345.031	85.12
345.259	89.12
345.487	76.12
345.714	76.12
345.942	93.12
346.17	95.12
346.397	74.12
346.625	89.12
346.853	71.12
347.08	77.12
347.308	91.12
347.535	89.12
347.763	81.12
347.99	88.12
348.218	85.12
348.445	90.12
348.673	85.12
348.9	80.12
349.128	83.12
349.355	81.12
349.583	67.12
349.81	81.12
350.037	89.12
350.265	81.12
350.492	79.12
350.72	93.12
350.947	85.12
351.174	89.12
351.402	78.12
351.629	77.12
351.856	89.12
352.083	85.12
352.311	89.12
352.538	101.12
352.765	89.12
352.992	96.12
353.22	67.12
353.447	83.12
353.674	99.12
353.901	88.12
354.128	79.12
354.355	96.12
354.583	84.12
354.81	99.12
355.037	93.12
355.264	93.12
355.491	93.12
355.718	85.12
355.945	95.12
356.172	89.12
356.399	83.12
356.626	89.12
356.853	84.12
357.08	78.12
357.307	77.12
357.534	72.12
357.761	74.12
357.988	84.12
358.215	77.12
358.441	96.12
358.668	82.12
358.895	77.12
359.122	72.12
359.349	86.12
359.576	72.12
359.802	89.12
360.029	78.12
360.256	87.12
360.483	85.12
360.709	67.12
360.936	89.12
361.163	91.12
361.39	69.12
361.616	81.12
361.843	83.12
362.07	84.12
362.296	84.12
362.523	74.12
362.749	87.12
362.976	78.12
363.203	93.12
363.429	79.12
363.656	88.12
363.882	87.12
364.109	81.12
364.335	96.12
364.562	77.12
364.788	96.12
365.015	88.12
365.241	87.12
365.468	100.12
365.694	83.12
365.92	86.12
366.147	78.12
366.373	82.12
366.599	94.12
366.826	76.12
367.052	87.12
367.278	79.12
367.505	88.12
367.731	90.12
367.957	86.12
368.184	79.12
368.41	83.12
368.636	91.12
368.862	92.12
369.089	82.12
369.315	73.12
369.541	91.12
369.767	95.12
369.993	75.12
370.219	87.12
370.445	73.12
370.672	77.12
370.898	78.12
371.124	83.12
371.35	81.12
371.576	79.12
371.802	81.12
372.028	84.12
372.254	77.12
372.48	86.12
372.706	95.12
372.932	98.12
373.158	79.12
373.384	84.12
373.61	83.12
373.835	84.12
374.061	76.12
374.287	81.12
374.513	95.12
374.739	80.12
374.965	76.12
375.191	84.12
375.416	89.12
375.642	87.12
375.868	67.12
376.094	84.12
376.319	79.12
376.545	87.12
376.771	86.12
376.997	89.12
377.222	81.12
377.448	78.12
377.674	66.12
377.899	81.12
378.125	78.12
378.35	80.12
378.576	78.12
378.802	79.12
379.027	80.12
379.253	91.12
379.478	82.12
379.704	88.12
379.929	91.12
380.155	75.12
380.38	90.12
380.606	71.12
380.831	79.12
381.057	105.12
381.282	95.12
381.507	71.12
381.733	95.12
381.958	93.12
382.184	87.12
382.409	95.12
382.634	77.12
382.86	80.12
383.085	70.12
383.31	83.12
383.535	98.12
383.761	85.12
383.986	87.12
384.211	81.12
384.436	89.12
384.662	95.12
384.887	84.12
385.112	78.12
385.337	85.12
385.562	95.12
385.787	85.12
386.013	81.12
386.238	92.12
386.463	77.12
386.688	87.12
386.913	95.12
387.138	75.12
387.363	89.12
387.588	76.12
387.813	99.12
388.038	71.12
388.263	81.12
388.488	77.12
388.713	77.12
388.938	75.12
389.163	90.12
389.387	85.12
389.612	84.12
389.837	89.12
390.062	93.12
390.287	82.12
390.512	74.12
390.736	91.12
390.961	83.12
391.186	94.12
391.411	87.12
391.636	89.12
391.86	83.12
392.085	77.12
392.31	81.12
392.534	93.12
392.759	88.12
392.984	105.12
393.208	115.12
393.433	129.12
393.658	108.12
393.882	90.12
394.107	79.12
394.331	81.12
394.556	74.12
394.78	109.12
395.005	90.12
395.229	87.12
395.454	72.12
395.678	74.12
395.903	87.12
396.127	92.12
396.352	100.12
396.576	106.12
396.801	112.12
397.025	129.12
397.249	93.12
397.474	91.12
397.698	103.12
397.922	87.12
398.147	83.12
398.371	87.12
398.595	96.12
398.82	78.12
399.044	76.12
399.268	71.12
399.492	95.12
399.717	94.12
399.941	92.12
400.165	95.12
400.389	75.12
400.613	81.12
400.837	96.12
401.062	84.12
401.286	77.12
401.51	89.12
401.734	72.12
401.958	80.12
402.182	77.12
402.406	77.12
402.63	90.12
402.854	73.12
403.078	83.12
403.302	66.12
403.526	75.12
403.75	96.12
403.974	76.12
404.198	91.12
404.422	82.12
404.645	80.12
404.869	78.12
405.093	80.12
405.317	88.12
405.541	97.12
405.765	91.12
405.988	98.12
406.212	91.12
406.436	85.12
406.66	81.12
406.883	72.12
407.107	72.12
407.331	91.12
407.555	80.12
407.778	86.12
408.002	83.12
408.226	63.12
408.449	72.12
408.673	80.12
408.896	76.12
409.12	87.12
409.344	86.12
409.567	83.12
409.791	90.12
410.014	83.12
410.238	88.12
410.461	81.12
410.685	71.12
410.908	76.12
411.132	84.12
411.355	80.12
411.578	75.12
411.802	83.12
412.025	79.12
412.249	85.12
412.472	87.12
412.695	75.12
412.919	70.12
413.142	71.12
413.365	85.12
413.589	81.12
413.812	89.12
414.035	79.12
414.258	84.12
414.482	83.12
414.705	81.12
414.928	66.12
415.151	74.12
415.374	91.12
415.597	82.12
415.821	73.12
416.044	80.12
416.267	73.12
416.49	81.12
416.713	69.12
416.936	97.12
417.159	72.12
417.382	79.12
417.605	71.12
417.828	96.12
418.051	87.12
418.274	79.12
418.497	75.12
418.72	77.12
418.943	93.12
419.166	83.12
419.389	72.12
419.611	76.12
419.834	79.12
420.057	96.12
420.28	84.12
420.503	74.12
420.726	80.12
420.948	81.12
421.171	92.12
421.394	89.12
421.617	79.12
421.839	70.12
422.062	90.12
422.285	81.12
422.507	107.12
422.73	125.12
422.953	108.12
423.175	95.12
423.398	82.12
423.621	91.12
423.843	80.12
424.066	81.12
424.288	82.12
424.511	78.12
424.733	92.12
424.956	75.12
425.178	83.12
425.401	69.12
425.623	78.12
425.846	86.12
426.068	76.12
426.291	85.12
426.513	75.12
426.735	79.12
426.958	83.12
427.18	96.12
427.402	83.12
427.625	82.12
427.847	78.12
428.069	79.12
428.292	79.12
428.514	92.12
428.736	82.12
428.958	78.12
429.181	89.12
429.403	79.12
429.625	73.12
429.847	83.12
430.069	98.12
430.292	85.12
430.514	98.12
430.736	81.12
430.958	76.12
431.18	78.12
431.402	77.12
431.624	78.12
431.846	81.12
432.068	79.12
432.29	87.12
432.512	80.12
432.734	83.12
432.956	81.12
433.178	89.12
433.4	82.12
433.622	86.12
433.844	89.12
434.066	81.12
434.287	82.12
434.509	77.12
434.731	69.12
434.953	90.12
435.175	92.12
435.397	84.12
435.618	71.12
435.84	77.12
436.062	89.12
436.284	78.12
436.505	90.12
436.727	87.12
436.949	74.12
437.17	94.12
437.392	78.12
437.614	87.12
437.835	77.12
438.057	74.12
438.278	95.12
438.5	86.12
438.721	81.12
438.943	89.12
439.165	65.12
439.386	84.12
439.608	83.12
439.829	87.12
440.05	88.12
440.272	80.12
440.493	80.12
440.715	88.12
440.936	89.12
441.158	72.12
441.379	88.12
441.6	69.12
441.822	67.12
442.043	92.12
442.264	79.12
442.486	85.12
442.707	82.12
442.928	73.12
443.149	83.12
443.371	81.12
443.592	85.12
443.813	88.12
444.034	84.12
444.255	86.12
444.476	81.12
444.698	82.12
444.919	81.12
445.14	172.12
445.361	115.12
445.582	83.12
445.803	95.12
446.024	83.12
446.245	84.12
446.466	83.12
446.687	71.12
446.908	87.12
447.129	91.12
447.35	92.12
447.571	88.12
447.792	88.12
448.013	72.12
448.234	71.12
448.455	75.12
448.675	76.12
448.896	82.12
449.117	77.12
449.338	81.12
449.559	85.12
449.779	76.12
450	83.12
450.221	70.12
450.442	72.12
450.662	82.12
450.883	83.12
451.104	76.12
451.324	65.12
451.545	80.12
451.766	82.12
451.986	67.12
452.207	77.12
452.428	81.12
452.648	73.12
452.869	77.12
453.089	82.12
453.31	85.12
453.53	87.12
453.751	84.12
453.971	76.12
454.192	91.12
454.412	71.12
454.633	75.12
454.853	73.12
455.073	85.12
455.294	82.12
455.514	83.12
455.734	68.12
455.955	88.12
456.175	106.12
456.395	75.12
456.616	83.12
456.836	84.12
457.056	67.12
457.276	85.12
457.497	75.12
457.717	63.12
457.937	62.12
458.157	74.12
458.377	87.12
458.598	82.12
458.818	90.12
459.038	71.12
459.258	83.12
459.478	78.12
459.698	71.12
459.918	73.12
460.138	77.12
460.358	84.12
460.578	81.12
460.798	89.12
461.018	84.12
461.238	83.12
461.458	81.12
461.678	73.12
461.898	78.12
462.118	75.12
462.338	71.12
462.558	76.12
462.777	66.12
462.997	86.12
463.217	87.12
463.437	83.12
463.657	89.12
463.876	80.12
464.096	87.12
464.316	84.12
464.536	76.12
464.755	71.12
464.975	73.12
465.195	83.12
465.414	83.12
465.634	78.12
465.854	92.12
466.073	85.12
466.293	89.12
466.512	89.12
466.732	81.12
466.951	83.12
467.171	75.12
467.391	76.12
467.61	79.12
467.829	83.12
468.049	89.12
468.268	103.12
468.488	97.12
468.707	83.12
468.927	71.12
469.146	85.12
469.365	72.12
469.585	93.12
469.804	76.12
470.023	76.12
470.243	83.12
470.462	94.12
470.681	92.12
470.901	84.12
471.12	78.12
471.339	83.12
471.558	72.12
471.777	89.12
471.997	85.12
472.216	74.12
472.435	91.12
472.654	90.12
472.873	100.12
473.092	79.12
473.311	80.12
473.53	89.12
473.749	74.12
473.968	100.12
474.187	80.12
474.406	80.12
474.625	82.12
474.844	90.12
475.063	81.12
475.282	86.12
475.501	85.12
475.72	80.12
475.939	86.12
476.158	82.12
476.377	82.12
476.596	85.12
476.814	87.12
477.033	88.12
477.252	96.12
477.471	77.12
477.69	86.12
477.908	88.12
478.127	86.12
478.346	78.12
478.564	72.12
478.783	85.12
479.002	84.12
479.22	78.12
479.439	69.12
479.658	86.12
479.876	83.12
480.095	89.12
480.313	81.12
480.532	66.12
480.751	71.12
480.969	77.12
481.188	89.12
481.406	89.12
481.624	83.12
481.843	72.12
482.061	77.12
482.28	89.12
482.498	99.12
482.717	88.12
482.935	83.12
483.153	77.12
483.372	71.12
483.59	65.12
483.808	76.12
484.027	92.12
484.245	79.12
484.463	87.12
484.681	84.12
484.9	90.12
485.118	85.12
485.336	88.12
485.554	71.12
485.772	81.12
485.99	93.12
486.209	78.12
486.427	89.12
486.645	88.12
486.863	75.12
487.081	81.12
487.299	83.12
487.517	77.12
487.735	85.12
487.953	83.12
488.171	85.12
488.389	85.12
488.607	81.12
488.825	85.12
489.043	78.12
489.261	79.12
489.479	83.12
489.696	85.12
489.914	73.12
490.132	75.12
490.35	91.12
490.568	76.12
490.786	81.12
491.003	69.12
491.221	85.12
491.439	85.12
491.657	71.12
491.874	85.12
492.092	89.12
492.31	71.12
492.527	79.12
492.745	73.12
492.963	95.12
493.18	84.12
493.398	86.12
493.615	81.12
493.833	97.12
494.05	91.12
494.268	78.12
494.485	80.12
494.703	99.12
494.92	76.12
495.138	65.12
495.355	88.12
495.573	91.12
495.79	76.12
496.008	85.12
496.225	83.12
496.442	86.12
496.66	81.12
496.877	79.12
497.094	87.12
497.312	92.12
497.529	68.12
497.746	90.12
497.963	74.12
498.181	98.12
498.398	101.12
498.615	78.12
498.832	68.12
499.049	89.12
499.267	87.12
499.484	89.12
499.701	77.12
499.918	89.12
500.135	73.12
500.352	80.12
500.569	91.12
500.786	93.12
501.003	81.12
501.22	74.12
501.437	71.12
501.654	96.12
501.871	88.12
502.088	89.12
502.305	77.12
502.522	82.12
502.739	71.12
502.956	96.12
503.172	73.12
503.389	69.12
503.606	87.12
503.823	91.12
504.04	84.12
504.256	91.12
504.473	87.12
504.69	84.12
504.907	83.12
505.123	90.12
505.34	65.12
505.557	71.12
505.773	91.12
505.99	72.12
506.207	75.12
506.423	78.12
506.64	79.12
506.856	80.12
507.073	93.12
507.289	78.12
507.506	86.12
507.722	70.12
507.939	86.12
508.155	87.12
508.372	86.12
508.588	88.12
508.805	81.12
509.021	89.12
509.238	77.12
509.454	80.12
509.67	79.12
509.887	77.12
510.103	81.12
510.319	81.12
510.536	77.12
510.752	83.12
510.968	78.12
511.184	90.12
511.401	92.12
511.617	82.12
511.833	87.12
512.049	88.12
512.265	86.12
512.481	86.12
512.698	91.12
512.914	73.12
513.13	75.12
513.346	78.12
513.562	79.12
513.778	76.12
513.994	83.12
514.21	76.12
514.426	79.12
514.642	79.12
514.858	80.12
515.074	81.12
515.29	78.12
515.506	77.12
515.721	84.12
515.937	78.12
516.153	83.12
516.369	85.12
516.585	92.12
516.801	73.12
517.016	80.12
517.232	75.12
517.448	70.12
517.664	82.12
517.879	78.12
518.095	87.12
518.311	85.12
518.527	80.12
518.742	68.12
518.958	81.12
519.173	87.12
519.389	72.12
519.605	79.12
519.82	83.12
