Data from HP_1_HRD10591_00007.txt Node
Date: Mon Jan 19 14:15:11 EST 2026
User: Yrep
Spectrometer: HR+D1059
Trigger mode: 1
Integration Time (sec): 1.000000E-1
Scans to average: 1
Electric dark correction enabled: true
Nonlinearity correction enabled: false
Boxcar width: 0
XAxis mode: Wavelengths
Number of Pixels in Spectrum: 2048
>>>>>Begin Spectral Data<<<<<
223.165	-19.62
223.4	-19.62
223.635	-19.62
223.869	-15.62
224.104	-8.62
224.338	-6.62
224.573	-0.62
224.808	-13.62
225.042	-4.62
225.277	-7.62
225.511	-13.62
225.746	4.38
225.98	9.38
226.215	10.38
226.449	-0.62
226.683	20.38
226.918	23.38
227.152	23.38
227.387	29.38
227.621	44.38
227.856	31.38
228.09	52.38
228.324	48.38
228.559	51.38
228.793	69.38
229.027	49.38
229.262	66.38
229.496	69.38
229.73	76.38
229.964	62.38
230.199	76.38
230.433	79.38
230.667	79.38
230.901	77.38
231.136	83.38
231.37	78.38
231.604	84.38
231.838	87.38
232.072	80.38
232.306	85.38
232.541	80.38
232.775	84.38
233.009	93.38
233.243	96.38
233.477	87.38
233.711	82.38
233.945	84.38
234.179	94.38
234.413	82.38
234.647	73.38
234.881	63.38
235.115	91.38
235.349	79.38
235.583	82.38
235.817	66.38
236.051	81.38
236.285	86.38
236.519	89.38
236.753	81.38
236.987	86.38
237.221	103.38
237.455	82.38
237.689	90.38
237.922	88.38
238.156	96.38
238.39	84.38
238.624	92.38
238.858	91.38
239.091	78.38
239.325	85.38
239.559	85.38
239.793	90.38
240.027	82.38
240.26	84.38
240.494	71.38
240.728	73.38
240.961	76.38
241.195	86.38
241.429	74.38
241.662	78.38
241.896	88.38
242.13	80.38
242.363	87.38
242.597	86.38
242.83	67.38
243.064	74.38
243.298	92.38
243.531	92.38
243.765	80.38
243.998	74.38
244.232	78.38
244.465	78.38
244.699	84.38
244.932	74.38
245.166	74.38
245.399	84.38
245.633	81.38
245.866	87.38
246.099	89.38
246.333	88.38
246.566	75.38
246.8	90.38
247.033	82.38
247.266	77.38
247.5	85.38
247.733	91.38
247.966	87.38
248.2	81.38
248.433	83.38
248.666	81.38
248.899	93.38
249.133	72.38
249.366	86.38
249.599	88.38
249.832	87.38
250.066	87.38
250.299	80.38
250.532	106.38
250.765	96.38
250.998	80.38
251.231	87.38
251.465	82.38
251.698	91.38
251.931	90.38
252.164	74.38
252.397	84.38
252.63	76.38
252.863	90.38
253.096	94.38
253.329	81.38
253.562	84.38
253.795	86.38
254.028	83.38
254.261	79.38
254.494	90.38
254.727	80.38
254.96	92.38
255.193	65.38
255.426	70.38
255.659	71.38
255.892	90.38
256.124	70.38
256.357	92.38
256.59	88.38
256.823	69.38
257.056	76.38
257.289	94.38
257.521	88.38
257.754	86.38
257.987	90.38
258.22	75.38
258.452	76.38
258.685	79.38
258.918	71.38
259.151	79.38
259.383	78.38
259.616	71.38
259.849	92.38
260.081	76.38
260.314	90.38
260.547	81.38
260.779	74.38
261.012	70.38
261.244	85.38
261.477	75.38
261.71	77.38
261.942	99.38
262.175	94.38
262.407	82.38
262.64	87.38
262.872	87.38
263.105	83.38
263.337	79.38
263.57	70.38
263.802	72.38
264.035	81.38
264.267	80.38
264.499	98.38
264.732	75.38
264.964	83.38
265.197	78.38
265.429	82.38
265.661	95.38
265.894	70.38
266.126	90.38
266.358	83.38
266.591	86.38
266.823	88.38
267.055	94.38
267.287	94.38
267.52	87.38
267.752	80.38
267.984	96.38
268.216	79.38
268.448	97.38
268.681	93.38
268.913	86.38
269.145	91.38
269.377	66.38
269.609	81.38
269.841	103.38
270.073	87.38
270.306	87.38
270.538	96.38
270.77	79.38
271.002	95.38
271.234	84.38
271.466	87.38
271.698	107.38
271.93	79.38
272.162	98.38
272.394	99.38
272.626	87.38
272.858	88.38
273.09	86.38
273.322	78.38
273.553	75.38
273.785	81.38
274.017	89.38
274.249	74.38
274.481	87.38
274.713	81.38
274.945	91.38
275.176	83.38
275.408	83.38
275.64	91.38
275.872	100.38
276.104	94.38
276.335	80.38
276.567	97.38
276.799	75.38
277.031	85.38
277.262	95.38
277.494	79.38
277.726	85.38
277.957	79.38
278.189	81.38
278.421	80.38
278.652	80.38
278.884	74.38
279.115	74.38
279.347	77.38
279.579	79.38
279.81	84.38
280.042	90.38
280.273	81.38
280.505	78.38
280.736	82.38
280.968	94.38
281.199	86.38
281.431	85.38
281.662	98.38
281.894	81.38
282.125	100.38
282.356	93.38
282.588	91.38
282.819	78.38
283.051	86.38
283.282	79.38
283.513	83.38
283.745	78.38
283.976	86.38
284.207	94.38
284.439	91.38
284.67	100.38
284.901	87.38
285.132	93.38
285.364	92.38
285.595	96.38
285.826	87.38
286.057	102.38
286.288	84.38
286.52	86.38
286.751	95.38
286.982	82.38
287.213	71.38
287.444	84.38
287.675	73.38
287.906	86.38
288.138	95.38
288.369	89.38
288.6	98.38
288.831	76.38
289.062	85.38
289.293	77.38
289.524	87.38
289.755	84.38
289.986	72.38
290.217	84.38
290.448	95.38
290.679	94.38
290.91	98.38
291.141	92.38
291.371	84.38
291.602	88.38
291.833	64.38
292.064	75.38
292.295	84.38
292.526	86.38
292.757	101.38
292.987	76.38
293.218	98.38
293.449	95.38
293.68	86.38
293.91	81.38
294.141	93.38
294.372	89.38
294.603	93.38
294.833	86.38
295.064	81.38
295.295	87.38
295.525	66.38
295.756	88.38
295.987	78.38
296.217	93.38
296.448	92.38
296.679	96.38
296.909	99.38
297.14	87.38
297.37	86.38
297.601	92.38
297.831	86.38
298.062	84.38
298.292	89.38
298.523	74.38
298.753	104.38
298.984	88.38
299.214	97.38
299.445	91.38
299.675	79.38
299.905	84.38
300.136	79.38
300.366	94.38
300.597	105.38
300.827	93.38
301.057	83.38
301.288	95.38
301.518	82.38
301.748	84.38
301.979	117.38
302.209	108.38
302.439	88.38
302.669	94.38
302.9	102.38
303.13	94.38
303.36	85.38
303.59	83.38
303.82	91.38
304.051	89.38
304.281	74.38
304.511	83.38
304.741	83.38
304.971	82.38
305.201	87.38
305.431	85.38
305.661	74.38
305.891	88.38
306.121	91.38
306.352	84.38
306.582	81.38
306.812	95.38
307.042	106.38
307.272	78.38
307.502	77.38
307.731	84.38
307.961	101.38
308.191	102.38
308.421	86.38
308.651	119.38
308.881	104.38
309.111	97.38
309.341	91.38
309.571	91.38
309.8	95.38
310.03	88.38
310.26	78.38
310.49	88.38
310.72	86.38
310.949	99.38
311.179	84.38
311.409	95.38
311.639	98.38
311.868	93.38
312.098	85.38
312.328	95.38
312.557	70.38
312.787	97.38
313.017	104.38
313.246	79.38
313.476	97.38
313.706	90.38
313.935	99.38
314.165	94.38
314.394	93.38
314.624	82.38
314.853	90.38
315.083	83.38
315.312	94.38
315.542	82.38
315.771	94.38
316.001	87.38
316.23	90.38
316.46	82.38
316.689	88.38
316.919	88.38
317.148	90.38
317.377	88.38
317.607	84.38
317.836	95.38
318.065	93.38
318.295	84.38
318.524	83.38
318.753	86.38
318.983	82.38
319.212	70.38
319.441	89.38
319.67	84.38
319.9	93.38
320.129	86.38
320.358	80.38
320.587	96.38
320.816	89.38
321.046	98.38
321.275	100.38
321.504	92.38
321.733	77.38
321.962	93.38
322.191	93.38
322.42	100.38
322.649	93.38
322.878	94.38
323.108	90.38
323.337	97.38
323.566	76.38
323.795	88.38
324.024	86.38
324.253	85.38
324.482	88.38
324.71	89.38
324.939	94.38
325.168	94.38
325.397	78.38
325.626	86.38
325.855	59.38
326.084	94.38
326.313	88.38
326.542	91.38
326.77	92.38
326.999	63.38
327.228	87.38
327.457	86.38
327.686	89.38
327.914	94.38
328.143	88.38
328.372	89.38
328.6	83.38
328.829	72.38
329.058	82.38
329.287	84.38
329.515	100.38
329.744	97.38
329.972	89.38
330.201	82.38
330.43	86.38
330.658	96.38
330.887	97.38
331.115	90.38
331.344	84.38
331.572	87.38
331.801	88.38
332.03	79.38
332.258	77.38
332.486	90.38
332.715	91.38
332.943	90.38
333.172	90.38
333.4	75.38
333.629	81.38
333.857	88.38
334.085	98.38
334.314	92.38
334.542	105.38
334.771	100.38
334.999	88.38
335.227	88.38
335.455	81.38
335.684	90.38
335.912	93.38
336.14	79.38
336.369	100.38
336.597	76.38
336.825	92.38
337.053	67.38
337.281	90.38
337.51	88.38
337.738	95.38
337.966	85.38
338.194	89.38
338.422	88.38
338.65	85.38
338.878	71.38
339.106	82.38
339.334	86.38
339.562	89.38
339.79	77.38
340.018	88.38
340.246	106.38
340.474	78.38
340.702	91.38
340.93	86.38
341.158	94.38
341.386	95.38
341.614	90.38
341.842	103.38
342.07	90.38
342.298	92.38
342.526	88.38
342.754	89.38
342.981	87.38
343.209	89.38
343.437	95.38
343.665	85.38
343.893	85.38
344.12	90.38
344.348	99.38
344.576	98.38
344.804	95.38
345.031	86.38
345.259	100.38
345.487	87.38
345.714	91.38
345.942	90.38
346.17	76.38
346.397	86.38
346.625	94.38
346.853	90.38
347.08	82.38
347.308	94.38
347.535	94.38
347.763	97.38
347.99	81.38
348.218	79.38
348.445	96.38
348.673	86.38
348.9	91.38
349.128	105.38
349.355	90.38
349.583	96.38
349.81	85.38
350.037	83.38
350.265	85.38
350.492	88.38
350.72	95.38
350.947	98.38
351.174	90.38
351.402	85.38
351.629	86.38
351.856	80.38
352.083	90.38
352.311	86.38
352.538	86.38
352.765	91.38
352.992	90.38
353.22	86.38
353.447	88.38
353.674	90.38
353.901	72.38
354.128	86.38
354.355	87.38
354.583	91.38
354.81	106.38
355.037	102.38
355.264	91.38
355.491	95.38
355.718	79.38
355.945	87.38
356.172	81.38
356.399	103.38
356.626	89.38
356.853	78.38
357.08	84.38
357.307	98.38
357.534	92.38
357.761	88.38
357.988	97.38
358.215	95.38
358.441	84.38
358.668	87.38
358.895	98.38
359.122	98.38
359.349	92.38
359.576	88.38
359.802	95.38
360.029	100.38
360.256	85.38
360.483	98.38
360.709	88.38
360.936	101.38
361.163	88.38
361.39	95.38
361.616	85.38
361.843	102.38
362.07	100.38
362.296	108.38
362.523	79.38
362.749	83.38
362.976	102.38
363.203	116.38
363.429	107.38
363.656	104.38
363.882	100.38
364.109	108.38
364.335	119.38
364.562	118.38
364.788	105.38
365.015	86.38
365.241	92.38
365.468	96.38
365.694	88.38
365.92	100.38
366.147	90.38
366.373	88.38
366.599	79.38
366.826	77.38
367.052	90.38
367.278	90.38
367.505	84.38
367.731	95.38
367.957	104.38
368.184	104.38
368.41	86.38
368.636	87.38
368.862	85.38
369.089	91.38
369.315	93.38
369.541	86.38
369.767	104.38
369.993	92.38
370.219	74.38
370.445	75.38
370.672	102.38
370.898	93.38
371.124	82.38
371.35	99.38
371.576	96.38
371.802	77.38
372.028	100.38
372.254	88.38
372.48	101.38
372.706	92.38
372.932	91.38
373.158	89.38
373.384	96.38
373.61	110.38
373.835	108.38
374.061	96.38
374.287	102.38
374.513	95.38
374.739	100.38
374.965	89.38
375.191	88.38
375.416	91.38
375.642	80.38
375.868	98.38
376.094	95.38
376.319	91.38
376.545	91.38
376.771	93.38
376.997	81.38
377.222	84.38
377.448	97.38
377.674	102.38
377.899	76.38
378.125	67.38
378.35	79.38
378.576	96.38
378.802	80.38
379.027	77.38
379.253	95.38
379.478	83.38
379.704	84.38
379.929	80.38
380.155	75.38
380.38	86.38
380.606	94.38
380.831	90.38
381.057	94.38
381.282	88.38
381.507	94.38
381.733	97.38
381.958	104.38
382.184	93.38
382.409	101.38
382.634	103.38
382.86	112.38
383.085	89.38
383.31	82.38
383.535	84.38
383.761	95.38
383.986	103.38
384.211	96.38
384.436	95.38
384.662	85.38
384.887	92.38
385.112	75.38
385.337	89.38
385.562	90.38
385.787	100.38
386.013	96.38
386.238	114.38
386.463	87.38
386.688	86.38
386.913	98.38
387.138	71.38
387.363	102.38
387.588	83.38
387.813	100.38
388.038	99.38
388.263	115.38
388.488	89.38
388.713	102.38
388.938	78.38
389.163	68.38
389.387	98.38
389.612	86.38
389.837	81.38
390.062	86.38
390.287	98.38
390.512	91.38
390.736	95.38
390.961	92.38
391.186	91.38
391.411	85.38
391.636	94.38
391.86	60.38
392.085	94.38
392.31	89.38
392.534	100.38
392.759	109.38
392.984	150.38
393.208	240.38
393.433	374.38
393.658	278.38
393.882	142.38
394.107	104.38
394.331	123.38
394.556	120.38
394.78	109.38
395.005	90.38
395.229	80.38
395.454	94.38
395.678	90.38
395.903	120.38
396.127	137.38
396.352	145.38
396.576	174.38
396.801	256.38
397.025	308.38
397.249	160.38
397.474	114.38
397.698	107.38
397.922	98.38
398.147	90.38
398.371	98.38
398.595	96.38
398.82	94.38
399.044	96.38
399.268	86.38
399.492	87.38
399.717	80.38
399.941	100.38
400.165	94.38
400.389	94.38
400.613	87.38
400.837	96.38
401.062	78.38
401.286	91.38
401.51	96.38
401.734	85.38
401.958	86.38
402.182	80.38
402.406	92.38
402.63	93.38
402.854	101.38
403.078	87.38
403.302	88.38
403.526	85.38
403.75	73.38
403.974	83.38
404.198	90.38
404.422	95.38
404.645	91.38
404.869	101.38
405.093	102.38
405.317	87.38
405.541	99.38
405.765	88.38
405.988	100.38
406.212	91.38
406.436	80.38
406.66	74.38
406.883	89.38
407.107	83.38
407.331	70.38
407.555	88.38
407.778	115.38
408.002	123.38
408.226	84.38
408.449	99.38
408.673	104.38
408.896	104.38
409.12	66.38
409.344	94.38
409.567	90.38
409.791	93.38
410.014	95.38
410.238	95.38
410.461	74.38
410.685	92.38
410.908	83.38
411.132	91.38
411.355	97.38
411.578	81.38
411.802	95.38
412.025	93.38
412.249	102.38
412.472	95.38
412.695	96.38
412.919	91.38
413.142	92.38
413.365	95.38
413.589	97.38
413.812	86.38
414.035	91.38
414.258	88.38
414.482	80.38
414.705	80.38
414.928	95.38
415.151	88.38
415.374	89.38
415.597	94.38
415.821	86.38
416.044	87.38
416.267	86.38
416.49	86.38
416.713	87.38
416.936	95.38
417.159	99.38
417.382	98.38
417.605	94.38
417.828	95.38
418.051	90.38
418.274	95.38
418.497	101.38
418.72	76.38
418.943	106.38
419.166	88.38
419.389	98.38
419.611	87.38
419.834	79.38
420.057	90.38
420.28	89.38
420.503	86.38
420.726	106.38
420.948	88.38
421.171	101.38
421.394	104.38
421.617	111.38
421.839	108.38
422.062	112.38
422.285	132.38
422.507	242.38
422.73	384.38
422.953	344.38
423.175	178.38
423.398	118.38
423.621	101.38
423.843	85.38
424.066	96.38
424.288	79.38
424.511	77.38
424.733	91.38
424.956	86.38
425.178	88.38
425.401	85.38
425.623	87.38
425.846	71.38
426.068	106.38
426.291	99.38
426.513	89.38
426.735	98.38
426.958	96.38
427.18	85.38
427.402	90.38
427.625	98.38
427.847	84.38
428.069	99.38
428.292	119.38
428.514	141.38
428.736	102.38
428.958	126.38
429.181	130.38
429.403	101.38
429.625	88.38
429.847	117.38
430.069	152.38
430.292	182.38
430.514	163.38
430.736	128.38
430.958	152.38
431.18	94.38
431.402	99.38
431.624	94.38
431.846	123.38
432.068	124.38
432.29	108.38
432.512	88.38
432.734	103.38
432.956	85.38
433.178	89.38
433.4	85.38
433.622	86.38
433.844	79.38
434.066	71.38
434.287	91.38
434.509	83.38
434.731	91.38
434.953	90.38
435.175	95.38
435.397	99.38
435.618	79.38
435.84	100.38
436.062	91.38
436.284	78.38
436.505	86.38
436.727	101.38
436.949	75.38
437.17	106.38
437.392	74.38
437.614	87.38
437.835	84.38
438.057	89.38
438.278	91.38
438.5	93.38
438.721	88.38
438.943	90.38
439.165	99.38
439.386	90.38
439.608	85.38
439.829	91.38
440.05	95.38
440.272	92.38
440.493	94.38
440.715	100.38
440.936	100.38
441.158	86.38
441.379	91.38
441.6	90.38
441.822	85.38
442.043	94.38
442.264	102.38
442.486	141.38
442.707	158.38
442.928	114.38
443.149	99.38
443.371	146.38
443.592	212.38
443.813	203.38
444.034	122.38
444.255	73.38
444.476	97.38
444.698	87.38
444.919	83.38
445.14	187.38
445.361	184.38
445.582	242.38
445.803	224.38
446.024	133.38
446.245	102.38
446.466	91.38
446.687	88.38
446.908	108.38
447.129	90.38
447.35	96.38
447.571	81.38
447.792	80.38
448.013	86.38
448.234	93.38
448.455	86.38
448.675	98.38
448.896	79.38
449.117	70.38
449.338	76.38
449.559	94.38
449.779	87.38
450	94.38
450.221	95.38
450.442	83.38
450.662	90.38
450.883	92.38
451.104	88.38
451.324	94.38
451.545	76.38
451.766	93.38
451.986	88.38
452.207	82.38
452.428	95.38
452.648	83.38
452.869	103.38
453.089	98.38
453.31	90.38
453.53	88.38
453.751	88.38
453.971	94.38
454.192	77.38
454.412	76.38
454.633	100.38
454.853	80.38
455.073	91.38
455.294	85.38
455.514	92.38
455.734	94.38
455.955	94.38
456.175	73.38
456.395	80.38
456.616	90.38
456.836	91.38
457.056	80.38
457.276	90.38
457.497	89.38
457.717	88.38
457.937	98.38
458.157	109.38
458.377	112.38
458.598	102.38
458.818	133.38
459.038	104.38
459.258	84.38
459.478	86.38
459.698	91.38
459.918	102.38
460.138	95.38
460.358	85.38
460.578	104.38
460.798	122.38
461.018	124.38
461.238	88.38
461.458	96.38
461.678	87.38
461.898	82.38
462.118	80.38
462.338	94.38
462.558	96.38
462.777	97.38
462.997	76.38
463.217	86.38
463.437	79.38
463.657	92.38
463.876	100.38
464.096	81.38
464.316	99.38
464.536	75.38
464.755	86.38
464.975	95.38
465.195	102.38
465.414	107.38
465.634	88.38
465.854	86.38
466.073	83.38
466.293	83.38
466.512	64.38
466.732	79.38
466.951	90.38
467.171	74.38
467.391	78.38
467.61	94.38
467.829	107.38
468.049	82.38
468.268	92.38
468.488	91.38
468.707	87.38
468.927	84.38
469.146	87.38
469.365	78.38
469.585	96.38
469.804	70.38
470.023	73.38
470.243	95.38
470.462	85.38
470.681	87.38
470.901	88.38
471.12	74.38
471.339	96.38
471.558	78.38
471.777	84.38
471.997	94.38
472.216	78.38
472.435	79.38
472.654	87.38
472.873	91.38
473.092	89.38
473.311	80.38
473.53	84.38
473.749	78.38
473.968	90.38
474.187	91.38
474.406	81.38
474.625	76.38
474.844	114.38
475.063	86.38
475.282	88.38
475.501	85.38
475.72	94.38
475.939	84.38
476.158	85.38
476.377	84.38
476.596	88.38
476.814	95.38
477.033	77.38
477.252	81.38
477.471	83.38
477.69	86.38
477.908	83.38
478.127	84.38
478.346	88.38
478.564	84.38
478.783	84.38
479.002	88.38
479.22	101.38
479.439	103.38
479.658	86.38
479.876	78.38
480.095	87.38
480.313	94.38
480.532	91.38
480.751	96.38
480.969	85.38
481.188	98.38
481.406	90.38
481.624	90.38
481.843	94.38
482.061	97.38
482.28	79.38
482.498	90.38
482.717	99.38
482.935	100.38
483.153	103.38
483.372	97.38
483.59	88.38
483.808	90.38
484.027	97.38
484.245	95.38
484.463	96.38
484.681	96.38
484.9	80.38
485.118	101.38
485.336	86.38
485.554	99.38
485.772	90.38
485.99	83.38
486.209	79.38
486.427	93.38
486.645	91.38
486.863	98.38
487.081	90.38
487.299	91.38
487.517	93.38
487.735	111.38
487.953	150.38
488.171	132.38
488.389	87.38
488.607	89.38
488.825	90.38
489.043	76.38
489.261	83.38
489.479	100.38
489.696	95.38
489.914	106.38
490.132	98.38
490.35	100.38
490.568	85.38
490.786	84.38
491.003	90.38
491.221	107.38
491.439	88.38
491.657	91.38
491.874	102.38
492.092	84.38
492.31	97.38
492.527	91.38
492.745	91.38
492.963	87.38
493.18	87.38
493.398	88.38
493.615	100.38
493.833	88.38
494.05	79.38
494.268	79.38
494.485	103.38
494.703	89.38
494.92	88.38
495.138	95.38
495.355	93.38
495.573	106.38
495.79	90.38
496.008	81.38
496.225	105.38
496.442	79.38
496.66	105.38
496.877	96.38
497.094	92.38
497.312	87.38
497.529	88.38
497.746	95.38
497.963	91.38
498.181	98.38
498.398	92.38
498.615	95.38
498.832	82.38
499.049	70.38
499.267	101.38
499.484	84.38
499.701	91.38
499.918	101.38
500.135	94.38
500.352	83.38
500.569	76.38
500.786	89.38
501.003	92.38
501.22	93.38
501.437	97.38
501.654	97.38
501.871	91.38
502.088	93.38
502.305	86.38
502.522	92.38
502.739	83.38
502.956	99.38
503.172	99.38
503.389	91.38
503.606	101.38
503.823	67.38
504.04	100.38
504.256	126.38
504.473	122.38
504.69	96.38
504.907	96.38
505.123	99.38
505.34	82.38
505.557	91.38
505.773	76.38
505.99	92.38
506.207	91.38
506.423	96.38
506.64	76.38
506.856	85.38
507.073	78.38
507.289	84.38
507.506	107.38
507.722	89.38
507.939	91.38
508.155	80.38
508.372	87.38
508.588	104.38
508.805	88.38
509.021	86.38
509.238	98.38
509.454	85.38
509.67	86.38
509.887	78.38
510.103	74.38
510.319	87.38
510.536	92.38
510.752	90.38
510.968	81.38
511.184	90.38
511.401	108.38
511.617	101.38
511.833	98.38
512.049	87.38
512.265	81.38
512.481	88.38
512.698	98.38
512.914	82.38
513.13	83.38
513.346	81.38
513.562	90.38
513.778	86.38
513.994	87.38
514.21	79.38
514.426	92.38
514.642	91.38
514.858	99.38
515.074	92.38
515.29	107.38
515.506	86.38
515.721	84.38
515.937	103.38
516.153	92.38
516.369	81.38
516.585	91.38
516.801	91.38
517.016	92.38
517.232	103.38
517.448	93.38
