Data from HP_1_HRD10591_00014.txt Node
Date: Mon Jan 19 14:15:14 EST 2026
User: Yrep
Spectrometer: HR+D1059
Trigger mode: 1
Integration Time (sec): 1.000000E-1
Scans to average: 1
Electric dark correction enabled: true
Nonlinearity correction enabled: false
Boxcar width: 0
XAxis mode: Wavelengths
Number of Pixels in Spectrum: 2048
>>>>>Begin Spectral Data<<<<<
223.165	-28.88
223.4	-28.88
223.635	-28.88
223.869	-23.88
224.104	-23.88
224.338	-7.88
224.573	-6.88
224.808	-21.88
225.042	5.12
225.277	-19.88
225.511	-18.88
225.746	12.12
225.98	18.12
226.215	0.12
226.449	31.12
226.683	23.12
226.918	23.12
227.152	39.12
227.387	33.12
227.621	32.12
227.856	36.12
228.09	47.12
228.324	40.12
228.559	59.12
228.793	52.12
229.027	49.12
229.262	59.12
229.496	77.12
229.73	63.12
229.964	69.12
230.199	62.12
230.433	68.12
230.667	71.12
230.901	75.12
231.136	73.12
231.37	71.12
231.604	86.12
231.838	82.12
232.072	86.12
232.306	74.12
232.541	78.12
232.775	76.12
233.009	72.12
233.243	74.12
233.477	81.12
233.711	74.12
233.945	88.12
234.179	71.12
234.413	67.12
234.647	71.12
234.881	68.12
235.115	82.12
235.349	88.12
235.583	96.12
235.817	85.12
236.051	80.12
236.285	66.12
236.519	62.12
236.753	75.12
236.987	82.12
237.221	71.12
237.455	62.12
237.689	80.12
237.922	84.12
238.156	69.12
238.39	82.12
238.624	70.12
238.858	67.12
239.091	75.12
239.325	75.12
239.559	59.12
239.793	68.12
240.027	80.12
240.26	78.12
240.494	93.12
240.728	65.12
240.961	72.12
241.195	84.12
241.429	82.12
241.662	71.12
241.896	84.12
242.13	68.12
242.363	76.12
242.597	60.12
242.83	89.12
243.064	69.12
243.298	70.12
243.531	65.12
243.765	75.12
243.998	89.12
244.232	85.12
244.465	80.12
244.699	73.12
244.932	70.12
245.166	68.12
245.399	83.12
245.633	70.12
245.866	70.12
246.099	85.12
246.333	73.12
246.566	66.12
246.8	85.12
247.033	77.12
247.266	81.12
247.5	76.12
247.733	62.12
247.966	74.12
248.2	83.12
248.433	83.12
248.666	91.12
248.899	72.12
249.133	80.12
249.366	76.12
249.599	73.12
249.832	71.12
250.066	89.12
250.299	64.12
250.532	81.12
250.765	83.12
250.998	91.12
251.231	74.12
251.465	92.12
251.698	75.12
251.931	80.12
252.164	82.12
252.397	74.12
252.63	70.12
252.863	80.12
253.096	88.12
253.329	84.12
253.562	89.12
253.795	89.12
254.028	82.12
254.261	87.12
254.494	89.12
254.727	81.12
254.96	71.12
255.193	86.12
255.426	76.12
255.659	72.12
255.892	73.12
256.124	73.12
256.357	83.12
256.59	73.12
256.823	73.12
257.056	87.12
257.289	87.12
257.521	81.12
257.754	69.12
257.987	87.12
258.22	79.12
258.452	76.12
258.685	87.12
258.918	78.12
259.151	84.12
259.383	99.12
259.616	81.12
259.849	77.12
260.081	70.12
260.314	62.12
260.547	75.12
260.779	80.12
261.012	80.12
261.244	84.12
261.477	80.12
261.71	79.12
261.942	72.12
262.175	92.12
262.407	78.12
262.64	80.12
262.872	85.12
263.105	77.12
263.337	88.12
263.57	79.12
263.802	87.12
264.035	76.12
264.267	75.12
264.499	72.12
264.732	90.12
264.964	83.12
265.197	84.12
265.429	78.12
265.661	85.12
265.894	87.12
266.126	88.12
266.358	80.12
266.591	72.12
266.823	83.12
267.055	80.12
267.287	77.12
267.52	84.12
267.752	92.12
267.984	82.12
268.216	77.12
268.448	79.12
268.681	71.12
268.913	85.12
269.145	76.12
269.377	79.12
269.609	83.12
269.841	83.12
270.073	84.12
270.306	84.12
270.538	73.12
270.77	79.12
271.002	81.12
271.234	86.12
271.466	82.12
271.698	74.12
271.93	80.12
272.162	73.12
272.394	74.12
272.626	82.12
272.858	79.12
273.09	80.12
273.322	75.12
273.553	80.12
273.785	82.12
274.017	83.12
274.249	75.12
274.481	88.12
274.713	98.12
274.945	87.12
275.176	96.12
275.408	67.12
275.64	95.12
275.872	90.12
276.104	77.12
276.335	70.12
276.567	87.12
276.799	64.12
277.031	86.12
277.262	72.12
277.494	73.12
277.726	73.12
277.957	76.12
278.189	86.12
278.421	89.12
278.652	88.12
278.884	96.12
279.115	79.12
279.347	71.12
279.579	85.12
279.81	73.12
280.042	81.12
280.273	73.12
280.505	76.12
280.736	77.12
280.968	80.12
281.199	77.12
281.431	79.12
281.662	72.12
281.894	78.12
282.125	74.12
282.356	83.12
282.588	80.12
282.819	73.12
283.051	90.12
283.282	86.12
283.513	84.12
283.745	97.12
283.976	77.12
284.207	82.12
284.439	81.12
284.67	85.12
284.901	82.12
285.132	59.12
285.364	79.12
285.595	82.12
285.826	70.12
286.057	87.12
286.288	87.12
286.52	78.12
286.751	84.12
286.982	88.12
287.213	81.12
287.444	74.12
287.675	74.12
287.906	72.12
288.138	99.12
288.369	80.12
288.6	98.12
288.831	84.12
289.062	102.12
289.293	75.12
289.524	83.12
289.755	85.12
289.986	82.12
290.217	81.12
290.448	63.12
290.679	75.12
290.91	80.12
291.141	78.12
291.371	87.12
291.602	92.12
291.833	87.12
292.064	63.12
292.295	82.12
292.526	74.12
292.757	79.12
292.987	74.12
293.218	85.12
293.449	88.12
293.68	74.12
293.91	95.12
294.141	90.12
294.372	76.12
294.603	94.12
294.833	82.12
295.064	95.12
295.295	86.12
295.525	88.12
295.756	85.12
295.987	76.12
296.217	76.12
296.448	79.12
296.679	87.12
296.909	81.12
297.14	86.12
297.37	92.12
297.601	85.12
297.831	82.12
298.062	80.12
298.292	79.12
298.523	88.12
298.753	85.12
298.984	76.12
299.214	77.12
299.445	83.12
299.675	71.12
299.905	76.12
300.136	86.12
300.366	89.12
300.597	90.12
300.827	79.12
301.057	66.12
301.288	84.12
301.518	80.12
301.748	74.12
301.979	84.12
302.209	64.12
302.439	70.12
302.669	89.12
302.9	82.12
303.13	87.12
303.36	98.12
303.59	73.12
303.82	82.12
304.051	84.12
304.281	70.12
304.511	91.12
304.741	86.12
304.971	86.12
305.201	90.12
305.431	79.12
305.661	71.12
305.891	66.12
306.121	70.12
306.352	82.12
306.582	80.12
306.812	69.12
307.042	74.12
307.272	99.12
307.502	76.12
307.731	95.12
307.961	72.12
308.191	92.12
308.421	94.12
308.651	92.12
308.881	98.12
309.111	88.12
309.341	89.12
309.571	81.12
309.8	89.12
310.03	81.12
310.26	88.12
310.49	75.12
310.72	90.12
310.949	80.12
311.179	81.12
311.409	88.12
311.639	75.12
311.868	76.12
312.098	81.12
312.328	84.12
312.557	79.12
312.787	84.12
313.017	96.12
313.246	77.12
313.476	79.12
313.706	78.12
313.935	68.12
314.165	77.12
314.394	79.12
314.624	84.12
314.853	83.12
315.083	87.12
315.312	90.12
315.542	82.12
315.771	82.12
316.001	87.12
316.23	77.12
316.46	93.12
316.689	81.12
316.919	84.12
317.148	101.12
317.377	81.12
317.607	73.12
317.836	86.12
318.065	85.12
318.295	83.12
318.524	95.12
318.753	88.12
318.983	72.12
319.212	79.12
319.441	72.12
319.67	71.12
319.9	87.12
320.129	73.12
320.358	97.12
320.587	77.12
320.816	88.12
321.046	90.12
321.275	84.12
321.504	79.12
321.733	74.12
321.962	83.12
322.191	81.12
322.42	91.12
322.649	75.12
322.878	83.12
323.108	94.12
323.337	82.12
323.566	66.12
323.795	94.12
324.024	75.12
324.253	87.12
324.482	82.12
324.71	77.12
324.939	88.12
325.168	85.12
325.397	87.12
325.626	74.12
325.855	91.12
326.084	91.12
326.313	87.12
326.542	86.12
326.77	87.12
326.999	97.12
327.228	84.12
327.457	89.12
327.686	81.12
327.914	77.12
328.143	94.12
328.372	86.12
328.6	88.12
328.829	81.12
329.058	69.12
329.287	94.12
329.515	91.12
329.744	71.12
329.972	72.12
330.201	87.12
330.43	80.12
330.658	100.12
330.887	87.12
331.115	71.12
331.344	80.12
331.572	89.12
331.801	88.12
332.03	78.12
332.258	75.12
332.486	101.12
332.715	102.12
332.943	80.12
333.172	96.12
333.4	102.12
333.629	92.12
333.857	83.12
334.085	94.12
334.314	75.12
334.542	80.12
334.771	78.12
334.999	87.12
335.227	76.12
335.455	77.12
335.684	94.12
335.912	78.12
336.14	87.12
336.369	92.12
336.597	71.12
336.825	89.12
337.053	78.12
337.281	83.12
337.51	80.12
337.738	89.12
337.966	88.12
338.194	87.12
338.422	67.12
338.65	91.12
338.878	91.12
339.106	85.12
339.334	87.12
339.562	85.12
339.79	88.12
340.018	73.12
340.246	70.12
340.474	92.12
340.702	83.12
340.93	66.12
341.158	77.12
341.386	80.12
341.614	92.12
341.842	74.12
342.07	81.12
342.298	80.12
342.526	90.12
342.754	75.12
342.981	84.12
343.209	84.12
343.437	93.12
343.665	72.12
343.893	74.12
344.12	81.12
344.348	90.12
344.576	85.12
344.804	83.12
345.031	88.12
345.259	79.12
345.487	76.12
345.714	94.12
345.942	66.12
346.17	81.12
346.397	88.12
346.625	86.12
346.853	74.12
347.08	82.12
347.308	84.12
347.535	80.12
347.763	65.12
347.99	60.12
348.218	80.12
348.445	71.12
348.673	73.12
348.9	80.12
349.128	94.12
349.355	87.12
349.583	92.12
349.81	84.12
350.037	87.12
350.265	91.12
350.492	87.12
350.72	90.12
350.947	81.12
351.174	88.12
351.402	70.12
351.629	91.12
351.856	82.12
352.083	69.12
352.311	81.12
352.538	71.12
352.765	82.12
352.992	76.12
353.22	90.12
353.447	87.12
353.674	78.12
353.901	97.12
354.128	84.12
354.355	75.12
354.583	80.12
354.81	55.12
355.037	83.12
355.264	85.12
355.491	85.12
355.718	79.12
355.945	88.12
356.172	84.12
356.399	82.12
356.626	77.12
356.853	89.12
357.08	100.12
357.307	80.12
357.534	84.12
357.761	80.12
357.988	83.12
358.215	78.12
358.441	90.12
358.668	97.12
358.895	76.12
359.122	82.12
359.349	81.12
359.576	74.12
359.802	87.12
360.029	81.12
360.256	75.12
360.483	79.12
360.709	77.12
360.936	77.12
361.163	79.12
361.39	91.12
361.616	91.12
361.843	86.12
362.07	89.12
362.296	81.12
362.523	91.12
362.749	79.12
362.976	90.12
363.203	91.12
363.429	86.12
363.656	78.12
363.882	80.12
364.109	103.12
364.335	74.12
364.562	87.12
364.788	94.12
365.015	76.12
365.241	87.12
365.468	86.12
365.694	95.12
365.92	82.12
366.147	72.12
366.373	82.12
366.599	72.12
366.826	92.12
367.052	84.12
367.278	95.12
367.505	84.12
367.731	86.12
367.957	92.12
368.184	81.12
368.41	76.12
368.636	81.12
368.862	77.12
369.089	85.12
369.315	80.12
369.541	82.12
369.767	92.12
369.993	67.12
370.219	86.12
370.445	94.12
370.672	96.12
370.898	76.12
371.124	71.12
371.35	85.12
371.576	82.12
371.802	74.12
372.028	81.12
372.254	74.12
372.48	80.12
372.706	91.12
372.932	81.12
373.158	96.12
373.384	100.12
373.61	80.12
373.835	75.12
374.061	71.12
374.287	80.12
374.513	75.12
374.739	90.12
374.965	76.12
375.191	79.12
375.416	94.12
375.642	84.12
375.868	88.12
376.094	82.12
376.319	94.12
376.545	65.12
376.771	92.12
376.997	80.12
377.222	80.12
377.448	87.12
377.674	84.12
377.899	81.12
378.125	80.12
378.35	80.12
378.576	75.12
378.802	64.12
379.027	95.12
379.253	91.12
379.478	82.12
379.704	78.12
379.929	88.12
380.155	79.12
380.38	82.12
380.606	62.12
380.831	77.12
381.057	82.12
381.282	86.12
381.507	74.12
381.733	86.12
381.958	77.12
382.184	74.12
382.409	102.12
382.634	89.12
382.86	84.12
383.085	74.12
383.31	78.12
383.535	79.12
383.761	66.12
383.986	90.12
384.211	89.12
384.436	78.12
384.662	89.12
384.887	75.12
385.112	75.12
385.337	80.12
385.562	70.12
385.787	86.12
386.013	102.12
386.238	81.12
386.463	83.12
386.688	95.12
386.913	72.12
387.138	78.12
387.363	90.12
387.588	75.12
387.813	100.12
388.038	72.12
388.263	95.12
388.488	85.12
388.713	85.12
388.938	75.12
389.163	83.12
389.387	80.12
389.612	75.12
389.837	74.12
390.062	89.12
390.287	73.12
390.512	88.12
390.736	95.12
390.961	74.12
391.186	82.12
391.411	90.12
391.636	82.12
391.86	66.12
392.085	82.12
392.31	85.12
392.534	80.12
392.759	88.12
392.984	112.12
393.208	115.12
393.433	154.12
393.658	130.12
393.882	95.12
394.107	94.12
394.331	75.12
394.556	82.12
394.78	76.12
395.005	95.12
395.229	83.12
395.454	63.12
395.678	99.12
395.903	104.12
396.127	82.12
396.352	94.12
396.576	107.12
396.801	138.12
397.025	130.12
397.249	96.12
397.474	99.12
397.698	84.12
397.922	78.12
398.147	71.12
398.371	80.12
398.595	70.12
398.82	76.12
399.044	76.12
399.268	93.12
399.492	83.12
399.717	70.12
399.941	86.12
400.165	82.12
400.389	83.12
400.613	82.12
400.837	63.12
401.062	82.12
401.286	85.12
401.51	92.12
401.734	84.12
401.958	86.12
402.182	75.12
402.406	88.12
402.63	82.12
402.854	77.12
403.078	100.12
403.302	81.12
403.526	88.12
403.75	70.12
403.974	82.12
404.198	81.12
404.422	86.12
404.645	99.12
404.869	83.12
405.093	75.12
405.317	80.12
405.541	71.12
405.765	70.12
405.988	85.12
406.212	88.12
406.436	71.12
406.66	82.12
406.883	86.12
407.107	90.12
407.331	65.12
407.555	93.12
407.778	99.12
408.002	85.12
408.226	75.12
408.449	82.12
408.673	77.12
408.896	71.12
409.12	77.12
409.344	94.12
409.567	93.12
409.791	94.12
410.014	86.12
410.238	79.12
410.461	77.12
410.685	88.12
410.908	75.12
411.132	88.12
411.355	77.12
411.578	78.12
411.802	75.12
412.025	71.12
412.249	74.12
412.472	91.12
412.695	72.12
412.919	70.12
413.142	81.12
413.365	72.12
413.589	84.12
413.812	76.12
414.035	75.12
414.258	79.12
414.482	74.12
414.705	77.12
414.928	80.12
415.151	94.12
415.374	85.12
415.597	73.12
415.821	87.12
416.044	78.12
416.267	75.12
416.49	71.12
416.713	92.12
416.936	76.12
417.159	80.12
417.382	86.12
417.605	82.12
417.828	75.12
418.051	80.12
418.274	80.12
418.497	72.12
418.72	74.12
418.943	88.12
419.166	90.12
419.389	75.12
419.611	85.12
419.834	89.12
420.057	81.12
420.28	67.12
420.503	67.12
420.726	74.12
420.948	82.12
421.171	80.12
421.394	78.12
421.617	76.12
421.839	77.12
422.062	89.12
422.285	82.12
422.507	123.12
422.73	167.12
422.953	146.12
423.175	103.12
423.398	86.12
423.621	92.12
423.843	69.12
424.066	90.12
424.288	75.12
424.511	74.12
424.733	71.12
424.956	78.12
425.178	75.12
425.401	78.12
425.623	81.12
425.846	79.12
426.068	76.12
426.291	77.12
426.513	82.12
426.735	84.12
426.958	68.12
427.18	83.12
427.402	84.12
427.625	73.12
427.847	82.12
428.069	88.12
428.292	86.12
428.514	83.12
428.736	77.12
428.958	82.12
429.181	103.12
429.403	88.12
429.625	80.12
429.847	72.12
430.069	106.12
430.292	103.12
430.514	111.12
430.736	98.12
430.958	90.12
431.18	74.12
431.402	97.12
431.624	82.12
431.846	90.12
432.068	85.12
432.29	88.12
432.512	85.12
432.734	82.12
432.956	71.12
433.178	88.12
433.4	91.12
433.622	82.12
433.844	81.12
434.066	77.12
434.287	94.12
434.509	85.12
434.731	77.12
434.953	77.12
435.175	66.12
435.397	89.12
435.618	89.12
435.84	88.12
436.062	85.12
436.284	74.12
436.505	65.12
436.727	75.12
436.949	66.12
437.17	72.12
437.392	74.12
437.614	78.12
437.835	68.12
438.057	68.12
438.278	86.12
438.5	90.12
438.721	85.12
438.943	87.12
439.165	96.12
439.386	98.12
439.608	80.12
439.829	80.12
440.05	88.12
440.272	90.12
440.493	81.12
440.715	84.12
440.936	82.12
441.158	88.12
441.379	83.12
441.6	75.12
441.822	81.12
442.043	97.12
442.264	78.12
442.486	94.12
442.707	86.12
442.928	90.12
443.149	90.12
443.371	91.12
443.592	97.12
443.813	110.12
444.034	90.12
444.255	83.12
444.476	80.12
444.698	86.12
444.919	82.12
445.14	186.12
445.361	139.12
445.582	124.12
445.803	114.12
446.024	84.12
446.245	94.12
446.466	80.12
446.687	72.12
446.908	66.12
447.129	75.12
447.35	76.12
447.571	80.12
447.792	85.12
448.013	76.12
448.234	74.12
448.455	78.12
448.675	76.12
448.896	73.12
449.117	96.12
449.338	83.12
449.559	91.12
449.779	74.12
450	84.12
450.221	72.12
450.442	88.12
450.662	95.12
450.883	72.12
451.104	97.12
451.324	84.12
451.545	85.12
451.766	82.12
451.986	87.12
452.207	81.12
452.428	84.12
452.648	74.12
452.869	102.12
453.089	90.12
453.31	73.12
453.53	82.12
453.751	97.12
453.971	72.12
454.192	72.12
454.412	81.12
454.633	86.12
454.853	82.12
455.073	84.12
455.294	80.12
455.514	75.12
455.734	83.12
455.955	66.12
456.175	79.12
456.395	70.12
456.616	94.12
456.836	75.12
457.056	80.12
457.276	78.12
457.497	86.12
457.717	73.12
457.937	67.12
458.157	85.12
458.377	99.12
458.598	86.12
458.818	82.12
459.038	77.12
459.258	87.12
459.478	74.12
459.698	96.12
459.918	96.12
460.138	70.12
460.358	94.12
460.578	84.12
460.798	67.12
461.018	80.12
461.238	82.12
461.458	85.12
461.678	83.12
461.898	88.12
462.118	94.12
462.338	81.12
462.558	80.12
462.777	86.12
462.997	84.12
463.217	82.12
463.437	82.12
463.657	82.12
463.876	75.12
464.096	72.12
464.316	77.12
464.536	89.12
464.755	93.12
464.975	81.12
465.195	77.12
465.414	87.12
465.634	79.12
465.854	83.12
466.073	71.12
466.293	80.12
466.512	80.12
466.732	77.12
466.951	84.12
467.171	72.12
467.391	67.12
467.61	82.12
467.829	80.12
468.049	71.12
468.268	91.12
468.488	82.12
468.707	75.12
468.927	75.12
469.146	72.12
469.365	80.12
469.585	67.12
469.804	75.12
470.023	75.12
470.243	82.12
470.462	84.12
470.681	75.12
470.901	86.12
471.12	90.12
471.339	76.12
471.558	80.12
471.777	63.12
471.997	74.12
472.216	79.12
472.435	69.12
472.654	97.12
472.873	75.12
473.092	86.12
473.311	70.12
473.53	77.12
473.749	85.12
473.968	96.12
474.187	93.12
474.406	91.12
474.625	76.12
474.844	77.12
475.063	76.12
475.282	75.12
475.501	92.12
475.72	87.12
475.939	84.12
476.158	84.12
476.377	78.12
476.596	106.12
476.814	94.12
477.033	62.12
477.252	84.12
477.471	78.12
477.69	91.12
477.908	85.12
478.127	81.12
478.346	73.12
478.564	80.12
478.783	77.12
479.002	87.12
479.22	81.12
479.439	79.12
479.658	81.12
479.876	84.12
480.095	74.12
480.313	76.12
480.532	85.12
480.751	78.12
480.969	88.12
481.188	83.12
481.406	80.12
481.624	83.12
481.843	87.12
482.061	91.12
482.28	88.12
482.498	84.12
482.717	84.12
482.935	74.12
483.153	86.12
483.372	95.12
483.59	89.12
483.808	73.12
484.027	88.12
484.245	78.12
484.463	67.12
484.681	92.12
484.9	70.12
485.118	63.12
485.336	75.12
485.554	75.12
485.772	94.12
485.99	78.12
486.209	89.12
486.427	80.12
486.645	78.12
486.863	82.12
487.081	87.12
487.299	79.12
487.517	85.12
487.735	89.12
487.953	111.12
488.171	99.12
488.389	76.12
488.607	90.12
488.825	71.12
489.043	101.12
489.261	94.12
489.479	80.12
489.696	83.12
489.914	81.12
490.132	71.12
490.35	83.12
490.568	97.12
490.786	90.12
491.003	88.12
491.221	81.12
491.439	78.12
491.657	87.12
491.874	73.12
492.092	82.12
492.31	91.12
492.527	90.12
492.745	87.12
492.963	82.12
493.18	89.12
493.398	65.12
493.615	76.12
493.833	86.12
494.05	81.12
494.268	86.12
494.485	90.12
494.703	83.12
494.92	76.12
495.138	82.12
495.355	89.12
495.573	90.12
495.79	74.12
496.008	86.12
496.225	85.12
496.442	90.12
496.66	70.12
496.877	82.12
497.094	95.12
497.312	74.12
497.529	88.12
497.746	88.12
497.963	81.12
498.181	84.12
498.398	82.12
498.615	80.12
498.832	88.12
499.049	84.12
499.267	80.12
499.484	87.12
499.701	74.12
499.918	97.12
500.135	82.12
500.352	89.12
500.569	68.12
500.786	90.12
501.003	88.12
501.22	79.12
501.437	76.12
501.654	89.12
501.871	82.12
502.088	88.12
502.305	79.12
502.522	65.12
502.739	73.12
502.956	69.12
503.172	77.12
503.389	67.12
503.606	86.12
503.823	79.12
504.04	91.12
504.256	84.12
504.473	114.12
504.69	76.12
504.907	90.12
505.123	77.12
505.34	65.12
505.557	81.12
505.773	75.12
505.99	86.12
506.207	76.12
506.423	85.12
506.64	81.12
506.856	79.12
507.073	87.12
507.289	91.12
507.506	76.12
507.722	91.12
507.939	82.12
508.155	80.12
508.372	69.12
508.588	82.12
508.805	85.12
509.021	82.12
509.238	80.12
509.454	74.12
509.67	68.12
509.887	74.12
510.103	89.12
510.319	83.12
510.536	74.12
510.752	71.12
510.968	65.12
511.184	86.12
511.401	71.12
511.617	89.12
511.833	93.12
512.049	79.12
512.265	90.12
512.481	84.12
512.698	78.12
512.914	73.12
513.13	75.12
513.346	87.12
513.562	72.12
513.778	83.12
513.994	82.12
514.21	76.12
514.426	95.12
514.642	80.12
514.858	89.12
515.074	82.12
515.29	81.12
515.506	95.12
515.721	63.12
515.937	75.12
516.153	82.12
516.369	87.12
516.585	91.12
516.801	89.12
517.016	94.12
517.232	90.12
517.448	91.12
517.664	83.12
517.879	79.12
518.095	96.12
518.311	78.12
518.527	75.12
518.742	94.12
518.958	83.12
519.173	96.12
519.389	92.12
519.605	87.12
519.82	76.12
