Data from HP_1_HRD10591_00012.txt Node
Date: Mon Jan 19 14:15:13 EST 2026
User: Yrep
Spectrometer: HR+D1059
Trigger mode: 1
Integration Time (sec): 1.000000E-1
Scans to average: 1
Electric dark correction enabled: true
Nonlinearity correction enabled: false
Boxcar width: 0
XAxis mode: Wavelengths
Number of Pixels in Spectrum: 2048
>>>>>Begin Spectral Data<<<<<
223.165	-19.12
223.4	-19.12
223.635	-19.12
223.869	-29.12
224.104	-27.12
224.338	-10.12
224.573	-14.12
224.808	-11.12
225.042	-0.12
225.277	-8.12
225.511	-1.12
225.746	1.88
225.98	16.88
226.215	6.88
226.449	30.88
226.683	10.88
226.918	18.88
227.152	33.88
227.387	30.88
227.621	31.88
227.856	31.88
228.09	45.88
228.324	35.88
228.559	55.88
228.793	53.88
229.027	66.88
229.262	58.88
229.496	71.88
229.73	64.88
229.964	67.88
230.199	75.88
230.433	75.88
230.667	60.88
230.901	57.88
231.136	78.88
231.37	56.88
231.604	76.88
231.838	84.88
232.072	82.88
232.306	70.88
232.541	57.88
232.775	72.88
233.009	75.88
233.243	77.88
233.477	77.88
233.711	78.88
233.945	78.88
234.179	70.88
234.413	69.88
234.647	76.88
234.881	71.88
235.115	85.88
235.349	82.88
235.583	80.88
235.817	63.88
236.051	69.88
236.285	51.88
236.519	64.88
236.753	83.88
236.987	67.88
237.221	73.88
237.455	75.88
237.689	82.88
237.922	68.88
238.156	72.88
238.39	64.88
238.624	77.88
238.858	77.88
239.091	75.88
239.325	63.88
239.559	71.88
239.793	59.88
240.027	62.88
240.26	67.88
240.494	83.88
240.728	69.88
240.961	67.88
241.195	66.88
241.429	57.88
241.662	68.88
241.896	69.88
242.13	71.88
242.363	77.88
242.597	70.88
242.83	72.88
243.064	70.88
243.298	82.88
243.531	77.88
243.765	72.88
243.998	58.88
244.232	81.88
244.465	63.88
244.699	67.88
244.932	67.88
245.166	63.88
245.399	63.88
245.633	66.88
245.866	71.88
246.099	72.88
246.333	69.88
246.566	73.88
246.8	57.88
247.033	73.88
247.266	60.88
247.5	62.88
247.733	72.88
247.966	85.88
248.2	70.88
248.433	71.88
248.666	62.88
248.899	72.88
249.133	71.88
249.366	73.88
249.599	73.88
249.832	83.88
250.066	91.88
250.299	71.88
250.532	87.88
250.765	61.88
250.998	52.88
251.231	66.88
251.465	74.88
251.698	68.88
251.931	89.88
252.164	66.88
252.397	72.88
252.63	80.88
252.863	66.88
253.096	75.88
253.329	76.88
253.562	59.88
253.795	83.88
254.028	61.88
254.261	63.88
254.494	65.88
254.727	65.88
254.96	82.88
255.193	55.88
255.426	71.88
255.659	48.88
255.892	75.88
256.124	63.88
256.357	63.88
256.59	77.88
256.823	83.88
257.056	70.88
257.289	70.88
257.521	80.88
257.754	77.88
257.987	93.88
258.22	81.88
258.452	66.88
258.685	81.88
258.918	77.88
259.151	76.88
259.383	76.88
259.616	69.88
259.849	69.88
260.081	57.88
260.314	77.88
260.547	74.88
260.779	86.88
261.012	68.88
261.244	60.88
261.477	85.88
261.71	71.88
261.942	68.88
262.175	69.88
262.407	67.88
262.64	83.88
262.872	69.88
263.105	77.88
263.337	76.88
263.57	61.88
263.802	63.88
264.035	77.88
264.267	83.88
264.499	83.88
264.732	83.88
264.964	84.88
265.197	84.88
265.429	86.88
265.661	61.88
265.894	86.88
266.126	81.88
266.358	80.88
266.591	78.88
266.823	84.88
267.055	82.88
267.287	70.88
267.52	64.88
267.752	63.88
267.984	72.88
268.216	68.88
268.448	85.88
268.681	70.88
268.913	66.88
269.145	77.88
269.377	59.88
269.609	65.88
269.841	80.88
270.073	75.88
270.306	77.88
270.538	64.88
270.77	59.88
271.002	97.88
271.234	75.88
271.466	87.88
271.698	83.88
271.93	67.88
272.162	81.88
272.394	62.88
272.626	77.88
272.858	81.88
273.09	77.88
273.322	78.88
273.553	76.88
273.785	71.88
274.017	70.88
274.249	76.88
274.481	77.88
274.713	71.88
274.945	77.88
275.176	76.88
275.408	58.88
275.64	89.88
275.872	80.88
276.104	76.88
276.335	71.88
276.567	77.88
276.799	79.88
277.031	78.88
277.262	72.88
277.494	87.88
277.726	84.88
277.957	65.88
278.189	65.88
278.421	75.88
278.652	88.88
278.884	55.88
279.115	68.88
279.347	60.88
279.579	76.88
279.81	74.88
280.042	90.88
280.273	87.88
280.505	83.88
280.736	59.88
280.968	77.88
281.199	75.88
281.431	84.88
281.662	77.88
281.894	77.88
282.125	78.88
282.356	72.88
282.588	65.88
282.819	59.88
283.051	94.88
283.282	71.88
283.513	71.88
283.745	91.88
283.976	79.88
284.207	89.88
284.439	82.88
284.67	86.88
284.901	83.88
285.132	68.88
285.364	81.88
285.595	90.88
285.826	85.88
286.057	79.88
286.288	76.88
286.52	82.88
286.751	74.88
286.982	60.88
287.213	59.88
287.444	85.88
287.675	77.88
287.906	80.88
288.138	73.88
288.369	82.88
288.6	78.88
288.831	55.88
289.062	80.88
289.293	82.88
289.524	60.88
289.755	76.88
289.986	85.88
290.217	80.88
290.448	64.88
290.679	79.88
290.91	97.88
291.141	75.88
291.371	84.88
291.602	80.88
291.833	84.88
292.064	78.88
292.295	73.88
292.526	72.88
292.757	66.88
292.987	82.88
293.218	70.88
293.449	79.88
293.68	91.88
293.91	77.88
294.141	81.88
294.372	79.88
294.603	67.88
294.833	72.88
295.064	84.88
295.295	66.88
295.525	79.88
295.756	73.88
295.987	92.88
296.217	83.88
296.448	75.88
296.679	78.88
296.909	74.88
297.14	87.88
297.37	72.88
297.601	71.88
297.831	87.88
298.062	73.88
298.292	84.88
298.523	69.88
298.753	71.88
298.984	78.88
299.214	83.88
299.445	67.88
299.675	67.88
299.905	82.88
300.136	76.88
300.366	69.88
300.597	74.88
300.827	100.88
301.057	82.88
301.288	63.88
301.518	82.88
301.748	88.88
301.979	83.88
302.209	57.88
302.439	79.88
302.669	76.88
302.9	69.88
303.13	79.88
303.36	73.88
303.59	79.88
303.82	75.88
304.051	64.88
304.281	85.88
304.511	91.88
304.741	81.88
304.971	70.88
305.201	88.88
305.431	77.88
305.661	77.88
305.891	93.88
306.121	78.88
306.352	70.88
306.582	91.88
306.812	79.88
307.042	99.88
307.272	83.88
307.502	89.88
307.731	74.88
307.961	94.88
308.191	72.88
308.421	78.88
308.651	65.88
308.881	80.88
309.111	60.88
309.341	81.88
309.571	75.88
309.8	84.88
310.03	88.88
310.26	69.88
310.49	89.88
310.72	83.88
310.949	86.88
311.179	81.88
311.409	75.88
311.639	69.88
311.868	81.88
312.098	90.88
312.328	74.88
312.557	77.88
312.787	70.88
313.017	73.88
313.246	77.88
313.476	87.88
313.706	77.88
313.935	85.88
314.165	78.88
314.394	80.88
314.624	80.88
314.853	72.88
315.083	72.88
315.312	61.88
315.542	75.88
315.771	78.88
316.001	87.88
316.23	77.88
316.46	72.88
316.689	96.88
316.919	84.88
317.148	83.88
317.377	92.88
317.607	77.88
317.836	83.88
318.065	74.88
318.295	76.88
318.524	67.88
318.753	69.88
318.983	92.88
319.212	75.88
319.441	82.88
319.67	72.88
319.9	74.88
320.129	75.88
320.358	66.88
320.587	71.88
320.816	82.88
321.046	66.88
321.275	85.88
321.504	84.88
321.733	89.88
321.962	72.88
322.191	78.88
322.42	86.88
322.649	77.88
322.878	65.88
323.108	75.88
323.337	89.88
323.566	79.88
323.795	81.88
324.024	67.88
324.253	83.88
324.482	83.88
324.71	88.88
324.939	79.88
325.168	82.88
325.397	70.88
325.626	86.88
325.855	87.88
326.084	90.88
326.313	77.88
326.542	58.88
326.77	85.88
326.999	79.88
327.228	76.88
327.457	76.88
327.686	88.88
327.914	80.88
328.143	88.88
328.372	72.88
328.6	81.88
328.829	70.88
329.058	70.88
329.287	62.88
329.515	71.88
329.744	83.88
329.972	62.88
330.201	92.88
330.43	81.88
330.658	77.88
330.887	74.88
331.115	77.88
331.344	82.88
331.572	74.88
331.801	72.88
332.03	60.88
332.258	71.88
332.486	82.88
332.715	69.88
332.943	77.88
333.172	98.88
333.4	78.88
333.629	82.88
333.857	78.88
334.085	90.88
334.314	72.88
334.542	69.88
334.771	70.88
334.999	66.88
335.227	80.88
335.455	68.88
335.684	84.88
335.912	74.88
336.14	75.88
336.369	83.88
336.597	83.88
336.825	75.88
337.053	79.88
337.281	72.88
337.51	80.88
337.738	75.88
337.966	66.88
338.194	93.88
338.422	83.88
338.65	77.88
338.878	78.88
339.106	68.88
339.334	87.88
339.562	75.88
339.79	79.88
340.018	76.88
340.246	78.88
340.474	70.88
340.702	92.88
340.93	79.88
341.158	81.88
341.386	80.88
341.614	71.88
341.842	74.88
342.07	81.88
342.298	91.88
342.526	80.88
342.754	83.88
342.981	87.88
343.209	80.88
343.437	75.88
343.665	65.88
343.893	72.88
344.12	89.88
344.348	83.88
344.576	69.88
344.804	73.88
345.031	76.88
345.259	89.88
345.487	84.88
345.714	67.88
345.942	77.88
346.17	82.88
346.397	84.88
346.625	78.88
346.853	79.88
347.08	72.88
347.308	77.88
347.535	91.88
347.763	63.88
347.99	71.88
348.218	80.88
348.445	69.88
348.673	69.88
348.9	71.88
349.128	79.88
349.355	88.88
349.583	84.88
349.81	69.88
350.037	79.88
350.265	78.88
350.492	81.88
350.72	69.88
350.947	65.88
351.174	78.88
351.402	75.88
351.629	92.88
351.856	78.88
352.083	84.88
352.311	82.88
352.538	69.88
352.765	67.88
352.992	89.88
353.22	82.88
353.447	70.88
353.674	70.88
353.901	74.88
354.128	64.88
354.355	80.88
354.583	68.88
354.81	85.88
355.037	95.88
355.264	92.88
355.491	86.88
355.718	68.88
355.945	69.88
356.172	67.88
356.399	70.88
356.626	87.88
356.853	64.88
357.08	73.88
357.307	89.88
357.534	86.88
357.761	83.88
357.988	67.88
358.215	60.88
358.441	89.88
358.668	102.88
358.895	75.88
359.122	78.88
359.349	77.88
359.576	82.88
359.802	70.88
360.029	76.88
360.256	83.88
360.483	71.88
360.709	73.88
360.936	82.88
361.163	94.88
361.39	83.88
361.616	74.88
361.843	74.88
362.07	78.88
362.296	71.88
362.523	70.88
362.749	69.88
362.976	81.88
363.203	86.88
363.429	73.88
363.656	85.88
363.882	62.88
364.109	70.88
364.335	89.88
364.562	81.88
364.788	79.88
365.015	80.88
365.241	83.88
365.468	78.88
365.694	84.88
365.92	74.88
366.147	69.88
366.373	79.88
366.599	69.88
366.826	76.88
367.052	77.88
367.278	91.88
367.505	70.88
367.731	79.88
367.957	77.88
368.184	70.88
368.41	69.88
368.636	77.88
368.862	72.88
369.089	64.88
369.315	88.88
369.541	66.88
369.767	82.88
369.993	86.88
370.219	90.88
370.445	78.88
370.672	76.88
370.898	69.88
371.124	77.88
371.35	76.88
371.576	87.88
371.802	81.88
372.028	86.88
372.254	72.88
372.48	77.88
372.706	73.88
372.932	79.88
373.158	68.88
373.384	79.88
373.61	83.88
373.835	66.88
374.061	65.88
374.287	79.88
374.513	79.88
374.739	69.88
374.965	79.88
375.191	91.88
375.416	64.88
375.642	70.88
375.868	76.88
376.094	79.88
376.319	79.88
376.545	82.88
376.771	74.88
376.997	74.88
377.222	82.88
377.448	84.88
377.674	66.88
377.899	88.88
378.125	80.88
378.35	72.88
378.576	77.88
378.802	61.88
379.027	61.88
379.253	79.88
379.478	74.88
379.704	89.88
379.929	83.88
380.155	81.88
380.38	62.88
380.606	71.88
380.831	76.88
381.057	76.88
381.282	66.88
381.507	70.88
381.733	92.88
381.958	69.88
382.184	54.88
382.409	69.88
382.634	82.88
382.86	75.88
383.085	81.88
383.31	90.88
383.535	87.88
383.761	69.88
383.986	73.88
384.211	87.88
384.436	89.88
384.662	79.88
384.887	64.88
385.112	77.88
385.337	91.88
385.562	86.88
385.787	66.88
386.013	73.88
386.238	75.88
386.463	91.88
386.688	106.88
386.913	70.88
387.138	73.88
387.363	70.88
387.588	80.88
387.813	83.88
388.038	87.88
388.263	77.88
388.488	79.88
388.713	67.88
388.938	63.88
389.163	65.88
389.387	70.88
389.612	76.88
389.837	87.88
390.062	93.88
390.287	77.88
390.512	69.88
390.736	89.88
390.961	77.88
391.186	75.88
391.411	77.88
391.636	86.88
391.86	69.88
392.085	79.88
392.31	65.88
392.534	89.88
392.759	92.88
392.984	83.88
393.208	107.88
393.433	103.88
393.658	97.88
393.882	85.88
394.107	77.88
394.331	72.88
394.556	83.88
394.78	84.88
395.005	70.88
395.229	80.88
395.454	68.88
395.678	84.88
395.903	77.88
396.127	81.88
396.352	77.88
396.576	83.88
396.801	94.88
397.025	90.88
397.249	78.88
397.474	87.88
397.698	74.88
397.922	79.88
398.147	68.88
398.371	77.88
398.595	87.88
398.82	71.88
399.044	65.88
399.268	72.88
399.492	68.88
399.717	82.88
399.941	67.88
400.165	80.88
400.389	93.88
400.613	97.88
400.837	65.88
401.062	69.88
401.286	82.88
401.51	81.88
401.734	71.88
401.958	74.88
402.182	58.88
402.406	73.88
402.63	64.88
402.854	68.88
403.078	74.88
403.302	92.88
403.526	81.88
403.75	75.88
403.974	80.88
404.198	70.88
404.422	76.88
404.645	57.88
404.869	75.88
405.093	80.88
405.317	68.88
405.541	69.88
405.765	82.88
405.988	73.88
406.212	84.88
406.436	71.88
406.66	85.88
406.883	75.88
407.107	74.88
407.331	72.88
407.555	86.88
407.778	67.88
408.002	90.88
408.226	72.88
408.449	76.88
408.673	86.88
408.896	77.88
409.12	69.88
409.344	73.88
409.567	68.88
409.791	87.88
410.014	75.88
410.238	79.88
410.461	93.88
410.685	75.88
410.908	62.88
411.132	76.88
411.355	74.88
411.578	69.88
411.802	68.88
412.025	78.88
412.249	68.88
412.472	71.88
412.695	79.88
412.919	77.88
413.142	76.88
413.365	75.88
413.589	83.88
413.812	85.88
414.035	86.88
414.258	74.88
414.482	65.88
414.705	77.88
414.928	75.88
415.151	69.88
415.374	74.88
415.597	73.88
415.821	78.88
416.044	69.88
416.267	70.88
416.49	72.88
416.713	67.88
416.936	61.88
417.159	77.88
417.382	79.88
417.605	79.88
417.828	83.88
418.051	82.88
418.274	76.88
418.497	85.88
418.72	79.88
418.943	72.88
419.166	72.88
419.389	85.88
419.611	63.88
419.834	71.88
420.057	82.88
420.28	68.88
420.503	94.88
420.726	67.88
420.948	65.88
421.171	70.88
421.394	87.88
421.617	85.88
421.839	81.88
422.062	92.88
422.285	85.88
422.507	87.88
422.73	90.88
422.953	102.88
423.175	80.88
423.398	63.88
423.621	66.88
423.843	68.88
424.066	75.88
424.288	68.88
424.511	69.88
424.733	70.88
424.956	70.88
425.178	76.88
425.401	77.88
425.623	86.88
425.846	70.88
426.068	86.88
426.291	69.88
426.513	79.88
426.735	82.88
426.958	71.88
427.18	84.88
427.402	70.88
427.625	86.88
427.847	83.88
428.069	70.88
428.292	83.88
428.514	85.88
428.736	77.88
428.958	75.88
429.181	85.88
429.403	67.88
429.625	78.88
429.847	62.88
430.069	67.88
430.292	76.88
430.514	85.88
430.736	82.88
430.958	77.88
431.18	70.88
431.402	78.88
431.624	77.88
431.846	81.88
432.068	79.88
432.29	67.88
432.512	70.88
432.734	69.88
432.956	75.88
433.178	69.88
433.4	77.88
433.622	81.88
433.844	66.88
434.066	69.88
434.287	76.88
434.509	69.88
434.731	63.88
434.953	76.88
435.175	77.88
435.397	78.88
435.618	87.88
435.84	81.88
436.062	69.88
436.284	59.88
436.505	77.88
436.727	81.88
436.949	68.88
437.17	72.88
437.392	74.88
437.614	70.88
437.835	72.88
438.057	61.88
438.278	67.88
438.5	64.88
438.721	86.88
438.943	88.88
439.165	71.88
439.386	79.88
439.608	78.88
439.829	65.88
440.05	84.88
440.272	71.88
440.493	67.88
440.715	65.88
440.936	85.88
441.158	72.88
441.379	63.88
441.6	65.88
441.822	58.88
442.043	57.88
442.264	76.88
442.486	91.88
442.707	70.88
442.928	78.88
443.149	82.88
443.371	74.88
443.592	66.88
443.813	84.88
444.034	71.88
444.255	87.88
444.476	63.88
444.698	105.88
444.919	67.88
445.14	151.88
445.361	124.88
445.582	94.88
445.803	73.88
446.024	79.88
446.245	69.88
446.466	72.88
446.687	70.88
446.908	64.88
447.129	94.88
447.35	82.88
447.571	88.88
447.792	83.88
448.013	83.88
448.234	78.88
448.455	84.88
448.675	72.88
448.896	72.88
449.117	72.88
449.338	85.88
449.559	100.88
449.779	90.88
450	61.88
450.221	72.88
450.442	76.88
450.662	79.88
450.883	72.88
451.104	73.88
451.324	59.88
451.545	71.88
451.766	84.88
451.986	67.88
452.207	79.88
452.428	72.88
452.648	76.88
452.869	79.88
453.089	58.88
453.31	63.88
453.53	75.88
453.751	67.88
453.971	71.88
454.192	75.88
454.412	87.88
454.633	78.88
454.853	71.88
455.073	84.88
455.294	83.88
455.514	81.88
455.734	78.88
455.955	83.88
456.175	68.88
456.395	69.88
456.616	83.88
456.836	77.88
457.056	71.88
457.276	70.88
457.497	78.88
457.717	75.88
457.937	65.88
458.157	70.88
458.377	63.88
458.598	71.88
458.818	73.88
459.038	77.88
459.258	67.88
459.478	74.88
459.698	69.88
459.918	69.88
460.138	78.88
460.358	70.88
460.578	70.88
460.798	71.88
461.018	87.88
461.238	80.88
461.458	84.88
461.678	64.88
461.898	74.88
462.118	78.88
462.338	62.88
462.558	67.88
462.777	82.88
462.997	82.88
463.217	90.88
463.437	85.88
463.657	73.88
463.876	83.88
464.096	81.88
464.316	61.88
464.536	71.88
464.755	80.88
464.975	77.88
465.195	80.88
465.414	78.88
465.634	65.88
465.854	66.88
466.073	71.88
466.293	68.88
466.512	78.88
466.732	82.88
466.951	79.88
467.171	71.88
467.391	95.88
467.61	91.88
467.829	73.88
468.049	70.88
468.268	71.88
468.488	84.88
468.707	68.88
468.927	68.88
469.146	65.88
469.365	82.88
469.585	74.88
469.804	73.88
470.023	76.88
470.243	90.88
470.462	78.88
470.681	82.88
470.901	76.88
471.12	78.88
471.339	77.88
471.558	84.88
471.777	85.88
471.997	82.88
472.216	70.88
472.435	79.88
472.654	71.88
472.873	63.88
473.092	89.88
473.311	69.88
473.53	57.88
473.749	69.88
473.968	76.88
474.187	70.88
474.406	75.88
474.625	83.88
474.844	68.88
475.063	67.88
475.282	81.88
475.501	75.88
475.72	92.88
475.939	72.88
476.158	64.88
476.377	63.88
476.596	67.88
476.814	76.88
477.033	79.88
477.252	71.88
477.471	59.88
477.69	77.88
477.908	73.88
478.127	76.88
478.346	77.88
478.564	93.88
478.783	64.88
479.002	73.88
479.22	56.88
479.439	67.88
479.658	61.88
479.876	71.88
480.095	76.88
480.313	75.88
480.532	71.88
480.751	63.88
480.969	85.88
481.188	71.88
481.406	67.88
481.624	79.88
481.843	76.88
482.061	80.88
482.28	81.88
482.498	80.88
482.717	78.88
482.935	72.88
483.153	79.88
483.372	72.88
483.59	69.88
483.808	63.88
484.027	77.88
484.245	63.88
484.463	64.88
484.681	84.88
484.9	78.88
485.118	69.88
485.336	90.88
485.554	75.88
485.772	77.88
485.99	69.88
486.209	74.88
486.427	79.88
486.645	71.88
486.863	84.88
487.081	81.88
487.299	96.88
487.517	74.88
487.735	71.88
487.953	75.88
488.171	90.88
488.389	79.88
488.607	70.88
488.825	66.88
489.043	75.88
489.261	86.88
489.479	90.88
489.696	72.88
489.914	76.88
490.132	79.88
490.35	75.88
490.568	65.88
490.786	73.88
491.003	82.88
491.221	75.88
491.439	70.88
491.657	85.88
491.874	67.88
492.092	73.88
492.31	61.88
492.527	73.88
492.745	67.88
492.963	83.88
493.18	75.88
493.398	77.88
493.615	82.88
493.833	77.88
494.05	71.88
494.268	70.88
494.485	78.88
494.703	84.88
494.92	74.88
495.138	73.88
495.355	79.88
495.573	78.88
495.79	70.88
496.008	75.88
496.225	68.88
496.442	75.88
496.66	91.88
496.877	85.88
497.094	69.88
497.312	64.88
497.529	84.88
497.746	70.88
497.963	67.88
498.181	80.88
498.398	77.88
498.615	77.88
498.832	72.88
499.049	86.88
499.267	85.88
499.484	75.88
499.701	89.88
499.918	78.88
500.135	76.88
500.352	82.88
500.569	62.88
500.786	70.88
501.003	80.88
501.22	72.88
501.437	81.88
501.654	71.88
501.871	69.88
502.088	72.88
502.305	73.88
502.522	70.88
502.739	66.88
502.956	77.88
503.172	79.88
503.389	98.88
503.606	77.88
503.823	78.88
504.04	84.88
504.256	85.88
504.473	72.88
504.69	77.88
504.907	84.88
505.123	71.88
505.34	78.88
505.557	79.88
505.773	79.88
505.99	68.88
506.207	54.88
506.423	72.88
506.64	91.88
506.856	84.88
507.073	72.88
507.289	72.88
507.506	89.88
507.722	90.88
507.939	71.88
508.155	90.88
508.372	85.88
508.588	83.88
508.805	77.88
509.021	71.88
509.238	62.88
509.454	74.88
509.67	75.88
509.887	74.88
510.103	72.88
510.319	81.88
510.536	82.88
510.752	85.88
510.968	77.88
511.184	79.88
511.401	86.88
511.617	82.88
511.833	71.88
512.049	90.88
512.265	66.88
512.481	61.88
512.698	91.88
512.914	82.88
513.13	76.88
513.346	90.88
513.562	82.88
513.778	76.88
513.994	72.88
514.21	65.88
514.426	83.88
514.642	79.88
514.858	76.88
515.074	78.88
515.29	84.88
515.506	76.88
515.721	90.88
515.937	78.88
516.153	68.88
516.369	69.88
516.585	73.88
516.801	71.88
517.016	69.88
517.232	77.88
517.448	79.88
517.664	63.88
517.879	77.88
518.095	69.88
518.311	73.88
518.527	78.88
518.742	81.88
518.958	82.88
519.173	93.88
519.389	92.88
519.605	72.88
519.82	82.88
520.036	74.88
520.251	78.88
