Data from HP_1_HRD10591_00017.txt Node
Date: Mon Jan 19 14:15:16 EST 2026
User: Yrep
Spectrometer: HR+D1059
Trigger mode: 1
Integration Time (sec): 1.000000E-1
Scans to average: 1
Electric dark correction enabled: true
Nonlinearity correction enabled: false
Boxcar width: 0
XAxis mode: Wavelengths
Number of Pixels in Spectrum: 2048
>>>>>Begin Spectral Data<<<<<
223.165	-18.5
223.4	-18.5
223.635	-18.5
223.869	-21.5
224.104	-23.5
224.338	-20.5
224.573	-20.5
224.808	-12.5
225.042	-18.5
225.277	3.5
225.511	-1.5
225.746	8.5
225.98	4.5
226.215	16.5
226.449	12.5
226.683	27.5
226.918	20.5
227.152	43.5
227.387	31.5
227.621	42.5
227.856	28.5
228.09	51.5
228.324	59.5
228.559	51.5
228.793	52.5
229.027	56.5
229.262	56.5
229.496	67.5
229.73	53.5
229.964	74.5
230.199	65.5
230.433	82.5
230.667	73.5
230.901	56.5
231.136	90.5
231.37	85.5
231.604	75.5
231.838	74.5
232.072	86.5
232.306	84.5
232.541	68.5
232.775	83.5
233.009	64.5
233.243	79.5
233.477	68.5
233.711	81.5
233.945	65.5
234.179	74.5
234.413	85.5
234.647	71.5
234.881	79.5
235.115	79.5
235.349	73.5
235.583	89.5
235.817	75.5
236.051	66.5
236.285	67.5
236.519	72.5
236.753	77.5
236.987	89.5
237.221	62.5
237.455	76.5
237.689	62.5
237.922	75.5
238.156	93.5
238.39	71.5
238.624	79.5
238.858	70.5
239.091	67.5
239.325	70.5
239.559	84.5
239.793	74.5
240.027	67.5
240.26	87.5
240.494	65.5
240.728	67.5
240.961	66.5
241.195	67.5
241.429	56.5
241.662	53.5
241.896	65.5
242.13	83.5
242.363	63.5
242.597	67.5
242.83	77.5
243.064	69.5
243.298	57.5
243.531	64.5
243.765	77.5
243.998	77.5
244.232	89.5
244.465	83.5
244.699	64.5
244.932	72.5
245.166	84.5
245.399	73.5
245.633	76.5
245.866	75.5
246.099	75.5
246.333	75.5
246.566	69.5
246.8	76.5
247.033	73.5
247.266	69.5
247.5	70.5
247.733	74.5
247.966	75.5
248.2	73.5
248.433	79.5
248.666	83.5
248.899	76.5
249.133	63.5
249.366	76.5
249.599	67.5
249.832	75.5
250.066	65.5
250.299	83.5
250.532	79.5
250.765	76.5
250.998	68.5
251.231	79.5
251.465	73.5
251.698	62.5
251.931	75.5
252.164	72.5
252.397	67.5
252.63	70.5
252.863	73.5
253.096	71.5
253.329	80.5
253.562	67.5
253.795	77.5
254.028	71.5
254.261	70.5
254.494	60.5
254.727	74.5
254.96	77.5
255.193	74.5
255.426	81.5
255.659	75.5
255.892	68.5
256.124	67.5
256.357	72.5
256.59	77.5
256.823	73.5
257.056	73.5
257.289	65.5
257.521	74.5
257.754	81.5
257.987	92.5
258.22	79.5
258.452	89.5
258.685	72.5
258.918	73.5
259.151	78.5
259.383	79.5
259.616	95.5
259.849	67.5
260.081	73.5
260.314	75.5
260.547	69.5
260.779	72.5
261.012	67.5
261.244	76.5
261.477	77.5
261.71	70.5
261.942	73.5
262.175	74.5
262.407	77.5
262.64	84.5
262.872	88.5
263.105	84.5
263.337	72.5
263.57	88.5
263.802	89.5
264.035	77.5
264.267	74.5
264.499	75.5
264.732	77.5
264.964	80.5
265.197	88.5
265.429	80.5
265.661	73.5
265.894	89.5
266.126	71.5
266.358	92.5
266.591	94.5
266.823	83.5
267.055	66.5
267.287	95.5
267.52	86.5
267.752	82.5
267.984	75.5
268.216	71.5
268.448	80.5
268.681	72.5
268.913	87.5
269.145	77.5
269.377	98.5
269.609	72.5
269.841	72.5
270.073	80.5
270.306	84.5
270.538	82.5
270.77	87.5
271.002	71.5
271.234	86.5
271.466	77.5
271.698	74.5
271.93	69.5
272.162	96.5
272.394	84.5
272.626	81.5
272.858	83.5
273.09	77.5
273.322	85.5
273.553	80.5
273.785	93.5
274.017	64.5
274.249	96.5
274.481	75.5
274.713	74.5
274.945	82.5
275.176	74.5
275.408	70.5
275.64	81.5
275.872	75.5
276.104	74.5
276.335	92.5
276.567	72.5
276.799	83.5
277.031	72.5
277.262	69.5
277.494	72.5
277.726	87.5
277.957	94.5
278.189	76.5
278.421	79.5
278.652	82.5
278.884	84.5
279.115	76.5
279.347	83.5
279.579	80.5
279.81	77.5
280.042	84.5
280.273	74.5
280.505	82.5
280.736	81.5
280.968	74.5
281.199	79.5
281.431	75.5
281.662	74.5
281.894	81.5
282.125	74.5
282.356	76.5
282.588	99.5
282.819	70.5
283.051	87.5
283.282	57.5
283.513	79.5
283.745	79.5
283.976	72.5
284.207	87.5
284.439	87.5
284.67	86.5
284.901	81.5
285.132	71.5
285.364	75.5
285.595	79.5
285.826	81.5
286.057	87.5
286.288	87.5
286.52	98.5
286.751	97.5
286.982	69.5
287.213	85.5
287.444	74.5
287.675	79.5
287.906	78.5
288.138	93.5
288.369	87.5
288.6	87.5
288.831	80.5
289.062	85.5
289.293	75.5
289.524	83.5
289.755	73.5
289.986	91.5
290.217	78.5
290.448	79.5
290.679	76.5
290.91	83.5
291.141	65.5
291.371	85.5
291.602	79.5
291.833	71.5
292.064	79.5
292.295	83.5
292.526	71.5
292.757	88.5
292.987	67.5
293.218	80.5
293.449	84.5
293.68	81.5
293.91	77.5
294.141	87.5
294.372	87.5
294.603	79.5
294.833	80.5
295.064	77.5
295.295	72.5
295.525	65.5
295.756	76.5
295.987	82.5
296.217	74.5
296.448	71.5
296.679	81.5
296.909	77.5
297.14	95.5
297.37	83.5
297.601	87.5
297.831	85.5
298.062	77.5
298.292	97.5
298.523	72.5
298.753	71.5
298.984	72.5
299.214	77.5
299.445	85.5
299.675	87.5
299.905	83.5
300.136	86.5
300.366	67.5
300.597	77.5
300.827	79.5
301.057	85.5
301.288	69.5
301.518	81.5
301.748	82.5
301.979	85.5
302.209	78.5
302.439	86.5
302.669	79.5
302.9	84.5
303.13	87.5
303.36	68.5
303.59	91.5
303.82	83.5
304.051	86.5
304.281	93.5
304.511	78.5
304.741	74.5
304.971	66.5
305.201	83.5
305.431	78.5
305.661	74.5
305.891	73.5
306.121	75.5
306.352	65.5
306.582	73.5
306.812	80.5
307.042	84.5
307.272	77.5
307.502	78.5
307.731	80.5
307.961	87.5
308.191	72.5
308.421	81.5
308.651	89.5
308.881	70.5
309.111	83.5
309.341	71.5
309.571	81.5
309.8	87.5
310.03	88.5
310.26	77.5
310.49	85.5
310.72	81.5
310.949	85.5
311.179	85.5
311.409	84.5
311.639	83.5
311.868	92.5
312.098	85.5
312.328	86.5
312.557	82.5
312.787	75.5
313.017	89.5
313.246	98.5
313.476	87.5
313.706	75.5
313.935	85.5
314.165	73.5
314.394	72.5
314.624	71.5
314.853	84.5
315.083	79.5
315.312	93.5
315.542	87.5
315.771	79.5
316.001	72.5
316.23	88.5
316.46	84.5
316.689	67.5
316.919	92.5
317.148	78.5
317.377	85.5
317.607	71.5
317.836	80.5
318.065	93.5
318.295	83.5
318.524	67.5
318.753	79.5
318.983	77.5
319.212	84.5
319.441	84.5
319.67	95.5
319.9	75.5
320.129	72.5
320.358	70.5
320.587	72.5
320.816	80.5
321.046	83.5
321.275	67.5
321.504	85.5
321.733	80.5
321.962	80.5
322.191	87.5
322.42	72.5
322.649	72.5
322.878	82.5
323.108	84.5
323.337	78.5
323.566	65.5
323.795	83.5
324.024	85.5
324.253	76.5
324.482	64.5
324.71	77.5
324.939	92.5
325.168	89.5
325.397	77.5
325.626	86.5
325.855	77.5
326.084	80.5
326.313	73.5
326.542	81.5
326.77	73.5
326.999	79.5
327.228	80.5
327.457	83.5
327.686	91.5
327.914	78.5
328.143	76.5
328.372	81.5
328.6	86.5
328.829	69.5
329.058	86.5
329.287	72.5
329.515	73.5
329.744	89.5
329.972	86.5
330.201	77.5
330.43	89.5
330.658	71.5
330.887	87.5
331.115	80.5
331.344	73.5
331.572	85.5
331.801	77.5
332.03	87.5
332.258	80.5
332.486	83.5
332.715	72.5
332.943	77.5
333.172	86.5
333.4	91.5
333.629	84.5
333.857	70.5
334.085	69.5
334.314	87.5
334.542	82.5
334.771	76.5
334.999	86.5
335.227	93.5
335.455	74.5
335.684	77.5
335.912	82.5
336.14	69.5
336.369	84.5
336.597	89.5
336.825	76.5
337.053	89.5
337.281	81.5
337.51	76.5
337.738	78.5
337.966	82.5
338.194	81.5
338.422	77.5
338.65	72.5
338.878	79.5
339.106	80.5
339.334	81.5
339.562	79.5
339.79	97.5
340.018	88.5
340.246	71.5
340.474	83.5
340.702	66.5
340.93	79.5
341.158	74.5
341.386	91.5
341.614	75.5
341.842	75.5
342.07	78.5
342.298	72.5
342.526	86.5
342.754	83.5
342.981	82.5
343.209	74.5
343.437	97.5
343.665	77.5
343.893	78.5
344.12	72.5
344.348	69.5
344.576	74.5
344.804	73.5
345.031	75.5
345.259	77.5
345.487	78.5
345.714	65.5
345.942	85.5
346.17	96.5
346.397	87.5
346.625	79.5
346.853	72.5
347.08	79.5
347.308	93.5
347.535	79.5
347.763	83.5
347.99	89.5
348.218	91.5
348.445	80.5
348.673	73.5
348.9	77.5
349.128	96.5
349.355	71.5
349.583	81.5
349.81	79.5
350.037	87.5
350.265	79.5
350.492	84.5
350.72	71.5
350.947	87.5
351.174	76.5
351.402	94.5
351.629	89.5
351.856	98.5
352.083	92.5
352.311	84.5
352.538	88.5
352.765	68.5
352.992	99.5
353.22	83.5
353.447	79.5
353.674	91.5
353.901	71.5
354.128	76.5
354.355	75.5
354.583	75.5
354.81	90.5
355.037	78.5
355.264	81.5
355.491	89.5
355.718	83.5
355.945	83.5
356.172	61.5
356.399	81.5
356.626	75.5
356.853	78.5
357.08	85.5
357.307	76.5
357.534	83.5
357.761	78.5
357.988	71.5
358.215	78.5
358.441	64.5
358.668	79.5
358.895	87.5
359.122	89.5
359.349	83.5
359.576	83.5
359.802	81.5
360.029	73.5
360.256	68.5
360.483	96.5
360.709	98.5
360.936	71.5
361.163	67.5
361.39	76.5
361.616	91.5
361.843	77.5
362.07	65.5
362.296	95.5
362.523	82.5
362.749	72.5
362.976	81.5
363.203	86.5
363.429	68.5
363.656	73.5
363.882	70.5
364.109	79.5
364.335	85.5
364.562	78.5
364.788	87.5
365.015	82.5
365.241	69.5
365.468	91.5
365.694	80.5
365.92	88.5
366.147	69.5
366.373	71.5
366.599	67.5
366.826	79.5
367.052	73.5
367.278	72.5
367.505	80.5
367.731	92.5
367.957	80.5
368.184	86.5
368.41	80.5
368.636	87.5
368.862	84.5
369.089	82.5
369.315	78.5
369.541	87.5
369.767	87.5
369.993	85.5
370.219	76.5
370.445	90.5
370.672	80.5
370.898	63.5
371.124	86.5
371.35	72.5
371.576	75.5
371.802	79.5
372.028	81.5
372.254	71.5
372.48	72.5
372.706	87.5
372.932	77.5
373.158	82.5
373.384	86.5
373.61	88.5
373.835	92.5
374.061	81.5
374.287	85.5
374.513	87.5
374.739	68.5
374.965	75.5
375.191	81.5
375.416	80.5
375.642	81.5
375.868	89.5
376.094	90.5
376.319	59.5
376.545	79.5
376.771	75.5
376.997	79.5
377.222	85.5
377.448	90.5
377.674	80.5
377.899	85.5
378.125	85.5
378.35	84.5
378.576	83.5
378.802	74.5
379.027	84.5
379.253	84.5
379.478	82.5
379.704	75.5
379.929	65.5
380.155	76.5
380.38	76.5
380.606	81.5
380.831	70.5
381.057	72.5
381.282	79.5
381.507	71.5
381.733	71.5
381.958	79.5
382.184	74.5
382.409	81.5
382.634	91.5
382.86	73.5
383.085	67.5
383.31	68.5
383.535	74.5
383.761	83.5
383.986	84.5
384.211	80.5
384.436	84.5
384.662	72.5
384.887	81.5
385.112	70.5
385.337	77.5
385.562	78.5
385.787	93.5
386.013	84.5
386.238	91.5
386.463	84.5
386.688	73.5
386.913	79.5
387.138	94.5
387.363	72.5
387.588	85.5
387.813	85.5
388.038	79.5
388.263	72.5
388.488	77.5
388.713	79.5
388.938	69.5
389.163	64.5
389.387	84.5
389.612	79.5
389.837	76.5
390.062	74.5
390.287	84.5
390.512	74.5
390.736	68.5
390.961	83.5
391.186	79.5
391.411	84.5
391.636	80.5
391.86	78.5
392.085	97.5
392.31	75.5
392.534	101.5
392.759	78.5
392.984	85.5
393.208	101.5
393.433	125.5
393.658	121.5
393.882	85.5
394.107	95.5
394.331	100.5
394.556	74.5
394.78	87.5
395.005	73.5
395.229	91.5
395.454	86.5
395.678	93.5
395.903	79.5
396.127	87.5
396.352	88.5
396.576	103.5
396.801	98.5
397.025	108.5
397.249	97.5
397.474	79.5
397.698	76.5
397.922	68.5
398.147	84.5
398.371	61.5
398.595	71.5
398.82	70.5
399.044	66.5
399.268	76.5
399.492	82.5
399.717	74.5
399.941	89.5
400.165	77.5
400.389	91.5
400.613	82.5
400.837	85.5
401.062	71.5
401.286	76.5
401.51	75.5
401.734	72.5
401.958	73.5
402.182	77.5
402.406	79.5
402.63	80.5
402.854	96.5
403.078	76.5
403.302	80.5
403.526	69.5
403.75	67.5
403.974	73.5
404.198	90.5
404.422	94.5
404.645	76.5
404.869	71.5
405.093	68.5
405.317	79.5
405.541	84.5
405.765	89.5
405.988	78.5
406.212	61.5
406.436	64.5
406.66	81.5
406.883	83.5
407.107	66.5
407.331	69.5
407.555	87.5
407.778	78.5
408.002	73.5
408.226	66.5
408.449	82.5
408.673	77.5
408.896	91.5
409.12	73.5
409.344	92.5
409.567	88.5
409.791	87.5
410.014	79.5
410.238	67.5
410.461	86.5
410.685	92.5
410.908	89.5
411.132	80.5
411.355	74.5
411.578	64.5
411.802	80.5
412.025	75.5
412.249	73.5
412.472	86.5
412.695	74.5
412.919	79.5
413.142	85.5
413.365	89.5
413.589	73.5
413.812	64.5
414.035	75.5
414.258	81.5
414.482	89.5
414.705	71.5
414.928	90.5
415.151	83.5
415.374	66.5
415.597	71.5
415.821	79.5
416.044	76.5
416.267	70.5
416.49	78.5
416.713	63.5
416.936	86.5
417.159	73.5
417.382	87.5
417.605	82.5
417.828	78.5
418.051	83.5
418.274	69.5
418.497	71.5
418.72	71.5
418.943	83.5
419.166	90.5
419.389	73.5
419.611	67.5
419.834	78.5
420.057	87.5
420.28	73.5
420.503	79.5
420.726	73.5
420.948	67.5
421.171	83.5
421.394	70.5
421.617	82.5
421.839	89.5
422.062	83.5
422.285	82.5
422.507	96.5
422.73	110.5
422.953	111.5
423.175	85.5
423.398	71.5
423.621	69.5
423.843	81.5
424.066	72.5
424.288	80.5
424.511	81.5
424.733	81.5
424.956	80.5
425.178	74.5
425.401	70.5
425.623	83.5
425.846	77.5
426.068	82.5
426.291	91.5
426.513	84.5
426.735	85.5
426.958	86.5
427.18	81.5
427.402	81.5
427.625	69.5
427.847	70.5
428.069	69.5
428.292	77.5
428.514	81.5
428.736	76.5
428.958	75.5
429.181	69.5
429.403	69.5
429.625	69.5
429.847	61.5
430.069	75.5
430.292	90.5
430.514	73.5
430.736	87.5
430.958	96.5
431.18	89.5
431.402	84.5
431.624	82.5
431.846	77.5
432.068	83.5
432.29	71.5
432.512	83.5
432.734	79.5
432.956	74.5
433.178	88.5
433.4	71.5
433.622	71.5
433.844	79.5
434.066	65.5
434.287	87.5
434.509	72.5
434.731	83.5
434.953	85.5
435.175	81.5
435.397	81.5
435.618	79.5
435.84	87.5
436.062	58.5
436.284	71.5
436.505	77.5
436.727	67.5
436.949	71.5
437.17	85.5
437.392	71.5
437.614	79.5
437.835	77.5
438.057	71.5
438.278	85.5
438.5	63.5
438.721	72.5
438.943	78.5
439.165	92.5
439.386	77.5
439.608	82.5
439.829	73.5
440.05	71.5
440.272	74.5
440.493	67.5
440.715	85.5
440.936	73.5
441.158	76.5
441.379	87.5
441.6	68.5
441.822	77.5
442.043	65.5
442.264	75.5
442.486	80.5
442.707	81.5
442.928	79.5
443.149	71.5
443.371	83.5
443.592	65.5
443.813	81.5
444.034	78.5
444.255	71.5
444.476	79.5
444.698	75.5
444.919	87.5
445.14	153.5
445.361	117.5
445.582	97.5
445.803	98.5
446.024	79.5
446.245	68.5
446.466	74.5
446.687	65.5
446.908	80.5
447.129	81.5
447.35	70.5
447.571	90.5
447.792	85.5
448.013	61.5
448.234	74.5
448.455	90.5
448.675	70.5
448.896	79.5
449.117	75.5
449.338	72.5
449.559	83.5
449.779	83.5
450	74.5
450.221	95.5
450.442	67.5
450.662	78.5
450.883	77.5
451.104	62.5
451.324	72.5
451.545	80.5
451.766	82.5
451.986	82.5
452.207	76.5
452.428	77.5
452.648	76.5
452.869	84.5
453.089	72.5
453.31	79.5
453.53	77.5
453.751	65.5
453.971	81.5
454.192	90.5
454.412	75.5
454.633	86.5
454.853	73.5
455.073	84.5
455.294	73.5
455.514	89.5
455.734	71.5
455.955	66.5
456.175	91.5
456.395	59.5
456.616	79.5
456.836	80.5
457.056	87.5
457.276	86.5
457.497	67.5
457.717	62.5
457.937	76.5
458.157	81.5
458.377	77.5
458.598	79.5
458.818	73.5
459.038	69.5
459.258	78.5
459.478	77.5
459.698	79.5
459.918	79.5
460.138	76.5
460.358	71.5
460.578	73.5
460.798	79.5
461.018	81.5
461.238	83.5
461.458	95.5
461.678	79.5
461.898	87.5
462.118	77.5
462.338	82.5
462.558	70.5
462.777	81.5
462.997	81.5
463.217	66.5
463.437	63.5
463.657	82.5
463.876	65.5
464.096	83.5
464.316	78.5
464.536	79.5
464.755	70.5
464.975	83.5
465.195	68.5
465.414	83.5
465.634	71.5
465.854	71.5
466.073	74.5
466.293	67.5
466.512	64.5
466.732	85.5
466.951	76.5
467.171	83.5
467.391	83.5
467.61	78.5
467.829	87.5
468.049	68.5
468.268	61.5
468.488	71.5
468.707	79.5
468.927	83.5
469.146	84.5
469.365	77.5
469.585	69.5
469.804	79.5
470.023	91.5
470.243	87.5
470.462	73.5
470.681	98.5
470.901	76.5
471.12	68.5
471.339	84.5
471.558	68.5
471.777	86.5
471.997	64.5
472.216	70.5
472.435	75.5
472.654	69.5
472.873	87.5
473.092	79.5
473.311	77.5
473.53	75.5
473.749	87.5
473.968	80.5
474.187	71.5
474.406	77.5
474.625	87.5
474.844	81.5
475.063	94.5
475.282	81.5
475.501	65.5
475.72	76.5
475.939	71.5
476.158	62.5
476.377	70.5
476.596	74.5
476.814	74.5
477.033	66.5
477.252	79.5
477.471	80.5
477.69	77.5
477.908	65.5
478.127	66.5
478.346	76.5
478.564	79.5
478.783	68.5
479.002	72.5
479.22	75.5
479.439	83.5
479.658	85.5
479.876	79.5
480.095	66.5
480.313	78.5
480.532	88.5
480.751	79.5
480.969	81.5
481.188	81.5
481.406	78.5
481.624	81.5
481.843	77.5
482.061	96.5
482.28	77.5
482.498	81.5
482.717	61.5
482.935	80.5
483.153	84.5
483.372	62.5
483.59	74.5
483.808	82.5
484.027	71.5
484.245	81.5
484.463	75.5
484.681	80.5
484.9	68.5
485.118	79.5
485.336	87.5
485.554	74.5
485.772	69.5
485.99	75.5
486.209	80.5
486.427	67.5
486.645	75.5
486.863	88.5
487.081	81.5
487.299	75.5
487.517	73.5
487.735	78.5
487.953	85.5
488.171	88.5
488.389	82.5
488.607	62.5
488.825	73.5
489.043	77.5
489.261	72.5
489.479	76.5
489.696	70.5
489.914	87.5
490.132	69.5
490.35	77.5
490.568	85.5
490.786	71.5
491.003	72.5
491.221	82.5
491.439	86.5
491.657	70.5
491.874	89.5
492.092	79.5
492.31	76.5
492.527	85.5
492.745	89.5
492.963	85.5
493.18	80.5
493.398	81.5
493.615	84.5
493.833	83.5
494.05	97.5
494.268	71.5
494.485	67.5
494.703	73.5
494.92	86.5
495.138	80.5
495.355	85.5
495.573	85.5
495.79	92.5
496.008	80.5
496.225	86.5
496.442	66.5
496.66	77.5
496.877	73.5
497.094	78.5
497.312	75.5
497.529	77.5
497.746	73.5
497.963	85.5
498.181	73.5
498.398	77.5
498.615	87.5
498.832	80.5
499.049	81.5
499.267	72.5
499.484	87.5
499.701	82.5
499.918	74.5
500.135	87.5
500.352	80.5
500.569	68.5
500.786	82.5
501.003	81.5
501.22	93.5
501.437	73.5
501.654	88.5
501.871	86.5
502.088	73.5
502.305	65.5
502.522	87.5
502.739	89.5
502.956	75.5
503.172	72.5
503.389	87.5
503.606	72.5
503.823	79.5
504.04	79.5
504.256	83.5
504.473	79.5
504.69	77.5
504.907	97.5
505.123	94.5
505.34	73.5
505.557	72.5
505.773	85.5
505.99	79.5
506.207	76.5
506.423	73.5
506.64	83.5
506.856	77.5
507.073	82.5
507.289	72.5
507.506	85.5
507.722	71.5
507.939	75.5
508.155	74.5
508.372	79.5
508.588	74.5
508.805	87.5
509.021	78.5
509.238	90.5
509.454	81.5
509.67	73.5
509.887	76.5
510.103	67.5
510.319	74.5
510.536	67.5
510.752	77.5
510.968	94.5
511.184	84.5
511.401	83.5
511.617	77.5
511.833	82.5
512.049	68.5
512.265	80.5
512.481	80.5
512.698	71.5
512.914	79.5
513.13	78.5
513.346	82.5
513.562	83.5
513.778	88.5
513.994	85.5
514.21	79.5
514.426	77.5
514.642	96.5
514.858	65.5
515.074	86.5
515.29	71.5
515.506	72.5
515.721	73.5
515.937	92.5
516.153	77.5
516.369	63.5
516.585	91.5
516.801	79.5
517.016	89.5
517.232	86.5
517.448	70.5
517.664	72.5
517.879	80.5
518.095	72.5
518.311	71.5
518.527	80.5
518.742	80.5
518.958	79.5
519.173	87.5
519.389	85.5
519.605	89.5
519.82	84.5
520.036	81.5
520.251	79.5
520.467	67.5
520.682	80.5
520.898	83.5
521.113	71.5
521.329	83.5
521.544	65.5
521.76	89.5
521.975	74.5
522.19	71.5
522.406	72.5
522.621	78.5
522.836	83.5
523.052	74.5
523.267	91.5
523.482	80.5
523.698	73.5
523.913	81.5
524.128	83.5
524.343	80.5
524.559	85.5
524.774	81.5
524.989	94.5
525.204	69.5
525.419	88.5
525.634	84.5
525.849	74.5
526.064	91.5
526.28	92.5
526.495	83.5
526.71	93.5
526.925	76.5
527.14	85.5
527.355	79.5
527.57	80.5
527.785	77.5
527.999	88.5
528.214	68.5
528.429	78.5
528.644	87.5
528.859	76.5
529.074	87.5
529.289	67.5
529.503	72.5
529.718	78.5
529.933	84.5
530.148	75.5
530.363	90.5
530.577	74.5
530.792	76.5
531.007	75.5
531.221	79.5
531.436	72.5
531.651	78.5
531.865	72.5
532.08	67.5
532.295	79.5
532.509	81.5
532.724	85.5
532.938	75.5
533.153	75.5
533.367	73.5
533.582	73.5
533.796	80.5
534.011	79.5
534.225	78.5
534.44	100.5
534.654	95.5
534.868	94.5
535.083	88.5
535.297	78.5
535.511	78.5
535.726	76.5
535.94	71.5
536.154	91.5
536.369	81.5
536.583	82.5
536.797	67.5
537.011	79.5
537.225	84.5
537.44	93.5
537.654	79.5
537.868	87.5
538.082	76.5
538.296	77.5
538.51	83.5
538.724	87.5
538.938	84.5
539.153	79.5
539.367	76.5
539.581	72.5
539.795	81.5
540.009	82.5
540.222	79.5
540.436	81.5
540.65	81.5
