Data from Circ_1995_H10_HRD10591_00015.txt Node
Date: Wed Jan 03 11:36:49 EST 2024
User: Yrep
Spectrometer: HR+D1059
Trigger mode: 1
Integration Time (sec): 1.000000E-1
Scans to average: 1
Electric dark correction enabled: true
Nonlinearity correction enabled: false
Boxcar width: 0
XAxis mode: Wavelengths
Number of Pixels in Spectrum: 2048
>>>>>Begin Spectral Data<<<<<
223.165	-19.88
223.4	-19.88
223.635	-19.88
223.869	-20.88
224.104	-22.88
224.338	-3.88
224.573	-18.88
224.808	-6.88
225.042	-21.88
225.277	-2.88
225.511	-7.88
225.746	1.12
225.98	8.12
226.215	18.12
226.449	19.12
226.683	23.12
226.918	18.12
227.152	38.12
227.387	46.12
227.621	25.12
227.856	42.12
228.09	46.12
228.324	61.12
228.559	52.12
228.793	58.12
229.027	64.12
229.262	75.12
229.496	76.12
229.73	90.12
229.964	105.12
230.199	80.12
230.433	87.12
230.667	81.12
230.901	67.12
231.136	74.12
231.37	88.12
231.604	74.12
231.838	80.12
232.072	75.12
232.306	76.12
232.541	79.12
232.775	76.12
233.009	81.12
233.243	87.12
233.477	81.12
233.711	78.12
233.945	87.12
234.179	76.12
234.413	84.12
234.647	86.12
234.881	86.12
235.115	59.12
235.349	72.12
235.583	85.12
235.817	82.12
236.051	80.12
236.285	74.12
236.519	85.12
236.753	96.12
236.987	89.12
237.221	104.12
237.455	102.12
237.689	93.12
237.922	83.12
238.156	61.12
238.39	88.12
238.624	64.12
238.858	91.12
239.091	75.12
239.325	91.12
239.559	97.12
239.793	79.12
240.027	66.12
240.26	80.12
240.494	67.12
240.728	89.12
240.961	91.12
241.195	92.12
241.429	86.12
241.662	75.12
241.896	90.12
242.13	86.12
242.363	81.12
242.597	68.12
242.83	82.12
243.064	85.12
243.298	75.12
243.531	75.12
243.765	62.12
243.998	82.12
244.232	86.12
244.465	82.12
244.699	84.12
244.932	77.12
245.166	74.12
245.399	74.12
245.633	82.12
245.866	85.12
246.099	81.12
246.333	81.12
246.566	76.12
246.8	86.12
247.033	60.12
247.266	75.12
247.5	80.12
247.733	95.12
247.966	83.12
248.2	88.12
248.433	91.12
248.666	87.12
248.899	90.12
249.133	92.12
249.366	116.12
249.599	111.12
249.832	92.12
250.066	98.12
250.299	82.12
250.532	96.12
250.765	83.12
250.998	76.12
251.231	84.12
251.465	82.12
251.698	87.12
251.931	83.12
252.164	83.12
252.397	80.12
252.63	93.12
252.863	84.12
253.096	81.12
253.329	88.12
253.562	80.12
253.795	79.12
254.028	83.12
254.261	70.12
254.494	89.12
254.727	89.12
254.96	88.12
255.193	86.12
255.426	86.12
255.659	92.12
255.892	97.12
256.124	95.12
256.357	97.12
256.59	96.12
256.823	94.12
257.056	87.12
257.289	90.12
257.521	72.12
257.754	90.12
257.987	80.12
258.22	97.12
258.452	94.12
258.685	90.12
258.918	96.12
259.151	83.12
259.383	81.12
259.616	92.12
259.849	91.12
260.081	87.12
260.314	88.12
260.547	91.12
260.779	101.12
261.012	111.12
261.244	119.12
261.477	100.12
261.71	110.12
261.942	155.12
262.175	179.12
262.407	107.12
262.64	86.12
262.872	78.12
263.105	93.12
263.337	91.12
263.57	77.12
263.802	69.12
264.035	87.12
264.267	81.12
264.499	84.12
264.732	104.12
264.964	92.12
265.197	88.12
265.429	89.12
265.661	78.12
265.894	74.12
266.126	91.12
266.358	95.12
266.591	75.12
266.823	86.12
267.055	82.12
267.287	78.12
267.52	94.12
267.752	75.12
267.984	77.12
268.216	74.12
268.448	72.12
268.681	90.12
268.913	99.12
269.145	100.12
269.377	80.12
269.609	80.12
269.841	81.12
270.073	85.12
270.306	98.12
270.538	82.12
270.77	72.12
271.002	94.12
271.234	84.12
271.466	104.12
271.698	99.12
271.93	100.12
272.162	93.12
272.394	98.12
272.626	73.12
272.858	89.12
273.09	89.12
273.322	89.12
273.553	81.12
273.785	87.12
274.017	89.12
274.249	86.12
274.481	72.12
274.713	86.12
274.945	70.12
275.176	90.12
275.408	112.12
275.64	124.12
275.872	141.12
276.104	104.12
276.335	102.12
276.567	138.12
276.799	173.12
277.031	192.12
277.262	248.12
277.494	160.12
277.726	117.12
277.957	98.12
278.189	102.12
278.421	100.12
278.652	87.12
278.884	86.12
279.115	101.12
279.347	92.12
279.579	124.12
279.81	134.12
280.042	227.12
280.273	316.12
280.505	233.12
280.736	119.12
280.968	98.12
281.199	104.12
281.431	88.12
281.662	99.12
281.894	100.12
282.125	107.12
282.356	144.12
282.588	181.12
282.819	137.12
283.051	92.12
283.282	84.12
283.513	103.12
283.745	90.12
283.976	88.12
284.207	94.12
284.439	89.12
284.67	90.12
284.901	83.12
285.132	91.12
285.364	98.12
285.595	94.12
285.826	95.12
286.057	101.12
286.288	74.12
286.52	83.12
286.751	87.12
286.982	72.12
287.213	89.12
287.444	84.12
287.675	95.12
287.906	82.12
288.138	87.12
288.369	114.12
288.6	92.12
288.831	103.12
289.062	85.12
289.293	91.12
289.524	97.12
289.755	81.12
289.986	92.12
290.217	95.12
290.448	91.12
290.679	92.12
290.91	95.12
291.141	88.12
291.371	90.12
291.602	99.12
291.833	82.12
292.064	89.12
292.295	92.12
292.526	90.12
292.757	86.12
292.987	88.12
293.218	92.12
293.449	81.12
293.68	84.12
293.91	111.12
294.141	100.12
294.372	83.12
294.603	82.12
294.833	107.12
295.064	93.12
295.295	100.12
295.525	87.12
295.756	116.12
295.987	136.12
296.217	183.12
296.448	154.12
296.679	110.12
296.909	93.12
297.14	100.12
297.37	88.12
297.601	97.12
297.831	91.12
298.062	100.12
298.292	91.12
298.523	91.12
298.753	92.12
298.984	93.12
299.214	89.12
299.445	100.12
299.675	103.12
299.905	94.12
300.136	111.12
300.366	91.12
300.597	98.12
300.827	106.12
301.057	128.12
301.288	133.12
301.518	107.12
301.748	111.12
301.979	118.12
302.209	98.12
302.439	95.12
302.669	91.12
302.9	88.12
303.13	104.12
303.36	123.12
303.59	142.12
303.82	157.12
304.051	103.12
304.281	97.12
304.511	91.12
304.741	75.12
304.971	87.12
305.201	80.12
305.431	99.12
305.661	97.12
305.891	101.12
306.121	109.12
306.352	121.12
306.582	110.12
306.812	116.12
307.042	151.12
307.272	182.12
307.502	204.12
307.731	200.12
307.961	139.12
308.191	94.12
308.421	92.12
308.651	93.12
308.881	78.12
309.111	86.12
309.341	82.12
309.571	108.12
309.8	108.12
310.03	109.12
310.26	103.12
310.49	116.12
310.72	120.12
310.949	132.12
311.179	118.12
311.409	99.12
311.639	92.12
311.868	96.12
312.098	98.12
312.328	95.12
312.557	119.12
312.787	132.12
313.017	114.12
313.246	113.12
313.476	95.12
313.706	87.12
313.935	110.12
314.165	109.12
314.394	128.12
314.624	107.12
314.853	102.12
315.083	99.12
315.312	98.12
315.542	88.12
315.771	92.12
316.001	98.12
316.23	107.12
316.46	94.12
316.689	95.12
316.919	109.12
317.148	104.12
317.377	101.12
317.607	108.12
317.836	104.12
318.065	97.12
318.295	95.12
318.524	110.12
318.753	110.12
318.983	106.12
319.212	107.12
319.441	126.12
319.67	134.12
319.9	97.12
320.129	108.12
320.358	102.12
320.587	111.12
320.816	103.12
321.046	110.12
321.275	119.12
321.504	87.12
321.733	100.12
321.962	108.12
322.191	102.12
322.42	130.12
322.649	127.12
322.878	119.12
323.108	137.12
323.337	156.12
323.566	182.12
323.795	204.12
324.024	268.12
324.253	545.12
324.482	1238.12
324.71	2575.12
324.939	3500.12
325.168	1259.12
325.397	351.12
325.626	192.12
325.855	162.12
326.084	151.12
326.313	154.12
326.542	198.12
326.77	304.12
326.999	611.12
327.228	1300.12
327.457	2483.12
327.686	1994.12
327.914	654.12
328.143	639.12
328.372	866.12
328.6	494.12
328.829	235.12
329.058	240.12
329.287	234.12
329.515	206.12
329.744	297.12
329.972	558.12
330.201	1231.12
330.43	1892.12
330.658	796.12
330.887	354.12
331.115	243.12
331.344	156.12
331.572	142.12
331.801	136.12
332.03	139.12
332.258	117.12
332.486	110.12
332.715	116.12
332.943	109.12
333.172	117.12
333.4	134.12
333.629	193.12
333.857	267.12
334.085	516.12
334.314	1075.12
334.542	2193.12
334.771	2182.12
334.999	548.12
335.227	202.12
335.455	129.12
335.684	114.12
335.912	106.12
336.14	123.12
336.369	123.12
336.597	127.12
336.825	116.12
337.053	110.12
337.281	105.12
337.51	111.12
337.738	105.12
337.966	92.12
338.194	130.12
338.422	96.12
338.65	113.12
338.878	102.12
339.106	92.12
339.334	103.12
339.562	106.12
339.79	106.12
340.018	104.12
340.246	107.12
340.474	112.12
340.702	100.12
340.93	106.12
341.158	111.12
341.386	111.12
341.614	98.12
341.842	125.12
342.07	90.12
342.298	89.12
342.526	90.12
342.754	100.12
342.981	84.12
343.209	94.12
343.437	98.12
343.665	87.12
343.893	103.12
344.12	99.12
344.348	108.12
344.576	88.12
344.804	106.12
345.031	88.12
345.259	113.12
345.487	106.12
345.714	108.12
345.942	103.12
346.17	91.12
346.397	89.12
346.625	106.12
346.853	90.12
347.08	98.12
347.308	107.12
347.535	112.12
347.763	114.12
347.99	96.12
348.218	116.12
348.445	115.12
348.673	124.12
348.9	112.12
349.128	99.12
349.355	95.12
349.583	94.12
349.81	93.12
350.037	100.12
350.265	110.12
350.492	104.12
350.72	96.12
350.947	105.12
351.174	128.12
351.402	137.12
351.629	119.12
351.856	96.12
352.083	111.12
352.311	113.12
352.538	153.12
352.765	129.12
352.992	134.12
353.22	130.12
353.447	108.12
353.674	107.12
353.901	97.12
354.128	98.12
354.355	95.12
354.583	96.12
354.81	99.12
355.037	91.12
355.264	90.12
355.491	89.12
355.718	96.12
355.945	91.12
356.172	99.12
356.399	97.12
356.626	88.12
356.853	101.12
357.08	98.12
357.307	102.12
357.534	91.12
357.761	98.12
357.988	105.12
358.215	103.12
358.441	111.12
358.668	107.12
358.895	94.12
359.122	91.12
359.349	79.12
359.576	97.12
359.802	134.12
360.029	166.12
360.256	158.12
360.483	114.12
360.709	88.12
360.936	108.12
361.163	88.12
361.39	106.12
361.616	102.12
361.843	94.12
362.07	107.12
362.296	119.12
362.523	91.12
362.749	104.12
362.976	84.12
363.203	91.12
363.429	100.12
363.656	99.12
363.882	96.12
364.109	106.12
364.335	88.12
364.562	89.12
364.788	99.12
365.015	106.12
365.241	115.12
365.468	111.12
365.694	132.12
365.92	110.12
366.147	88.12
366.373	90.12
366.599	101.12
366.826	89.12
367.052	90.12
367.278	96.12
367.505	82.12
367.731	82.12
367.957	81.12
368.184	99.12
368.41	124.12
368.636	130.12
368.862	135.12
369.089	126.12
369.315	96.12
369.541	114.12
369.767	90.12
369.993	105.12
370.219	96.12
370.445	89.12
370.672	89.12
370.898	98.12
371.124	99.12
371.35	91.12
371.576	78.12
371.802	97.12
372.028	96.12
372.254	90.12
372.48	85.12
372.706	84.12
372.932	86.12
373.158	92.12
373.384	97.12
373.61	84.12
373.835	72.12
374.061	95.12
374.287	108.12
374.513	102.12
374.739	92.12
374.965	100.12
375.191	106.12
375.416	92.12
375.642	97.12
375.868	86.12
376.094	92.12
376.319	74.12
376.545	83.12
376.771	90.12
376.997	95.12
377.222	94.12
377.448	89.12
377.674	94.12
377.899	91.12
378.125	82.12
378.35	110.12
378.576	87.12
378.802	106.12
379.027	102.12
379.253	111.12
379.478	97.12
379.704	98.12
379.929	109.12
380.155	102.12
380.38	103.12
380.606	105.12
380.831	111.12
381.057	101.12
381.282	93.12
381.507	102.12
381.733	111.12
381.958	115.12
382.184	112.12
382.409	99.12
382.634	118.12
382.86	101.12
383.085	99.12
383.31	106.12
383.535	96.12
383.761	113.12
383.986	118.12
384.211	109.12
384.436	112.12
384.662	109.12
384.887	114.12
385.112	126.12
385.337	128.12
385.562	116.12
385.787	131.12
386.013	135.12
386.238	148.12
386.463	110.12
386.688	114.12
386.913	113.12
387.138	119.12
387.363	115.12
387.588	113.12
387.813	101.12
388.038	115.12
388.263	132.12
388.488	106.12
388.713	90.12
388.938	91.12
389.163	90.12
389.387	104.12
389.612	102.12
389.837	97.12
390.062	96.12
390.287	89.12
390.512	81.12
390.736	95.12
390.961	80.12
391.186	100.12
391.411	92.12
391.636	97.12
391.86	72.12
392.085	80.12
392.31	92.12
392.534	77.12
392.759	95.12
392.984	100.12
393.208	78.12
393.433	89.12
393.658	97.12
393.882	68.12
394.107	84.12
394.331	84.12
394.556	93.12
394.78	97.12
395.005	93.12
395.229	93.12
395.454	90.12
395.678	94.12
395.903	84.12
396.127	92.12
396.352	95.12
396.576	74.12
396.801	92.12
397.025	88.12
397.249	88.12
397.474	89.12
397.698	88.12
397.922	99.12
398.147	87.12
398.371	99.12
398.595	85.12
398.82	86.12
399.044	85.12
399.268	93.12
399.492	94.12
399.717	98.12
399.941	90.12
400.165	103.12
400.389	82.12
400.613	91.12
400.837	88.12
401.062	99.12
401.286	102.12
401.51	102.12
401.734	106.12
401.958	108.12
402.182	167.12
402.406	228.12
402.63	191.12
402.854	119.12
403.078	91.12
403.302	97.12
403.526	87.12
403.75	100.12
403.974	94.12
404.198	97.12
404.422	88.12
404.645	91.12
404.869	106.12
405.093	129.12
405.317	159.12
405.541	151.12
405.765	127.12
405.988	151.12
406.212	263.12
406.436	386.12
406.66	272.12
406.883	141.12
407.107	112.12
407.331	125.12
407.555	110.12
407.778	124.12
408.002	119.12
408.226	105.12
408.449	91.12
408.673	84.12
408.896	82.12
409.12	99.12
409.344	98.12
409.567	86.12
409.791	83.12
410.014	92.12
410.238	103.12
410.461	99.12
410.685	84.12
410.908	101.12
411.132	113.12
411.355	108.12
411.578	90.12
411.802	88.12
412.025	94.12
412.249	99.12
412.472	123.12
412.695	147.12
412.919	106.12
413.142	114.12
413.365	106.12
413.589	81.12
413.812	82.12
414.035	97.12
414.258	95.12
414.482	82.12
414.705	98.12
414.928	96.12
415.151	88.12
415.374	94.12
415.597	91.12
415.821	94.12
416.044	110.12
416.267	95.12
416.49	91.12
416.713	107.12
416.936	100.12
417.159	100.12
417.382	110.12
417.605	115.12
417.828	111.12
418.051	99.12
418.274	90.12
418.497	92.12
418.72	103.12
418.943	98.12
419.166	95.12
419.389	88.12
419.611	99.12
419.834	87.12
420.057	102.12
420.28	88.12
420.503	97.12
420.726	83.12
420.948	99.12
421.171	98.12
421.394	95.12
421.617	94.12
421.839	74.12
422.062	84.12
422.285	90.12
422.507	96.12
422.73	124.12
422.953	84.12
423.175	84.12
423.398	106.12
423.621	80.12
423.843	99.12
424.066	93.12
424.288	85.12
424.511	85.12
424.733	92.12
424.956	130.12
425.178	123.12
425.401	115.12
425.623	104.12
425.846	99.12
426.068	108.12
426.291	99.12
426.513	103.12
426.735	92.12
426.958	101.12
427.18	137.12
427.402	198.12
427.625	315.12
427.847	270.12
428.069	239.12
428.292	131.12
428.514	105.12
428.736	97.12
428.958	97.12
429.181	103.12
429.403	86.12
429.625	88.12
429.847	105.12
430.069	113.12
430.292	112.12
430.514	97.12
430.736	85.12
430.958	91.12
431.18	81.12
431.402	75.12
431.624	74.12
431.846	86.12
432.068	88.12
432.29	86.12
432.512	85.12
432.734	87.12
432.956	102.12
433.178	93.12
433.4	111.12
433.622	81.12
433.844	90.12
434.066	87.12
434.287	112.12
434.509	105.12
434.731	95.12
434.953	91.12
435.175	91.12
435.397	101.12
435.618	108.12
435.84	110.12
436.062	136.12
436.284	123.12
436.505	112.12
436.727	110.12
436.949	87.12
437.17	90.12
437.392	98.12
437.614	121.12
437.835	138.12
438.057	169.12
438.278	148.12
438.5	137.12
438.721	148.12
438.943	110.12
439.165	97.12
439.386	84.12
439.608	104.12
439.829	106.12
440.05	167.12
440.272	218.12
440.493	114.12
440.715	84.12
440.936	94.12
441.158	97.12
441.379	92.12
441.6	96.12
441.822	112.12
442.043	109.12
442.264	121.12
442.486	131.12
442.707	109.12
442.928	133.12
443.149	178.12
443.371	182.12
443.592	136.12
443.813	134.12
444.034	138.12
444.255	101.12
444.476	104.12
444.698	90.12
444.919	91.12
445.14	132.12
445.361	141.12
445.582	147.12
445.803	214.12
446.024	196.12
446.245	174.12
446.466	142.12
446.687	103.12
446.908	100.12
447.129	96.12
447.35	101.12
447.571	104.12
447.792	112.12
448.013	107.12
448.234	126.12
448.455	127.12
448.675	127.12
448.896	149.12
449.117	138.12
449.338	106.12
449.559	154.12
449.779	167.12
450	92.12
450.221	94.12
450.442	93.12
450.662	120.12
450.883	131.12
451.104	181.12
451.324	112.12
451.545	97.12
451.766	86.12
451.986	88.12
452.207	92.12
452.428	103.12
452.648	119.12
452.869	136.12
453.089	139.12
453.31	156.12
453.53	120.12
453.751	112.12
453.971	142.12
454.192	163.12
454.412	115.12
454.633	91.12
454.853	95.12
455.073	90.12
455.294	86.12
455.514	106.12
455.734	97.12
455.955	92.12
456.175	80.12
456.395	77.12
456.616	85.12
456.836	94.12
457.056	91.12
457.276	86.12
457.497	88.12
457.717	87.12
457.937	97.12
458.157	92.12
458.377	106.12
458.598	142.12
458.818	257.12
459.038	255.12
459.258	163.12
459.478	112.12
459.698	97.12
459.918	86.12
460.138	84.12
460.358	103.12
460.578	112.12
460.798	101.12
461.018	92.12
461.238	96.12
461.458	89.12
461.678	80.12
461.898	89.12
462.118	88.12
462.338	85.12
462.558	93.12
462.777	114.12
462.997	111.12
463.217	110.12
463.437	113.12
463.657	92.12
463.876	98.12
464.096	98.12
464.316	102.12
464.536	120.12
464.755	105.12
464.975	140.12
465.195	296.12
465.414	283.12
465.634	119.12
465.854	90.12
466.073	102.12
466.293	91.12
466.512	100.12
466.732	87.12
466.951	99.12
467.171	111.12
467.391	126.12
467.61	144.12
467.829	267.12
468.049	678.12
468.268	1114.12
468.488	284.12
468.707	115.12
468.927	102.12
469.146	104.12
469.365	96.12
469.585	103.12
469.804	121.12
470.023	127.12
470.243	108.12
470.462	116.12
470.681	159.12
470.901	109.12
471.12	114.12
471.339	102.12
471.558	122.12
471.777	162.12
471.997	344.12
472.216	1336.12
472.435	3222.12
472.654	743.12
472.873	193.12
473.092	132.12
473.311	111.12
473.53	98.12
473.749	96.12
473.968	107.12
474.187	128.12
474.406	118.12
474.625	93.12
474.844	89.12
475.063	91.12
475.282	88.12
475.501	91.12
475.72	94.12
475.939	81.12
476.158	93.12
476.377	106.12
476.596	107.12
476.814	109.12
477.033	100.12
477.252	112.12
477.471	97.12
477.69	107.12
477.908	92.12
478.127	96.12
478.346	105.12
478.564	109.12
478.783	135.12
479.002	111.12
479.22	110.12
479.439	136.12
479.658	146.12
479.876	130.12
480.095	124.12
480.313	144.12
480.532	175.12
480.751	329.12
480.969	1171.12
481.188	5281.12
481.406	3137.12
481.624	424.12
481.843	156.12
482.061	106.12
482.28	121.12
482.498	113.12
482.717	102.12
482.935	89.12
483.153	96.12
483.372	102.12
483.59	103.12
483.808	79.12
484.027	107.12
484.245	112.12
484.463	90.12
484.681	104.12
484.9	99.12
485.118	83.12
485.336	95.12
485.554	94.12
485.772	102.12
485.99	118.12
486.209	124.12
486.427	119.12
486.645	121.12
486.863	150.12
487.081	126.12
487.299	118.12
487.517	99.12
487.735	95.12
487.953	102.12
488.171	104.12
488.389	104.12
488.607	114.12
488.825	101.12
489.043	87.12
489.261	85.12
489.479	106.12
489.696	90.12
489.914	93.12
490.132	86.12
490.35	106.12
490.568	81.12
490.786	80.12
491.003	90.12
491.221	86.12
491.439	92.12
491.657	109.12
491.874	113.12
492.092	105.12
492.31	100.12
492.527	111.12
492.745	108.12
492.963	83.12
493.18	96.12
493.398	90.12
493.615	97.12
493.833	104.12
494.05	90.12
494.268	100.12
494.485	93.12
494.703	95.12
494.92	88.12
495.138	85.12
495.355	87.12
495.573	98.12
495.79	85.12
496.008	98.12
496.225	86.12
496.442	92.12
496.66	104.12
496.877	90.12
497.094	90.12
497.312	94.12
497.529	92.12
497.746	106.12
497.963	85.12
498.181	91.12
498.398	115.12
498.615	122.12
498.832	120.12
499.049	106.12
499.267	96.12
499.484	88.12
499.701	95.12
499.918	94.12
500.135	83.12
500.352	92.12
500.569	93.12
500.786	101.12
501.003	96.12
501.22	90.12
501.437	92.12
501.654	90.12
501.871	139.12
502.088	93.12
502.305	108.12
502.522	107.12
502.739	105.12
502.956	110.12
503.172	100.12
503.389	110.12
503.606	137.12
503.823	123.12
504.04	100.12
504.256	100.12
504.473	83.12
504.69	90.12
504.907	96.12
505.123	83.12
505.34	90.12
505.557	107.12
505.773	91.12
505.99	81.12
506.207	96.12
506.423	85.12
506.64	91.12
506.856	97.12
507.073	91.12
507.289	91.12
507.506	101.12
507.722	143.12
507.939	147.12
508.155	107.12
508.372	108.12
508.588	107.12
508.805	100.12
509.021	103.12
509.238	104.12
509.454	106.12
509.67	110.12
509.887	124.12
510.103	128.12
510.319	263.12
510.536	1014.12
510.752	3862.12
510.968	1025.12
511.184	206.12
511.401	140.12
