Data from Circ_1995_H10_HRD10591_00024.txt Node
Date: Wed Jan 03 11:36:51 EST 2024
User: Yrep
Spectrometer: HR+D1059
Trigger mode: 1
Integration Time (sec): 1.000000E-1
Scans to average: 1
Electric dark correction enabled: true
Nonlinearity correction enabled: false
Boxcar width: 0
XAxis mode: Wavelengths
Number of Pixels in Spectrum: 2048
>>>>>Begin Spectral Data<<<<<
223.165	-15.12
223.4	-15.12
223.635	-15.12
223.869	-19.12
224.104	-17.12
224.338	-20.12
224.573	-20.12
224.808	1.88
225.042	-17.12
225.277	-6.12
225.511	7.88
225.746	-4.12
225.98	14.88
226.215	6.88
226.449	2.88
226.683	25.88
226.918	26.88
227.152	31.88
227.387	35.88
227.621	36.88
227.856	53.88
228.09	54.88
228.324	45.88
228.559	57.88
228.793	61.88
229.027	63.88
229.262	68.88
229.496	80.88
229.73	97.88
229.964	109.88
230.199	70.88
230.433	76.88
230.667	83.88
230.901	86.88
231.136	64.88
231.37	80.88
231.604	87.88
231.838	68.88
232.072	91.88
232.306	86.88
232.541	82.88
232.775	73.88
233.009	84.88
233.243	85.88
233.477	68.88
233.711	67.88
233.945	87.88
234.179	79.88
234.413	75.88
234.647	76.88
234.881	88.88
235.115	66.88
235.349	74.88
235.583	72.88
235.817	82.88
236.051	83.88
236.285	81.88
236.519	70.88
236.753	83.88
236.987	90.88
237.221	97.88
237.455	94.88
237.689	88.88
237.922	66.88
238.156	80.88
238.39	96.88
238.624	74.88
238.858	80.88
239.091	88.88
239.325	75.88
239.559	87.88
239.793	79.88
240.027	67.88
240.26	92.88
240.494	64.88
240.728	80.88
240.961	74.88
241.195	78.88
241.429	66.88
241.662	81.88
241.896	85.88
242.13	79.88
242.363	77.88
242.597	67.88
242.83	89.88
243.064	75.88
243.298	79.88
243.531	74.88
243.765	82.88
243.998	75.88
244.232	76.88
244.465	82.88
244.699	78.88
244.932	84.88
245.166	73.88
245.399	82.88
245.633	74.88
245.866	80.88
246.099	71.88
246.333	78.88
246.566	81.88
246.8	87.88
247.033	76.88
247.266	77.88
247.5	80.88
247.733	82.88
247.966	74.88
248.2	86.88
248.433	96.88
248.666	94.88
248.899	92.88
249.133	99.88
249.366	96.88
249.599	105.88
249.832	85.88
250.066	90.88
250.299	82.88
250.532	92.88
250.765	80.88
250.998	77.88
251.231	75.88
251.465	81.88
251.698	78.88
251.931	94.88
252.164	89.88
252.397	94.88
252.63	74.88
252.863	79.88
253.096	94.88
253.329	81.88
253.562	65.88
253.795	83.88
254.028	78.88
254.261	83.88
254.494	74.88
254.727	80.88
254.96	94.88
255.193	93.88
255.426	87.88
255.659	94.88
255.892	91.88
256.124	102.88
256.357	90.88
256.59	89.88
256.823	75.88
257.056	80.88
257.289	86.88
257.521	80.88
257.754	92.88
257.987	93.88
258.22	89.88
258.452	114.88
258.685	99.88
258.918	76.88
259.151	103.88
259.383	75.88
259.616	81.88
259.849	67.88
260.081	96.88
260.314	86.88
260.547	89.88
260.779	80.88
261.012	103.88
261.244	114.88
261.477	111.88
261.71	104.88
261.942	137.88
262.175	158.88
262.407	98.88
262.64	94.88
262.872	93.88
263.105	88.88
263.337	74.88
263.57	76.88
263.802	95.88
264.035	88.88
264.267	105.88
264.499	96.88
264.732	83.88
264.964	82.88
265.197	83.88
265.429	78.88
265.661	99.88
265.894	84.88
266.126	85.88
266.358	82.88
266.591	88.88
266.823	64.88
267.055	81.88
267.287	80.88
267.52	74.88
267.752	95.88
267.984	92.88
268.216	94.88
268.448	89.88
268.681	89.88
268.913	74.88
269.145	92.88
269.377	83.88
269.609	82.88
269.841	78.88
270.073	87.88
270.306	91.88
270.538	77.88
270.77	105.88
271.002	97.88
271.234	87.88
271.466	96.88
271.698	90.88
271.93	79.88
272.162	92.88
272.394	96.88
272.626	100.88
272.858	91.88
273.09	88.88
273.322	97.88
273.553	88.88
273.785	86.88
274.017	85.88
274.249	95.88
274.481	78.88
274.713	96.88
274.945	83.88
275.176	94.88
275.408	95.88
275.64	124.88
275.872	130.88
276.104	115.88
276.335	107.88
276.567	117.88
276.799	144.88
277.031	200.88
277.262	235.88
277.494	184.88
277.726	100.88
277.957	75.88
278.189	86.88
278.421	94.88
278.652	108.88
278.884	95.88
279.115	91.88
279.347	104.88
279.579	108.88
279.81	151.88
280.042	245.88
280.273	306.88
280.505	218.88
280.736	117.88
280.968	101.88
281.199	90.88
281.431	102.88
281.662	84.88
281.894	94.88
282.125	110.88
282.356	140.88
282.588	182.88
282.819	166.88
283.051	92.88
283.282	88.88
283.513	94.88
283.745	95.88
283.976	99.88
284.207	82.88
284.439	94.88
284.67	108.88
284.901	85.88
285.132	98.88
285.364	88.88
285.595	90.88
285.826	85.88
286.057	86.88
286.288	93.88
286.52	100.88
286.751	92.88
286.982	96.88
287.213	94.88
287.444	106.88
287.675	90.88
287.906	88.88
288.138	91.88
288.369	98.88
288.6	104.88
288.831	95.88
289.062	90.88
289.293	104.88
289.524	76.88
289.755	79.88
289.986	92.88
290.217	88.88
290.448	82.88
290.679	87.88
290.91	95.88
291.141	85.88
291.371	95.88
291.602	79.88
291.833	79.88
292.064	97.88
292.295	87.88
292.526	94.88
292.757	92.88
292.987	108.88
293.218	113.88
293.449	97.88
293.68	90.88
293.91	90.88
294.141	88.88
294.372	99.88
294.603	98.88
294.833	92.88
295.064	105.88
295.295	87.88
295.525	98.88
295.756	119.88
295.987	130.88
296.217	172.88
296.448	162.88
296.679	109.88
296.909	100.88
297.14	88.88
297.37	90.88
297.601	97.88
297.831	91.88
298.062	102.88
298.292	84.88
298.523	102.88
298.753	101.88
298.984	106.88
299.214	103.88
299.445	96.88
299.675	104.88
299.905	108.88
300.136	80.88
300.366	96.88
300.597	93.88
300.827	100.88
301.057	108.88
301.288	122.88
301.518	107.88
301.748	87.88
301.979	115.88
302.209	96.88
302.439	100.88
302.669	98.88
302.9	90.88
303.13	97.88
303.36	112.88
303.59	148.88
303.82	168.88
304.051	111.88
304.281	93.88
304.511	92.88
304.741	76.88
304.971	87.88
305.201	86.88
305.431	99.88
305.661	106.88
305.891	87.88
306.121	94.88
306.352	131.88
306.582	111.88
306.812	102.88
307.042	132.88
307.272	167.88
307.502	206.88
307.731	180.88
307.961	129.88
308.191	95.88
308.421	95.88
308.651	87.88
308.881	98.88
309.111	95.88
309.341	110.88
309.571	105.88
309.8	113.88
310.03	123.88
310.26	131.88
310.49	99.88
310.72	103.88
310.949	133.88
311.179	127.88
311.409	93.88
311.639	102.88
311.868	102.88
312.098	100.88
312.328	101.88
312.557	120.88
312.787	137.88
313.017	119.88
313.246	102.88
313.476	105.88
313.706	108.88
313.935	106.88
314.165	115.88
314.394	121.88
314.624	107.88
314.853	108.88
315.083	98.88
315.312	112.88
315.542	98.88
315.771	112.88
316.001	102.88
316.23	85.88
316.46	98.88
316.689	90.88
316.919	82.88
317.148	118.88
317.377	100.88
317.607	102.88
317.836	106.88
318.065	97.88
318.295	80.88
318.524	100.88
318.753	89.88
318.983	103.88
319.212	104.88
319.441	127.88
319.67	115.88
319.9	118.88
320.129	84.88
320.358	92.88
320.587	108.88
320.816	113.88
321.046	110.88
321.275	115.88
321.504	99.88
321.733	84.88
321.962	96.88
322.191	118.88
322.42	119.88
322.649	136.88
322.878	132.88
323.108	140.88
323.337	141.88
323.566	168.88
323.795	215.88
324.024	283.88
324.253	558.88
324.482	1194.88
324.71	2580.88
324.939	3443.88
325.168	1238.88
325.397	344.88
325.626	203.88
325.855	160.88
326.084	140.88
326.313	155.88
326.542	176.88
326.77	300.88
326.999	627.88
327.228	1315.88
327.457	2518.88
327.686	1992.88
327.914	690.88
328.143	650.88
328.372	868.88
328.6	484.88
328.829	205.88
329.058	235.88
329.287	234.88
329.515	201.88
329.744	313.88
329.972	590.88
330.201	1218.88
330.43	1923.88
330.658	808.88
330.887	361.88
331.115	231.88
331.344	138.88
331.572	141.88
331.801	153.88
332.03	129.88
332.258	129.88
332.486	122.88
332.715	128.88
332.943	128.88
333.172	138.88
333.4	134.88
333.629	184.88
333.857	279.88
334.085	509.88
334.314	1148.88
334.542	2286.88
334.771	2194.88
334.999	528.88
335.227	205.88
335.455	134.88
335.684	130.88
335.912	126.88
336.14	105.88
336.369	106.88
336.597	124.88
336.825	112.88
337.053	111.88
337.281	92.88
337.51	100.88
337.738	106.88
337.966	108.88
338.194	129.88
338.422	108.88
338.65	102.88
338.878	111.88
339.106	99.88
339.334	97.88
339.562	107.88
339.79	99.88
340.018	104.88
340.246	100.88
340.474	103.88
340.702	94.88
340.93	92.88
341.158	100.88
341.386	106.88
341.614	100.88
341.842	97.88
342.07	102.88
342.298	101.88
342.526	83.88
342.754	99.88
342.981	85.88
343.209	86.88
343.437	98.88
343.665	89.88
343.893	79.88
344.12	86.88
344.348	87.88
344.576	92.88
344.804	108.88
345.031	111.88
345.259	114.88
345.487	110.88
345.714	106.88
345.942	90.88
346.17	96.88
346.397	93.88
346.625	98.88
346.853	92.88
347.08	94.88
347.308	114.88
347.535	120.88
347.763	117.88
347.99	112.88
348.218	112.88
348.445	128.88
348.673	132.88
348.9	97.88
349.128	102.88
349.355	86.88
349.583	91.88
349.81	106.88
350.037	106.88
350.265	94.88
350.492	95.88
350.72	94.88
350.947	109.88
351.174	128.88
351.402	144.88
351.629	101.88
351.856	123.88
352.083	121.88
352.311	115.88
352.538	129.88
352.765	112.88
352.992	124.88
353.22	118.88
353.447	103.88
353.674	100.88
353.901	94.88
354.128	79.88
354.355	94.88
354.583	105.88
354.81	110.88
355.037	92.88
355.264	103.88
355.491	102.88
355.718	88.88
355.945	97.88
356.172	100.88
356.399	85.88
356.626	100.88
356.853	82.88
357.08	93.88
357.307	105.88
357.534	84.88
357.761	95.88
357.988	104.88
358.215	96.88
358.441	86.88
358.668	94.88
358.895	88.88
359.122	94.88
359.349	100.88
359.576	100.88
359.802	123.88
360.029	159.88
360.256	164.88
360.483	130.88
360.709	106.88
360.936	97.88
361.163	95.88
361.39	107.88
361.616	104.88
361.843	94.88
362.07	108.88
362.296	120.88
362.523	100.88
362.749	92.88
362.976	112.88
363.203	97.88
363.429	89.88
363.656	106.88
363.882	102.88
364.109	95.88
364.335	101.88
364.562	103.88
364.788	104.88
365.015	110.88
365.241	120.88
365.468	136.88
365.694	130.88
365.92	110.88
366.147	101.88
366.373	110.88
366.599	93.88
366.826	110.88
367.052	84.88
367.278	108.88
367.505	103.88
367.731	118.88
367.957	99.88
368.184	92.88
368.41	109.88
368.636	131.88
368.862	128.88
369.089	112.88
369.315	102.88
369.541	108.88
369.767	83.88
369.993	96.88
370.219	95.88
370.445	94.88
370.672	89.88
370.898	88.88
371.124	88.88
371.35	97.88
371.576	86.88
371.802	99.88
372.028	84.88
372.254	93.88
372.48	80.88
372.706	104.88
372.932	82.88
373.158	81.88
373.384	90.88
373.61	97.88
373.835	91.88
374.061	84.88
374.287	85.88
374.513	90.88
374.739	84.88
374.965	90.88
375.191	87.88
375.416	109.88
375.642	92.88
375.868	100.88
376.094	94.88
376.319	75.88
376.545	90.88
376.771	82.88
376.997	90.88
377.222	83.88
377.448	95.88
377.674	103.88
377.899	82.88
378.125	89.88
378.35	94.88
378.576	95.88
378.802	92.88
379.027	116.88
379.253	92.88
379.478	99.88
379.704	88.88
379.929	99.88
380.155	100.88
380.38	98.88
380.606	106.88
380.831	99.88
381.057	100.88
381.282	75.88
381.507	86.88
381.733	94.88
381.958	100.88
382.184	102.88
382.409	111.88
382.634	98.88
382.86	108.88
383.085	93.88
383.31	105.88
383.535	102.88
383.761	111.88
383.986	102.88
384.211	105.88
384.436	95.88
384.662	122.88
384.887	125.88
385.112	129.88
385.337	109.88
385.562	113.88
385.787	111.88
386.013	119.88
386.238	141.88
386.463	113.88
386.688	117.88
386.913	116.88
387.138	112.88
387.363	108.88
387.588	107.88
387.813	112.88
388.038	111.88
388.263	119.88
388.488	131.88
388.713	107.88
388.938	87.88
389.163	95.88
389.387	99.88
389.612	96.88
389.837	87.88
390.062	96.88
390.287	106.88
390.512	77.88
390.736	75.88
390.961	90.88
391.186	98.88
391.411	99.88
391.636	94.88
391.86	92.88
392.085	83.88
392.31	86.88
392.534	90.88
392.759	102.88
392.984	86.88
393.208	83.88
393.433	85.88
393.658	104.88
393.882	92.88
394.107	82.88
394.331	99.88
394.556	86.88
394.78	86.88
395.005	99.88
395.229	86.88
395.454	93.88
395.678	98.88
395.903	88.88
396.127	98.88
396.352	97.88
396.576	105.88
396.801	85.88
397.025	95.88
397.249	95.88
397.474	87.88
397.698	81.88
397.922	111.88
398.147	90.88
398.371	81.88
398.595	103.88
398.82	83.88
399.044	94.88
399.268	89.88
399.492	96.88
399.717	83.88
399.941	90.88
400.165	87.88
400.389	107.88
400.613	100.88
400.837	94.88
401.062	89.88
401.286	95.88
401.51	94.88
401.734	86.88
401.958	105.88
402.182	152.88
402.406	222.88
402.63	169.88
402.854	116.88
403.078	88.88
403.302	74.88
403.526	90.88
403.75	89.88
403.974	98.88
404.198	95.88
404.422	98.88
404.645	81.88
404.869	99.88
405.093	138.88
405.317	156.88
405.541	172.88
405.765	119.88
405.988	152.88
406.212	227.88
406.436	346.88
406.66	219.88
406.883	144.88
407.107	100.88
407.331	122.88
407.555	112.88
407.778	102.88
408.002	93.88
408.226	92.88
408.449	85.88
408.673	82.88
408.896	105.88
409.12	112.88
409.344	90.88
409.567	88.88
409.791	89.88
410.014	102.88
410.238	75.88
410.461	100.88
410.685	104.88
410.908	96.88
411.132	110.88
411.355	83.88
411.578	90.88
411.802	91.88
412.025	83.88
412.249	106.88
412.472	134.88
412.695	156.88
412.919	124.88
413.142	104.88
413.365	87.88
413.589	74.88
413.812	98.88
414.035	94.88
414.258	98.88
414.482	97.88
414.705	95.88
414.928	96.88
415.151	90.88
415.374	95.88
415.597	96.88
415.821	87.88
416.044	102.88
416.267	89.88
416.49	99.88
416.713	93.88
416.936	84.88
417.159	86.88
417.382	103.88
417.605	124.88
417.828	115.88
418.051	110.88
418.274	99.88
418.497	88.88
418.72	81.88
418.943	89.88
419.166	94.88
419.389	92.88
419.611	102.88
419.834	80.88
420.057	92.88
420.28	93.88
420.503	103.88
420.726	99.88
420.948	112.88
421.171	108.88
421.394	85.88
421.617	92.88
421.839	82.88
422.062	90.88
422.285	92.88
422.507	100.88
422.73	126.88
422.953	102.88
423.175	100.88
423.398	90.88
423.621	84.88
423.843	82.88
424.066	90.88
424.288	106.88
424.511	94.88
424.733	121.88
424.956	131.88
425.178	120.88
425.401	122.88
425.623	113.88
425.846	106.88
426.068	102.88
426.291	94.88
426.513	106.88
426.735	95.88
426.958	108.88
427.18	131.88
427.402	199.88
427.625	314.88
427.847	294.88
428.069	273.88
428.292	159.88
428.514	111.88
428.736	67.88
428.958	89.88
429.181	104.88
429.403	90.88
429.625	99.88
429.847	108.88
430.069	123.88
430.292	107.88
430.514	91.88
430.736	90.88
430.958	79.88
431.18	88.88
431.402	95.88
431.624	87.88
431.846	93.88
432.068	84.88
432.29	81.88
432.512	89.88
432.734	86.88
432.956	90.88
433.178	117.88
433.4	101.88
433.622	91.88
433.844	104.88
434.066	103.88
434.287	86.88
434.509	93.88
434.731	90.88
434.953	115.88
435.175	93.88
435.397	93.88
435.618	119.88
435.84	119.88
436.062	154.88
436.284	139.88
436.505	87.88
436.727	119.88
436.949	92.88
437.17	95.88
437.392	81.88
437.614	104.88
437.835	145.88
438.057	160.88
438.278	139.88
438.5	121.88
438.721	143.88
438.943	102.88
439.165	89.88
439.386	94.88
439.608	101.88
439.829	124.88
440.05	162.88
440.272	209.88
440.493	129.88
440.715	90.88
440.936	83.88
441.158	97.88
441.379	86.88
441.6	95.88
441.822	111.88
442.043	108.88
442.264	124.88
442.486	113.88
442.707	97.88
442.928	136.88
443.149	202.88
443.371	166.88
443.592	148.88
443.813	135.88
444.034	126.88
444.255	96.88
444.476	93.88
444.698	94.88
444.919	95.88
445.14	138.88
445.361	156.88
445.582	159.88
445.803	204.88
446.024	190.88
446.245	190.88
446.466	127.88
446.687	102.88
446.908	89.88
447.129	103.88
447.35	94.88
447.571	94.88
447.792	94.88
448.013	102.88
448.234	137.88
448.455	100.88
448.675	126.88
448.896	143.88
449.117	101.88
449.338	111.88
449.559	144.88
449.779	153.88
450	104.88
450.221	85.88
450.442	84.88
450.662	106.88
450.883	116.88
451.104	151.88
451.324	118.88
451.545	100.88
451.766	92.88
451.986	89.88
452.207	89.88
452.428	99.88
452.648	93.88
452.869	135.88
453.089	145.88
453.31	153.88
453.53	107.88
453.751	95.88
453.971	120.88
454.192	139.88
454.412	89.88
454.633	95.88
454.853	97.88
455.073	84.88
455.294	82.88
455.514	122.88
455.734	92.88
455.955	94.88
456.175	104.88
456.395	88.88
456.616	88.88
456.836	67.88
457.056	79.88
457.276	83.88
457.497	82.88
457.717	88.88
457.937	72.88
458.157	98.88
458.377	110.88
458.598	136.88
458.818	246.88
459.038	258.88
459.258	175.88
459.478	111.88
459.698	99.88
459.918	88.88
460.138	81.88
460.358	94.88
460.578	103.88
460.798	94.88
461.018	98.88
461.238	99.88
461.458	88.88
461.678	82.88
461.898	89.88
462.118	81.88
462.338	94.88
462.558	84.88
462.777	86.88
462.997	108.88
463.217	114.88
463.437	107.88
463.657	96.88
463.876	88.88
464.096	102.88
464.316	107.88
464.536	106.88
464.755	138.88
464.975	145.88
465.195	275.88
465.414	285.88
465.634	116.88
465.854	100.88
466.073	87.88
466.293	82.88
466.512	102.88
466.732	93.88
466.951	101.88
467.171	95.88
467.391	110.88
467.61	148.88
467.829	235.88
468.049	675.88
468.268	1058.88
468.488	258.88
468.707	128.88
468.927	94.88
469.146	82.88
469.365	100.88
469.585	119.88
469.804	110.88
470.023	113.88
470.243	118.88
470.462	138.88
470.681	155.88
470.901	126.88
471.12	96.88
471.339	103.88
471.558	120.88
471.777	169.88
471.997	351.88
472.216	1329.88
472.435	3198.88
472.654	719.88
472.873	198.88
473.092	115.88
473.311	91.88
473.53	87.88
473.749	97.88
473.968	109.88
474.187	107.88
474.406	114.88
474.625	102.88
474.844	89.88
475.063	100.88
475.282	100.88
475.501	113.88
475.72	97.88
475.939	77.88
476.158	89.88
476.377	98.88
476.596	97.88
476.814	104.88
477.033	112.88
477.252	86.88
477.471	101.88
477.69	110.88
477.908	94.88
478.127	108.88
478.346	92.88
478.564	100.88
478.783	107.88
479.002	106.88
479.22	102.88
479.439	129.88
479.658	153.88
479.876	121.88
480.095	132.88
480.313	153.88
480.532	186.88
480.751	339.88
480.969	1215.88
481.188	5353.88
481.406	3084.88
481.624	441.88
481.843	152.88
482.061	125.88
482.28	106.88
482.498	94.88
482.717	102.88
482.935	79.88
483.153	88.88
483.372	95.88
483.59	93.88
483.808	87.88
484.027	87.88
484.245	90.88
484.463	92.88
484.681	107.88
484.9	102.88
485.118	99.88
485.336	97.88
485.554	92.88
485.772	107.88
485.99	96.88
486.209	100.88
486.427	105.88
486.645	106.88
486.863	123.88
487.081	116.88
487.299	101.88
487.517	103.88
487.735	79.88
487.953	91.88
488.171	114.88
488.389	105.88
488.607	95.88
488.825	96.88
489.043	97.88
489.261	76.88
489.479	108.88
489.696	94.88
489.914	94.88
490.132	83.88
490.35	106.88
490.568	98.88
490.786	102.88
491.003	89.88
491.221	105.88
491.439	100.88
491.657	93.88
491.874	96.88
492.092	99.88
492.31	93.88
492.527	106.88
492.745	105.88
492.963	86.88
493.18	80.88
493.398	80.88
493.615	106.88
493.833	86.88
494.05	104.88
494.268	84.88
494.485	71.88
494.703	97.88
494.92	99.88
495.138	83.88
495.355	95.88
495.573	99.88
495.79	95.88
496.008	102.88
496.225	95.88
496.442	90.88
496.66	95.88
496.877	98.88
497.094	80.88
497.312	91.88
497.529	91.88
497.746	84.88
497.963	93.88
498.181	104.88
498.398	102.88
498.615	122.88
498.832	123.88
499.049	93.88
499.267	107.88
499.484	92.88
499.701	81.88
499.918	90.88
500.135	95.88
500.352	86.88
500.569	88.88
500.786	95.88
501.003	84.88
501.22	99.88
501.437	95.88
501.654	106.88
501.871	142.88
502.088	90.88
502.305	85.88
502.522	93.88
502.739	103.88
502.956	98.88
503.172	95.88
503.389	125.88
503.606	155.88
503.823	99.88
504.04	106.88
504.256	91.88
504.473	90.88
504.69	90.88
504.907	89.88
505.123	71.88
505.34	81.88
505.557	93.88
505.773	92.88
505.99	82.88
506.207	89.88
506.423	89.88
506.64	91.88
506.856	95.88
507.073	95.88
507.289	99.88
507.506	104.88
507.722	134.88
507.939	154.88
508.155	98.88
508.372	99.88
508.588	106.88
508.805	102.88
509.021	110.88
509.238	98.88
509.454	113.88
509.67	112.88
509.887	114.88
510.103	139.88
510.319	255.88
510.536	938.88
510.752	3420.88
510.968	899.88
511.184	198.88
511.401	136.88
511.617	120.88
511.833	117.88
