Data from Circ_1995_H10_HRD10591_00083.txt Node
Date: Wed Jan 03 11:37:03 EST 2024
User: Yrep
Spectrometer: HR+D1059
Trigger mode: 1
Integration Time (sec): 1.000000E-1
Scans to average: 1
Electric dark correction enabled: true
Nonlinearity correction enabled: false
Boxcar width: 0
XAxis mode: Wavelengths
Number of Pixels in Spectrum: 2048
>>>>>Begin Spectral Data<<<<<
223.165	-25.5
223.4	-25.5
223.635	-25.5
223.869	-14.5
224.104	-11.5
224.338	-20.5
224.573	-11.5
224.808	-27.5
225.042	7.5
225.277	3.5
225.511	-4.5
225.746	2.5
225.98	8.5
226.215	3.5
226.449	11.5
226.683	18.5
226.918	32.5
227.152	27.5
227.387	19.5
227.621	45.5
227.856	29.5
228.09	41.5
228.324	57.5
228.559	61.5
228.793	166.5
229.027	472.5
229.262	534.5
229.496	659.5
229.73	881.5
229.964	867.5
230.199	596.5
230.433	531.5
230.667	524.5
230.901	512.5
231.136	490.5
231.37	497.5
231.604	478.5
231.838	492.5
232.072	496.5
232.306	504.5
232.541	517.5
232.775	517.5
233.009	513.5
233.243	523.5
233.477	519.5
233.711	519.5
233.945	532.5
234.179	559.5
234.413	543.5
234.647	546.5
234.881	584.5
235.115	591.5
235.349	597.5
235.583	601.5
235.817	651.5
236.051	702.5
236.285	652.5
236.519	686.5
236.753	758.5
236.987	979.5
237.221	1424.5
237.455	1523.5
237.689	915.5
237.922	774.5
238.156	749.5
238.39	744.5
238.624	729.5
238.858	752.5
239.091	751.5
239.325	776.5
239.559	771.5
239.793	807.5
240.027	830.5
240.26	1017.5
240.494	1043.5
240.728	1011.5
240.961	991.5
241.195	918.5
241.429	864.5
241.662	884.5
241.896	860.5
242.13	854.5
242.363	881.5
242.597	916.5
242.83	985.5
243.064	969.5
243.298	946.5
243.531	975.5
243.765	979.5
243.998	1012.5
244.232	1009.5
244.465	1024.5
244.699	1027.5
244.932	1036.5
245.166	1049.5
245.399	1036.5
245.633	1045.5
245.866	1070.5
246.099	1053.5
246.333	1095.5
246.566	1113.5
246.8	1132.5
247.033	1159.5
247.266	1179.5
247.5	1231.5
247.733	1335.5
247.966	1331.5
248.2	1308.5
248.433	1331.5
248.666	1411.5
248.899	1584.5
249.133	1699.5
249.366	1761.5
249.599	1679.5
249.832	1700.5
250.066	1981.5
250.299	2719.5
250.532	3713.5
250.765	3285.5
250.998	2695.5
251.231	2234.5
251.465	1943.5
251.698	1785.5
251.931	1760.5
252.164	1701.5
252.397	1680.5
252.63	1739.5
252.863	1785.5
253.096	1918.5
253.329	1934.5
253.562	1857.5
253.795	1805.5
254.028	1820.5
254.261	1945.5
254.494	2101.5
254.727	2473.5
254.96	2544.5
255.193	2468.5
255.426	2558.5
255.659	3325.5
255.892	5057.5
256.124	6672.5
256.357	5329.5
256.59	3678.5
256.823	2926.5
257.056	2569.5
257.289	2381.5
257.521	2261.5
257.754	2140.5
257.987	2043.5
258.22	2023.5
258.452	2047.5
258.685	2017.5
258.918	2016.5
259.151	1972.5
259.383	2035.5
259.616	2006.5
259.849	2067.5
260.081	2229.5
260.314	2327.5
260.547	2235.5
260.779	2143.5
261.012	2106.5
261.244	2079.5
261.477	2008.5
261.71	2043.5
261.942	2153.5
262.175	2189.5
262.407	2013.5
262.64	1970.5
262.872	1906.5
263.105	1926.5
263.337	1909.5
263.57	1962.5
263.802	1939.5
264.035	1909.5
264.267	1982.5
264.499	1902.5
264.732	1939.5
264.964	1948.5
265.197	1937.5
265.429	1958.5
265.661	1943.5
265.894	1963.5
266.126	2031.5
266.358	2072.5
266.591	2029.5
266.823	2142.5
267.055	2130.5
267.287	2125.5
267.52	2087.5
267.752	2068.5
267.984	2133.5
268.216	2176.5
268.448	2216.5
268.681	2264.5
268.913	2373.5
269.145	2539.5
269.377	2563.5
269.609	2422.5
269.841	2438.5
270.073	2560.5
270.306	2808.5
270.538	2936.5
270.77	2782.5
271.002	2625.5
271.234	2659.5
271.466	2830.5
271.698	2928.5
271.93	2925.5
272.162	2940.5
272.394	2819.5
272.626	2752.5
272.858	2601.5
273.09	2576.5
273.322	2638.5
273.553	2569.5
273.785	2574.5
274.017	2633.5
274.249	2645.5
274.481	2693.5
274.713	2679.5
274.945	2744.5
275.176	2827.5
275.408	2855.5
275.64	2968.5
275.872	3047.5
276.104	3082.5
276.335	3053.5
276.567	3219.5
276.799	3560.5
277.031	4087.5
277.262	4311.5
277.494	3957.5
277.726	3474.5
277.957	3263.5
278.189	3181.5
278.421	3040.5
278.652	3015.5
278.884	3011.5
279.115	3047.5
279.347	3133.5
279.579	3176.5
279.81	3551.5
280.042	3997.5
280.273	4504.5
280.505	4131.5
280.736	3539.5
280.968	3299.5
281.199	3203.5
281.431	3162.5
281.662	3100.5
281.894	3056.5
282.125	3091.5
282.356	3306.5
282.588	3479.5
282.819	3237.5
283.051	3030.5
283.282	2967.5
283.513	2966.5
283.745	2989.5
283.976	3047.5
284.207	3008.5
284.439	3032.5
284.67	3008.5
284.901	2995.5
285.132	3039.5
285.364	3030.5
285.595	3024.5
285.826	3008.5
286.057	3097.5
286.288	3088.5
286.52	3047.5
286.751	3062.5
286.982	3113.5
287.213	3155.5
287.444	3160.5
287.675	3200.5
287.906	3260.5
288.138	3293.5
288.369	3226.5
288.6	3204.5
288.831	3253.5
289.062	3176.5
289.293	3189.5
289.524	3247.5
289.755	3152.5
289.986	3206.5
290.217	3172.5
290.448	3194.5
290.679	3179.5
290.91	3162.5
291.141	3168.5
291.371	3121.5
291.602	3104.5
291.833	3087.5
292.064	3139.5
292.295	3154.5
292.526	3101.5
292.757	3099.5
292.987	3049.5
293.218	3055.5
293.449	3144.5
293.68	3121.5
293.91	3088.5
294.141	3126.5
294.372	3059.5
294.603	3154.5
294.833	3164.5
295.064	3153.5
295.295	3224.5
295.525	3239.5
295.756	3275.5
295.987	3317.5
296.217	3602.5
296.448	3475.5
296.679	3223.5
296.909	3230.5
297.14	3204.5
297.37	3244.5
297.601	3275.5
297.831	3343.5
298.062	3302.5
298.292	3328.5
298.523	3446.5
298.753	3421.5
298.984	3428.5
299.214	3393.5
299.445	3375.5
299.675	3463.5
299.905	3503.5
300.136	3474.5
300.366	3435.5
300.597	3477.5
300.827	3576.5
301.057	3710.5
301.288	3744.5
301.518	3639.5
301.748	3692.5
301.979	3799.5
302.209	3857.5
302.439	3778.5
302.669	3743.5
302.9	3715.5
303.13	3638.5
303.36	3847.5
303.59	4039.5
303.82	4111.5
304.051	3912.5
304.281	3765.5
304.511	3573.5
304.741	3614.5
304.971	3609.5
305.201	3575.5
305.431	3624.5
305.661	3611.5
305.891	3623.5
306.121	3651.5
306.352	3721.5
306.582	3699.5
306.812	3713.5
307.042	3937.5
307.272	4224.5
307.502	4388.5
307.731	4277.5
307.961	3937.5
308.191	3774.5
308.421	3704.5
308.651	3697.5
308.881	3755.5
309.111	3754.5
309.341	3721.5
309.571	3865.5
309.8	4000.5
310.03	4065.5
310.26	4120.5
310.49	4041.5
310.72	4224.5
310.949	4368.5
311.179	4278.5
311.409	4131.5
311.639	4086.5
311.868	4111.5
312.098	4140.5
312.328	4278.5
312.557	4512.5
312.787	4565.5
313.017	4406.5
313.246	4265.5
313.476	4124.5
313.706	4167.5
313.935	4330.5
314.165	4477.5
314.394	4524.5
314.624	4352.5
314.853	4257.5
315.083	4235.5
315.312	4080.5
315.542	4119.5
315.771	4069.5
316.001	4056.5
316.23	4073.5
316.46	4110.5
316.689	4231.5
316.919	4224.5
317.148	4318.5
317.377	4284.5
317.607	4203.5
317.836	4211.5
318.065	4176.5
318.295	4164.5
318.524	4141.5
318.753	4146.5
318.983	4184.5
319.212	4152.5
319.441	4243.5
319.67	4288.5
319.9	4133.5
320.129	4169.5
320.358	4264.5
320.587	4239.5
320.816	4413.5
321.046	4397.5
321.275	4340.5
321.504	4400.5
321.733	4493.5
321.962	4583.5
322.191	4746.5
322.42	4859.5
322.649	4938.5
322.878	5174.5
323.108	5247.5
323.337	5587.5
323.566	5873.5
323.795	6320.5
324.024	7052.5
324.253	9438.5
324.482	13774.5
324.71	15617.5
324.939	15617.5
325.168	14704.5
325.397	8111.5
325.626	6656.5
325.855	6230.5
326.084	6109.5
326.313	6187.5
326.542	6503.5
326.77	7436.5
326.999	9473.5
327.228	13540.5
327.457	15617.5
327.686	15617.5
327.914	12997.5
328.143	13227.5
328.372	14096.5
328.6	11308.5
328.829	9007.5
329.058	9033.5
329.287	9339.5
329.515	9652.5
329.744	11522.5
329.972	14584.5
330.201	15617.5
330.43	15617.5
330.658	15343.5
330.887	11500.5
331.115	9182.5
331.344	7875.5
331.572	7527.5
331.801	7446.5
332.03	7384.5
332.258	7205.5
332.486	7215.5
332.715	7472.5
332.943	7949.5
333.172	8530.5
333.4	9215.5
333.629	10345.5
333.857	12616.5
334.085	15163.5
334.314	15617.5
334.542	15617.5
334.771	15617.5
334.999	14820.5
335.227	10648.5
335.455	8840.5
335.684	7896.5
335.912	7331.5
336.14	6883.5
336.369	6638.5
336.597	6625.5
336.825	6368.5
337.053	6084.5
337.281	5860.5
337.51	5821.5
337.738	5780.5
337.966	5701.5
338.194	5675.5
338.422	5430.5
338.65	5310.5
338.878	5273.5
339.106	5276.5
339.334	5209.5
339.562	5093.5
339.79	5065.5
340.018	5045.5
340.246	5087.5
340.474	5024.5
340.702	4997.5
340.93	4969.5
341.158	4969.5
341.386	4958.5
341.614	4988.5
341.842	4883.5
342.07	4852.5
342.298	4833.5
342.526	4785.5
342.754	4715.5
342.981	4725.5
343.209	4819.5
343.437	5028.5
343.665	5230.5
343.893	5591.5
344.12	5543.5
344.348	5298.5
344.576	5139.5
344.804	5131.5
345.031	5214.5
345.259	5176.5
345.487	4925.5
345.714	4823.5
345.942	4687.5
346.17	4632.5
346.397	4657.5
346.625	4629.5
346.853	4586.5
347.08	4513.5
347.308	4713.5
347.535	4757.5
347.763	4829.5
347.99	4726.5
348.218	4750.5
348.445	4846.5
348.673	4771.5
348.9	4590.5
349.128	4567.5
349.355	4480.5
349.583	4457.5
349.81	4513.5
350.037	4472.5
350.265	4461.5
350.492	4458.5
350.72	4459.5
350.947	4548.5
351.174	4702.5
351.402	4749.5
351.629	4623.5
351.856	4669.5
352.083	4740.5
352.311	4734.5
352.538	4840.5
352.765	4756.5
352.992	4704.5
353.22	4552.5
353.447	4525.5
353.674	4425.5
353.901	4371.5
354.128	4332.5
354.355	4318.5
354.583	4333.5
354.81	4312.5
355.037	4305.5
355.264	4289.5
355.491	4252.5
355.718	4269.5
355.945	4186.5
356.172	4281.5
356.399	4275.5
356.626	4244.5
356.853	4254.5
357.08	4207.5
357.307	4224.5
357.534	4225.5
357.761	4250.5
357.988	4241.5
358.215	4205.5
358.441	4270.5
358.668	4255.5
358.895	4360.5
359.122	4348.5
359.349	4503.5
359.576	4721.5
359.802	5031.5
360.029	5355.5
360.256	5242.5
360.483	4878.5
360.709	4551.5
360.936	4519.5
361.163	4651.5
361.39	4740.5
361.616	4573.5
361.843	4611.5
362.07	4615.5
362.296	4659.5
362.523	4583.5
362.749	4592.5
362.976	4523.5
363.203	4390.5
363.429	4369.5
363.656	4450.5
363.882	4375.5
364.109	4408.5
364.335	4415.5
364.562	4425.5
364.788	4348.5
365.015	4409.5
365.241	4433.5
365.468	4477.5
365.694	4533.5
365.92	4491.5
366.147	4364.5
366.373	4342.5
366.599	4365.5
366.826	4317.5
367.052	4303.5
367.278	4377.5
367.505	4387.5
367.731	4409.5
367.957	4378.5
368.184	4411.5
368.41	4549.5
368.636	4625.5
368.862	4613.5
369.089	4513.5
369.315	4467.5
369.541	4419.5
369.767	4502.5
369.993	4470.5
370.219	4490.5
370.445	4500.5
370.672	4507.5
370.898	4479.5
371.124	4539.5
371.35	4566.5
371.576	4509.5
371.802	4552.5
372.028	4462.5
372.254	4646.5
372.48	4527.5
372.706	4703.5
372.932	4699.5
373.158	4626.5
373.384	4599.5
373.61	4650.5
373.835	4627.5
374.061	4601.5
374.287	4691.5
374.513	4757.5
374.739	4847.5
374.965	4889.5
375.191	4928.5
375.416	4854.5
375.642	4685.5
375.868	4755.5
376.094	4623.5
376.319	4511.5
376.545	4559.5
376.771	4523.5
376.997	4557.5
377.222	4495.5
377.448	4508.5
377.674	4483.5
377.899	4474.5
378.125	4462.5
378.35	4416.5
378.576	4383.5
378.802	4395.5
379.027	4463.5
379.253	4461.5
379.478	4512.5
379.704	4533.5
379.929	4519.5
380.155	4487.5
380.38	4551.5
380.606	4513.5
380.831	4567.5
381.057	4567.5
381.282	4585.5
381.507	4559.5
381.733	4588.5
381.958	4666.5
382.184	4686.5
382.409	4753.5
382.634	4747.5
382.86	4739.5
383.085	4832.5
383.31	4839.5
383.535	4980.5
383.761	4965.5
383.986	4962.5
384.211	5094.5
384.436	5131.5
384.662	5238.5
384.887	5245.5
385.112	5271.5
385.337	5366.5
385.562	5357.5
385.787	5439.5
386.013	5555.5
386.238	5536.5
386.463	5524.5
386.688	5535.5
386.913	5310.5
387.138	5320.5
387.363	5341.5
387.588	5205.5
387.813	5295.5
388.038	5293.5
388.263	5343.5
388.488	5313.5
388.713	5345.5
388.938	5240.5
389.163	5245.5
389.387	5298.5
389.612	5159.5
389.837	5246.5
390.062	5205.5
390.287	5270.5
390.512	5271.5
390.736	5361.5
390.961	5439.5
391.186	5470.5
391.411	5611.5
391.636	5718.5
391.86	5867.5
392.085	5937.5
392.31	5844.5
392.534	5801.5
392.759	5649.5
392.984	5594.5
393.208	5467.5
393.433	5520.5
393.658	5494.5
393.882	5575.5
394.107	5544.5
394.331	5574.5
394.556	5531.5
394.78	5688.5
395.005	5659.5
395.229	5684.5
395.454	5873.5
395.678	6007.5
395.903	6031.5
396.127	6017.5
396.352	5847.5
396.576	5703.5
396.801	5689.5
397.025	5735.5
397.249	5863.5
397.474	6022.5
397.698	5939.5
397.922	6134.5
398.147	6289.5
398.371	6354.5
398.595	6463.5
398.82	6870.5
399.044	7348.5
399.268	8035.5
399.492	9049.5
399.717	9551.5
399.941	9347.5
400.165	8859.5
400.389	8267.5
400.613	7400.5
400.837	7048.5
401.062	6861.5
401.286	6733.5
401.51	6727.5
401.734	6765.5
401.958	6872.5
402.182	7046.5
402.406	7179.5
402.63	7220.5
402.854	7312.5
403.078	7369.5
403.302	7515.5
403.526	7596.5
403.75	7636.5
403.974	7806.5
404.198	7858.5
404.422	8073.5
404.645	8202.5
404.869	8535.5
405.093	9293.5
405.317	9927.5
405.541	9775.5
405.765	8715.5
405.988	8186.5
406.212	8239.5
406.436	8433.5
406.66	8356.5
406.883	8213.5
407.107	8691.5
407.331	9206.5
407.555	9719.5
407.778	9359.5
408.002	8526.5
408.226	8276.5
408.449	8067.5
408.673	7915.5
408.896	8029.5
409.12	8176.5
409.344	7779.5
409.567	7374.5
409.791	7428.5
410.014	7290.5
410.238	7271.5
410.461	7301.5
410.685	7316.5
410.908	7429.5
411.132	7645.5
411.355	7764.5
411.578	7420.5
411.802	7371.5
412.025	7683.5
412.249	8419.5
412.472	9167.5
412.695	9865.5
412.919	9074.5
413.142	8502.5
413.365	7994.5
413.589	7589.5
413.812	7300.5
414.035	7170.5
414.258	7105.5
414.482	7138.5
414.705	7037.5
414.928	6906.5
415.151	6808.5
415.374	6863.5
415.597	6781.5
415.821	6733.5
416.044	6887.5
416.267	6707.5
416.49	6610.5
416.713	6549.5
416.936	6712.5
417.159	6719.5
417.382	7005.5
417.605	7287.5
417.828	7446.5
418.051	7238.5
418.274	6866.5
418.497	6691.5
418.72	6942.5
418.943	6941.5
419.166	7305.5
419.389	7795.5
419.611	7862.5
419.834	7884.5
420.057	8177.5
420.28	8590.5
420.503	8363.5
420.726	7921.5
420.948	7689.5
421.171	7923.5
421.394	7658.5
421.617	7094.5
421.839	7010.5
422.062	7036.5
422.285	7116.5
422.507	7775.5
422.73	8251.5
422.953	7600.5
423.175	7220.5
423.398	7289.5
423.621	7264.5
423.843	7413.5
424.066	7429.5
424.288	7248.5
424.511	7511.5
424.733	7970.5
424.956	8403.5
425.178	8007.5
425.401	8199.5
425.623	8030.5
425.846	7027.5
426.068	6987.5
426.291	6885.5
426.513	6809.5
426.735	6961.5
426.958	7492.5
427.18	8443.5
427.402	9873.5
427.625	10591.5
427.847	10199.5
428.069	9815.5
428.292	8048.5
428.514	7030.5
428.736	6594.5
428.958	6463.5
429.181	6252.5
429.403	6121.5
429.625	6304.5
429.847	6664.5
430.069	7141.5
430.292	6646.5
430.514	6126.5
430.736	6160.5
430.958	5977.5
431.18	5934.5
431.402	5869.5
431.624	5899.5
431.846	5925.5
432.068	5989.5
432.29	6029.5
432.512	5895.5
432.734	6035.5
432.956	5976.5
433.178	6068.5
433.4	6133.5
433.622	5942.5
433.844	6025.5
434.066	6037.5
434.287	6109.5
434.509	6325.5
434.731	6439.5
434.953	6543.5
435.175	6778.5
435.397	6843.5
435.618	6727.5
435.84	7217.5
436.062	8102.5
436.284	8007.5
436.505	6712.5
436.727	6429.5
436.949	6140.5
437.17	6015.5
437.392	5970.5
437.614	6185.5
437.835	6681.5
438.057	7787.5
438.278	8285.5
438.5	8038.5
438.721	8987.5
438.943	7704.5
439.165	6524.5
439.386	6410.5
439.608	6514.5
439.829	6628.5
440.05	7261.5
440.272	7699.5
440.493	6777.5
440.715	6358.5
440.936	6304.5
441.158	6319.5
441.379	6467.5
441.6	6855.5
441.822	6986.5
442.043	7497.5
442.264	8285.5
442.486	7953.5
442.707	7091.5
442.928	6987.5
443.149	7279.5
443.371	7552.5
443.592	8005.5
443.813	8966.5
444.034	8730.5
444.255	7545.5
444.476	7449.5
444.698	7509.5
444.919	7703.5
445.14	7576.5
445.361	7496.5
445.582	7865.5
445.803	8832.5
446.024	9353.5
446.245	8921.5
446.466	7759.5
446.687	6635.5
446.908	6395.5
447.129	6058.5
447.35	5915.5
447.571	5897.5
447.792	5727.5
448.013	5854.5
448.234	6126.5
448.455	6763.5
448.675	8011.5
448.896	8363.5
449.117	6851.5
449.338	7177.5
449.559	8581.5
449.779	8772.5
450	6568.5
450.221	5925.5
450.442	5749.5
450.662	5705.5
450.883	6000.5
451.104	6195.5
451.324	5902.5
451.545	5571.5
451.766	5454.5
451.986	5315.5
452.207	5303.5
452.428	5351.5
452.648	5372.5
452.869	5384.5
453.089	5475.5
453.31	5631.5
453.53	5313.5
453.751	5236.5
453.971	5336.5
454.192	5575.5
454.412	5327.5
454.633	5248.5
454.853	5145.5
455.073	5199.5
455.294	5599.5
455.514	6176.5
455.734	5569.5
455.955	5052.5
456.175	4885.5
456.395	4856.5
456.616	4934.5
456.836	4905.5
457.056	4899.5
457.276	4910.5
457.497	5044.5
457.717	5052.5
457.937	5159.5
458.157	5132.5
458.377	5384.5
458.598	5747.5
458.818	6727.5
459.038	7579.5
459.258	7173.5
459.478	6315.5
459.698	6150.5
459.918	6115.5
460.138	6307.5
460.358	6570.5
460.578	6432.5
460.798	6670.5
461.018	6587.5
461.238	6415.5
461.458	6351.5
461.678	6403.5
461.898	6571.5
462.118	6624.5
462.338	7030.5
462.558	7110.5
462.777	7408.5
462.997	7825.5
463.217	8307.5
463.437	8120.5
463.657	7659.5
463.876	7432.5
464.096	7482.5
464.316	7486.5
464.536	7547.5
464.755	7337.5
464.975	7398.5
465.195	7955.5
465.414	8195.5
465.634	6860.5
465.854	6267.5
466.073	6105.5
466.293	5835.5
466.512	5772.5
466.732	5636.5
466.951	5732.5
467.171	5786.5
467.391	5962.5
467.61	6227.5
467.829	6890.5
468.049	9523.5
468.268	12300.5
468.488	8220.5
468.707	6735.5
468.927	6275.5
469.146	5923.5
469.365	5892.5
469.585	5847.5
469.804	6060.5
470.023	6215.5
470.243	6157.5
470.462	6268.5
470.681	6487.5
470.901	6328.5
471.12	6162.5
471.339	6253.5
471.558	6303.5
471.777	6751.5
471.997	8099.5
472.216	13623.5
472.435	15617.5
472.654	14894.5
472.873	9708.5
473.092	8089.5
473.311	7225.5
473.53	6842.5
473.749	6687.5
473.968	7053.5
474.187	8032.5
474.406	7232.5
474.625	6253.5
474.844	5916.5
475.063	5884.5
475.282	5831.5
475.501	5865.5
475.72	5851.5
475.939	5886.5
476.158	5923.5
476.377	5824.5
476.596	5858.5
476.814	6137.5
477.033	6217.5
477.252	6198.5
477.471	6273.5
477.69	6271.5
477.908	6435.5
478.127	6568.5
478.346	6614.5
478.564	6804.5
478.783	6922.5
479.002	7076.5
479.22	7208.5
479.439	7432.5
479.658	7713.5
479.876	7933.5
480.095	8161.5
480.313	8842.5
480.532	9196.5
480.751	10567.5
480.969	14732.5
481.188	15617.5
481.406	15617.5
481.624	15543.5
481.843	12366.5
482.061	10655.5
482.28	9509.5
482.498	8760.5
482.717	8302.5
482.935	8007.5
483.153	7715.5
483.372	7659.5
483.59	7353.5
483.808	7389.5
484.027	7271.5
484.245	7240.5
484.463	7155.5
484.681	7173.5
484.9	7221.5
485.118	7313.5
485.336	7199.5
485.554	7265.5
485.772	7379.5
485.99	7304.5
486.209	7348.5
486.427	7406.5
486.645	7520.5
486.863	7805.5
487.081	7557.5
487.299	7401.5
487.517	7393.5
487.735	7417.5
487.953	7368.5
488.171	7375.5
488.389	7485.5
488.607	7473.5
488.825	7650.5
489.043	7643.5
489.261	7651.5
489.479	7767.5
489.696	7978.5
489.914	8148.5
490.132	8269.5
490.35	8442.5
490.568	8634.5
490.786	8985.5
491.003	9480.5
491.221	10156.5
491.439	10857.5
491.657	10907.5
491.874	10910.5
492.092	10996.5
492.31	11227.5
492.527	11747.5
492.745	12257.5
492.963	11897.5
493.18	11550.5
493.398	11267.5
493.615	11011.5
493.833	10700.5
494.05	10472.5
494.268	10235.5
494.485	9916.5
494.703	9812.5
494.92	9720.5
495.138	9522.5
495.355	9425.5
495.573	9277.5
495.79	9196.5
496.008	9199.5
496.225	9081.5
496.442	8976.5
496.66	9000.5
496.877	9015.5
497.094	8984.5
497.312	9140.5
497.529	9222.5
497.746	9349.5
497.963	9449.5
498.181	9939.5
498.398	10111.5
498.615	10455.5
498.832	10826.5
499.049	11325.5
499.267	11803.5
499.484	12456.5
499.701	13123.5
499.918	13804.5
500.135	14593.5
500.352	15128.5
500.569	15490.5
500.786	15522.5
501.003	15017.5
501.22	14321.5
501.437	13599.5
501.654	12918.5
501.871	12243.5
502.088	11452.5
502.305	10819.5
502.522	10271.5
502.739	9944.5
