Data from Circ_1995_H10_HRD10591_00075.txt Node
Date: Wed Jan 03 11:37:01 EST 2024
User: Yrep
Spectrometer: HR+D1059
Trigger mode: 1
Integration Time (sec): 1.000000E-1
Scans to average: 1
Electric dark correction enabled: true
Nonlinearity correction enabled: false
Boxcar width: 0
XAxis mode: Wavelengths
Number of Pixels in Spectrum: 2048
>>>>>Begin Spectral Data<<<<<
223.165	-20
223.4	-20
223.635	-20
223.869	-16
224.104	-28
224.338	-8
224.573	-14
224.808	-14
225.042	-15
225.277	-10
225.511	11
225.746	9
225.98	-1
226.215	0
226.449	12
226.683	31
226.918	30
227.152	33
227.387	49
227.621	47
227.856	44
228.09	41
228.324	47
228.559	44
228.793	59
229.027	65
229.262	65
229.496	83
229.73	107
229.964	108
230.199	83
230.433	61
230.667	79
230.901	78
231.136	80
231.37	81
231.604	85
231.838	82
232.072	84
232.306	85
232.541	83
232.775	88
233.009	81
233.243	73
233.477	96
233.711	80
233.945	77
234.179	72
234.413	86
234.647	74
234.881	84
235.115	89
235.349	85
235.583	68
235.817	78
236.051	85
236.285	76
236.519	72
236.753	80
236.987	88
237.221	92
237.455	92
237.689	84
237.922	85
238.156	75
238.39	74
238.624	81
238.858	74
239.091	75
239.325	87
239.559	95
239.793	85
240.027	85
240.26	75
240.494	76
240.728	87
240.961	82
241.195	65
241.429	80
241.662	93
241.896	77
242.13	74
242.363	70
242.597	88
242.83	79
243.064	81
243.298	77
243.531	79
243.765	68
243.998	77
244.232	84
244.465	98
244.699	78
244.932	90
245.166	79
245.399	76
245.633	77
245.866	90
246.099	90
246.333	75
246.566	69
246.8	81
247.033	80
247.266	80
247.5	81
247.733	81
247.966	69
248.2	98
248.433	88
248.666	92
248.899	85
249.133	88
249.366	122
249.599	109
249.832	91
250.066	93
250.299	80
250.532	90
250.765	69
250.998	82
251.231	82
251.465	89
251.698	86
251.931	92
252.164	83
252.397	75
252.63	80
252.863	58
253.096	88
253.329	84
253.562	91
253.795	90
254.028	89
254.261	72
254.494	76
254.727	74
254.96	71
255.193	79
255.426	67
255.659	95
255.892	89
256.124	90
256.357	76
256.59	105
256.823	93
257.056	91
257.289	99
257.521	94
257.754	84
257.987	104
258.22	94
258.452	94
258.685	91
258.918	95
259.151	86
259.383	102
259.616	87
259.849	100
260.081	91
260.314	91
260.547	100
260.779	96
261.012	120
261.244	115
261.477	91
261.71	118
261.942	148
262.175	160
262.407	100
262.64	81
262.872	81
263.105	88
263.337	87
263.57	88
263.802	81
264.035	91
264.267	84
264.499	91
264.732	88
264.964	79
265.197	87
265.429	79
265.661	83
265.894	89
266.126	91
266.358	80
266.591	91
266.823	86
267.055	91
267.287	84
267.52	100
267.752	75
267.984	93
268.216	87
268.448	106
268.681	98
268.913	84
269.145	76
269.377	76
269.609	88
269.841	99
270.073	92
270.306	79
270.538	73
270.77	90
271.002	81
271.234	95
271.466	106
271.698	85
271.93	105
272.162	91
272.394	83
272.626	85
272.858	85
273.09	82
273.322	80
273.553	95
273.785	87
274.017	89
274.249	95
274.481	96
274.713	83
274.945	97
275.176	90
275.408	120
275.64	132
275.872	153
276.104	125
276.335	93
276.567	127
276.799	184
277.031	199
277.262	265
277.494	178
277.726	95
277.957	86
278.189	91
278.421	85
278.652	107
278.884	90
279.115	113
279.347	100
279.579	100
279.81	152
280.042	273
280.273	356
280.505	235
280.736	126
280.968	85
281.199	100
281.431	100
281.662	87
281.894	100
282.125	111
282.356	153
282.588	189
282.819	142
283.051	114
283.282	106
283.513	103
283.745	94
283.976	104
284.207	87
284.439	99
284.67	92
284.901	83
285.132	76
285.364	91
285.595	95
285.826	96
286.057	97
286.288	82
286.52	80
286.751	75
286.982	84
287.213	95
287.444	63
287.675	82
287.906	93
288.138	92
288.369	107
288.6	106
288.831	97
289.062	102
289.293	88
289.524	73
289.755	96
289.986	80
290.217	81
290.448	96
290.679	92
290.91	96
291.141	95
291.371	85
291.602	85
291.833	92
292.064	83
292.295	75
292.526	100
292.757	99
292.987	87
293.218	88
293.449	90
293.68	95
293.91	91
294.141	90
294.372	101
294.603	86
294.833	86
295.064	89
295.295	93
295.525	95
295.756	101
295.987	138
296.217	180
296.448	170
296.679	112
296.909	98
297.14	91
297.37	97
297.601	94
297.831	104
298.062	95
298.292	80
298.523	95
298.753	86
298.984	97
299.214	88
299.445	92
299.675	96
299.905	113
300.136	108
300.366	91
300.597	103
300.827	102
301.057	99
301.288	120
301.518	111
301.748	111
301.979	111
302.209	109
302.439	111
302.669	94
302.9	108
303.13	108
303.36	125
303.59	137
303.82	161
304.051	119
304.281	106
304.511	96
304.741	88
304.971	92
305.201	95
305.431	96
305.661	85
305.891	110
306.121	101
306.352	120
306.582	131
306.812	112
307.042	136
307.272	191
307.502	215
307.731	199
307.961	166
308.191	99
308.421	101
308.651	93
308.881	114
309.111	87
309.341	101
309.571	103
309.8	109
310.03	101
310.26	105
310.49	109
310.72	120
310.949	124
311.179	112
311.409	99
311.639	100
311.868	95
312.098	109
312.328	112
312.557	137
312.787	139
313.017	130
313.246	108
313.476	98
313.706	99
313.935	96
314.165	103
314.394	119
314.624	106
314.853	98
315.083	89
315.312	92
315.542	103
315.771	96
316.001	105
316.23	83
316.46	84
316.689	93
316.919	99
317.148	100
317.377	103
317.607	105
317.836	106
318.065	107
318.295	82
318.524	90
318.753	91
318.983	107
319.212	110
319.441	132
319.67	129
319.9	101
320.129	110
320.358	108
320.587	99
320.816	101
321.046	101
321.275	116
321.504	123
321.733	101
321.962	99
322.191	118
322.42	108
322.649	140
322.878	139
323.108	123
323.337	154
323.566	173
323.795	196
324.024	280
324.253	546
324.482	1134
324.71	2383
324.939	3160
325.168	1154
325.397	322
325.626	173
325.855	153
326.084	137
326.313	157
326.542	200
326.77	297
326.999	569
327.228	1190
327.457	2214
327.686	1765
327.914	666
328.143	723
328.372	966
328.6	523
328.829	221
329.058	217
329.287	223
329.515	211
329.744	328
329.972	669
330.201	1410
330.43	2133
330.658	898
330.887	378
331.115	220
331.344	121
331.572	129
331.801	138
332.03	139
332.258	116
332.486	115
332.715	117
332.943	127
333.172	145
333.4	141
333.629	188
333.857	276
334.085	574
334.314	1265
334.542	2576
334.771	2467
334.999	604
335.227	205
335.455	138
335.684	121
335.912	100
336.14	97
336.369	127
336.597	114
336.825	101
337.053	96
337.281	106
337.51	109
337.738	114
337.966	107
338.194	116
338.422	114
338.65	103
338.878	96
339.106	75
339.334	103
339.562	114
339.79	120
340.018	107
340.246	109
340.474	103
340.702	102
340.93	97
341.158	119
341.386	101
341.614	110
341.842	110
342.07	100
342.298	86
342.526	91
342.754	89
342.981	94
343.209	89
343.437	96
343.665	84
343.893	85
344.12	91
344.348	89
344.576	87
344.804	107
345.031	112
345.259	121
345.487	111
345.714	93
345.942	98
346.17	96
346.397	95
346.625	100
346.853	98
347.08	107
347.308	99
347.535	102
347.763	122
347.99	96
348.218	113
348.445	127
348.673	137
348.9	109
349.128	102
349.355	99
349.583	87
349.81	88
350.037	93
350.265	92
350.492	99
350.72	96
350.947	108
351.174	116
351.402	125
351.629	99
351.856	97
352.083	111
352.311	109
352.538	125
352.765	127
352.992	132
353.22	121
353.447	111
353.674	103
353.901	82
354.128	89
354.355	100
354.583	106
354.81	105
355.037	93
355.264	90
355.491	96
355.718	93
355.945	93
356.172	88
356.399	95
356.626	100
356.853	103
357.08	93
357.307	97
357.534	96
357.761	89
357.988	84
358.215	81
358.441	85
358.668	96
358.895	101
359.122	97
359.349	92
359.576	99
359.802	124
360.029	153
360.256	161
360.483	114
360.709	97
360.936	90
361.163	88
361.39	112
361.616	108
361.843	105
362.07	103
362.296	125
362.523	107
362.749	102
362.976	87
363.203	101
363.429	106
363.656	99
363.882	96
364.109	95
364.335	104
364.562	100
364.788	93
365.015	107
365.241	124
365.468	131
365.694	112
365.92	104
366.147	92
366.373	106
366.599	101
366.826	83
367.052	90
367.278	100
367.505	100
367.731	105
367.957	127
368.184	102
368.41	96
368.636	130
368.862	145
369.089	117
369.315	108
369.541	98
369.767	103
369.993	103
370.219	109
370.445	92
370.672	89
370.898	90
371.124	84
371.35	86
371.576	100
371.802	92
372.028	81
372.254	77
372.48	82
372.706	98
372.932	93
373.158	87
373.384	97
373.61	91
373.835	100
374.061	99
374.287	99
374.513	91
374.739	84
374.965	67
375.191	83
375.416	88
375.642	82
375.868	95
376.094	97
376.319	92
376.545	91
376.771	91
376.997	87
377.222	101
377.448	108
377.674	74
377.899	91
378.125	106
378.35	83
378.576	85
378.802	83
379.027	95
379.253	78
379.478	92
379.704	85
379.929	89
380.155	91
380.38	91
380.606	103
380.831	113
381.057	93
381.282	101
381.507	101
381.733	114
381.958	110
382.184	100
382.409	106
382.634	91
382.86	102
383.085	99
383.31	101
383.535	101
383.761	84
383.986	96
384.211	100
384.436	104
384.662	108
384.887	101
385.112	108
385.337	107
385.562	99
385.787	119
386.013	113
386.238	129
386.463	110
386.688	106
386.913	104
387.138	99
387.363	102
387.588	104
387.813	96
388.038	109
388.263	113
388.488	110
388.713	98
388.938	97
389.163	98
389.387	88
389.612	101
389.837	88
390.062	91
390.287	90
390.512	95
390.736	92
390.961	89
391.186	72
391.411	92
391.636	80
391.86	85
392.085	80
392.31	84
392.534	90
392.759	89
392.984	96
393.208	80
393.433	80
393.658	84
393.882	79
394.107	87
394.331	85
394.556	77
394.78	101
395.005	94
395.229	91
395.454	89
395.678	78
395.903	89
396.127	102
396.352	97
396.576	95
396.801	85
397.025	82
397.249	100
397.474	90
397.698	93
397.922	96
398.147	92
398.371	79
398.595	97
398.82	102
399.044	80
399.268	84
399.492	77
399.717	93
399.941	92
400.165	88
400.389	92
400.613	92
400.837	98
401.062	77
401.286	101
401.51	84
401.734	101
401.958	119
402.182	166
402.406	237
402.63	157
402.854	107
403.078	93
403.302	79
403.526	89
403.75	91
403.974	94
404.198	101
404.422	105
404.645	106
404.869	99
405.093	124
405.317	136
405.541	160
405.765	131
405.988	138
406.212	257
406.436	369
406.66	247
406.883	137
407.107	100
407.331	102
407.555	121
407.778	111
408.002	101
408.226	98
408.449	93
408.673	100
408.896	103
409.12	96
409.344	76
409.567	89
409.791	105
410.014	100
410.238	88
410.461	91
410.685	92
410.908	107
411.132	101
411.355	107
411.578	108
411.802	93
412.025	79
412.249	101
412.472	116
412.695	138
412.919	112
413.142	103
413.365	91
413.589	87
413.812	85
414.035	89
414.258	101
414.482	92
414.705	88
414.928	92
415.151	96
415.374	102
415.597	102
415.821	100
416.044	90
416.267	87
416.49	93
416.713	83
416.936	103
417.159	107
417.382	96
417.605	105
417.828	121
418.051	99
418.274	79
418.497	82
418.72	81
418.943	76
419.166	77
419.389	104
419.611	107
419.834	104
420.057	102
420.28	106
420.503	101
420.726	96
420.948	91
421.171	128
421.394	99
421.617	105
421.839	92
422.062	101
422.285	88
422.507	99
422.73	98
422.953	99
423.175	91
423.398	98
423.621	89
423.843	101
424.066	90
424.288	83
424.511	91
424.733	116
424.956	101
425.178	114
425.401	107
425.623	120
425.846	105
426.068	109
426.291	101
426.513	103
426.735	101
426.958	114
427.18	130
427.402	202
427.625	294
427.847	272
428.069	244
428.292	136
428.514	97
428.736	99
428.958	95
429.181	98
429.403	90
429.625	87
429.847	95
430.069	124
430.292	89
430.514	93
430.736	90
430.958	79
431.18	85
431.402	88
431.624	80
431.846	83
432.068	98
432.29	84
432.512	84
432.734	95
432.956	96
433.178	111
433.4	113
433.622	89
433.844	100
434.066	94
434.287	83
434.509	93
434.731	99
434.953	84
435.175	91
435.397	96
435.618	112
435.84	114
436.062	144
436.284	120
436.505	121
436.727	92
436.949	98
437.17	82
437.392	93
437.614	103
437.835	129
438.057	167
438.278	127
438.5	105
438.721	143
438.943	99
439.165	91
439.386	100
439.608	101
439.829	114
440.05	151
440.272	187
440.493	110
440.715	106
440.936	93
441.158	92
441.379	93
441.6	108
441.822	108
442.043	92
442.264	120
442.486	113
442.707	110
442.928	140
443.149	199
443.371	194
443.592	138
443.813	127
444.034	105
444.255	108
444.476	96
444.698	98
444.919	90
445.14	132
445.361	136
445.582	141
445.803	197
446.024	171
446.245	183
446.466	126
446.687	93
446.908	88
447.129	90
447.35	94
447.571	120
447.792	96
448.013	110
448.234	132
448.455	104
448.675	128
448.896	157
449.117	112
449.338	109
449.559	153
449.779	155
450	99
450.221	92
450.442	95
450.662	108
450.883	144
451.104	137
451.324	116
451.545	99
451.766	93
451.986	84
452.207	89
452.428	110
452.648	111
452.869	136
453.089	137
453.31	167
453.53	93
453.751	104
453.971	112
454.192	158
454.412	109
454.633	77
454.853	92
455.073	90
455.294	92
455.514	118
455.734	104
455.955	109
456.175	88
456.395	83
456.616	80
456.836	85
457.056	90
457.276	89
457.497	97
457.717	89
457.937	106
458.157	100
458.377	99
458.598	130
458.818	240
459.038	264
459.258	161
459.478	95
459.698	93
459.918	104
460.138	95
460.358	113
460.578	97
460.798	98
461.018	106
461.238	93
461.458	74
461.678	91
461.898	92
462.118	81
462.338	94
462.558	104
462.777	95
462.997	108
463.217	123
463.437	112
463.657	93
463.876	108
464.096	93
464.316	114
464.536	114
464.755	106
464.975	138
465.195	269
465.414	272
465.634	117
465.854	87
466.073	107
466.293	88
466.512	88
466.732	98
466.951	97
467.171	109
467.391	122
467.61	166
467.829	280
468.049	841
468.268	1331
468.488	309
468.707	112
468.927	103
469.146	96
469.365	101
469.585	112
469.804	129
470.023	126
470.243	113
470.462	124
470.681	168
470.901	119
471.12	111
471.339	117
471.558	128
471.777	197
471.997	399
472.216	1581
472.435	3805
472.654	824
472.873	195
473.092	109
473.311	99
473.53	97
473.749	92
473.968	107
474.187	140
474.406	124
474.625	97
474.844	103
475.063	83
475.282	89
475.501	106
475.72	102
475.939	97
476.158	92
476.377	106
476.596	74
476.814	100
477.033	100
477.252	92
477.471	98
477.69	95
477.908	88
478.127	86
478.346	90
478.564	112
478.783	97
479.002	113
479.22	115
479.439	117
479.658	163
479.876	142
480.095	132
480.313	151
480.532	203
480.751	375
480.969	1401
481.188	6251
481.406	3598
481.624	505
481.843	173
482.061	117
482.28	112
482.498	94
482.717	78
482.935	86
483.153	87
483.372	103
483.59	95
483.808	99
484.027	105
484.245	109
484.463	107
484.681	103
484.9	114
485.118	107
485.336	100
485.554	102
485.772	93
485.99	114
486.209	99
486.427	118
486.645	128
486.863	139
487.081	112
487.299	98
487.517	106
487.735	109
487.953	83
488.171	96
488.389	97
488.607	110
488.825	94
489.043	95
489.261	106
489.479	89
489.696	89
489.914	102
490.132	100
490.35	85
490.568	99
490.786	92
491.003	99
491.221	99
491.439	95
491.657	93
491.874	101
492.092	107
492.31	113
492.527	99
492.745	110
492.963	103
493.18	95
493.398	104
493.615	89
493.833	98
494.05	87
494.268	81
494.485	85
494.703	111
494.92	102
495.138	70
495.355	97
495.573	101
495.79	87
496.008	96
496.225	89
496.442	92
496.66	83
496.877	98
497.094	91
497.312	75
497.529	92
497.746	99
497.963	103
498.181	90
498.398	108
498.615	123
498.832	116
499.049	95
499.267	94
499.484	80
499.701	98
499.918	90
500.135	89
500.352	93
500.569	83
500.786	93
501.003	91
501.22	95
501.437	95
501.654	104
501.871	143
502.088	112
502.305	94
502.522	84
502.739	109
502.956	85
503.172	80
503.389	114
503.606	143
503.823	118
504.04	108
504.256	94
504.473	87
504.69	109
504.907	110
505.123	91
505.34	88
505.557	90
505.773	93
505.99	94
506.207	89
506.423	94
506.64	93
506.856	93
507.073	98
507.289	97
507.506	117
507.722	143
507.939	137
508.155	99
508.372	99
508.588	80
508.805	90
509.021	88
509.238	108
509.454	107
509.67	113
509.887	116
510.103	149
510.319	258
510.536	1058
510.752	3740
510.968	973
511.184	215
511.401	137
511.617	105
511.833	114
512.049	97
512.265	95
512.481	110
512.698	91
512.914	97
513.13	94
513.346	104
513.562	91
513.778	98
513.994	108
514.21	137
514.426	164
514.642	211
514.858	167
515.074	257
515.29	856
515.506	3212
515.721	1081
515.937	249
516.153	148
516.369	124
516.585	108
516.801	105
517.016	101
517.232	93
517.448	101
517.664	92
517.879	103
518.095	110
518.311	122
518.527	122
518.742	88
518.958	91
519.173	100
519.389	91
519.605	111
519.82	102
520.036	137
520.251	169
520.467	132
520.682	127
520.898	137
521.113	164
521.329	209
521.544	360
521.76	1121
521.975	5371
522.19	3163
522.406	621
522.621	192
522.836	123
523.052	105
523.267	116
523.482	114
523.698	127
523.913	155
524.128	130
524.343	108
524.559	92
524.774	93
524.989	109
525.204	135
525.419	105
525.634	97
525.849	91
526.064	90
526.28	111
526.495	89
526.71	102
526.925	95
527.14	95
527.355	97
527.57	78
527.785	88
527.999	79
528.214	91
528.429	87
528.644	101
528.859	95
529.074	114
529.289	176
529.503	328
529.718	148
529.933	97
530.148	84
530.363	92
530.577	104
530.792	100
531.007	88
531.221	86
531.436	100
531.651	93
531.865	91
532.08	91
532.295	99
532.509	100
532.724	93
532.938	100
533.153	84
533.367	69
533.582	94
533.796	98
534.011	95
534.225	87
534.44	99
534.654	98
534.868	84
535.083	98
535.297	100
535.511	115
535.726	113
535.94	102
536.154	94
536.369	103
536.583	83
536.797	89
537.011	84
537.225	92
537.44	92
537.654	100
537.868	93
538.082	89
538.296	102
538.51	99
538.724	95
538.938	105
539.153	115
539.367	138
539.581	107
539.795	81
540.009	76
540.222	95
540.436	81
540.65	104
540.864	91
541.078	109
541.292	100
541.506	107
541.72	104
541.934	87
542.147	90
542.361	95
542.575	93
542.789	106
543.002	103
543.216	99
543.43	124
543.644	95
543.857	97
544.071	93
544.285	101
544.498	96
544.712	97
544.925	86
545.139	90
545.352	88
545.566	80
545.779	87
545.993	83
546.206	88
546.42	94
546.633	88
546.847	102
547.06	81
547.274	82
547.487	91
547.7	78
547.914	79
548.127	96
548.34	90
548.554	100
548.767	83
548.98	84
549.193	85
549.407	103
549.62	106
549.833	95
550.046	98
550.259	92
550.473	97
550.686	100
550.899	85
551.112	76
551.325	90
551.538	102
551.751	101
551.964	95
552.177	109
552.39	91
552.603	97
552.816	97
553.029	96
553.242	105
553.455	111
553.667	109
553.88	123
554.093	100
554.306	141
554.519	132
554.732	106
554.944	93
555.157	94
555.37	96
555.583	82
555.795	99
556.008	84
556.221	93
556.433	91
556.646	88
556.859	91
557.071	100
557.284	92
557.496	76
557.709	94
557.921	77
558.134	87
558.346	90
558.559	93
558.771	91
558.984	108
559.196	87
559.409	87
559.621	87
559.833	92
560.046	101
560.258	141
560.47	161
560.683	109
560.895	102
561.107	87
561.32	95
561.532	93
561.744	89
561.956	90
562.168	91
562.381	91
562.593	93
562.805	106
563.017	85
563.229	76
563.441	107
563.653	97
563.865	87
564.077	97
564.289	99
564.501	76
564.713	97
564.925	99
565.137	136
565.349	105
565.561	98
565.773	83
565.985	81
566.197	109
566.408	86
566.62	89
566.832	90
567.044	88
567.255	76
567.467	79
567.679	90
567.891	86
568.102	84
568.314	85
568.526	89
568.737	87
568.949	90
569.161	98
569.372	81
569.584	97
569.795	110
570.007	129
570.218	315
570.43	169
570.641	99
570.853	80
571.064	92
571.276	86
571.487	104
571.698	86
571.91	83
572.121	88
572.333	89
572.544	84
572.755	88
572.966	93
573.178	91
573.389	102
573.6	103
573.811	97
574.023	78
574.234	90
574.445	99
574.656	96
574.867	83
575.078	87
575.289	77
575.501	90
575.712	101
575.923	88
576.134	82
576.345	81
576.556	91
576.767	89
576.978	103
577.188	94
577.399	111
577.61	94
577.821	103
578.032	119
