Data from Circ_1995_H10_HRD10591_00011.txt Node
Date: Wed Jan 03 11:36:48 EST 2024
User: Yrep
Spectrometer: HR+D1059
Trigger mode: 1
Integration Time (sec): 1.000000E-1
Scans to average: 1
Electric dark correction enabled: true
Nonlinearity correction enabled: false
Boxcar width: 0
XAxis mode: Wavelengths
Number of Pixels in Spectrum: 2048
>>>>>Begin Spectral Data<<<<<
223.165	-20.5
223.4	-20.5
223.635	-20.5
223.869	2.5
224.104	-29.5
224.338	-2.5
224.573	-22.5
224.808	-20.5
225.042	-12.5
225.277	-2.5
225.511	-3.5
225.746	-8.5
225.98	4.5
226.215	11.5
226.449	16.5
226.683	34.5
226.918	21.5
227.152	31.5
227.387	20.5
227.621	24.5
227.856	48.5
228.09	53.5
228.324	51.5
228.559	73.5
228.793	74.5
229.027	53.5
229.262	58.5
229.496	78.5
229.73	93.5
229.964	97.5
230.199	76.5
230.433	73.5
230.667	73.5
230.901	81.5
231.136	79.5
231.37	79.5
231.604	82.5
231.838	100.5
232.072	80.5
232.306	67.5
232.541	76.5
232.775	82.5
233.009	77.5
233.243	77.5
233.477	82.5
233.711	80.5
233.945	82.5
234.179	81.5
234.413	84.5
234.647	92.5
234.881	99.5
235.115	93.5
235.349	66.5
235.583	82.5
235.817	83.5
236.051	80.5
236.285	78.5
236.519	77.5
236.753	81.5
236.987	86.5
237.221	83.5
237.455	90.5
237.689	84.5
237.922	85.5
238.156	76.5
238.39	92.5
238.624	76.5
238.858	86.5
239.091	72.5
239.325	92.5
239.559	95.5
239.793	78.5
240.027	83.5
240.26	80.5
240.494	95.5
240.728	76.5
240.961	91.5
241.195	89.5
241.429	76.5
241.662	81.5
241.896	78.5
242.13	75.5
242.363	81.5
242.597	78.5
242.83	80.5
243.064	79.5
243.298	73.5
243.531	69.5
243.765	78.5
243.998	80.5
244.232	69.5
244.465	99.5
244.699	87.5
244.932	92.5
245.166	88.5
245.399	71.5
245.633	69.5
245.866	82.5
246.099	79.5
246.333	93.5
246.566	74.5
246.8	67.5
247.033	102.5
247.266	101.5
247.5	80.5
247.733	89.5
247.966	93.5
248.2	93.5
248.433	70.5
248.666	84.5
248.899	81.5
249.133	104.5
249.366	110.5
249.599	110.5
249.832	85.5
250.066	90.5
250.299	94.5
250.532	86.5
250.765	86.5
250.998	88.5
251.231	84.5
251.465	83.5
251.698	73.5
251.931	68.5
252.164	80.5
252.397	79.5
252.63	82.5
252.863	74.5
253.096	89.5
253.329	72.5
253.562	104.5
253.795	67.5
254.028	69.5
254.261	88.5
254.494	81.5
254.727	78.5
254.96	81.5
255.193	67.5
255.426	82.5
255.659	84.5
255.892	100.5
256.124	101.5
256.357	82.5
256.59	80.5
256.823	86.5
257.056	82.5
257.289	88.5
257.521	93.5
257.754	76.5
257.987	96.5
258.22	80.5
258.452	102.5
258.685	99.5
258.918	73.5
259.151	90.5
259.383	93.5
259.616	91.5
259.849	79.5
260.081	78.5
260.314	92.5
260.547	96.5
260.779	100.5
261.012	107.5
261.244	95.5
261.477	109.5
261.71	108.5
261.942	139.5
262.175	142.5
262.407	96.5
262.64	79.5
262.872	94.5
263.105	90.5
263.337	90.5
263.57	74.5
263.802	82.5
264.035	85.5
264.267	88.5
264.499	94.5
264.732	80.5
264.964	79.5
265.197	75.5
265.429	70.5
265.661	83.5
265.894	74.5
266.126	75.5
266.358	89.5
266.591	91.5
266.823	77.5
267.055	77.5
267.287	96.5
267.52	97.5
267.752	83.5
267.984	100.5
268.216	81.5
268.448	79.5
268.681	85.5
268.913	82.5
269.145	89.5
269.377	87.5
269.609	98.5
269.841	90.5
270.073	99.5
270.306	95.5
270.538	90.5
270.77	88.5
271.002	87.5
271.234	78.5
271.466	97.5
271.698	90.5
271.93	99.5
272.162	106.5
272.394	92.5
272.626	89.5
272.858	72.5
273.09	79.5
273.322	84.5
273.553	98.5
273.785	72.5
274.017	87.5
274.249	92.5
274.481	87.5
274.713	76.5
274.945	99.5
275.176	82.5
275.408	104.5
275.64	109.5
275.872	123.5
276.104	110.5
276.335	113.5
276.567	115.5
276.799	148.5
277.031	170.5
277.262	185.5
277.494	155.5
277.726	93.5
277.957	89.5
278.189	90.5
278.421	85.5
278.652	82.5
278.884	87.5
279.115	94.5
279.347	98.5
279.579	107.5
279.81	133.5
280.042	180.5
280.273	257.5
280.505	175.5
280.736	105.5
280.968	112.5
281.199	98.5
281.431	93.5
281.662	87.5
281.894	81.5
282.125	91.5
282.356	146.5
282.588	162.5
282.819	136.5
283.051	86.5
283.282	99.5
283.513	93.5
283.745	87.5
283.976	69.5
284.207	88.5
284.439	97.5
284.67	86.5
284.901	86.5
285.132	94.5
285.364	91.5
285.595	105.5
285.826	85.5
286.057	93.5
286.288	91.5
286.52	87.5
286.751	85.5
286.982	95.5
287.213	73.5
287.444	96.5
287.675	91.5
287.906	104.5
288.138	97.5
288.369	109.5
288.6	89.5
288.831	87.5
289.062	84.5
289.293	101.5
289.524	96.5
289.755	82.5
289.986	92.5
290.217	82.5
290.448	96.5
290.679	86.5
290.91	104.5
291.141	87.5
291.371	80.5
291.602	88.5
291.833	94.5
292.064	85.5
292.295	96.5
292.526	74.5
292.757	88.5
292.987	89.5
293.218	81.5
293.449	82.5
293.68	90.5
293.91	80.5
294.141	92.5
294.372	102.5
294.603	86.5
294.833	99.5
295.064	85.5
295.295	85.5
295.525	104.5
295.756	120.5
295.987	130.5
296.217	180.5
296.448	152.5
296.679	112.5
296.909	91.5
297.14	82.5
297.37	101.5
297.601	80.5
297.831	93.5
298.062	92.5
298.292	98.5
298.523	88.5
298.753	88.5
298.984	100.5
299.214	90.5
299.445	89.5
299.675	94.5
299.905	100.5
300.136	96.5
300.366	102.5
300.597	88.5
300.827	101.5
301.057	106.5
301.288	132.5
301.518	103.5
301.748	99.5
301.979	117.5
302.209	113.5
302.439	94.5
302.669	97.5
302.9	98.5
303.13	107.5
303.36	117.5
303.59	124.5
303.82	154.5
304.051	100.5
304.281	97.5
304.511	98.5
304.741	88.5
304.971	106.5
305.201	101.5
305.431	94.5
305.661	100.5
305.891	91.5
306.121	93.5
306.352	108.5
306.582	116.5
306.812	108.5
307.042	130.5
307.272	146.5
307.502	161.5
307.731	164.5
307.961	132.5
308.191	104.5
308.421	95.5
308.651	129.5
308.881	101.5
309.111	109.5
309.341	103.5
309.571	116.5
309.8	108.5
310.03	101.5
310.26	108.5
310.49	105.5
310.72	116.5
310.949	128.5
311.179	118.5
311.409	116.5
311.639	98.5
311.868	110.5
312.098	96.5
312.328	110.5
312.557	105.5
312.787	127.5
313.017	124.5
313.246	103.5
313.476	100.5
313.706	104.5
313.935	101.5
314.165	124.5
314.394	116.5
314.624	113.5
314.853	107.5
315.083	112.5
315.312	93.5
315.542	83.5
315.771	101.5
316.001	96.5
316.23	87.5
316.46	89.5
316.689	100.5
316.919	111.5
317.148	112.5
317.377	101.5
317.607	100.5
317.836	113.5
318.065	95.5
318.295	97.5
318.524	94.5
318.753	101.5
318.983	95.5
319.212	108.5
319.441	132.5
319.67	122.5
319.9	102.5
320.129	104.5
320.358	107.5
320.587	100.5
320.816	101.5
321.046	114.5
321.275	100.5
321.504	96.5
321.733	95.5
321.962	98.5
322.191	115.5
322.42	132.5
322.649	109.5
322.878	126.5
323.108	129.5
323.337	150.5
323.566	157.5
323.795	182.5
324.024	252.5
324.253	515.5
324.482	1145.5
324.71	2445.5
324.939	3180.5
325.168	1140.5
325.397	324.5
325.626	191.5
325.855	157.5
326.084	147.5
326.313	178.5
326.542	184.5
326.77	292.5
326.999	565.5
327.228	1209.5
327.457	2320.5
327.686	1841.5
327.914	619.5
328.143	530.5
328.372	662.5
328.6	386.5
328.829	207.5
329.058	200.5
329.287	204.5
329.515	169.5
329.744	234.5
329.972	458.5
330.201	904.5
330.43	1384.5
330.658	617.5
330.887	298.5
331.115	205.5
331.344	126.5
331.572	117.5
331.801	128.5
332.03	127.5
332.258	126.5
332.486	101.5
332.715	108.5
332.943	127.5
333.172	120.5
333.4	141.5
333.629	170.5
333.857	217.5
334.085	395.5
334.314	846.5
334.542	1691.5
334.771	1654.5
334.999	429.5
335.227	176.5
335.455	128.5
335.684	129.5
335.912	110.5
336.14	116.5
336.369	113.5
336.597	121.5
336.825	121.5
337.053	97.5
337.281	108.5
337.51	91.5
337.738	93.5
337.966	91.5
338.194	118.5
338.422	113.5
338.65	110.5
338.878	104.5
339.106	82.5
339.334	98.5
339.562	86.5
339.79	84.5
340.018	100.5
340.246	103.5
340.474	104.5
340.702	90.5
340.93	108.5
341.158	82.5
341.386	109.5
341.614	110.5
341.842	91.5
342.07	91.5
342.298	95.5
342.526	103.5
342.754	91.5
342.981	97.5
343.209	92.5
343.437	101.5
343.665	86.5
343.893	91.5
344.12	89.5
344.348	78.5
344.576	84.5
344.804	107.5
345.031	114.5
345.259	107.5
345.487	106.5
345.714	97.5
345.942	104.5
346.17	104.5
346.397	107.5
346.625	99.5
346.853	93.5
347.08	100.5
347.308	97.5
347.535	115.5
347.763	123.5
347.99	120.5
348.218	109.5
348.445	94.5
348.673	117.5
348.9	102.5
349.128	101.5
349.355	96.5
349.583	115.5
349.81	105.5
350.037	107.5
350.265	112.5
350.492	110.5
350.72	103.5
350.947	102.5
351.174	129.5
351.402	123.5
351.629	108.5
351.856	110.5
352.083	102.5
352.311	114.5
352.538	136.5
352.765	116.5
352.992	123.5
353.22	125.5
353.447	106.5
353.674	112.5
353.901	97.5
354.128	95.5
354.355	101.5
354.583	88.5
354.81	97.5
355.037	96.5
355.264	113.5
355.491	88.5
355.718	92.5
355.945	111.5
356.172	102.5
356.399	94.5
356.626	111.5
356.853	105.5
357.08	97.5
357.307	97.5
357.534	106.5
357.761	102.5
357.988	99.5
358.215	93.5
358.441	102.5
358.668	99.5
358.895	91.5
359.122	101.5
359.349	94.5
359.576	114.5
359.802	125.5
360.029	151.5
360.256	148.5
360.483	113.5
360.709	100.5
360.936	102.5
361.163	102.5
361.39	102.5
361.616	101.5
361.843	89.5
362.07	105.5
362.296	117.5
362.523	99.5
362.749	107.5
362.976	105.5
363.203	97.5
363.429	94.5
363.656	96.5
363.882	102.5
364.109	113.5
364.335	95.5
364.562	99.5
364.788	92.5
365.015	99.5
365.241	98.5
365.468	115.5
365.694	127.5
365.92	119.5
366.147	106.5
366.373	102.5
366.599	89.5
366.826	95.5
367.052	96.5
367.278	89.5
367.505	89.5
367.731	93.5
367.957	90.5
368.184	111.5
368.41	111.5
368.636	123.5
368.862	141.5
369.089	127.5
369.315	107.5
369.541	96.5
369.767	101.5
369.993	98.5
370.219	91.5
370.445	90.5
370.672	76.5
370.898	76.5
371.124	92.5
371.35	97.5
371.576	93.5
371.802	94.5
372.028	88.5
372.254	84.5
372.48	87.5
372.706	95.5
372.932	96.5
373.158	99.5
373.384	90.5
373.61	92.5
373.835	81.5
374.061	104.5
374.287	103.5
374.513	97.5
374.739	88.5
374.965	93.5
375.191	90.5
375.416	81.5
375.642	98.5
375.868	104.5
376.094	92.5
376.319	108.5
376.545	101.5
376.771	109.5
376.997	106.5
377.222	108.5
377.448	84.5
377.674	83.5
377.899	97.5
378.125	102.5
378.35	102.5
378.576	101.5
378.802	95.5
379.027	93.5
379.253	88.5
379.478	101.5
379.704	93.5
379.929	103.5
380.155	104.5
380.38	91.5
380.606	97.5
380.831	97.5
381.057	108.5
381.282	100.5
381.507	125.5
381.733	102.5
381.958	105.5
382.184	111.5
382.409	97.5
382.634	113.5
382.86	109.5
383.085	106.5
383.31	107.5
383.535	98.5
383.761	110.5
383.986	106.5
384.211	106.5
384.436	100.5
384.662	106.5
384.887	122.5
385.112	120.5
385.337	123.5
385.562	115.5
385.787	132.5
386.013	115.5
386.238	148.5
386.463	113.5
386.688	118.5
386.913	112.5
387.138	116.5
387.363	113.5
387.588	116.5
387.813	106.5
388.038	126.5
388.263	123.5
388.488	116.5
388.713	93.5
388.938	92.5
389.163	76.5
389.387	91.5
389.612	95.5
389.837	96.5
390.062	98.5
390.287	94.5
390.512	93.5
390.736	90.5
390.961	95.5
391.186	92.5
391.411	87.5
391.636	84.5
391.86	92.5
392.085	86.5
392.31	105.5
392.534	85.5
392.759	93.5
392.984	77.5
393.208	95.5
393.433	92.5
393.658	98.5
393.882	91.5
394.107	78.5
394.331	80.5
394.556	87.5
394.78	94.5
395.005	88.5
395.229	82.5
395.454	99.5
395.678	90.5
395.903	86.5
396.127	97.5
396.352	86.5
396.576	91.5
396.801	90.5
397.025	100.5
397.249	84.5
397.474	93.5
397.698	85.5
397.922	88.5
398.147	77.5
398.371	93.5
398.595	93.5
398.82	87.5
399.044	95.5
399.268	78.5
399.492	92.5
399.717	77.5
399.941	99.5
400.165	98.5
400.389	100.5
400.613	87.5
400.837	72.5
401.062	106.5
401.286	92.5
401.51	96.5
401.734	110.5
401.958	120.5
402.182	137.5
402.406	219.5
402.63	158.5
402.854	97.5
403.078	102.5
403.302	84.5
403.526	93.5
403.75	100.5
403.974	92.5
404.198	94.5
404.422	82.5
404.645	95.5
404.869	91.5
405.093	123.5
405.317	127.5
405.541	129.5
405.765	128.5
405.988	132.5
406.212	226.5
406.436	343.5
406.66	207.5
406.883	123.5
407.107	100.5
407.331	105.5
407.555	131.5
407.778	98.5
408.002	102.5
408.226	88.5
408.449	75.5
408.673	99.5
408.896	115.5
409.12	105.5
409.344	101.5
409.567	91.5
409.791	99.5
410.014	109.5
410.238	97.5
410.461	90.5
410.685	97.5
410.908	104.5
411.132	116.5
411.355	105.5
411.578	98.5
411.802	98.5
412.025	93.5
412.249	99.5
412.472	121.5
412.695	134.5
412.919	120.5
413.142	109.5
413.365	101.5
413.589	94.5
413.812	88.5
414.035	93.5
414.258	98.5
414.482	96.5
414.705	88.5
414.928	97.5
415.151	80.5
415.374	105.5
415.597	106.5
415.821	102.5
416.044	98.5
416.267	101.5
416.49	82.5
416.713	86.5
416.936	112.5
417.159	90.5
417.382	100.5
417.605	94.5
417.828	123.5
418.051	104.5
418.274	102.5
418.497	71.5
418.72	84.5
418.943	91.5
419.166	86.5
419.389	86.5
419.611	84.5
419.834	99.5
420.057	98.5
420.28	85.5
420.503	106.5
420.726	94.5
420.948	96.5
421.171	105.5
421.394	112.5
421.617	84.5
421.839	98.5
422.062	84.5
422.285	106.5
422.507	101.5
422.73	101.5
422.953	90.5
423.175	94.5
423.398	94.5
423.621	105.5
423.843	92.5
424.066	102.5
424.288	79.5
424.511	90.5
424.733	99.5
424.956	130.5
425.178	112.5
425.401	117.5
425.623	114.5
425.846	97.5
426.068	104.5
426.291	101.5
426.513	102.5
426.735	100.5
426.958	109.5
427.18	131.5
427.402	174.5
427.625	282.5
427.847	249.5
428.069	237.5
428.292	131.5
428.514	87.5
428.736	98.5
428.958	91.5
429.181	88.5
429.403	85.5
429.625	85.5
429.847	112.5
430.069	105.5
430.292	100.5
430.514	87.5
430.736	107.5
430.958	96.5
431.18	88.5
431.402	80.5
431.624	80.5
431.846	97.5
432.068	82.5
432.29	89.5
432.512	94.5
432.734	77.5
432.956	93.5
433.178	101.5
433.4	90.5
433.622	81.5
433.844	87.5
434.066	97.5
434.287	90.5
434.509	105.5
434.731	99.5
434.953	98.5
435.175	94.5
435.397	82.5
435.618	93.5
435.84	116.5
436.062	155.5
436.284	126.5
436.505	120.5
436.727	120.5
436.949	88.5
437.17	93.5
437.392	90.5
437.614	96.5
437.835	120.5
438.057	154.5
438.278	115.5
438.5	114.5
438.721	132.5
438.943	113.5
439.165	98.5
439.386	105.5
439.608	99.5
439.829	108.5
440.05	161.5
440.272	187.5
440.493	120.5
440.715	100.5
440.936	90.5
441.158	94.5
441.379	89.5
441.6	91.5
441.822	106.5
442.043	99.5
442.264	115.5
442.486	107.5
442.707	105.5
442.928	127.5
443.149	203.5
443.371	179.5
443.592	127.5
443.813	131.5
444.034	118.5
444.255	102.5
444.476	87.5
444.698	93.5
444.919	101.5
445.14	139.5
445.361	128.5
445.582	138.5
445.803	178.5
446.024	180.5
446.245	169.5
446.466	132.5
446.687	111.5
446.908	91.5
447.129	86.5
447.35	87.5
447.571	104.5
447.792	94.5
448.013	106.5
448.234	122.5
448.455	116.5
448.675	135.5
448.896	139.5
449.117	106.5
449.338	99.5
449.559	132.5
449.779	160.5
450	95.5
450.221	105.5
450.442	101.5
450.662	105.5
450.883	133.5
451.104	153.5
451.324	112.5
451.545	94.5
451.766	90.5
451.986	95.5
452.207	104.5
452.428	92.5
452.648	106.5
452.869	117.5
453.089	147.5
453.31	159.5
453.53	102.5
453.751	107.5
453.971	126.5
454.192	145.5
454.412	101.5
454.633	77.5
454.853	84.5
455.073	90.5
455.294	90.5
455.514	113.5
455.734	92.5
455.955	86.5
456.175	86.5
456.395	88.5
456.616	86.5
456.836	84.5
457.056	80.5
457.276	90.5
457.497	89.5
457.717	90.5
457.937	102.5
458.157	100.5
458.377	110.5
458.598	123.5
458.818	224.5
459.038	245.5
459.258	140.5
459.478	97.5
459.698	92.5
459.918	99.5
460.138	87.5
460.358	85.5
460.578	96.5
460.798	85.5
461.018	101.5
461.238	97.5
461.458	97.5
461.678	90.5
461.898	81.5
462.118	102.5
462.338	87.5
462.558	100.5
462.777	97.5
462.997	84.5
463.217	110.5
463.437	99.5
463.657	99.5
463.876	84.5
464.096	94.5
464.316	91.5
464.536	104.5
464.755	83.5
464.975	127.5
465.195	253.5
465.414	262.5
465.634	108.5
465.854	92.5
466.073	97.5
466.293	101.5
466.512	78.5
466.732	79.5
466.951	114.5
467.171	105.5
467.391	105.5
467.61	154.5
467.829	224.5
468.049	537.5
468.268	822.5
468.488	212.5
468.707	110.5
468.927	97.5
469.146	100.5
469.365	88.5
469.585	95.5
469.804	108.5
470.023	118.5
470.243	106.5
470.462	137.5
470.681	137.5
470.901	111.5
471.12	114.5
471.339	117.5
471.558	117.5
471.777	140.5
471.997	302.5
472.216	1035.5
472.435	2419.5
472.654	564.5
472.873	162.5
473.092	123.5
473.311	98.5
473.53	109.5
473.749	92.5
473.968	91.5
474.187	111.5
474.406	115.5
474.625	96.5
474.844	98.5
475.063	92.5
475.282	98.5
475.501	84.5
475.72	102.5
475.939	104.5
476.158	82.5
476.377	74.5
476.596	93.5
476.814	93.5
477.033	107.5
477.252	86.5
477.471	97.5
477.69	95.5
477.908	101.5
478.127	99.5
478.346	97.5
478.564	108.5
478.783	101.5
479.002	99.5
479.22	122.5
479.439	124.5
479.658	139.5
479.876	125.5
480.095	124.5
480.313	129.5
480.532	165.5
480.751	284.5
480.969	912.5
481.188	4112.5
481.406	2386.5
481.624	351.5
481.843	142.5
482.061	110.5
482.28	101.5
482.498	89.5
482.717	95.5
482.935	94.5
483.153	88.5
483.372	96.5
483.59	101.5
483.808	97.5
484.027	106.5
484.245	100.5
484.463	97.5
484.681	98.5
484.9	94.5
485.118	106.5
485.336	94.5
485.554	92.5
485.772	112.5
485.99	104.5
486.209	117.5
486.427	117.5
486.645	125.5
486.863	139.5
487.081	100.5
487.299	114.5
487.517	94.5
487.735	94.5
487.953	106.5
488.171	104.5
488.389	94.5
488.607	111.5
488.825	99.5
489.043	82.5
489.261	98.5
489.479	83.5
489.696	83.5
489.914	90.5
490.132	91.5
490.35	91.5
490.568	100.5
490.786	96.5
491.003	90.5
491.221	91.5
491.439	98.5
491.657	83.5
491.874	91.5
492.092	105.5
492.31	106.5
492.527	99.5
492.745	104.5
492.963	95.5
493.18	95.5
493.398	96.5
493.615	93.5
493.833	103.5
494.05	92.5
494.268	101.5
494.485	74.5
494.703	107.5
494.92	95.5
495.138	106.5
495.355	99.5
495.573	85.5
495.79	94.5
496.008	97.5
496.225	92.5
496.442	96.5
496.66	94.5
496.877	89.5
497.094	84.5
497.312	105.5
497.529	98.5
497.746	90.5
497.963	85.5
498.181	95.5
498.398	92.5
498.615	124.5
498.832	124.5
499.049	91.5
499.267	94.5
499.484	98.5
499.701	97.5
499.918	94.5
500.135	94.5
500.352	82.5
500.569	83.5
500.786	79.5
501.003	91.5
501.22	91.5
501.437	90.5
501.654	90.5
501.871	136.5
502.088	108.5
502.305	91.5
502.522	93.5
502.739	77.5
502.956	91.5
503.172	77.5
503.389	108.5
503.606	142.5
503.823	100.5
504.04	97.5
504.256	96.5
504.473	84.5
504.69	96.5
504.907	89.5
505.123	82.5
505.34	95.5
505.557	91.5
505.773	98.5
505.99	101.5
506.207	97.5
506.423	103.5
506.64	89.5
506.856	97.5
507.073	94.5
507.289	104.5
507.506	95.5
507.722	134.5
507.939	140.5
508.155	98.5
508.372	88.5
508.588	99.5
508.805	99.5
509.021	95.5
509.238	90.5
509.454	108.5
509.67	114.5
509.887	120.5
510.103	147.5
510.319	260.5
510.536	940.5
510.752	3443.5
510.968	925.5
511.184	190.5
511.401	141.5
511.617	115.5
511.833	114.5
512.049	101.5
512.265	100.5
512.481	107.5
512.698	107.5
512.914	79.5
513.13	95.5
513.346	93.5
513.562	94.5
513.778	103.5
513.994	107.5
514.21	132.5
514.426	142.5
514.642	182.5
514.858	156.5
515.074	241.5
515.29	752.5
515.506	2796.5
515.721	996.5
515.937	224.5
516.153	138.5
516.369	124.5
516.585	88.5
516.801	114.5
517.016	95.5
517.232	85.5
517.448	95.5
517.664	102.5
517.879	107.5
518.095	96.5
518.311	117.5
518.527	107.5
518.742	100.5
518.958	103.5
519.173	99.5
519.389	105.5
519.605	98.5
519.82	103.5
520.036	117.5
520.251	165.5
520.467	149.5
520.682	122.5
520.898	118.5
521.113	155.5
521.329	200.5
521.544	307.5
521.76	984.5
521.975	4659.5
522.19	2728.5
522.406	552.5
522.621	172.5
522.836	129.5
523.052	116.5
523.267	93.5
523.482	111.5
523.698	110.5
523.913	160.5
524.128	120.5
524.343	98.5
524.559	94.5
524.774	88.5
524.989	105.5
525.204	132.5
525.419	110.5
525.634	99.5
525.849	98.5
526.064	90.5
526.28	85.5
526.495	80.5
526.71	80.5
526.925	93.5
527.14	72.5
527.355	90.5
527.57	108.5
527.785	97.5
527.999	85.5
528.214	85.5
528.429	109.5
528.644	99.5
528.859	94.5
529.074	92.5
529.289	165.5
529.503	306.5
529.718	129.5
529.933	84.5
530.148	80.5
530.363	97.5
530.577	83.5
530.792	85.5
