Data from Circ_1995_H10_HRD10591_00001.txt Node
Date: Wed Jan 03 11:36:46 EST 2024
User: Yrep
Spectrometer: HR+D1059
Trigger mode: 1
Integration Time (sec): 1.000000E-1
Scans to average: 1
Electric dark correction enabled: true
Nonlinearity correction enabled: false
Boxcar width: 0
XAxis mode: Wavelengths
Number of Pixels in Spectrum: 2048
>>>>>Begin Spectral Data<<<<<
223.165	-21.88
223.4	-21.88
223.635	-21.88
223.869	-18.88
224.104	-13.88
224.338	-16.88
224.573	-18.88
224.808	-6.88
225.042	-11.88
225.277	-5.88
225.511	5.12
225.746	4.12
225.98	9.12
226.215	14.12
226.449	16.12
226.683	17.12
226.918	22.12
227.152	27.12
227.387	27.12
227.621	51.12
227.856	43.12
228.09	42.12
228.324	36.12
228.559	62.12
228.793	60.12
229.027	64.12
229.262	72.12
229.496	81.12
229.73	89.12
229.964	101.12
230.199	83.12
230.433	76.12
230.667	73.12
230.901	78.12
231.136	62.12
231.37	72.12
231.604	80.12
231.838	81.12
232.072	96.12
232.306	63.12
232.541	74.12
232.775	95.12
233.009	74.12
233.243	81.12
233.477	80.12
233.711	74.12
233.945	69.12
234.179	73.12
234.413	92.12
234.647	83.12
234.881	81.12
235.115	72.12
235.349	65.12
235.583	63.12
235.817	74.12
236.051	75.12
236.285	73.12
236.519	63.12
236.753	83.12
236.987	75.12
237.221	90.12
237.455	80.12
237.689	81.12
237.922	74.12
238.156	70.12
238.39	72.12
238.624	85.12
238.858	62.12
239.091	74.12
239.325	74.12
239.559	84.12
239.793	74.12
240.027	76.12
240.26	78.12
240.494	89.12
240.728	64.12
240.961	75.12
241.195	68.12
241.429	64.12
241.662	60.12
241.896	63.12
242.13	80.12
242.363	82.12
242.597	70.12
242.83	74.12
243.064	74.12
243.298	80.12
243.531	58.12
243.765	80.12
243.998	76.12
244.232	84.12
244.465	85.12
244.699	84.12
244.932	72.12
245.166	81.12
245.399	79.12
245.633	87.12
245.866	65.12
246.099	73.12
246.333	82.12
246.566	83.12
246.8	70.12
247.033	85.12
247.266	76.12
247.5	90.12
247.733	78.12
247.966	81.12
248.2	63.12
248.433	82.12
248.666	76.12
248.899	75.12
249.133	80.12
249.366	97.12
249.599	94.12
249.832	78.12
250.066	89.12
250.299	75.12
250.532	96.12
250.765	75.12
250.998	73.12
251.231	68.12
251.465	82.12
251.698	92.12
251.931	85.12
252.164	86.12
252.397	65.12
252.63	76.12
252.863	91.12
253.096	79.12
253.329	79.12
253.562	79.12
253.795	74.12
254.028	83.12
254.261	87.12
254.494	80.12
254.727	85.12
254.96	84.12
255.193	77.12
255.426	78.12
255.659	84.12
255.892	93.12
256.124	89.12
256.357	82.12
256.59	82.12
256.823	88.12
257.056	98.12
257.289	91.12
257.521	82.12
257.754	90.12
257.987	84.12
258.22	103.12
258.452	86.12
258.685	88.12
258.918	82.12
259.151	77.12
259.383	75.12
259.616	81.12
259.849	84.12
260.081	86.12
260.314	84.12
260.547	76.12
260.779	79.12
261.012	90.12
261.244	93.12
261.477	90.12
261.71	105.12
261.942	133.12
262.175	144.12
262.407	89.12
262.64	76.12
262.872	86.12
263.105	83.12
263.337	93.12
263.57	82.12
263.802	71.12
264.035	85.12
264.267	87.12
264.499	96.12
264.732	87.12
264.964	87.12
265.197	87.12
265.429	79.12
265.661	83.12
265.894	78.12
266.126	65.12
266.358	88.12
266.591	89.12
266.823	81.12
267.055	79.12
267.287	84.12
267.52	82.12
267.752	71.12
267.984	88.12
268.216	77.12
268.448	72.12
268.681	81.12
268.913	75.12
269.145	88.12
269.377	77.12
269.609	76.12
269.841	89.12
270.073	88.12
270.306	78.12
270.538	93.12
270.77	82.12
271.002	74.12
271.234	97.12
271.466	92.12
271.698	81.12
271.93	76.12
272.162	75.12
272.394	90.12
272.626	80.12
272.858	82.12
273.09	85.12
273.322	96.12
273.553	82.12
273.785	85.12
274.017	74.12
274.249	68.12
274.481	98.12
274.713	94.12
274.945	69.12
275.176	81.12
275.408	92.12
275.64	98.12
275.872	124.12
276.104	99.12
276.335	95.12
276.567	108.12
276.799	129.12
277.031	144.12
277.262	167.12
277.494	142.12
277.726	91.12
277.957	73.12
278.189	75.12
278.421	94.12
278.652	89.12
278.884	80.12
279.115	101.12
279.347	84.12
279.579	109.12
279.81	112.12
280.042	157.12
280.273	221.12
280.505	158.12
280.736	98.12
280.968	95.12
281.199	104.12
281.431	92.12
281.662	83.12
281.894	103.12
282.125	92.12
282.356	133.12
282.588	155.12
282.819	127.12
283.051	92.12
283.282	100.12
283.513	92.12
283.745	90.12
283.976	95.12
284.207	81.12
284.439	95.12
284.67	81.12
284.901	84.12
285.132	84.12
285.364	83.12
285.595	91.12
285.826	97.12
286.057	82.12
286.288	76.12
286.52	93.12
286.751	90.12
286.982	76.12
287.213	81.12
287.444	85.12
287.675	82.12
287.906	90.12
288.138	85.12
288.369	103.12
288.6	112.12
288.831	97.12
289.062	87.12
289.293	90.12
289.524	84.12
289.755	97.12
289.986	89.12
290.217	97.12
290.448	85.12
290.679	80.12
290.91	76.12
291.141	89.12
291.371	88.12
291.602	89.12
291.833	83.12
292.064	88.12
292.295	76.12
292.526	72.12
292.757	87.12
292.987	102.12
293.218	88.12
293.449	89.12
293.68	95.12
293.91	98.12
294.141	95.12
294.372	84.12
294.603	93.12
294.833	92.12
295.064	112.12
295.295	71.12
295.525	88.12
295.756	95.12
295.987	121.12
296.217	142.12
296.448	134.12
296.679	95.12
296.909	88.12
297.14	87.12
297.37	106.12
297.601	92.12
297.831	81.12
298.062	84.12
298.292	90.12
298.523	91.12
298.753	96.12
298.984	92.12
299.214	95.12
299.445	87.12
299.675	87.12
299.905	103.12
300.136	90.12
300.366	61.12
300.597	92.12
300.827	95.12
301.057	89.12
301.288	119.12
301.518	96.12
301.748	84.12
301.979	97.12
302.209	104.12
302.439	92.12
302.669	84.12
302.9	84.12
303.13	95.12
303.36	104.12
303.59	123.12
303.82	123.12
304.051	101.12
304.281	87.12
304.511	96.12
304.741	98.12
304.971	81.12
305.201	87.12
305.431	76.12
305.661	89.12
305.891	76.12
306.121	97.12
306.352	100.12
306.582	112.12
306.812	110.12
307.042	108.12
307.272	143.12
307.502	165.12
307.731	148.12
307.961	120.12
308.191	92.12
308.421	86.12
308.651	105.12
308.881	92.12
309.111	101.12
309.341	90.12
309.571	113.12
309.8	96.12
310.03	106.12
310.26	97.12
310.49	101.12
310.72	106.12
310.949	132.12
311.179	91.12
311.409	98.12
311.639	96.12
311.868	116.12
312.098	109.12
312.328	92.12
312.557	108.12
312.787	134.12
313.017	106.12
313.246	112.12
313.476	95.12
313.706	96.12
313.935	95.12
314.165	113.12
314.394	105.12
314.624	104.12
314.853	103.12
315.083	87.12
315.312	100.12
315.542	100.12
315.771	96.12
316.001	102.12
316.23	101.12
316.46	93.12
316.689	79.12
316.919	96.12
317.148	103.12
317.377	98.12
317.607	102.12
317.836	88.12
318.065	95.12
318.295	90.12
318.524	90.12
318.753	91.12
318.983	110.12
319.212	92.12
319.441	105.12
319.67	103.12
319.9	92.12
320.129	94.12
320.358	81.12
320.587	93.12
320.816	106.12
321.046	106.12
321.275	109.12
321.504	96.12
321.733	93.12
321.962	90.12
322.191	111.12
322.42	116.12
322.649	122.12
322.878	118.12
323.108	132.12
323.337	135.12
323.566	165.12
323.795	188.12
324.024	266.12
324.253	502.12
324.482	1085.12
324.71	2271.12
324.939	2934.12
325.168	1076.12
325.397	303.12
325.626	176.12
325.855	152.12
326.084	152.12
326.313	158.12
326.542	171.12
326.77	283.12
326.999	558.12
327.228	1183.12
327.457	2173.12
327.686	1743.12
327.914	566.12
328.143	479.12
328.372	580.12
328.6	332.12
328.829	174.12
329.058	173.12
329.287	177.12
329.515	165.12
329.744	208.12
329.972	397.12
330.201	812.12
330.43	1158.12
330.658	510.12
330.887	262.12
331.115	178.12
331.344	122.12
331.572	120.12
331.801	114.12
332.03	122.12
332.258	105.12
332.486	93.12
332.715	96.12
332.943	107.12
333.172	120.12
333.4	129.12
333.629	157.12
333.857	202.12
334.085	368.12
334.314	730.12
334.542	1437.12
334.771	1340.12
334.999	381.12
335.227	142.12
335.455	98.12
335.684	128.12
335.912	108.12
336.14	103.12
336.369	95.12
336.597	108.12
336.825	118.12
337.053	95.12
337.281	104.12
337.51	97.12
337.738	88.12
337.966	104.12
338.194	100.12
338.422	107.12
338.65	100.12
338.878	90.12
339.106	96.12
339.334	94.12
339.562	87.12
339.79	78.12
340.018	90.12
340.246	104.12
340.474	109.12
340.702	104.12
340.93	85.12
341.158	88.12
341.386	108.12
341.614	105.12
341.842	90.12
342.07	88.12
342.298	102.12
342.526	94.12
342.754	84.12
342.981	92.12
343.209	78.12
343.437	111.12
343.665	91.12
343.893	81.12
344.12	105.12
344.348	96.12
344.576	85.12
344.804	101.12
345.031	95.12
345.259	116.12
345.487	97.12
345.714	104.12
345.942	91.12
346.17	96.12
346.397	81.12
346.625	92.12
346.853	89.12
347.08	85.12
347.308	92.12
347.535	109.12
347.763	101.12
347.99	106.12
348.218	94.12
348.445	113.12
348.673	93.12
348.9	113.12
349.128	87.12
349.355	89.12
349.583	95.12
349.81	110.12
350.037	93.12
350.265	89.12
350.492	86.12
350.72	93.12
350.947	107.12
351.174	112.12
351.402	128.12
351.629	113.12
351.856	95.12
352.083	99.12
352.311	117.12
352.538	117.12
352.765	115.12
352.992	127.12
353.22	128.12
353.447	118.12
353.674	97.12
353.901	74.12
354.128	92.12
354.355	90.12
354.583	87.12
354.81	86.12
355.037	103.12
355.264	86.12
355.491	95.12
355.718	88.12
355.945	90.12
356.172	90.12
356.399	105.12
356.626	91.12
356.853	89.12
357.08	87.12
357.307	82.12
357.534	91.12
357.761	92.12
357.988	90.12
358.215	91.12
358.441	104.12
358.668	94.12
358.895	92.12
359.122	88.12
359.349	92.12
359.576	94.12
359.802	105.12
360.029	133.12
360.256	125.12
360.483	118.12
360.709	93.12
360.936	97.12
361.163	92.12
361.39	104.12
361.616	110.12
361.843	98.12
362.07	104.12
362.296	103.12
362.523	95.12
362.749	92.12
362.976	109.12
363.203	103.12
363.429	93.12
363.656	96.12
363.882	99.12
364.109	94.12
364.335	72.12
364.562	84.12
364.788	89.12
365.015	98.12
365.241	106.12
365.468	103.12
365.694	121.12
365.92	101.12
366.147	84.12
366.373	101.12
366.599	78.12
366.826	94.12
367.052	87.12
367.278	83.12
367.505	104.12
367.731	94.12
367.957	106.12
368.184	100.12
368.41	114.12
368.636	113.12
368.862	126.12
369.089	127.12
369.315	102.12
369.541	97.12
369.767	76.12
369.993	84.12
370.219	106.12
370.445	72.12
370.672	88.12
370.898	88.12
371.124	91.12
371.35	90.12
371.576	77.12
371.802	84.12
372.028	100.12
372.254	96.12
372.48	77.12
372.706	68.12
372.932	88.12
373.158	93.12
373.384	88.12
373.61	110.12
373.835	95.12
374.061	82.12
374.287	102.12
374.513	91.12
374.739	84.12
374.965	89.12
375.191	83.12
375.416	76.12
375.642	95.12
375.868	97.12
376.094	87.12
376.319	96.12
376.545	86.12
376.771	78.12
376.997	95.12
377.222	85.12
377.448	89.12
377.674	70.12
377.899	78.12
378.125	92.12
378.35	100.12
378.576	87.12
378.802	81.12
379.027	105.12
379.253	106.12
379.478	84.12
379.704	102.12
379.929	94.12
380.155	98.12
380.38	108.12
380.606	95.12
380.831	94.12
381.057	100.12
381.282	107.12
381.507	111.12
381.733	97.12
381.958	111.12
382.184	92.12
382.409	118.12
382.634	109.12
382.86	111.12
383.085	119.12
383.31	108.12
383.535	104.12
383.761	109.12
383.986	116.12
384.211	104.12
384.436	112.12
384.662	132.12
384.887	118.12
385.112	127.12
385.337	134.12
385.562	126.12
385.787	126.12
386.013	129.12
386.238	152.12
386.463	122.12
386.688	125.12
386.913	121.12
387.138	128.12
387.363	119.12
387.588	113.12
387.813	121.12
388.038	130.12
388.263	140.12
388.488	128.12
388.713	110.12
388.938	92.12
389.163	93.12
389.387	95.12
389.612	101.12
389.837	76.12
390.062	88.12
390.287	80.12
390.512	84.12
390.736	82.12
390.961	79.12
391.186	92.12
391.411	88.12
391.636	81.12
391.86	81.12
392.085	87.12
392.31	88.12
392.534	82.12
392.759	90.12
392.984	85.12
393.208	78.12
393.433	92.12
393.658	98.12
393.882	67.12
394.107	81.12
394.331	95.12
394.556	81.12
394.78	90.12
395.005	92.12
395.229	87.12
395.454	95.12
395.678	88.12
395.903	97.12
396.127	96.12
396.352	84.12
396.576	94.12
396.801	83.12
397.025	97.12
397.249	106.12
397.474	95.12
397.698	94.12
397.922	89.12
398.147	97.12
398.371	78.12
398.595	88.12
398.82	83.12
399.044	84.12
399.268	88.12
399.492	87.12
399.717	88.12
399.941	95.12
400.165	96.12
400.389	89.12
400.613	86.12
400.837	73.12
401.062	87.12
401.286	101.12
401.51	90.12
401.734	99.12
401.958	105.12
402.182	123.12
402.406	192.12
402.63	120.12
402.854	108.12
403.078	95.12
403.302	78.12
403.526	94.12
403.75	96.12
403.974	88.12
404.198	94.12
404.422	84.12
404.645	85.12
404.869	97.12
405.093	110.12
405.317	134.12
405.541	113.12
405.765	112.12
405.988	121.12
406.212	219.12
406.436	303.12
406.66	186.12
406.883	106.12
407.107	126.12
407.331	101.12
407.555	113.12
407.778	95.12
408.002	95.12
408.226	84.12
408.449	90.12
408.673	93.12
408.896	93.12
409.12	97.12
409.344	78.12
409.567	76.12
409.791	80.12
410.014	77.12
410.238	82.12
410.461	98.12
410.685	89.12
410.908	95.12
411.132	101.12
411.355	108.12
411.578	80.12
411.802	93.12
412.025	100.12
412.249	91.12
412.472	116.12
412.695	117.12
412.919	114.12
413.142	74.12
413.365	82.12
413.589	79.12
413.812	99.12
414.035	96.12
414.258	90.12
414.482	96.12
414.705	98.12
414.928	89.12
415.151	77.12
415.374	85.12
415.597	92.12
415.821	75.12
416.044	91.12
416.267	90.12
416.49	87.12
416.713	112.12
416.936	76.12
417.159	94.12
417.382	99.12
417.605	104.12
417.828	106.12
418.051	103.12
418.274	98.12
418.497	77.12
418.72	79.12
418.943	85.12
419.166	97.12
419.389	90.12
419.611	91.12
419.834	72.12
420.057	94.12
420.28	82.12
420.503	77.12
420.726	107.12
420.948	103.12
421.171	97.12
421.394	98.12
421.617	91.12
421.839	84.12
422.062	84.12
422.285	88.12
422.507	98.12
422.73	106.12
422.953	94.12
423.175	80.12
423.398	96.12
423.621	72.12
423.843	90.12
424.066	82.12
424.288	96.12
424.511	89.12
424.733	110.12
424.956	107.12
425.178	102.12
425.401	111.12
425.623	105.12
425.846	90.12
426.068	93.12
426.291	112.12
426.513	94.12
426.735	111.12
426.958	88.12
427.18	122.12
427.402	185.12
427.625	264.12
427.847	215.12
428.069	203.12
428.292	118.12
428.514	96.12
428.736	90.12
428.958	88.12
429.181	75.12
429.403	90.12
429.625	88.12
429.847	98.12
430.069	107.12
430.292	108.12
430.514	84.12
430.736	80.12
430.958	88.12
431.18	71.12
431.402	82.12
431.624	80.12
431.846	90.12
432.068	86.12
432.29	70.12
432.512	89.12
432.734	85.12
432.956	82.12
433.178	100.12
433.4	103.12
433.622	83.12
433.844	96.12
434.066	90.12
434.287	97.12
434.509	89.12
434.731	84.12
434.953	90.12
435.175	105.12
435.397	94.12
435.618	90.12
435.84	107.12
436.062	136.12
436.284	127.12
436.505	113.12
436.727	103.12
436.949	97.12
437.17	87.12
437.392	92.12
437.614	81.12
437.835	126.12
438.057	132.12
438.278	130.12
438.5	134.12
438.721	142.12
438.943	107.12
439.165	81.12
439.386	77.12
439.608	94.12
439.829	111.12
440.05	153.12
440.272	189.12
440.493	108.12
440.715	84.12
440.936	99.12
441.158	81.12
441.379	94.12
441.6	101.12
441.822	103.12
442.043	91.12
442.264	111.12
442.486	107.12
442.707	81.12
442.928	115.12
443.149	179.12
443.371	171.12
443.592	128.12
443.813	138.12
444.034	125.12
444.255	95.12
444.476	89.12
444.698	91.12
444.919	91.12
445.14	129.12
445.361	128.12
445.582	162.12
445.803	174.12
446.024	172.12
446.245	167.12
446.466	126.12
446.687	97.12
446.908	86.12
447.129	94.12
447.35	91.12
447.571	98.12
447.792	83.12
448.013	104.12
448.234	118.12
448.455	102.12
448.675	118.12
448.896	137.12
449.117	102.12
449.338	106.12
449.559	163.12
449.779	136.12
450	94.12
450.221	88.12
450.442	89.12
450.662	110.12
450.883	128.12
451.104	117.12
451.324	94.12
451.545	89.12
451.766	84.12
451.986	88.12
452.207	92.12
452.428	96.12
452.648	101.12
452.869	129.12
453.089	142.12
453.31	144.12
453.53	88.12
453.751	105.12
453.971	110.12
454.192	135.12
454.412	112.12
454.633	73.12
454.853	88.12
455.073	95.12
455.294	101.12
455.514	101.12
455.734	98.12
455.955	87.12
456.175	96.12
456.395	72.12
456.616	94.12
456.836	90.12
457.056	80.12
457.276	92.12
457.497	83.12
457.717	93.12
457.937	85.12
458.157	105.12
458.377	110.12
458.598	121.12
458.818	199.12
459.038	212.12
459.258	143.12
459.478	98.12
459.698	87.12
459.918	84.12
460.138	81.12
460.358	79.12
460.578	90.12
460.798	93.12
461.018	87.12
461.238	90.12
461.458	80.12
461.678	96.12
461.898	75.12
462.118	75.12
462.338	80.12
462.558	106.12
462.777	73.12
462.997	81.12
463.217	109.12
463.437	80.12
463.657	87.12
463.876	98.12
464.096	97.12
464.316	91.12
464.536	107.12
464.755	91.12
464.975	119.12
465.195	219.12
465.414	226.12
465.634	119.12
465.854	87.12
466.073	94.12
466.293	89.12
466.512	74.12
466.732	91.12
466.951	95.12
467.171	78.12
467.391	113.12
467.61	135.12
467.829	193.12
468.049	440.12
468.268	656.12
468.488	186.12
468.707	95.12
468.927	83.12
469.146	76.12
469.365	95.12
469.585	91.12
469.804	116.12
470.023	114.12
470.243	99.12
470.462	113.12
470.681	132.12
470.901	93.12
471.12	103.12
471.339	94.12
471.558	87.12
471.777	138.12
471.997	248.12
472.216	864.12
472.435	2029.12
472.654	469.12
472.873	141.12
473.092	96.12
473.311	94.12
473.53	90.12
473.749	91.12
473.968	98.12
474.187	111.12
474.406	120.12
474.625	94.12
474.844	88.12
475.063	88.12
475.282	83.12
475.501	66.12
475.72	84.12
475.939	90.12
476.158	95.12
476.377	86.12
476.596	88.12
476.814	107.12
477.033	80.12
477.252	85.12
477.471	92.12
477.69	87.12
477.908	70.12
478.127	94.12
478.346	88.12
478.564	77.12
478.783	108.12
479.002	102.12
479.22	94.12
479.439	110.12
479.658	125.12
479.876	130.12
480.095	119.12
480.313	121.12
480.532	146.12
480.751	236.12
480.969	784.12
481.188	3430.12
481.406	1967.12
481.624	292.12
481.843	119.12
482.061	101.12
482.28	79.12
482.498	96.12
482.717	101.12
482.935	104.12
483.153	88.12
483.372	100.12
483.59	90.12
483.808	85.12
484.027	102.12
484.245	90.12
484.463	107.12
484.681	98.12
484.9	94.12
485.118	98.12
485.336	103.12
485.554	92.12
485.772	100.12
485.99	98.12
486.209	107.12
486.427	106.12
486.645	125.12
486.863	126.12
487.081	104.12
487.299	87.12
487.517	96.12
487.735	111.12
487.953	86.12
488.171	88.12
488.389	82.12
488.607	105.12
488.825	105.12
489.043	82.12
489.261	84.12
489.479	83.12
489.696	87.12
489.914	98.12
490.132	86.12
490.35	85.12
490.568	95.12
490.786	86.12
491.003	90.12
491.221	92.12
491.439	98.12
491.657	91.12
491.874	95.12
492.092	87.12
492.31	79.12
492.527	97.12
492.745	98.12
492.963	86.12
493.18	83.12
493.398	96.12
493.615	109.12
493.833	88.12
494.05	80.12
494.268	92.12
494.485	76.12
494.703	90.12
494.92	86.12
495.138	91.12
495.355	85.12
495.573	93.12
495.79	98.12
496.008	96.12
496.225	85.12
496.442	96.12
496.66	92.12
496.877	91.12
497.094	81.12
497.312	93.12
497.529	85.12
497.746	81.12
497.963	70.12
498.181	90.12
498.398	85.12
498.615	124.12
498.832	108.12
499.049	90.12
499.267	85.12
499.484	89.12
499.701	97.12
499.918	85.12
500.135	84.12
500.352	82.12
500.569	103.12
500.786	102.12
501.003	81.12
501.22	74.12
501.437	90.12
501.654	102.12
501.871	110.12
502.088	95.12
502.305	110.12
502.522	78.12
502.739	90.12
502.956	82.12
503.172	93.12
503.389	110.12
503.606	115.12
503.823	106.12
504.04	89.12
504.256	94.12
504.473	90.12
504.69	77.12
504.907	88.12
505.123	101.12
505.34	87.12
505.557	79.12
505.773	82.12
505.99	93.12
506.207	86.12
506.423	91.12
506.64	99.12
506.856	103.12
507.073	105.12
507.289	88.12
507.506	96.12
507.722	116.12
507.939	119.12
508.155	102.12
508.372	96.12
508.588	86.12
508.805	96.12
509.021	113.12
509.238	106.12
509.454	109.12
509.67	92.12
509.887	106.12
510.103	134.12
510.319	221.12
510.536	840.12
510.752	2928.12
510.968	802.12
511.184	169.12
511.401	125.12
511.617	105.12
511.833	126.12
512.049	89.12
512.265	88.12
512.481	78.12
512.698	94.12
512.914	89.12
513.13	93.12
513.346	81.12
513.562	93.12
513.778	97.12
