Data from Circ_1995_H10_HRD10591_00043.txt Node
Date: Wed Jan 03 11:36:55 EST 2024
User: Yrep
Spectrometer: HR+D1059
Trigger mode: 1
Integration Time (sec): 1.000000E-1
Scans to average: 1
Electric dark correction enabled: true
Nonlinearity correction enabled: false
Boxcar width: 0
XAxis mode: Wavelengths
Number of Pixels in Spectrum: 2048
>>>>>Begin Spectral Data<<<<<
223.165	-38.69
223.4	-38.69
223.635	-38.69
223.869	-18.69
224.104	-19.69
224.338	-20.69
224.573	-3.69
224.808	-14.69
225.042	-15.69
225.277	-5.69
225.511	4.31
225.746	-0.69
225.98	20.31
226.215	1.31
226.449	24.31
226.683	24.31
226.918	28.31
227.152	35.31
227.387	34.31
227.621	40.31
227.856	43.31
228.09	40.31
228.324	42.31
228.559	57.31
228.793	63.31
229.027	62.31
229.262	73.31
229.496	94.31
229.73	106.31
229.964	102.31
230.199	75.31
230.433	65.31
230.667	74.31
230.901	57.31
231.136	96.31
231.37	57.31
231.604	79.31
231.838	67.31
232.072	93.31
232.306	75.31
232.541	82.31
232.775	85.31
233.009	76.31
233.243	80.31
233.477	86.31
233.711	86.31
233.945	76.31
234.179	79.31
234.413	77.31
234.647	84.31
234.881	80.31
235.115	61.31
235.349	77.31
235.583	86.31
235.817	70.31
236.051	81.31
236.285	84.31
236.519	66.31
236.753	74.31
236.987	87.31
237.221	90.31
237.455	93.31
237.689	73.31
237.922	69.31
238.156	73.31
238.39	78.31
238.624	79.31
238.858	84.31
239.091	86.31
239.325	72.31
239.559	75.31
239.793	77.31
240.027	70.31
240.26	65.31
240.494	82.31
240.728	82.31
240.961	91.31
241.195	84.31
241.429	71.31
241.662	78.31
241.896	78.31
242.13	72.31
242.363	81.31
242.597	72.31
242.83	75.31
243.064	75.31
243.298	77.31
243.531	76.31
243.765	87.31
243.998	78.31
244.232	66.31
244.465	90.31
244.699	81.31
244.932	68.31
245.166	74.31
245.399	73.31
245.633	81.31
245.866	84.31
246.099	75.31
246.333	72.31
246.566	93.31
246.8	85.31
247.033	84.31
247.266	87.31
247.5	78.31
247.733	77.31
247.966	80.31
248.2	84.31
248.433	80.31
248.666	81.31
248.899	104.31
249.133	90.31
249.366	111.31
249.599	117.31
249.832	69.31
250.066	92.31
250.299	87.31
250.532	94.31
250.765	85.31
250.998	82.31
251.231	88.31
251.465	77.31
251.698	82.31
251.931	80.31
252.164	86.31
252.397	82.31
252.63	90.31
252.863	72.31
253.096	78.31
253.329	76.31
253.562	72.31
253.795	95.31
254.028	82.31
254.261	82.31
254.494	84.31
254.727	63.31
254.96	78.31
255.193	78.31
255.426	78.31
255.659	86.31
255.892	89.31
256.124	101.31
256.357	82.31
256.59	77.31
256.823	83.31
257.056	93.31
257.289	86.31
257.521	86.31
257.754	76.31
257.987	67.31
258.22	95.31
258.452	97.31
258.685	104.31
258.918	75.31
259.151	77.31
259.383	87.31
259.616	84.31
259.849	74.31
260.081	73.31
260.314	92.31
260.547	90.31
260.779	96.31
261.012	103.31
261.244	104.31
261.477	113.31
261.71	100.31
261.942	148.31
262.175	160.31
262.407	100.31
262.64	91.31
262.872	81.31
263.105	89.31
263.337	90.31
263.57	80.31
263.802	80.31
264.035	75.31
264.267	73.31
264.499	71.31
264.732	74.31
264.964	73.31
265.197	85.31
265.429	86.31
265.661	77.31
265.894	86.31
266.126	90.31
266.358	93.31
266.591	79.31
266.823	82.31
267.055	82.31
267.287	98.31
267.52	79.31
267.752	82.31
267.984	78.31
268.216	87.31
268.448	86.31
268.681	103.31
268.913	103.31
269.145	82.31
269.377	84.31
269.609	84.31
269.841	88.31
270.073	71.31
270.306	82.31
270.538	93.31
270.77	91.31
271.002	88.31
271.234	88.31
271.466	83.31
271.698	103.31
271.93	89.31
272.162	70.31
272.394	94.31
272.626	79.31
272.858	81.31
273.09	83.31
273.322	92.31
273.553	78.31
273.785	73.31
274.017	64.31
274.249	72.31
274.481	91.31
274.713	109.31
274.945	98.31
275.176	98.31
275.408	93.31
275.64	103.31
275.872	157.31
276.104	112.31
276.335	100.31
276.567	120.31
276.799	159.31
277.031	202.31
277.262	246.31
277.494	170.31
277.726	105.31
277.957	101.31
278.189	87.31
278.421	96.31
278.652	93.31
278.884	81.31
279.115	96.31
279.347	92.31
279.579	120.31
279.81	150.31
280.042	251.31
280.273	331.31
280.505	225.31
280.736	113.31
280.968	92.31
281.199	76.31
281.431	99.31
281.662	97.31
281.894	95.31
282.125	103.31
282.356	137.31
282.588	170.31
282.819	137.31
283.051	93.31
283.282	95.31
283.513	100.31
283.745	81.31
283.976	80.31
284.207	96.31
284.439	88.31
284.67	75.31
284.901	88.31
285.132	84.31
285.364	68.31
285.595	89.31
285.826	92.31
286.057	82.31
286.288	91.31
286.52	84.31
286.751	80.31
286.982	87.31
287.213	87.31
287.444	100.31
287.675	86.31
287.906	84.31
288.138	97.31
288.369	108.31
288.6	77.31
288.831	90.31
289.062	89.31
289.293	88.31
289.524	89.31
289.755	80.31
289.986	82.31
290.217	85.31
290.448	81.31
290.679	78.31
290.91	82.31
291.141	90.31
291.371	85.31
291.602	81.31
291.833	89.31
292.064	94.31
292.295	83.31
292.526	81.31
292.757	98.31
292.987	101.31
293.218	79.31
293.449	89.31
293.68	88.31
293.91	92.31
294.141	88.31
294.372	81.31
294.603	95.31
294.833	79.31
295.064	86.31
295.295	84.31
295.525	97.31
295.756	106.31
295.987	133.31
296.217	186.31
296.448	148.31
296.679	101.31
296.909	76.31
297.14	94.31
297.37	88.31
297.601	93.31
297.831	97.31
298.062	98.31
298.292	98.31
298.523	92.31
298.753	81.31
298.984	95.31
299.214	96.31
299.445	96.31
299.675	93.31
299.905	100.31
300.136	97.31
300.366	89.31
300.597	85.31
300.827	112.31
301.057	96.31
301.288	115.31
301.518	102.31
301.748	90.31
301.979	114.31
302.209	109.31
302.439	97.31
302.669	85.31
302.9	89.31
303.13	95.31
303.36	119.31
303.59	149.31
303.82	162.31
304.051	99.31
304.281	97.31
304.511	111.31
304.741	84.31
304.971	108.31
305.201	93.31
305.431	98.31
305.661	102.31
305.891	97.31
306.121	97.31
306.352	118.31
306.582	122.31
306.812	104.31
307.042	120.31
307.272	192.31
307.502	216.31
307.731	174.31
307.961	121.31
308.191	108.31
308.421	104.31
308.651	94.31
308.881	104.31
309.111	90.31
309.341	104.31
309.571	99.31
309.8	103.31
310.03	96.31
310.26	112.31
310.49	98.31
310.72	98.31
310.949	127.31
311.179	103.31
311.409	88.31
311.639	102.31
311.868	114.31
312.098	93.31
312.328	100.31
312.557	129.31
312.787	128.31
313.017	113.31
313.246	95.31
313.476	99.31
313.706	114.31
313.935	100.31
314.165	111.31
314.394	131.31
314.624	99.31
314.853	97.31
315.083	92.31
315.312	93.31
315.542	91.31
315.771	94.31
316.001	89.31
316.23	98.31
316.46	85.31
316.689	98.31
316.919	102.31
317.148	92.31
317.377	103.31
317.607	102.31
317.836	96.31
318.065	103.31
318.295	97.31
318.524	88.31
318.753	98.31
318.983	100.31
319.212	111.31
319.441	116.31
319.67	104.31
319.9	90.31
320.129	106.31
320.358	107.31
320.587	98.31
320.816	111.31
321.046	106.31
321.275	97.31
321.504	95.31
321.733	91.31
321.962	98.31
322.191	86.31
322.42	108.31
322.649	142.31
322.878	121.31
323.108	162.31
323.337	160.31
323.566	178.31
323.795	211.31
324.024	302.31
324.253	599.31
324.482	1345.31
324.71	2896.31
324.939	3906.31
325.168	1356.31
325.397	356.31
325.626	198.31
325.855	145.31
326.084	141.31
326.313	156.31
326.542	213.31
326.77	321.31
326.999	678.31
327.228	1505.31
327.457	2864.31
327.686	2260.31
327.914	722.31
328.143	712.31
328.372	921.31
328.6	496.31
328.829	229.31
329.058	236.31
329.287	245.31
329.515	217.31
329.744	312.31
329.972	663.31
330.201	1410.31
330.43	2113.31
330.658	856.31
330.887	368.31
331.115	225.31
331.344	143.31
331.572	113.31
331.801	125.31
332.03	150.31
332.258	117.31
332.486	118.31
332.715	109.31
332.943	131.31
333.172	132.31
333.4	156.31
333.629	183.31
333.857	294.31
334.085	560.31
334.314	1256.31
334.542	2596.31
334.771	2460.31
334.999	595.31
335.227	222.31
335.455	140.31
335.684	121.31
335.912	106.31
336.14	110.31
336.369	105.31
336.597	113.31
336.825	114.31
337.053	106.31
337.281	95.31
337.51	99.31
337.738	94.31
337.966	116.31
338.194	105.31
338.422	117.31
338.65	102.31
338.878	97.31
339.106	96.31
339.334	95.31
339.562	90.31
339.79	99.31
340.018	89.31
340.246	102.31
340.474	120.31
340.702	91.31
340.93	104.31
341.158	102.31
341.386	110.31
341.614	107.31
341.842	102.31
342.07	109.31
342.298	95.31
342.526	100.31
342.754	88.31
342.981	79.31
343.209	84.31
343.437	99.31
343.665	84.31
343.893	87.31
344.12	92.31
344.348	105.31
344.576	94.31
344.804	103.31
345.031	104.31
345.259	123.31
345.487	102.31
345.714	95.31
345.942	102.31
346.17	93.31
346.397	92.31
346.625	91.31
346.853	91.31
347.08	97.31
347.308	97.31
347.535	98.31
347.763	89.31
347.99	101.31
348.218	87.31
348.445	125.31
348.673	112.31
348.9	113.31
349.128	104.31
349.355	92.31
349.583	107.31
349.81	103.31
350.037	85.31
350.265	105.31
350.492	95.31
350.72	96.31
350.947	106.31
351.174	133.31
351.402	130.31
351.629	113.31
351.856	108.31
352.083	113.31
352.311	124.31
352.538	129.31
352.765	111.31
352.992	114.31
353.22	123.31
353.447	101.31
353.674	95.31
353.901	98.31
354.128	97.31
354.355	93.31
354.583	95.31
354.81	80.31
355.037	81.31
355.264	99.31
355.491	89.31
355.718	78.31
355.945	90.31
356.172	79.31
356.399	89.31
356.626	93.31
356.853	89.31
357.08	84.31
357.307	91.31
357.534	98.31
357.761	83.31
357.988	97.31
358.215	99.31
358.441	85.31
358.668	83.31
358.895	80.31
359.122	92.31
359.349	110.31
359.576	111.31
359.802	121.31
360.029	154.31
360.256	154.31
360.483	122.31
360.709	95.31
360.936	95.31
361.163	103.31
361.39	116.31
361.616	117.31
361.843	100.31
362.07	115.31
362.296	119.31
362.523	106.31
362.749	98.31
362.976	107.31
363.203	101.31
363.429	90.31
363.656	101.31
363.882	101.31
364.109	91.31
364.335	91.31
364.562	91.31
364.788	98.31
365.015	96.31
365.241	105.31
365.468	121.31
365.694	131.31
365.92	102.31
366.147	90.31
366.373	79.31
366.599	90.31
366.826	88.31
367.052	92.31
367.278	87.31
367.505	86.31
367.731	113.31
367.957	100.31
368.184	82.31
368.41	104.31
368.636	132.31
368.862	146.31
369.089	129.31
369.315	111.31
369.541	109.31
369.767	87.31
369.993	82.31
370.219	92.31
370.445	93.31
370.672	98.31
370.898	86.31
371.124	77.31
371.35	93.31
371.576	74.31
371.802	88.31
372.028	97.31
372.254	75.31
372.48	81.31
372.706	86.31
372.932	90.31
373.158	96.31
373.384	100.31
373.61	97.31
373.835	85.31
374.061	99.31
374.287	86.31
374.513	97.31
374.739	92.31
374.965	96.31
375.191	81.31
375.416	94.31
375.642	90.31
375.868	112.31
376.094	103.31
376.319	82.31
376.545	90.31
376.771	75.31
376.997	80.31
377.222	90.31
377.448	85.31
377.674	93.31
377.899	94.31
378.125	98.31
378.35	79.31
378.576	99.31
378.802	84.31
379.027	78.31
379.253	83.31
379.478	109.31
379.704	86.31
379.929	88.31
380.155	84.31
380.38	106.31
380.606	97.31
380.831	102.31
381.057	101.31
381.282	89.31
381.507	106.31
381.733	94.31
381.958	95.31
382.184	89.31
382.409	93.31
382.634	94.31
382.86	91.31
383.085	94.31
383.31	103.31
383.535	108.31
383.761	94.31
383.986	87.31
384.211	89.31
384.436	100.31
384.662	84.31
384.887	99.31
385.112	98.31
385.337	112.31
385.562	113.31
385.787	110.31
386.013	107.31
386.238	129.31
386.463	104.31
386.688	102.31
386.913	101.31
387.138	104.31
387.363	95.31
387.588	94.31
387.813	101.31
388.038	104.31
388.263	103.31
388.488	109.31
388.713	95.31
388.938	103.31
389.163	103.31
389.387	91.31
389.612	88.31
389.837	76.31
390.062	87.31
390.287	92.31
390.512	78.31
390.736	89.31
390.961	93.31
391.186	93.31
391.411	87.31
391.636	79.31
391.86	84.31
392.085	94.31
392.31	81.31
392.534	88.31
392.759	85.31
392.984	81.31
393.208	91.31
393.433	83.31
393.658	102.31
393.882	80.31
394.107	94.31
394.331	74.31
394.556	84.31
394.78	95.31
395.005	79.31
395.229	90.31
395.454	79.31
395.678	81.31
395.903	82.31
396.127	85.31
396.352	86.31
396.576	83.31
396.801	93.31
397.025	92.31
397.249	79.31
397.474	79.31
397.698	69.31
397.922	84.31
398.147	89.31
398.371	85.31
398.595	87.31
398.82	80.31
399.044	87.31
399.268	84.31
399.492	89.31
399.717	76.31
399.941	87.31
400.165	100.31
400.389	96.31
400.613	77.31
400.837	92.31
401.062	93.31
401.286	98.31
401.51	92.31
401.734	94.31
401.958	113.31
402.182	166.31
402.406	218.31
402.63	152.31
402.854	103.31
403.078	94.31
403.302	91.31
403.526	100.31
403.75	94.31
403.974	101.31
404.198	76.31
404.422	81.31
404.645	95.31
404.869	103.31
405.093	124.31
405.317	165.31
405.541	162.31
405.765	128.31
405.988	153.31
406.212	229.31
406.436	357.31
406.66	250.31
406.883	133.31
407.107	120.31
407.331	122.31
407.555	102.31
407.778	114.31
408.002	113.31
408.226	104.31
408.449	77.31
408.673	91.31
408.896	104.31
409.12	95.31
409.344	87.31
409.567	78.31
409.791	78.31
410.014	96.31
410.238	78.31
410.461	104.31
410.685	81.31
410.908	94.31
411.132	103.31
411.355	113.31
411.578	98.31
411.802	81.31
412.025	98.31
412.249	112.31
412.472	123.31
412.695	157.31
412.919	118.31
413.142	84.31
413.365	87.31
413.589	85.31
413.812	75.31
414.035	94.31
414.258	87.31
414.482	93.31
414.705	94.31
414.928	98.31
415.151	87.31
415.374	96.31
415.597	79.31
415.821	101.31
416.044	92.31
416.267	102.31
416.49	82.31
416.713	91.31
416.936	91.31
417.159	85.31
417.382	110.31
417.605	120.31
417.828	137.31
418.051	118.31
418.274	87.31
418.497	92.31
418.72	105.31
418.943	103.31
419.166	79.31
419.389	81.31
419.611	93.31
419.834	92.31
420.057	83.31
420.28	106.31
420.503	106.31
420.726	81.31
420.948	98.31
421.171	114.31
421.394	105.31
421.617	93.31
421.839	92.31
422.062	73.31
422.285	109.31
422.507	103.31
422.73	117.31
422.953	90.31
423.175	108.31
423.398	80.31
423.621	96.31
423.843	83.31
424.066	67.31
424.288	88.31
424.511	80.31
424.733	107.31
424.956	124.31
425.178	105.31
425.401	116.31
425.623	109.31
425.846	88.31
426.068	92.31
426.291	100.31
426.513	104.31
426.735	103.31
426.958	100.31
427.18	127.31
427.402	197.31
427.625	324.31
427.847	305.31
428.069	290.31
428.292	134.31
428.514	93.31
428.736	97.31
428.958	88.31
429.181	84.31
429.403	87.31
429.625	93.31
429.847	105.31
430.069	126.31
430.292	103.31
430.514	91.31
430.736	100.31
430.958	71.31
431.18	84.31
431.402	79.31
431.624	78.31
431.846	91.31
432.068	92.31
432.29	86.31
432.512	88.31
432.734	76.31
432.956	97.31
433.178	110.31
433.4	113.31
433.622	88.31
433.844	86.31
434.066	89.31
434.287	90.31
434.509	94.31
434.731	93.31
434.953	87.31
435.175	97.31
435.397	94.31
435.618	89.31
435.84	116.31
436.062	167.31
436.284	154.31
436.505	136.31
436.727	114.31
436.949	96.31
437.17	75.31
437.392	95.31
437.614	103.31
437.835	133.31
438.057	170.31
438.278	145.31
438.5	138.31
438.721	151.31
438.943	103.31
439.165	90.31
439.386	93.31
439.608	104.31
439.829	120.31
440.05	177.31
440.272	231.31
440.493	127.31
440.715	103.31
440.936	72.31
441.158	101.31
441.379	99.31
441.6	93.31
441.822	102.31
442.043	113.31
442.264	119.31
442.486	124.31
442.707	93.31
442.928	142.31
443.149	197.31
443.371	199.31
443.592	145.31
443.813	133.31
444.034	118.31
444.255	90.31
444.476	81.31
444.698	85.31
444.919	92.31
445.14	151.31
445.361	147.31
445.582	160.31
445.803	221.31
446.024	233.31
446.245	190.31
446.466	152.31
446.687	100.31
446.908	94.31
447.129	91.31
447.35	78.31
447.571	95.31
447.792	97.31
448.013	106.31
448.234	133.31
448.455	101.31
448.675	125.31
448.896	156.31
449.117	106.31
449.338	104.31
449.559	162.31
449.779	166.31
450	109.31
450.221	86.31
450.442	90.31
450.662	110.31
450.883	141.31
451.104	154.31
451.324	121.31
451.545	81.31
451.766	84.31
451.986	87.31
452.207	90.31
452.428	82.31
452.648	122.31
452.869	140.31
453.089	150.31
453.31	179.31
453.53	109.31
453.751	103.31
453.971	128.31
454.192	155.31
454.412	106.31
454.633	79.31
454.853	97.31
455.073	95.31
455.294	84.31
455.514	110.31
455.734	96.31
455.955	90.31
456.175	88.31
456.395	83.31
456.616	81.31
456.836	91.31
457.056	86.31
457.276	94.31
457.497	85.31
457.717	92.31
457.937	94.31
458.157	85.31
458.377	80.31
458.598	130.31
458.818	230.31
459.038	282.31
459.258	184.31
459.478	91.31
459.698	88.31
459.918	80.31
460.138	99.31
460.358	76.31
460.578	88.31
460.798	72.31
461.018	88.31
461.238	74.31
461.458	59.31
461.678	88.31
461.898	85.31
462.118	84.31
462.338	90.31
462.558	104.31
462.777	80.31
462.997	105.31
463.217	115.31
463.437	105.31
463.657	88.31
463.876	85.31
464.096	92.31
464.316	94.31
464.536	112.31
464.755	112.31
464.975	148.31
465.195	283.31
465.414	287.31
465.634	114.31
465.854	96.31
466.073	94.31
466.293	90.31
466.512	90.31
466.732	94.31
466.951	95.31
467.171	99.31
467.391	131.31
467.61	169.31
467.829	289.31
468.049	778.31
468.268	1201.31
468.488	278.31
468.707	106.31
468.927	106.31
469.146	93.31
469.365	91.31
469.585	109.31
469.804	119.31
470.023	114.31
470.243	114.31
470.462	122.31
470.681	152.31
470.901	116.31
471.12	95.31
471.339	110.31
471.558	133.31
471.777	178.31
471.997	358.31
472.216	1482.31
472.435	3555.31
472.654	798.31
472.873	200.31
473.092	128.31
473.311	111.31
473.53	103.31
473.749	91.31
473.968	108.31
474.187	155.31
474.406	117.31
474.625	88.31
474.844	86.31
475.063	101.31
475.282	78.31
475.501	95.31
475.72	78.31
475.939	78.31
476.158	96.31
476.377	98.31
476.596	94.31
476.814	101.31
477.033	98.31
477.252	100.31
477.471	89.31
477.69	83.31
477.908	89.31
478.127	100.31
478.346	86.31
478.564	109.31
478.783	114.31
479.002	112.31
479.22	113.31
479.439	136.31
479.658	158.31
479.876	144.31
480.095	134.31
480.313	153.31
480.532	198.31
480.751	359.31
480.969	1348.31
481.188	6162.31
481.406	3461.31
481.624	456.31
481.843	156.31
482.061	108.31
482.28	107.31
482.498	91.31
482.717	89.31
482.935	100.31
483.153	91.31
483.372	91.31
483.59	101.31
483.808	92.31
484.027	82.31
484.245	96.31
484.463	97.31
484.681	98.31
484.9	90.31
485.118	88.31
485.336	105.31
485.554	108.31
485.772	102.31
485.99	110.31
486.209	104.31
486.427	96.31
486.645	135.31
486.863	150.31
487.081	101.31
487.299	106.31
487.517	93.31
487.735	96.31
487.953	83.31
488.171	98.31
488.389	100.31
488.607	107.31
488.825	99.31
489.043	77.31
489.261	79.31
489.479	79.31
489.696	88.31
489.914	78.31
490.132	88.31
490.35	87.31
490.568	88.31
490.786	93.31
491.003	90.31
491.221	106.31
491.439	102.31
491.657	89.31
491.874	94.31
492.092	85.31
492.31	92.31
492.527	102.31
492.745	104.31
492.963	79.31
493.18	101.31
493.398	104.31
493.615	93.31
493.833	89.31
494.05	94.31
494.268	73.31
494.485	93.31
494.703	99.31
494.92	84.31
495.138	84.31
495.355	75.31
495.573	96.31
495.79	86.31
496.008	94.31
496.225	83.31
496.442	89.31
496.66	104.31
496.877	107.31
497.094	87.31
497.312	92.31
497.529	88.31
497.746	91.31
497.963	105.31
498.181	92.31
498.398	91.31
498.615	107.31
498.832	126.31
499.049	104.31
499.267	99.31
499.484	89.31
499.701	88.31
499.918	95.31
500.135	83.31
500.352	80.31
500.569	97.31
500.786	90.31
501.003	88.31
501.22	89.31
501.437	106.31
501.654	97.31
501.871	135.31
502.088	90.31
502.305	92.31
502.522	84.31
502.739	89.31
502.956	75.31
503.172	97.31
503.389	110.31
503.606	125.31
503.823	113.31
504.04	91.31
504.256	96.31
504.473	92.31
504.69	78.31
504.907	86.31
505.123	85.31
505.34	95.31
505.557	77.31
505.773	96.31
505.99	81.31
506.207	82.31
506.423	82.31
506.64	83.31
506.856	93.31
507.073	94.31
507.289	109.31
507.506	89.31
507.722	144.31
507.939	143.31
508.155	102.31
508.372	69.31
508.588	95.31
508.805	89.31
509.021	79.31
509.238	98.31
509.454	88.31
509.67	105.31
509.887	111.31
510.103	150.31
510.319	252.31
510.536	979.31
510.752	3584.31
510.968	944.31
511.184	204.31
511.401	133.31
511.617	124.31
511.833	102.31
512.049	95.31
512.265	93.31
512.481	102.31
512.698	97.31
