Data from Circ_1995_H10_HRD10591_00081.txt Node
Date: Wed Jan 03 11:37:02 EST 2024
User: Yrep
Spectrometer: HR+D1059
Trigger mode: 1
Integration Time (sec): 1.000000E-1
Scans to average: 1
Electric dark correction enabled: true
Nonlinearity correction enabled: false
Boxcar width: 0
XAxis mode: Wavelengths
Number of Pixels in Spectrum: 2048
>>>>>Begin Spectral Data<<<<<
223.165	-28.62
223.4	-28.62
223.635	-28.62
223.869	-9.62
224.104	-38.62
224.338	-16.62
224.573	-9.62
224.808	-14.62
225.042	-7.62
225.277	-1.62
225.511	2.38
225.746	-2.62
225.98	1.38
226.215	7.38
226.449	27.38
226.683	30.38
226.918	31.38
227.152	29.38
227.387	33.38
227.621	44.38
227.856	46.38
228.09	45.38
228.324	53.38
228.559	58.38
228.793	51.38
229.027	62.38
229.262	70.38
229.496	80.38
229.73	99.38
229.964	81.38
230.199	81.38
230.433	91.38
230.667	89.38
230.901	87.38
231.136	74.38
231.37	75.38
231.604	79.38
231.838	69.38
232.072	75.38
232.306	81.38
232.541	80.38
232.775	77.38
233.009	84.38
233.243	76.38
233.477	80.38
233.711	90.38
233.945	84.38
234.179	75.38
234.413	75.38
234.647	79.38
234.881	101.38
235.115	77.38
235.349	84.38
235.583	90.38
235.817	97.38
236.051	76.38
236.285	81.38
236.519	68.38
236.753	89.38
236.987	89.38
237.221	88.38
237.455	110.38
237.689	89.38
237.922	73.38
238.156	82.38
238.39	73.38
238.624	86.38
238.858	75.38
239.091	85.38
239.325	96.38
239.559	93.38
239.793	99.38
240.027	78.38
240.26	73.38
240.494	89.38
240.728	86.38
240.961	98.38
241.195	78.38
241.429	81.38
241.662	81.38
241.896	70.38
242.13	72.38
242.363	93.38
242.597	73.38
242.83	58.38
243.064	69.38
243.298	77.38
243.531	93.38
243.765	90.38
243.998	97.38
244.232	90.38
244.465	89.38
244.699	89.38
244.932	72.38
245.166	90.38
245.399	75.38
245.633	74.38
245.866	94.38
246.099	90.38
246.333	76.38
246.566	81.38
246.8	77.38
247.033	90.38
247.266	89.38
247.5	79.38
247.733	87.38
247.966	89.38
248.2	73.38
248.433	92.38
248.666	78.38
248.899	96.38
249.133	98.38
249.366	108.38
249.599	110.38
249.832	97.38
250.066	87.38
250.299	88.38
250.532	95.38
250.765	82.38
250.998	85.38
251.231	85.38
251.465	85.38
251.698	88.38
251.931	92.38
252.164	91.38
252.397	92.38
252.63	77.38
252.863	92.38
253.096	85.38
253.329	84.38
253.562	80.38
253.795	84.38
254.028	89.38
254.261	89.38
254.494	74.38
254.727	80.38
254.96	74.38
255.193	93.38
255.426	90.38
255.659	102.38
255.892	101.38
256.124	119.38
256.357	94.38
256.59	80.38
256.823	98.38
257.056	73.38
257.289	95.38
257.521	80.38
257.754	97.38
257.987	88.38
258.22	108.38
258.452	103.38
258.685	95.38
258.918	91.38
259.151	74.38
259.383	86.38
259.616	79.38
259.849	83.38
260.081	81.38
260.314	94.38
260.547	90.38
260.779	102.38
261.012	127.38
261.244	121.38
261.477	107.38
261.71	115.38
261.942	141.38
262.175	162.38
262.407	109.38
262.64	85.38
262.872	87.38
263.105	88.38
263.337	79.38
263.57	83.38
263.802	90.38
264.035	84.38
264.267	74.38
264.499	88.38
264.732	103.38
264.964	86.38
265.197	90.38
265.429	87.38
265.661	61.38
265.894	102.38
266.126	81.38
266.358	86.38
266.591	97.38
266.823	75.38
267.055	75.38
267.287	96.38
267.52	91.38
267.752	96.38
267.984	98.38
268.216	82.38
268.448	98.38
268.681	102.38
268.913	91.38
269.145	103.38
269.377	103.38
269.609	87.38
269.841	100.38
270.073	93.38
270.306	85.38
270.538	102.38
270.77	81.38
271.002	80.38
271.234	69.38
271.466	93.38
271.698	95.38
271.93	94.38
272.162	106.38
272.394	112.38
272.626	82.38
272.858	94.38
273.09	87.38
273.322	93.38
273.553	90.38
273.785	85.38
274.017	94.38
274.249	95.38
274.481	86.38
274.713	99.38
274.945	96.38
275.176	105.38
275.408	101.38
275.64	119.38
275.872	140.38
276.104	110.38
276.335	110.38
276.567	134.38
276.799	157.38
277.031	224.38
277.262	251.38
277.494	183.38
277.726	98.38
277.957	89.38
278.189	84.38
278.421	98.38
278.652	97.38
278.884	99.38
279.115	94.38
279.347	109.38
279.579	101.38
279.81	155.38
280.042	243.38
280.273	347.38
280.505	243.38
280.736	121.38
280.968	98.38
281.199	96.38
281.431	90.38
281.662	86.38
281.894	102.38
282.125	106.38
282.356	141.38
282.588	185.38
282.819	133.38
283.051	95.38
283.282	77.38
283.513	93.38
283.745	86.38
283.976	93.38
284.207	102.38
284.439	83.38
284.67	106.38
284.901	92.38
285.132	92.38
285.364	74.38
285.595	83.38
285.826	86.38
286.057	82.38
286.288	92.38
286.52	101.38
286.751	67.38
286.982	93.38
287.213	91.38
287.444	83.38
287.675	107.38
287.906	90.38
288.138	95.38
288.369	94.38
288.6	96.38
288.831	95.38
289.062	90.38
289.293	88.38
289.524	90.38
289.755	94.38
289.986	85.38
290.217	92.38
290.448	99.38
290.679	103.38
290.91	87.38
291.141	77.38
291.371	98.38
291.602	89.38
291.833	90.38
292.064	88.38
292.295	96.38
292.526	73.38
292.757	86.38
292.987	108.38
293.218	89.38
293.449	86.38
293.68	73.38
293.91	100.38
294.141	92.38
294.372	86.38
294.603	95.38
294.833	92.38
295.064	81.38
295.295	92.38
295.525	116.38
295.756	113.38
295.987	123.38
296.217	180.38
296.448	150.38
296.679	98.38
296.909	87.38
297.14	93.38
297.37	91.38
297.601	89.38
297.831	88.38
298.062	102.38
298.292	92.38
298.523	102.38
298.753	98.38
298.984	109.38
299.214	100.38
299.445	94.38
299.675	98.38
299.905	102.38
300.136	95.38
300.366	95.38
300.597	96.38
300.827	94.38
301.057	121.38
301.288	118.38
301.518	118.38
301.748	105.38
301.979	131.38
302.209	108.38
302.439	115.38
302.669	93.38
302.9	92.38
303.13	99.38
303.36	117.38
303.59	133.38
303.82	163.38
304.051	118.38
304.281	97.38
304.511	105.38
304.741	93.38
304.971	102.38
305.201	87.38
305.431	99.38
305.661	95.38
305.891	109.38
306.121	104.38
306.352	106.38
306.582	117.38
306.812	126.38
307.042	143.38
307.272	192.38
307.502	235.38
307.731	209.38
307.961	146.38
308.191	98.38
308.421	95.38
308.651	105.38
308.881	97.38
309.111	95.38
309.341	100.38
309.571	112.38
309.8	113.38
310.03	111.38
310.26	103.38
310.49	102.38
310.72	113.38
310.949	126.38
311.179	143.38
311.409	98.38
311.639	109.38
311.868	109.38
312.098	103.38
312.328	110.38
312.557	125.38
312.787	123.38
313.017	124.38
313.246	114.38
313.476	105.38
313.706	100.38
313.935	98.38
314.165	112.38
314.394	110.38
314.624	105.38
314.853	94.38
315.083	110.38
315.312	97.38
315.542	93.38
315.771	99.38
316.001	105.38
316.23	73.38
316.46	108.38
316.689	107.38
316.919	108.38
317.148	121.38
317.377	107.38
317.607	99.38
317.836	116.38
318.065	110.38
318.295	103.38
318.524	107.38
318.753	108.38
318.983	91.38
319.212	109.38
319.441	129.38
319.67	117.38
319.9	100.38
320.129	86.38
320.358	100.38
320.587	98.38
320.816	114.38
321.046	107.38
321.275	108.38
321.504	110.38
321.733	103.38
321.962	116.38
322.191	117.38
322.42	127.38
322.649	133.38
322.878	141.38
323.108	130.38
323.337	157.38
323.566	173.38
323.795	192.38
324.024	253.38
324.253	553.38
324.482	1234.38
324.71	2555.38
324.939	3325.38
325.168	1203.38
325.397	336.38
325.626	205.38
325.855	143.38
326.084	142.38
326.313	161.38
326.542	207.38
326.77	294.38
326.999	610.38
327.228	1287.38
327.457	2412.38
327.686	1933.38
327.914	686.38
328.143	690.38
328.372	963.38
328.6	495.38
328.829	230.38
329.058	221.38
329.287	236.38
329.515	219.38
329.744	341.38
329.972	671.38
330.201	1415.38
330.43	2133.38
330.658	897.38
330.887	365.38
331.115	223.38
331.344	145.38
331.572	138.38
331.801	142.38
332.03	150.38
332.258	112.38
332.486	125.38
332.715	108.38
332.943	122.38
333.172	135.38
333.4	157.38
333.629	187.38
333.857	277.38
334.085	577.38
334.314	1250.38
334.542	2567.38
334.771	2454.38
334.999	569.38
335.227	217.38
335.455	143.38
335.684	114.38
335.912	108.38
336.14	109.38
336.369	113.38
336.597	124.38
336.825	131.38
337.053	104.38
337.281	114.38
337.51	101.38
337.738	108.38
337.966	108.38
338.194	115.38
338.422	112.38
338.65	94.38
338.878	108.38
339.106	101.38
339.334	108.38
339.562	111.38
339.79	89.38
340.018	95.38
340.246	97.38
340.474	118.38
340.702	109.38
340.93	111.38
341.158	98.38
341.386	107.38
341.614	115.38
341.842	105.38
342.07	105.38
342.298	95.38
342.526	94.38
342.754	85.38
342.981	106.38
343.209	102.38
343.437	118.38
343.665	105.38
343.893	101.38
344.12	92.38
344.348	89.38
344.576	101.38
344.804	97.38
345.031	116.38
345.259	119.38
345.487	106.38
345.714	95.38
345.942	90.38
346.17	99.38
346.397	97.38
346.625	91.38
346.853	88.38
347.08	93.38
347.308	101.38
347.535	108.38
347.763	114.38
347.99	114.38
348.218	110.38
348.445	123.38
348.673	124.38
348.9	106.38
349.128	102.38
349.355	91.38
349.583	83.38
349.81	85.38
350.037	97.38
350.265	103.38
350.492	95.38
350.72	91.38
350.947	110.38
351.174	122.38
351.402	117.38
351.629	125.38
351.856	122.38
352.083	122.38
352.311	123.38
352.538	130.38
352.765	123.38
352.992	128.38
353.22	104.38
353.447	124.38
353.674	98.38
353.901	109.38
354.128	100.38
354.355	91.38
354.583	98.38
354.81	106.38
355.037	98.38
355.264	88.38
355.491	106.38
355.718	79.38
355.945	89.38
356.172	100.38
356.399	93.38
356.626	111.38
356.853	107.38
357.08	101.38
357.307	94.38
357.534	96.38
357.761	88.38
357.988	96.38
358.215	81.38
358.441	103.38
358.668	103.38
358.895	105.38
359.122	91.38
359.349	106.38
359.576	90.38
359.802	126.38
360.029	154.38
360.256	148.38
360.483	134.38
360.709	99.38
360.936	92.38
361.163	113.38
361.39	98.38
361.616	103.38
361.843	98.38
362.07	107.38
362.296	127.38
362.523	106.38
362.749	94.38
362.976	102.38
363.203	99.38
363.429	99.38
363.656	100.38
363.882	98.38
364.109	99.38
364.335	114.38
364.562	106.38
364.788	97.38
365.015	113.38
365.241	111.38
365.468	133.38
365.694	124.38
365.92	119.38
366.147	116.38
366.373	102.38
366.599	108.38
366.826	95.38
367.052	96.38
367.278	105.38
367.505	75.38
367.731	102.38
367.957	93.38
368.184	96.38
368.41	128.38
368.636	126.38
368.862	125.38
369.089	126.38
369.315	131.38
369.541	106.38
369.767	96.38
369.993	92.38
370.219	100.38
370.445	92.38
370.672	96.38
370.898	90.38
371.124	114.38
371.35	99.38
371.576	96.38
371.802	84.38
372.028	83.38
372.254	81.38
372.48	89.38
372.706	85.38
372.932	101.38
373.158	95.38
373.384	95.38
373.61	88.38
373.835	95.38
374.061	94.38
374.287	83.38
374.513	100.38
374.739	90.38
374.965	92.38
375.191	76.38
375.416	97.38
375.642	98.38
375.868	83.38
376.094	95.38
376.319	92.38
376.545	77.38
376.771	84.38
376.997	102.38
377.222	85.38
377.448	102.38
377.674	91.38
377.899	74.38
378.125	108.38
378.35	94.38
378.576	98.38
378.802	99.38
379.027	105.38
379.253	91.38
379.478	106.38
379.704	110.38
379.929	102.38
380.155	99.38
380.38	99.38
380.606	103.38
380.831	102.38
381.057	95.38
381.282	98.38
381.507	100.38
381.733	91.38
381.958	102.38
382.184	109.38
382.409	93.38
382.634	108.38
382.86	101.38
383.085	98.38
383.31	92.38
383.535	107.38
383.761	97.38
383.986	109.38
384.211	101.38
384.436	97.38
384.662	102.38
384.887	106.38
385.112	103.38
385.337	98.38
385.562	100.38
385.787	103.38
386.013	128.38
386.238	118.38
386.463	111.38
386.688	99.38
386.913	92.38
387.138	103.38
387.363	93.38
387.588	106.38
387.813	97.38
388.038	97.38
388.263	115.38
388.488	109.38
388.713	107.38
388.938	100.38
389.163	95.38
389.387	102.38
389.612	88.38
389.837	100.38
390.062	98.38
390.287	92.38
390.512	85.38
390.736	82.38
390.961	90.38
391.186	85.38
391.411	96.38
391.636	87.38
391.86	93.38
392.085	92.38
392.31	87.38
392.534	78.38
392.759	87.38
392.984	90.38
393.208	89.38
393.433	102.38
393.658	103.38
393.882	96.38
394.107	93.38
394.331	81.38
394.556	102.38
394.78	100.38
395.005	100.38
395.229	80.38
395.454	81.38
395.678	84.38
395.903	103.38
396.127	95.38
396.352	95.38
396.576	87.38
396.801	107.38
397.025	85.38
397.249	97.38
397.474	95.38
397.698	77.38
397.922	101.38
398.147	97.38
398.371	79.38
398.595	89.38
398.82	95.38
399.044	79.38
399.268	84.38
399.492	94.38
399.717	85.38
399.941	97.38
400.165	89.38
400.389	93.38
400.613	97.38
400.837	96.38
401.062	90.38
401.286	94.38
401.51	100.38
401.734	104.38
401.958	110.38
402.182	160.38
402.406	215.38
402.63	164.38
402.854	110.38
403.078	95.38
403.302	86.38
403.526	95.38
403.75	95.38
403.974	93.38
404.198	98.38
404.422	108.38
404.645	91.38
404.869	98.38
405.093	117.38
405.317	164.38
405.541	167.38
405.765	129.38
405.988	140.38
406.212	256.38
406.436	343.38
406.66	241.38
406.883	145.38
407.107	100.38
407.331	115.38
407.555	123.38
407.778	111.38
408.002	109.38
408.226	110.38
408.449	97.38
408.673	93.38
408.896	111.38
409.12	108.38
409.344	101.38
409.567	94.38
409.791	104.38
410.014	101.38
410.238	84.38
410.461	89.38
410.685	91.38
410.908	87.38
411.132	114.38
411.355	103.38
411.578	103.38
411.802	108.38
412.025	103.38
412.249	114.38
412.472	133.38
412.695	141.38
412.919	131.38
413.142	89.38
413.365	99.38
413.589	104.38
413.812	94.38
414.035	85.38
414.258	87.38
414.482	108.38
414.705	109.38
414.928	94.38
415.151	83.38
415.374	100.38
415.597	91.38
415.821	86.38
416.044	97.38
416.267	91.38
416.49	95.38
416.713	90.38
416.936	114.38
417.159	96.38
417.382	109.38
417.605	118.38
417.828	122.38
418.051	105.38
418.274	86.38
418.497	99.38
418.72	89.38
418.943	81.38
419.166	97.38
419.389	82.38
419.611	94.38
419.834	113.38
420.057	105.38
420.28	99.38
420.503	98.38
420.726	96.38
420.948	96.38
421.171	108.38
421.394	118.38
421.617	99.38
421.839	101.38
422.062	93.38
422.285	106.38
422.507	91.38
422.73	117.38
422.953	96.38
423.175	98.38
423.398	107.38
423.621	87.38
423.843	97.38
424.066	100.38
424.288	97.38
424.511	106.38
424.733	107.38
424.956	126.38
425.178	110.38
425.401	113.38
425.623	110.38
425.846	107.38
426.068	116.38
426.291	94.38
426.513	105.38
426.735	89.38
426.958	123.38
427.18	124.38
427.402	195.38
427.625	288.38
427.847	294.38
428.069	259.38
428.292	141.38
428.514	102.38
428.736	111.38
428.958	108.38
429.181	99.38
429.403	79.38
429.625	88.38
429.847	94.38
430.069	110.38
430.292	96.38
430.514	101.38
430.736	92.38
430.958	108.38
431.18	91.38
431.402	77.38
431.624	86.38
431.846	93.38
432.068	86.38
432.29	86.38
432.512	98.38
432.734	94.38
432.956	91.38
433.178	100.38
433.4	102.38
433.622	106.38
433.844	102.38
434.066	93.38
434.287	91.38
434.509	88.38
434.731	90.38
434.953	103.38
435.175	113.38
435.397	97.38
435.618	95.38
435.84	110.38
436.062	168.38
436.284	124.38
436.505	122.38
436.727	101.38
436.949	94.38
437.17	87.38
437.392	85.38
437.614	108.38
437.835	122.38
438.057	161.38
438.278	146.38
438.5	122.38
438.721	155.38
438.943	109.38
439.165	93.38
439.386	99.38
439.608	108.38
439.829	105.38
440.05	173.38
440.272	205.38
440.493	111.38
440.715	97.38
440.936	89.38
441.158	97.38
441.379	113.38
441.6	110.38
441.822	110.38
442.043	119.38
442.264	131.38
442.486	126.38
442.707	121.38
442.928	134.38
443.149	194.38
443.371	190.38
443.592	144.38
443.813	117.38
444.034	119.38
444.255	99.38
444.476	95.38
444.698	91.38
444.919	91.38
445.14	150.38
445.361	138.38
445.582	140.38
445.803	217.38
446.024	203.38
446.245	173.38
446.466	118.38
446.687	106.38
446.908	90.38
447.129	109.38
447.35	99.38
447.571	113.38
447.792	106.38
448.013	100.38
448.234	133.38
448.455	120.38
448.675	130.38
448.896	137.38
449.117	122.38
449.338	125.38
449.559	176.38
449.779	166.38
450	119.38
450.221	109.38
450.442	87.38
450.662	99.38
450.883	130.38
451.104	150.38
451.324	107.38
451.545	94.38
451.766	103.38
451.986	90.38
452.207	94.38
452.428	108.38
452.648	125.38
452.869	133.38
453.089	124.38
453.31	163.38
453.53	107.38
453.751	104.38
453.971	129.38
454.192	145.38
454.412	114.38
454.633	103.38
454.853	97.38
455.073	82.38
455.294	98.38
455.514	122.38
455.734	99.38
455.955	91.38
456.175	90.38
456.395	103.38
456.616	98.38
456.836	91.38
457.056	81.38
457.276	73.38
457.497	89.38
457.717	102.38
457.937	101.38
458.157	89.38
458.377	106.38
458.598	130.38
458.818	236.38
459.038	264.38
459.258	159.38
459.478	113.38
459.698	87.38
459.918	108.38
460.138	90.38
460.358	91.38
460.578	107.38
460.798	90.38
461.018	93.38
461.238	97.38
461.458	102.38
461.678	96.38
461.898	89.38
462.118	93.38
462.338	92.38
462.558	99.38
462.777	91.38
462.997	110.38
463.217	123.38
463.437	112.38
463.657	96.38
463.876	90.38
464.096	107.38
464.316	117.38
464.536	112.38
464.755	105.38
464.975	127.38
465.195	268.38
465.414	291.38
465.634	134.38
465.854	96.38
466.073	86.38
466.293	86.38
466.512	78.38
466.732	91.38
466.951	92.38
467.171	120.38
467.391	140.38
467.61	179.38
467.829	268.38
468.049	807.38
468.268	1299.38
468.488	299.38
468.707	129.38
468.927	104.38
469.146	87.38
469.365	102.38
469.585	97.38
469.804	117.38
470.023	122.38
470.243	119.38
470.462	129.38
470.681	163.38
470.901	113.38
471.12	107.38
471.339	114.38
471.558	132.38
471.777	181.38
471.997	387.38
472.216	1557.38
472.435	3821.38
472.654	823.38
472.873	208.38
473.092	121.38
473.311	118.38
473.53	113.38
473.749	105.38
473.968	104.38
474.187	123.38
474.406	115.38
474.625	105.38
474.844	95.38
475.063	87.38
475.282	89.38
475.501	95.38
475.72	101.38
475.939	105.38
476.158	90.38
476.377	98.38
476.596	97.38
476.814	106.38
477.033	103.38
477.252	91.38
477.471	103.38
477.69	100.38
477.908	106.38
478.127	99.38
478.346	115.38
478.564	104.38
478.783	134.38
479.002	126.38
479.22	130.38
479.439	132.38
479.658	144.38
479.876	137.38
480.095	128.38
480.313	162.38
480.532	190.38
480.751	380.38
480.969	1373.38
481.188	6215.38
481.406	3537.38
481.624	477.38
481.843	177.38
482.061	128.38
482.28	116.38
482.498	102.38
482.717	96.38
482.935	100.38
483.153	106.38
483.372	98.38
483.59	108.38
483.808	101.38
484.027	101.38
484.245	95.38
484.463	100.38
484.681	93.38
484.9	100.38
485.118	102.38
485.336	93.38
485.554	106.38
485.772	112.38
485.99	110.38
486.209	106.38
486.427	112.38
486.645	129.38
486.863	137.38
487.081	115.38
487.299	107.38
487.517	112.38
487.735	91.38
487.953	117.38
488.171	101.38
488.389	102.38
488.607	99.38
488.825	102.38
489.043	92.38
489.261	80.38
489.479	94.38
489.696	95.38
489.914	99.38
490.132	99.38
490.35	91.38
490.568	93.38
490.786	99.38
491.003	98.38
491.221	99.38
491.439	106.38
491.657	102.38
491.874	93.38
492.092	79.38
492.31	99.38
492.527	107.38
492.745	111.38
492.963	88.38
493.18	99.38
493.398	102.38
493.615	106.38
493.833	103.38
494.05	97.38
494.268	93.38
494.485	92.38
494.703	97.38
494.92	93.38
495.138	95.38
495.355	100.38
495.573	96.38
495.79	84.38
496.008	84.38
496.225	99.38
496.442	97.38
496.66	104.38
496.877	95.38
497.094	96.38
497.312	87.38
497.529	103.38
497.746	94.38
497.963	95.38
498.181	112.38
498.398	116.38
498.615	137.38
498.832	119.38
499.049	102.38
499.267	91.38
499.484	83.38
499.701	93.38
499.918	94.38
500.135	81.38
500.352	81.38
500.569	99.38
500.786	97.38
501.003	94.38
501.22	93.38
501.437	104.38
501.654	99.38
501.871	128.38
502.088	118.38
502.305	102.38
502.522	99.38
502.739	93.38
502.956	96.38
503.172	91.38
503.389	100.38
503.606	143.38
503.823	112.38
504.04	117.38
504.256	107.38
504.473	103.38
504.69	93.38
504.907	110.38
505.123	104.38
505.34	110.38
505.557	90.38
505.773	106.38
505.99	99.38
506.207	92.38
506.423	89.38
506.64	84.38
506.856	95.38
507.073	95.38
507.289	98.38
507.506	107.38
507.722	137.38
507.939	147.38
508.155	125.38
508.372	101.38
508.588	103.38
508.805	101.38
509.021	106.38
509.238	121.38
509.454	108.38
509.67	111.38
509.887	119.38
510.103	152.38
510.319	262.38
510.536	1006.38
510.752	3558.38
