Data from Circ_1995_H10_HRD10591_00058.txt Node
Date: Wed Jan 03 11:36:58 EST 2024
User: Yrep
Spectrometer: HR+D1059
Trigger mode: 1
Integration Time (sec): 1.000000E-1
Scans to average: 1
Electric dark correction enabled: true
Nonlinearity correction enabled: false
Boxcar width: 0
XAxis mode: Wavelengths
Number of Pixels in Spectrum: 2048
>>>>>Begin Spectral Data<<<<<
223.165	-12.12
223.4	-12.12
223.635	-12.12
223.869	-26.12
224.104	-16.12
224.338	-12.12
224.573	-24.12
224.808	-28.12
225.042	-10.12
225.277	-6.12
225.511	-4.12
225.746	-0.12
225.98	17.88
226.215	9.88
226.449	16.88
226.683	20.88
226.918	28.88
227.152	44.88
227.387	38.88
227.621	42.88
227.856	41.88
228.09	51.88
228.324	53.88
228.559	45.88
228.793	51.88
229.027	57.88
229.262	66.88
229.496	77.88
229.73	103.88
229.964	103.88
230.199	82.88
230.433	78.88
230.667	86.88
230.901	70.88
231.136	67.88
231.37	75.88
231.604	79.88
231.838	90.88
232.072	85.88
232.306	87.88
232.541	82.88
232.775	79.88
233.009	82.88
233.243	91.88
233.477	87.88
233.711	87.88
233.945	75.88
234.179	76.88
234.413	80.88
234.647	79.88
234.881	63.88
235.115	80.88
235.349	69.88
235.583	89.88
235.817	85.88
236.051	81.88
236.285	90.88
236.519	64.88
236.753	80.88
236.987	77.88
237.221	100.88
237.455	97.88
237.689	71.88
237.922	88.88
238.156	71.88
238.39	77.88
238.624	73.88
238.858	85.88
239.091	77.88
239.325	73.88
239.559	72.88
239.793	79.88
240.027	74.88
240.26	89.88
240.494	89.88
240.728	91.88
240.961	98.88
241.195	89.88
241.429	83.88
241.662	73.88
241.896	67.88
242.13	74.88
242.363	88.88
242.597	75.88
242.83	86.88
243.064	83.88
243.298	77.88
243.531	76.88
243.765	93.88
243.998	76.88
244.232	83.88
244.465	102.88
244.699	84.88
244.932	73.88
245.166	85.88
245.399	84.88
245.633	60.88
245.866	78.88
246.099	87.88
246.333	82.88
246.566	76.88
246.8	85.88
247.033	75.88
247.266	90.88
247.5	89.88
247.733	90.88
247.966	79.88
248.2	85.88
248.433	84.88
248.666	77.88
248.899	79.88
249.133	98.88
249.366	111.88
249.599	98.88
249.832	95.88
250.066	83.88
250.299	91.88
250.532	84.88
250.765	77.88
250.998	93.88
251.231	87.88
251.465	91.88
251.698	83.88
251.931	103.88
252.164	82.88
252.397	70.88
252.63	80.88
252.863	74.88
253.096	80.88
253.329	61.88
253.562	66.88
253.795	84.88
254.028	90.88
254.261	80.88
254.494	91.88
254.727	79.88
254.96	80.88
255.193	89.88
255.426	89.88
255.659	77.88
255.892	100.88
256.124	108.88
256.357	97.88
256.59	87.88
256.823	99.88
257.056	92.88
257.289	100.88
257.521	83.88
257.754	96.88
257.987	85.88
258.22	87.88
258.452	111.88
258.685	110.88
258.918	79.88
259.151	97.88
259.383	86.88
259.616	85.88
259.849	89.88
260.081	91.88
260.314	89.88
260.547	86.88
260.779	115.88
261.012	135.88
261.244	126.88
261.477	104.88
261.71	114.88
261.942	141.88
262.175	155.88
262.407	93.88
262.64	96.88
262.872	93.88
263.105	79.88
263.337	79.88
263.57	89.88
263.802	81.88
264.035	96.88
264.267	83.88
264.499	73.88
264.732	84.88
264.964	86.88
265.197	79.88
265.429	90.88
265.661	86.88
265.894	90.88
266.126	71.88
266.358	87.88
266.591	82.88
266.823	75.88
267.055	85.88
267.287	79.88
267.52	79.88
267.752	80.88
267.984	93.88
268.216	82.88
268.448	94.88
268.681	97.88
268.913	94.88
269.145	81.88
269.377	90.88
269.609	93.88
269.841	89.88
270.073	77.88
270.306	81.88
270.538	86.88
270.77	92.88
271.002	103.88
271.234	97.88
271.466	106.88
271.698	88.88
271.93	77.88
272.162	94.88
272.394	72.88
272.626	83.88
272.858	87.88
273.09	77.88
273.322	91.88
273.553	80.88
273.785	84.88
274.017	96.88
274.249	86.88
274.481	91.88
274.713	84.88
274.945	95.88
275.176	84.88
275.408	118.88
275.64	126.88
275.872	146.88
276.104	109.88
276.335	111.88
276.567	128.88
276.799	185.88
277.031	250.88
277.262	273.88
277.494	203.88
277.726	115.88
277.957	110.88
278.189	86.88
278.421	98.88
278.652	109.88
278.884	105.88
279.115	94.88
279.347	97.88
279.579	122.88
279.81	164.88
280.042	258.88
280.273	398.88
280.505	275.88
280.736	139.88
280.968	102.88
281.199	99.88
281.431	95.88
281.662	109.88
281.894	89.88
282.125	101.88
282.356	159.88
282.588	202.88
282.819	157.88
283.051	107.88
283.282	85.88
283.513	101.88
283.745	82.88
283.976	89.88
284.207	85.88
284.439	83.88
284.67	89.88
284.901	88.88
285.132	86.88
285.364	99.88
285.595	106.88
285.826	85.88
286.057	77.88
286.288	85.88
286.52	99.88
286.751	79.88
286.982	80.88
287.213	91.88
287.444	83.88
287.675	86.88
287.906	89.88
288.138	95.88
288.369	85.88
288.6	93.88
288.831	82.88
289.062	96.88
289.293	102.88
289.524	81.88
289.755	101.88
289.986	102.88
290.217	87.88
290.448	94.88
290.679	85.88
290.91	98.88
291.141	103.88
291.371	99.88
291.602	87.88
291.833	94.88
292.064	83.88
292.295	89.88
292.526	102.88
292.757	104.88
292.987	89.88
293.218	90.88
293.449	86.88
293.68	93.88
293.91	93.88
294.141	80.88
294.372	97.88
294.603	91.88
294.833	83.88
295.064	93.88
295.295	100.88
295.525	98.88
295.756	104.88
295.987	137.88
296.217	190.88
296.448	190.88
296.679	110.88
296.909	93.88
297.14	88.88
297.37	90.88
297.601	94.88
297.831	100.88
298.062	105.88
298.292	98.88
298.523	79.88
298.753	82.88
298.984	101.88
299.214	77.88
299.445	88.88
299.675	114.88
299.905	94.88
300.136	95.88
300.366	85.88
300.597	86.88
300.827	101.88
301.057	122.88
301.288	119.88
301.518	111.88
301.748	103.88
301.979	133.88
302.209	112.88
302.439	85.88
302.669	75.88
302.9	94.88
303.13	113.88
303.36	131.88
303.59	169.88
303.82	189.88
304.051	111.88
304.281	98.88
304.511	105.88
304.741	91.88
304.971	91.88
305.201	96.88
305.431	88.88
305.661	98.88
305.891	98.88
306.121	104.88
306.352	122.88
306.582	123.88
306.812	116.88
307.042	152.88
307.272	195.88
307.502	241.88
307.731	218.88
307.961	152.88
308.191	96.88
308.421	86.88
308.651	90.88
308.881	102.88
309.111	111.88
309.341	103.88
309.571	106.88
309.8	125.88
310.03	112.88
310.26	112.88
310.49	99.88
310.72	119.88
310.949	138.88
311.179	117.88
311.409	101.88
311.639	106.88
311.868	102.88
312.098	102.88
312.328	109.88
312.557	111.88
312.787	142.88
313.017	131.88
313.246	111.88
313.476	110.88
313.706	78.88
313.935	101.88
314.165	123.88
314.394	128.88
314.624	104.88
314.853	111.88
315.083	106.88
315.312	92.88
315.542	94.88
315.771	94.88
316.001	86.88
316.23	103.88
316.46	98.88
316.689	94.88
316.919	80.88
317.148	110.88
317.377	107.88
317.607	104.88
317.836	111.88
318.065	89.88
318.295	103.88
318.524	99.88
318.753	95.88
318.983	99.88
319.212	113.88
319.441	121.88
319.67	122.88
319.9	113.88
320.129	95.88
320.358	102.88
320.587	110.88
320.816	113.88
321.046	99.88
321.275	109.88
321.504	111.88
321.733	99.88
321.962	102.88
322.191	124.88
322.42	142.88
322.649	141.88
322.878	141.88
323.108	146.88
323.337	159.88
323.566	185.88
323.795	220.88
324.024	290.88
324.253	599.88
324.482	1333.88
324.71	2857.88
324.939	3836.88
325.168	1373.88
325.397	369.88
325.626	210.88
325.855	146.88
326.084	158.88
326.313	169.88
326.542	205.88
326.77	333.88
326.999	675.88
327.228	1401.88
327.457	2627.88
327.686	2130.88
327.914	775.88
328.143	806.88
328.372	1125.88
328.6	570.88
328.829	265.88
329.058	241.88
329.287	275.88
329.515	237.88
329.744	359.88
329.972	777.88
330.201	1699.88
330.43	2513.88
330.658	1034.88
330.887	417.88
331.115	263.88
331.344	160.88
331.572	161.88
331.801	157.88
332.03	149.88
332.258	130.88
332.486	114.88
332.715	125.88
332.943	135.88
333.172	140.88
333.4	156.88
333.629	218.88
333.857	338.88
334.085	655.88
334.314	1505.88
334.542	3152.88
334.771	2893.88
334.999	665.88
335.227	251.88
335.455	157.88
335.684	138.88
335.912	117.88
336.14	117.88
336.369	118.88
336.597	120.88
336.825	116.88
337.053	86.88
337.281	103.88
337.51	106.88
337.738	108.88
337.966	109.88
338.194	130.88
338.422	106.88
338.65	106.88
338.878	105.88
339.106	99.88
339.334	105.88
339.562	95.88
339.79	104.88
340.018	95.88
340.246	109.88
340.474	120.88
340.702	122.88
340.93	103.88
341.158	107.88
341.386	106.88
341.614	113.88
341.842	103.88
342.07	106.88
342.298	107.88
342.526	96.88
342.754	103.88
342.981	88.88
343.209	94.88
343.437	108.88
343.665	87.88
343.893	80.88
344.12	104.88
344.348	97.88
344.576	92.88
344.804	105.88
345.031	133.88
345.259	139.88
345.487	108.88
345.714	106.88
345.942	110.88
346.17	102.88
346.397	87.88
346.625	83.88
346.853	105.88
347.08	92.88
347.308	91.88
347.535	106.88
347.763	121.88
347.99	103.88
348.218	125.88
348.445	126.88
348.673	113.88
348.9	100.88
349.128	100.88
349.355	100.88
349.583	77.88
349.81	106.88
350.037	97.88
350.265	114.88
350.492	94.88
350.72	102.88
350.947	114.88
351.174	134.88
351.402	140.88
351.629	126.88
351.856	124.88
352.083	120.88
352.311	138.88
352.538	139.88
352.765	127.88
352.992	138.88
353.22	121.88
353.447	118.88
353.674	113.88
353.901	93.88
354.128	90.88
354.355	88.88
354.583	81.88
354.81	88.88
355.037	99.88
355.264	84.88
355.491	78.88
355.718	86.88
355.945	94.88
356.172	95.88
356.399	96.88
356.626	102.88
356.853	94.88
357.08	89.88
357.307	85.88
357.534	89.88
357.761	86.88
357.988	79.88
358.215	92.88
358.441	97.88
358.668	97.88
358.895	91.88
359.122	81.88
359.349	104.88
359.576	103.88
359.802	118.88
360.029	183.88
360.256	164.88
360.483	131.88
360.709	110.88
360.936	105.88
361.163	113.88
361.39	119.88
361.616	114.88
361.843	85.88
362.07	113.88
362.296	118.88
362.523	107.88
362.749	107.88
362.976	116.88
363.203	98.88
363.429	90.88
363.656	100.88
363.882	88.88
364.109	85.88
364.335	92.88
364.562	98.88
364.788	94.88
365.015	106.88
365.241	112.88
365.468	122.88
365.694	144.88
365.92	96.88
366.147	109.88
366.373	99.88
366.599	100.88
366.826	89.88
367.052	103.88
367.278	117.88
367.505	106.88
367.731	109.88
367.957	79.88
368.184	95.88
368.41	114.88
368.636	139.88
368.862	142.88
369.089	137.88
369.315	109.88
369.541	108.88
369.767	99.88
369.993	96.88
370.219	109.88
370.445	94.88
370.672	97.88
370.898	99.88
371.124	93.88
371.35	96.88
371.576	95.88
371.802	90.88
372.028	88.88
372.254	98.88
372.48	90.88
372.706	90.88
372.932	90.88
373.158	92.88
373.384	95.88
373.61	95.88
373.835	92.88
374.061	100.88
374.287	96.88
374.513	90.88
374.739	95.88
374.965	91.88
375.191	79.88
375.416	93.88
375.642	88.88
375.868	94.88
376.094	81.88
376.319	94.88
376.545	83.88
376.771	96.88
376.997	106.88
377.222	95.88
377.448	99.88
377.674	73.88
377.899	79.88
378.125	97.88
378.35	96.88
378.576	93.88
378.802	94.88
379.027	89.88
379.253	79.88
379.478	85.88
379.704	93.88
379.929	99.88
380.155	96.88
380.38	97.88
380.606	94.88
380.831	89.88
381.057	96.88
381.282	103.88
381.507	98.88
381.733	99.88
381.958	85.88
382.184	101.88
382.409	107.88
382.634	106.88
382.86	98.88
383.085	95.88
383.31	112.88
383.535	106.88
383.761	102.88
383.986	82.88
384.211	99.88
384.436	88.88
384.662	89.88
384.887	90.88
385.112	96.88
385.337	92.88
385.562	98.88
385.787	100.88
386.013	121.88
386.238	127.88
386.463	105.88
386.688	120.88
386.913	117.88
387.138	102.88
387.363	99.88
387.588	108.88
387.813	105.88
388.038	103.88
388.263	106.88
388.488	122.88
388.713	90.88
388.938	97.88
389.163	86.88
389.387	91.88
389.612	94.88
389.837	84.88
390.062	83.88
390.287	101.88
390.512	79.88
390.736	83.88
390.961	75.88
391.186	100.88
391.411	82.88
391.636	88.88
391.86	93.88
392.085	101.88
392.31	82.88
392.534	89.88
392.759	86.88
392.984	90.88
393.208	83.88
393.433	87.88
393.658	91.88
393.882	87.88
394.107	73.88
394.331	106.88
394.556	97.88
394.78	95.88
395.005	94.88
395.229	104.88
395.454	73.88
395.678	90.88
395.903	81.88
396.127	99.88
396.352	102.88
396.576	81.88
396.801	90.88
397.025	89.88
397.249	89.88
397.474	91.88
397.698	96.88
397.922	88.88
398.147	85.88
398.371	82.88
398.595	81.88
398.82	96.88
399.044	95.88
399.268	92.88
399.492	81.88
399.717	80.88
399.941	91.88
400.165	89.88
400.389	96.88
400.613	90.88
400.837	104.88
401.062	75.88
401.286	83.88
401.51	89.88
401.734	96.88
401.958	127.88
402.182	173.88
402.406	273.88
402.63	192.88
402.854	114.88
403.078	108.88
403.302	92.88
403.526	85.88
403.75	89.88
403.974	88.88
404.198	99.88
404.422	99.88
404.645	101.88
404.869	105.88
405.093	126.88
405.317	167.88
405.541	163.88
405.765	142.88
405.988	173.88
406.212	284.88
406.436	413.88
406.66	263.88
406.883	140.88
407.107	114.88
407.331	113.88
407.555	118.88
407.778	130.88
408.002	110.88
408.226	100.88
408.449	79.88
408.673	95.88
408.896	95.88
409.12	93.88
409.344	98.88
409.567	81.88
409.791	93.88
410.014	91.88
410.238	99.88
410.461	90.88
410.685	113.88
410.908	104.88
411.132	115.88
411.355	117.88
411.578	109.88
411.802	89.88
412.025	110.88
412.249	123.88
412.472	135.88
412.695	159.88
412.919	117.88
413.142	106.88
413.365	92.88
413.589	82.88
413.812	80.88
414.035	102.88
414.258	95.88
414.482	94.88
414.705	85.88
414.928	92.88
415.151	103.88
415.374	102.88
415.597	93.88
415.821	104.88
416.044	94.88
416.267	96.88
416.49	94.88
416.713	80.88
416.936	90.88
417.159	109.88
417.382	105.88
417.605	113.88
417.828	121.88
418.051	109.88
418.274	91.88
418.497	104.88
418.72	87.88
418.943	81.88
419.166	95.88
419.389	87.88
419.611	101.88
419.834	104.88
420.057	105.88
420.28	106.88
420.503	94.88
420.726	103.88
420.948	109.88
421.171	107.88
421.394	109.88
421.617	76.88
421.839	96.88
422.062	102.88
422.285	97.88
422.507	109.88
422.73	112.88
422.953	105.88
423.175	95.88
423.398	91.88
423.621	84.88
423.843	92.88
424.066	84.88
424.288	90.88
424.511	98.88
424.733	115.88
424.956	133.88
425.178	135.88
425.401	121.88
425.623	103.88
425.846	109.88
426.068	105.88
426.291	105.88
426.513	99.88
426.735	93.88
426.958	98.88
427.18	136.88
427.402	221.88
427.625	357.88
427.847	318.88
428.069	288.88
428.292	155.88
428.514	99.88
428.736	102.88
428.958	90.88
429.181	93.88
429.403	85.88
429.625	94.88
429.847	104.88
430.069	110.88
430.292	108.88
430.514	88.88
430.736	91.88
430.958	80.88
431.18	95.88
431.402	85.88
431.624	88.88
431.846	87.88
432.068	80.88
432.29	94.88
432.512	100.88
432.734	83.88
432.956	109.88
433.178	105.88
433.4	102.88
433.622	87.88
433.844	100.88
434.066	86.88
434.287	95.88
434.509	99.88
434.731	98.88
434.953	94.88
435.175	96.88
435.397	84.88
435.618	102.88
435.84	116.88
436.062	157.88
436.284	131.88
436.505	105.88
436.727	101.88
436.949	94.88
437.17	110.88
437.392	109.88
437.614	103.88
437.835	149.88
438.057	177.88
438.278	140.88
438.5	129.88
438.721	146.88
438.943	123.88
439.165	89.88
439.386	93.88
439.608	115.88
439.829	136.88
440.05	184.88
440.272	233.88
440.493	125.88
440.715	97.88
440.936	89.88
441.158	98.88
441.379	81.88
441.6	109.88
441.822	114.88
442.043	109.88
442.264	136.88
442.486	136.88
442.707	111.88
442.928	150.88
443.149	200.88
443.371	225.88
443.592	164.88
443.813	138.88
444.034	133.88
444.255	104.88
444.476	96.88
444.698	91.88
444.919	86.88
445.14	141.88
445.361	141.88
445.582	168.88
445.803	246.88
446.024	207.88
446.245	192.88
446.466	153.88
446.687	98.88
446.908	99.88
447.129	106.88
447.35	96.88
447.571	105.88
447.792	96.88
448.013	108.88
448.234	138.88
448.455	137.88
448.675	147.88
448.896	151.88
449.117	123.88
449.338	124.88
449.559	164.88
449.779	159.88
450	110.88
450.221	102.88
450.442	107.88
450.662	101.88
450.883	151.88
451.104	175.88
451.324	112.88
451.545	104.88
451.766	99.88
451.986	109.88
452.207	102.88
452.428	104.88
452.648	120.88
452.869	159.88
453.089	165.88
453.31	182.88
453.53	130.88
453.751	103.88
453.971	129.88
454.192	161.88
454.412	119.88
454.633	97.88
454.853	98.88
455.073	81.88
455.294	94.88
455.514	118.88
455.734	90.88
455.955	91.88
456.175	89.88
456.395	100.88
456.616	90.88
456.836	88.88
457.056	82.88
457.276	72.88
457.497	106.88
457.717	90.88
457.937	112.88
458.157	97.88
458.377	104.88
458.598	157.88
458.818	269.88
459.038	293.88
459.258	189.88
459.478	107.88
459.698	91.88
459.918	100.88
460.138	96.88
460.358	71.88
460.578	88.88
460.798	106.88
461.018	99.88
461.238	96.88
461.458	85.88
461.678	98.88
461.898	87.88
462.118	94.88
462.338	83.88
462.558	98.88
462.777	79.88
462.997	109.88
463.217	129.88
463.437	120.88
463.657	96.88
463.876	99.88
464.096	110.88
464.316	117.88
464.536	100.88
464.755	116.88
464.975	156.88
465.195	311.88
465.414	331.88
465.634	109.88
465.854	89.88
466.073	118.88
466.293	89.88
466.512	96.88
466.732	93.88
466.951	110.88
467.171	98.88
467.391	122.88
467.61	172.88
467.829	290.88
468.049	908.88
468.268	1445.88
468.488	318.88
468.707	121.88
468.927	97.88
469.146	97.88
469.365	97.88
469.585	109.88
469.804	120.88
470.023	120.88
470.243	135.88
470.462	140.88
470.681	177.88
470.901	127.88
471.12	107.88
471.339	126.88
471.558	138.88
471.777	190.88
471.997	438.88
472.216	1806.88
472.435	4379.88
472.654	933.88
472.873	211.88
473.092	130.88
473.311	105.88
473.53	109.88
473.749	109.88
473.968	122.88
474.187	149.88
474.406	119.88
474.625	86.88
474.844	77.88
475.063	92.88
475.282	93.88
475.501	78.88
475.72	100.88
475.939	103.88
476.158	87.88
476.377	98.88
476.596	94.88
476.814	123.88
477.033	105.88
477.252	100.88
477.471	92.88
477.69	95.88
477.908	105.88
478.127	103.88
478.346	107.88
478.564	111.88
478.783	129.88
479.002	126.88
479.22	104.88
479.439	140.88
479.658	150.88
479.876	153.88
480.095	162.88
480.313	165.88
480.532	220.88
480.751	413.88
480.969	1605.88
481.188	7230.88
481.406	4100.88
481.624	549.88
481.843	187.88
482.061	120.88
482.28	123.88
482.498	124.88
482.717	97.88
482.935	95.88
483.153	99.88
483.372	93.88
483.59	89.88
483.808	82.88
484.027	104.88
484.245	106.88
484.463	97.88
484.681	93.88
484.9	101.88
485.118	87.88
485.336	83.88
485.554	101.88
485.772	108.88
485.99	115.88
486.209	111.88
486.427	108.88
486.645	125.88
486.863	148.88
487.081	122.88
487.299	99.88
487.517	94.88
487.735	103.88
487.953	86.88
488.171	103.88
488.389	94.88
488.607	113.88
488.825	98.88
489.043	96.88
489.261	102.88
489.479	98.88
489.696	100.88
489.914	96.88
490.132	83.88
490.35	90.88
490.568	91.88
490.786	93.88
491.003	112.88
491.221	100.88
491.439	106.88
491.657	93.88
491.874	73.88
492.092	97.88
492.31	84.88
492.527	107.88
492.745	95.88
492.963	97.88
493.18	97.88
493.398	101.88
493.615	98.88
493.833	85.88
494.05	86.88
494.268	94.88
494.485	91.88
494.703	104.88
494.92	97.88
495.138	79.88
495.355	96.88
495.573	83.88
495.79	88.88
496.008	102.88
496.225	89.88
496.442	103.88
496.66	95.88
496.877	87.88
497.094	91.88
497.312	93.88
497.529	89.88
497.746	79.88
497.963	90.88
498.181	96.88
498.398	107.88
498.615	129.88
498.832	133.88
499.049	106.88
499.267	96.88
499.484	90.88
499.701	97.88
499.918	97.88
500.135	89.88
500.352	101.88
500.569	97.88
500.786	101.88
501.003	94.88
501.22	104.88
501.437	99.88
501.654	112.88
501.871	137.88
502.088	96.88
502.305	82.88
502.522	86.88
502.739	101.88
502.956	109.88
503.172	111.88
503.389	124.88
503.606	143.88
503.823	111.88
504.04	115.88
504.256	96.88
504.473	83.88
504.69	89.88
504.907	87.88
505.123	89.88
505.34	96.88
505.557	87.88
505.773	96.88
505.99	103.88
506.207	103.88
506.423	102.88
506.64	84.88
506.856	93.88
507.073	91.88
507.289	102.88
507.506	114.88
507.722	157.88
507.939	155.88
508.155	97.88
508.372	76.88
508.588	98.88
508.805	97.88
509.021	88.88
509.238	113.88
509.454	123.88
509.67	114.88
509.887	120.88
510.103	160.88
510.319	282.88
510.536	1211.88
510.752	4341.88
510.968	1102.88
511.184	229.88
