Data from Circ_1995_H10_HRD10591_00078.txt Node
Date: Wed Jan 03 11:37:02 EST 2024
User: Yrep
Spectrometer: HR+D1059
Trigger mode: 1
Integration Time (sec): 1.000000E-1
Scans to average: 1
Electric dark correction enabled: true
Nonlinearity correction enabled: false
Boxcar width: 0
XAxis mode: Wavelengths
Number of Pixels in Spectrum: 2048
>>>>>Begin Spectral Data<<<<<
223.165	-24.69
223.4	-24.69
223.635	-24.69
223.869	-15.69
224.104	-15.69
224.338	-11.69
224.573	-22.69
224.808	-24.69
225.042	-8.69
225.277	-8.69
225.511	6.31
225.746	13.31
225.98	13.31
226.215	18.31
226.449	18.31
226.683	12.31
226.918	25.31
227.152	25.31
227.387	33.31
227.621	28.31
227.856	48.31
228.09	42.31
228.324	51.31
228.559	42.31
228.793	67.31
229.027	66.31
229.262	71.31
229.496	80.31
229.73	107.31
229.964	101.31
230.199	80.31
230.433	81.31
230.667	83.31
230.901	75.31
231.136	86.31
231.37	72.31
231.604	86.31
231.838	97.31
232.072	85.31
232.306	82.31
232.541	74.31
232.775	81.31
233.009	78.31
233.243	90.31
233.477	82.31
233.711	89.31
233.945	91.31
234.179	96.31
234.413	79.31
234.647	73.31
234.881	81.31
235.115	86.31
235.349	80.31
235.583	66.31
235.817	81.31
236.051	89.31
236.285	84.31
236.519	80.31
236.753	93.31
236.987	87.31
237.221	82.31
237.455	97.31
237.689	82.31
237.922	68.31
238.156	70.31
238.39	74.31
238.624	74.31
238.858	67.31
239.091	73.31
239.325	83.31
239.559	93.31
239.793	79.31
240.027	62.31
240.26	70.31
240.494	79.31
240.728	86.31
240.961	76.31
241.195	86.31
241.429	94.31
241.662	86.31
241.896	94.31
242.13	81.31
242.363	78.31
242.597	77.31
242.83	72.31
243.064	85.31
243.298	94.31
243.531	92.31
243.765	96.31
243.998	90.31
244.232	83.31
244.465	87.31
244.699	80.31
244.932	96.31
245.166	83.31
245.399	79.31
245.633	82.31
245.866	74.31
246.099	79.31
246.333	81.31
246.566	86.31
246.8	100.31
247.033	87.31
247.266	80.31
247.5	81.31
247.733	108.31
247.966	81.31
248.2	81.31
248.433	73.31
248.666	83.31
248.899	88.31
249.133	100.31
249.366	113.31
249.599	124.31
249.832	87.31
250.066	94.31
250.299	82.31
250.532	94.31
250.765	96.31
250.998	87.31
251.231	81.31
251.465	92.31
251.698	100.31
251.931	97.31
252.164	81.31
252.397	81.31
252.63	86.31
252.863	91.31
253.096	79.31
253.329	97.31
253.562	76.31
253.795	86.31
254.028	80.31
254.261	97.31
254.494	70.31
254.727	82.31
254.96	88.31
255.193	95.31
255.426	96.31
255.659	67.31
255.892	95.31
256.124	104.31
256.357	86.31
256.59	94.31
256.823	87.31
257.056	86.31
257.289	82.31
257.521	95.31
257.754	83.31
257.987	104.31
258.22	111.31
258.452	113.31
258.685	114.31
258.918	93.31
259.151	79.31
259.383	89.31
259.616	87.31
259.849	96.31
260.081	101.31
260.314	89.31
260.547	97.31
260.779	111.31
261.012	143.31
261.244	128.31
261.477	105.31
261.71	122.31
261.942	152.31
262.175	155.31
262.407	103.31
262.64	91.31
262.872	92.31
263.105	86.31
263.337	97.31
263.57	80.31
263.802	74.31
264.035	90.31
264.267	83.31
264.499	82.31
264.732	91.31
264.964	79.31
265.197	75.31
265.429	83.31
265.661	74.31
265.894	89.31
266.126	86.31
266.358	79.31
266.591	86.31
266.823	91.31
267.055	72.31
267.287	90.31
267.52	103.31
267.752	99.31
267.984	91.31
268.216	97.31
268.448	88.31
268.681	91.31
268.913	99.31
269.145	80.31
269.377	80.31
269.609	98.31
269.841	83.31
270.073	93.31
270.306	100.31
270.538	96.31
270.77	75.31
271.002	103.31
271.234	88.31
271.466	108.31
271.698	91.31
271.93	86.31
272.162	100.31
272.394	98.31
272.626	103.31
272.858	102.31
273.09	85.31
273.322	79.31
273.553	83.31
273.785	92.31
274.017	96.31
274.249	94.31
274.481	87.31
274.713	83.31
274.945	90.31
275.176	99.31
275.408	123.31
275.64	139.31
275.872	146.31
276.104	132.31
276.335	116.31
276.567	134.31
276.799	199.31
277.031	252.31
277.262	322.31
277.494	226.31
277.726	118.31
277.957	98.31
278.189	90.31
278.421	91.31
278.652	100.31
278.884	115.31
279.115	95.31
279.347	98.31
279.579	121.31
279.81	186.31
280.042	299.31
280.273	434.31
280.505	283.31
280.736	136.31
280.968	105.31
281.199	93.31
281.431	104.31
281.662	90.31
281.894	91.31
282.125	114.31
282.356	144.31
282.588	194.31
282.819	160.31
283.051	90.31
283.282	87.31
283.513	104.31
283.745	83.31
283.976	90.31
284.207	81.31
284.439	96.31
284.67	87.31
284.901	90.31
285.132	76.31
285.364	77.31
285.595	92.31
285.826	93.31
286.057	93.31
286.288	95.31
286.52	76.31
286.751	91.31
286.982	100.31
287.213	78.31
287.444	100.31
287.675	82.31
287.906	90.31
288.138	88.31
288.369	92.31
288.6	104.31
288.831	100.31
289.062	85.31
289.293	98.31
289.524	88.31
289.755	92.31
289.986	88.31
290.217	94.31
290.448	87.31
290.679	103.31
290.91	100.31
291.141	81.31
291.371	97.31
291.602	90.31
291.833	91.31
292.064	85.31
292.295	87.31
292.526	91.31
292.757	94.31
292.987	104.31
293.218	77.31
293.449	81.31
293.68	90.31
293.91	87.31
294.141	98.31
294.372	81.31
294.603	78.31
294.833	94.31
295.064	79.31
295.295	95.31
295.525	91.31
295.756	118.31
295.987	139.31
296.217	187.31
296.448	177.31
296.679	108.31
296.909	89.31
297.14	93.31
297.37	94.31
297.601	97.31
297.831	91.31
298.062	92.31
298.292	99.31
298.523	93.31
298.753	99.31
298.984	102.31
299.214	98.31
299.445	101.31
299.675	94.31
299.905	118.31
300.136	99.31
300.366	100.31
300.597	86.31
300.827	97.31
301.057	117.31
301.288	126.31
301.518	124.31
301.748	108.31
301.979	142.31
302.209	110.31
302.439	104.31
302.669	120.31
302.9	95.31
303.13	94.31
303.36	142.31
303.59	177.31
303.82	178.31
304.051	126.31
304.281	92.31
304.511	98.31
304.741	96.31
304.971	81.31
305.201	96.31
305.431	92.31
305.661	96.31
305.891	86.31
306.121	104.31
306.352	129.31
306.582	129.31
306.812	113.31
307.042	159.31
307.272	214.31
307.502	239.31
307.731	202.31
307.961	155.31
308.191	120.31
308.421	94.31
308.651	97.31
308.881	104.31
309.111	100.31
309.341	106.31
309.571	102.31
309.8	112.31
310.03	112.31
310.26	121.31
310.49	107.31
310.72	122.31
310.949	143.31
311.179	125.31
311.409	116.31
311.639	115.31
311.868	107.31
312.098	104.31
312.328	114.31
312.557	150.31
312.787	143.31
313.017	125.31
313.246	116.31
313.476	108.31
313.706	107.31
313.935	101.31
314.165	114.31
314.394	126.31
314.624	113.31
314.853	116.31
315.083	111.31
315.312	98.31
315.542	102.31
315.771	95.31
316.001	86.31
316.23	104.31
316.46	96.31
316.689	107.31
316.919	90.31
317.148	102.31
317.377	111.31
317.607	95.31
317.836	109.31
318.065	97.31
318.295	82.31
318.524	97.31
318.753	94.31
318.983	94.31
319.212	108.31
319.441	150.31
319.67	138.31
319.9	96.31
320.129	100.31
320.358	94.31
320.587	100.31
320.816	118.31
321.046	114.31
321.275	111.31
321.504	106.31
321.733	116.31
321.962	122.31
322.191	114.31
322.42	124.31
322.649	134.31
322.878	139.31
323.108	143.31
323.337	155.31
323.566	170.31
323.795	215.31
324.024	296.31
324.253	570.31
324.482	1295.31
324.71	2787.31
324.939	3686.31
325.168	1322.31
325.397	363.31
325.626	210.31
325.855	154.31
326.084	161.31
326.313	172.31
326.542	204.31
326.77	333.31
326.999	654.31
327.228	1373.31
327.457	2587.31
327.686	2079.31
327.914	764.31
328.143	830.31
328.372	1160.31
328.6	612.31
328.829	267.31
329.058	256.31
329.287	268.31
329.515	246.31
329.744	361.31
329.972	778.31
330.201	1710.31
330.43	2623.31
330.658	1087.31
330.887	451.31
331.115	263.31
331.344	138.31
331.572	163.31
331.801	160.31
332.03	157.31
332.258	140.31
332.486	114.31
332.715	132.31
332.943	135.31
333.172	146.31
333.4	164.31
333.629	215.31
333.857	334.31
334.085	712.31
334.314	1528.31
334.542	3179.31
334.771	2938.31
334.999	707.31
335.227	263.31
335.455	155.31
335.684	136.31
335.912	124.31
336.14	123.31
336.369	118.31
336.597	135.31
336.825	131.31
337.053	121.31
337.281	95.31
337.51	111.31
337.738	108.31
337.966	106.31
338.194	126.31
338.422	121.31
338.65	100.31
338.878	110.31
339.106	95.31
339.334	108.31
339.562	95.31
339.79	90.31
340.018	96.31
340.246	100.31
340.474	109.31
340.702	107.31
340.93	107.31
341.158	98.31
341.386	101.31
341.614	120.31
341.842	103.31
342.07	82.31
342.298	100.31
342.526	107.31
342.754	99.31
342.981	97.31
343.209	96.31
343.437	85.31
343.665	95.31
343.893	104.31
344.12	99.31
344.348	100.31
344.576	90.31
344.804	105.31
345.031	107.31
345.259	118.31
345.487	98.31
345.714	104.31
345.942	117.31
346.17	79.31
346.397	99.31
346.625	99.31
346.853	110.31
347.08	91.31
347.308	100.31
347.535	112.31
347.763	110.31
347.99	118.31
348.218	121.31
348.445	129.31
348.673	117.31
348.9	112.31
349.128	111.31
349.355	88.31
349.583	97.31
349.81	105.31
350.037	97.31
350.265	91.31
350.492	84.31
350.72	118.31
350.947	127.31
351.174	130.31
351.402	143.31
351.629	118.31
351.856	115.31
352.083	116.31
352.311	115.31
352.538	121.31
352.765	122.31
352.992	157.31
353.22	118.31
353.447	109.31
353.674	130.31
353.901	114.31
354.128	105.31
354.355	95.31
354.583	112.31
354.81	118.31
355.037	93.31
355.264	105.31
355.491	99.31
355.718	82.31
355.945	83.31
356.172	96.31
356.399	98.31
356.626	96.31
356.853	106.31
357.08	78.31
357.307	94.31
357.534	89.31
357.761	93.31
357.988	102.31
358.215	103.31
358.441	95.31
358.668	89.31
358.895	91.31
359.122	99.31
359.349	93.31
359.576	107.31
359.802	130.31
360.029	166.31
360.256	173.31
360.483	127.31
360.709	96.31
360.936	124.31
361.163	101.31
361.39	102.31
361.616	105.31
361.843	100.31
362.07	113.31
362.296	123.31
362.523	100.31
362.749	100.31
362.976	106.31
363.203	103.31
363.429	94.31
363.656	96.31
363.882	96.31
364.109	89.31
364.335	81.31
364.562	99.31
364.788	98.31
365.015	110.31
365.241	115.31
365.468	128.31
365.694	121.31
365.92	101.31
366.147	94.31
366.373	99.31
366.599	91.31
366.826	104.31
367.052	110.31
367.278	104.31
367.505	115.31
367.731	103.31
367.957	96.31
368.184	97.31
368.41	123.31
368.636	116.31
368.862	154.31
369.089	130.31
369.315	118.31
369.541	98.31
369.767	97.31
369.993	96.31
370.219	90.31
370.445	87.31
370.672	86.31
370.898	88.31
371.124	92.31
371.35	101.31
371.576	80.31
371.802	88.31
372.028	75.31
372.254	75.31
372.48	88.31
372.706	100.31
372.932	99.31
373.158	104.31
373.384	95.31
373.61	80.31
373.835	79.31
374.061	90.31
374.287	89.31
374.513	92.31
374.739	96.31
374.965	104.31
375.191	86.31
375.416	103.31
375.642	95.31
375.868	97.31
376.094	83.31
376.319	85.31
376.545	84.31
376.771	99.31
376.997	103.31
377.222	88.31
377.448	76.31
377.674	83.31
377.899	83.31
378.125	100.31
378.35	89.31
378.576	102.31
378.802	98.31
379.027	84.31
379.253	82.31
379.478	81.31
379.704	95.31
379.929	101.31
380.155	93.31
380.38	96.31
380.606	106.31
380.831	92.31
381.057	96.31
381.282	108.31
381.507	88.31
381.733	98.31
381.958	95.31
382.184	80.31
382.409	92.31
382.634	108.31
382.86	113.31
383.085	105.31
383.31	114.31
383.535	95.31
383.761	93.31
383.986	94.31
384.211	97.31
384.436	96.31
384.662	103.31
384.887	103.31
385.112	110.31
385.337	109.31
385.562	84.31
385.787	99.31
386.013	130.31
386.238	119.31
386.463	108.31
386.688	114.31
386.913	105.31
387.138	114.31
387.363	94.31
387.588	94.31
387.813	104.31
388.038	113.31
388.263	103.31
388.488	108.31
388.713	107.31
388.938	98.31
389.163	91.31
389.387	95.31
389.612	90.31
389.837	114.31
390.062	93.31
390.287	95.31
390.512	97.31
390.736	91.31
390.961	100.31
391.186	83.31
391.411	94.31
391.636	74.31
391.86	76.31
392.085	89.31
392.31	87.31
392.534	94.31
392.759	88.31
392.984	88.31
393.208	72.31
393.433	79.31
393.658	82.31
393.882	96.31
394.107	98.31
394.331	86.31
394.556	83.31
394.78	89.31
395.005	93.31
395.229	91.31
395.454	76.31
395.678	81.31
395.903	93.31
396.127	98.31
396.352	100.31
396.576	83.31
396.801	87.31
397.025	89.31
397.249	94.31
397.474	87.31
397.698	93.31
397.922	92.31
398.147	88.31
398.371	89.31
398.595	89.31
398.82	88.31
399.044	79.31
399.268	81.31
399.492	89.31
399.717	78.31
399.941	95.31
400.165	102.31
400.389	85.31
400.613	90.31
400.837	98.31
401.062	91.31
401.286	82.31
401.51	95.31
401.734	91.31
401.958	116.31
402.182	156.31
402.406	234.31
402.63	181.31
402.854	123.31
403.078	120.31
403.302	88.31
403.526	97.31
403.75	112.31
403.974	94.31
404.198	112.31
404.422	94.31
404.645	99.31
404.869	124.31
405.093	142.31
405.317	171.31
405.541	173.31
405.765	131.31
405.988	155.31
406.212	264.31
406.436	406.31
406.66	250.31
406.883	147.31
407.107	126.31
407.331	117.31
407.555	123.31
407.778	110.31
408.002	108.31
408.226	105.31
408.449	83.31
408.673	97.31
408.896	107.31
409.12	99.31
409.344	92.31
409.567	91.31
409.791	98.31
410.014	89.31
410.238	99.31
410.461	107.31
410.685	79.31
410.908	99.31
411.132	108.31
411.355	110.31
411.578	83.31
411.802	97.31
412.025	91.31
412.249	120.31
412.472	118.31
412.695	144.31
412.919	122.31
413.142	99.31
413.365	94.31
413.589	84.31
413.812	78.31
414.035	94.31
414.258	113.31
414.482	92.31
414.705	96.31
414.928	98.31
415.151	99.31
415.374	86.31
415.597	96.31
415.821	94.31
416.044	100.31
416.267	95.31
416.49	90.31
416.713	90.31
416.936	94.31
417.159	95.31
417.382	104.31
417.605	128.31
417.828	131.31
418.051	111.31
418.274	95.31
418.497	94.31
418.72	82.31
418.943	93.31
419.166	78.31
419.389	101.31
419.611	94.31
419.834	96.31
420.057	99.31
420.28	96.31
420.503	104.31
420.726	96.31
420.948	98.31
421.171	105.31
421.394	106.31
421.617	85.31
421.839	96.31
422.062	92.31
422.285	95.31
422.507	93.31
422.73	110.31
422.953	92.31
423.175	92.31
423.398	90.31
423.621	87.31
423.843	97.31
424.066	90.31
424.288	97.31
424.511	97.31
424.733	112.31
424.956	119.31
425.178	123.31
425.401	120.31
425.623	113.31
425.846	95.31
426.068	92.31
426.291	104.31
426.513	105.31
426.735	114.31
426.958	117.31
427.18	120.31
427.402	211.31
427.625	342.31
427.847	323.31
428.069	294.31
428.292	140.31
428.514	95.31
428.736	95.31
428.958	67.31
429.181	91.31
429.403	84.31
429.625	95.31
429.847	101.31
430.069	129.31
430.292	105.31
430.514	96.31
430.736	88.31
430.958	89.31
431.18	88.31
431.402	94.31
431.624	77.31
431.846	84.31
432.068	80.31
432.29	88.31
432.512	91.31
432.734	82.31
432.956	90.31
433.178	106.31
433.4	102.31
433.622	97.31
433.844	103.31
434.066	93.31
434.287	91.31
434.509	107.31
434.731	97.31
434.953	80.31
435.175	86.31
435.397	98.31
435.618	110.31
435.84	119.31
436.062	155.31
436.284	140.31
436.505	114.31
436.727	108.31
436.949	89.31
437.17	103.31
437.392	78.31
437.614	103.31
437.835	143.31
438.057	174.31
438.278	145.31
438.5	123.31
438.721	163.31
438.943	106.31
439.165	92.31
439.386	91.31
439.608	113.31
439.829	123.31
440.05	174.31
440.272	222.31
440.493	128.31
440.715	97.31
440.936	88.31
441.158	79.31
441.379	106.31
441.6	99.31
441.822	134.31
442.043	115.31
442.264	129.31
442.486	126.31
442.707	113.31
442.928	135.31
443.149	211.31
443.371	220.31
443.592	154.31
443.813	153.31
444.034	131.31
444.255	94.31
444.476	96.31
444.698	96.31
444.919	88.31
445.14	136.31
445.361	150.31
445.582	159.31
445.803	218.31
446.024	207.31
446.245	203.31
446.466	139.31
446.687	98.31
446.908	90.31
447.129	91.31
447.35	97.31
447.571	100.31
447.792	99.31
448.013	118.31
448.234	136.31
448.455	129.31
448.675	132.31
448.896	149.31
449.117	126.31
449.338	117.31
449.559	164.31
449.779	174.31
450	90.31
450.221	89.31
450.442	102.31
450.662	108.31
450.883	152.31
451.104	181.31
451.324	124.31
451.545	90.31
451.766	100.31
451.986	91.31
452.207	118.31
452.428	102.31
452.648	122.31
452.869	139.31
453.089	129.31
453.31	160.31
453.53	124.31
453.751	115.31
453.971	125.31
454.192	172.31
454.412	113.31
454.633	97.31
454.853	90.31
455.073	83.31
455.294	97.31
455.514	100.31
455.734	96.31
455.955	68.31
456.175	98.31
456.395	95.31
456.616	95.31
456.836	113.31
457.056	93.31
457.276	80.31
457.497	84.31
457.717	88.31
457.937	97.31
458.157	103.31
458.377	99.31
458.598	134.31
458.818	271.31
459.038	310.31
459.258	183.31
459.478	110.31
459.698	86.31
459.918	81.31
460.138	95.31
460.358	89.31
460.578	81.31
460.798	107.31
461.018	97.31
461.238	100.31
461.458	99.31
461.678	84.31
461.898	98.31
462.118	88.31
462.338	98.31
462.558	99.31
462.777	95.31
462.997	97.31
463.217	132.31
463.437	99.31
463.657	93.31
463.876	96.31
464.096	103.31
464.316	115.31
464.536	111.31
464.755	95.31
464.975	159.31
465.195	308.31
465.414	306.31
465.634	116.31
465.854	93.31
466.073	86.31
466.293	97.31
466.512	104.31
466.732	94.31
466.951	95.31
467.171	99.31
467.391	127.31
467.61	183.31
467.829	305.31
468.049	950.31
468.268	1496.31
468.488	346.31
468.707	132.31
468.927	98.31
469.146	97.31
469.365	113.31
469.585	120.31
469.804	130.31
470.023	127.31
470.243	103.31
470.462	136.31
470.681	169.31
470.901	127.31
471.12	117.31
471.339	141.31
471.558	150.31
471.777	220.31
471.997	441.31
472.216	1825.31
472.435	4438.31
472.654	953.31
472.873	228.31
473.092	129.31
473.311	107.31
473.53	95.31
473.749	95.31
473.968	106.31
474.187	138.31
474.406	107.31
474.625	99.31
474.844	89.31
475.063	90.31
475.282	97.31
475.501	83.31
475.72	83.31
475.939	89.31
476.158	93.31
476.377	96.31
476.596	90.31
476.814	98.31
477.033	107.31
477.252	87.31
477.471	112.31
477.69	110.31
477.908	81.31
478.127	99.31
478.346	88.31
478.564	90.31
478.783	127.31
479.002	123.31
479.22	123.31
479.439	139.31
479.658	156.31
479.876	160.31
480.095	135.31
480.313	165.31
480.532	198.31
480.751	398.31
480.969	1585.31
481.188	7230.31
481.406	4172.31
481.624	562.31
481.843	177.31
482.061	152.31
482.28	125.31
482.498	98.31
482.717	110.31
482.935	104.31
483.153	96.31
483.372	92.31
483.59	94.31
483.808	106.31
484.027	99.31
484.245	96.31
484.463	110.31
484.681	100.31
484.9	99.31
485.118	100.31
485.336	104.31
485.554	106.31
485.772	94.31
485.99	104.31
486.209	119.31
486.427	124.31
486.645	136.31
486.863	160.31
487.081	115.31
487.299	98.31
487.517	82.31
487.735	81.31
487.953	90.31
488.171	99.31
488.389	99.31
488.607	92.31
488.825	86.31
489.043	101.31
489.261	99.31
489.479	85.31
489.696	95.31
489.914	102.31
490.132	75.31
490.35	91.31
490.568	94.31
490.786	93.31
491.003	90.31
491.221	100.31
491.439	117.31
491.657	102.31
491.874	101.31
492.092	84.31
492.31	106.31
492.527	102.31
492.745	97.31
492.963	113.31
493.18	102.31
493.398	112.31
493.615	95.31
493.833	111.31
494.05	92.31
494.268	92.31
494.485	100.31
494.703	91.31
494.92	104.31
495.138	100.31
495.355	92.31
495.573	105.31
495.79	99.31
496.008	95.31
496.225	110.31
496.442	90.31
496.66	107.31
496.877	91.31
497.094	90.31
497.312	83.31
497.529	81.31
497.746	105.31
497.963	89.31
498.181	106.31
498.398	94.31
498.615	134.31
498.832	116.31
499.049	93.31
499.267	87.31
499.484	95.31
499.701	89.31
499.918	100.31
500.135	94.31
500.352	97.31
500.569	89.31
500.786	97.31
501.003	92.31
501.22	93.31
501.437	97.31
501.654	108.31
501.871	146.31
502.088	104.31
502.305	100.31
502.522	95.31
502.739	103.31
502.956	93.31
503.172	88.31
503.389	113.31
503.606	148.31
503.823	119.31
504.04	91.31
504.256	103.31
504.473	86.31
504.69	99.31
504.907	108.31
505.123	92.31
505.34	99.31
505.557	105.31
505.773	105.31
505.99	95.31
506.207	91.31
506.423	92.31
506.64	104.31
506.856	98.31
507.073	95.31
507.289	100.31
507.506	126.31
507.722	157.31
507.939	146.31
508.155	114.31
508.372	104.31
508.588	83.31
508.805	97.31
509.021	94.31
509.238	100.31
509.454	123.31
509.67	116.31
509.887	129.31
510.103	168.31
510.319	291.31
510.536	1061.31
510.752	3934.31
510.968	1030.31
511.184	176.31
511.401	143.31
