Data from Circ_1995_H10_HRD10591_00026.txt Node
Date: Wed Jan 03 11:36:51 EST 2024
User: Yrep
Spectrometer: HR+D1059
Trigger mode: 1
Integration Time (sec): 1.000000E-1
Scans to average: 1
Electric dark correction enabled: true
Nonlinearity correction enabled: false
Boxcar width: 0
XAxis mode: Wavelengths
Number of Pixels in Spectrum: 2048
>>>>>Begin Spectral Data<<<<<
223.165	-12.69
223.4	-12.69
223.635	-12.69
223.869	-26.69
224.104	-21.69
224.338	-17.69
224.573	-16.69
224.808	-5.69
225.042	-11.69
225.277	1.31
225.511	-1.69
225.746	13.31
225.98	5.31
226.215	10.31
226.449	20.31
226.683	8.31
226.918	21.31
227.152	34.31
227.387	51.31
227.621	43.31
227.856	44.31
228.09	53.31
228.324	47.31
228.559	61.31
228.793	59.31
229.027	65.31
229.262	73.31
229.496	86.31
229.73	94.31
229.964	85.31
230.199	81.31
230.433	76.31
230.667	87.31
230.901	77.31
231.136	81.31
231.37	78.31
231.604	81.31
231.838	80.31
232.072	65.31
232.306	89.31
232.541	90.31
232.775	87.31
233.009	81.31
233.243	97.31
233.477	77.31
233.711	93.31
233.945	83.31
234.179	84.31
234.413	70.31
234.647	65.31
234.881	98.31
235.115	85.31
235.349	85.31
235.583	81.31
235.817	86.31
236.051	81.31
236.285	79.31
236.519	74.31
236.753	73.31
236.987	78.31
237.221	79.31
237.455	89.31
237.689	86.31
237.922	74.31
238.156	81.31
238.39	80.31
238.624	76.31
238.858	75.31
239.091	82.31
239.325	84.31
239.559	96.31
239.793	81.31
240.027	82.31
240.26	77.31
240.494	75.31
240.728	91.31
240.961	89.31
241.195	83.31
241.429	89.31
241.662	63.31
241.896	83.31
242.13	67.31
242.363	83.31
242.597	78.31
242.83	95.31
243.064	92.31
243.298	82.31
243.531	72.31
243.765	82.31
243.998	85.31
244.232	88.31
244.465	79.31
244.699	79.31
244.932	87.31
245.166	82.31
245.399	82.31
245.633	81.31
245.866	83.31
246.099	77.31
246.333	95.31
246.566	78.31
246.8	90.31
247.033	86.31
247.266	81.31
247.5	77.31
247.733	99.31
247.966	85.31
248.2	81.31
248.433	70.31
248.666	77.31
248.899	77.31
249.133	90.31
249.366	111.31
249.599	102.31
249.832	82.31
250.066	71.31
250.299	81.31
250.532	89.31
250.765	92.31
250.998	81.31
251.231	72.31
251.465	75.31
251.698	79.31
251.931	83.31
252.164	92.31
252.397	77.31
252.63	86.31
252.863	101.31
253.096	91.31
253.329	110.31
253.562	85.31
253.795	79.31
254.028	93.31
254.261	85.31
254.494	85.31
254.727	95.31
254.96	77.31
255.193	81.31
255.426	89.31
255.659	84.31
255.892	93.31
256.124	101.31
256.357	92.31
256.59	75.31
256.823	78.31
257.056	74.31
257.289	90.31
257.521	89.31
257.754	95.31
257.987	97.31
258.22	117.31
258.452	89.31
258.685	101.31
258.918	78.31
259.151	94.31
259.383	93.31
259.616	80.31
259.849	86.31
260.081	87.31
260.314	98.31
260.547	91.31
260.779	98.31
261.012	105.31
261.244	108.31
261.477	116.31
261.71	109.31
261.942	142.31
262.175	145.31
262.407	105.31
262.64	85.31
262.872	97.31
263.105	102.31
263.337	78.31
263.57	86.31
263.802	98.31
264.035	83.31
264.267	83.31
264.499	87.31
264.732	68.31
264.964	93.31
265.197	82.31
265.429	84.31
265.661	85.31
265.894	85.31
266.126	90.31
266.358	97.31
266.591	82.31
266.823	77.31
267.055	86.31
267.287	80.31
267.52	81.31
267.752	82.31
267.984	86.31
268.216	78.31
268.448	99.31
268.681	91.31
268.913	95.31
269.145	97.31
269.377	101.31
269.609	90.31
269.841	81.31
270.073	106.31
270.306	87.31
270.538	104.31
270.77	82.31
271.002	89.31
271.234	94.31
271.466	101.31
271.698	100.31
271.93	90.31
272.162	98.31
272.394	83.31
272.626	82.31
272.858	79.31
273.09	85.31
273.322	81.31
273.553	86.31
273.785	92.31
274.017	93.31
274.249	91.31
274.481	99.31
274.713	103.31
274.945	80.31
275.176	91.31
275.408	112.31
275.64	121.31
275.872	126.31
276.104	109.31
276.335	109.31
276.567	123.31
276.799	152.31
277.031	179.31
277.262	206.31
277.494	170.31
277.726	114.31
277.957	104.31
278.189	92.31
278.421	100.31
278.652	91.31
278.884	93.31
279.115	102.31
279.347	103.31
279.579	112.31
279.81	127.31
280.042	209.31
280.273	282.31
280.505	174.31
280.736	93.31
280.968	107.31
281.199	81.31
281.431	89.31
281.662	97.31
281.894	95.31
282.125	121.31
282.356	156.31
282.588	185.31
282.819	143.31
283.051	99.31
283.282	78.31
283.513	101.31
283.745	98.31
283.976	89.31
284.207	73.31
284.439	93.31
284.67	79.31
284.901	82.31
285.132	92.31
285.364	82.31
285.595	101.31
285.826	87.31
286.057	102.31
286.288	81.31
286.52	97.31
286.751	81.31
286.982	102.31
287.213	86.31
287.444	76.31
287.675	95.31
287.906	101.31
288.138	87.31
288.369	99.31
288.6	99.31
288.831	86.31
289.062	79.31
289.293	94.31
289.524	90.31
289.755	107.31
289.986	87.31
290.217	87.31
290.448	83.31
290.679	91.31
290.91	81.31
291.141	85.31
291.371	86.31
291.602	97.31
291.833	91.31
292.064	85.31
292.295	96.31
292.526	100.31
292.757	100.31
292.987	92.31
293.218	90.31
293.449	99.31
293.68	97.31
293.91	104.31
294.141	92.31
294.372	87.31
294.603	95.31
294.833	101.31
295.064	85.31
295.295	99.31
295.525	99.31
295.756	117.31
295.987	137.31
296.217	185.31
296.448	160.31
296.679	105.31
296.909	97.31
297.14	79.31
297.37	109.31
297.601	85.31
297.831	87.31
298.062	106.31
298.292	83.31
298.523	88.31
298.753	94.31
298.984	81.31
299.214	109.31
299.445	83.31
299.675	109.31
299.905	113.31
300.136	107.31
300.366	106.31
300.597	103.31
300.827	103.31
301.057	114.31
301.288	118.31
301.518	104.31
301.748	102.31
301.979	120.31
302.209	90.31
302.439	107.31
302.669	97.31
302.9	99.31
303.13	100.31
303.36	105.31
303.59	133.31
303.82	157.31
304.051	112.31
304.281	80.31
304.511	97.31
304.741	86.31
304.971	97.31
305.201	79.31
305.431	98.31
305.661	91.31
305.891	96.31
306.121	106.31
306.352	114.31
306.582	132.31
306.812	110.31
307.042	125.31
307.272	159.31
307.502	192.31
307.731	165.31
307.961	133.31
308.191	110.31
308.421	106.31
308.651	96.31
308.881	108.31
309.111	101.31
309.341	107.31
309.571	115.31
309.8	110.31
310.03	108.31
310.26	112.31
310.49	98.31
310.72	102.31
310.949	122.31
311.179	111.31
311.409	98.31
311.639	100.31
311.868	117.31
312.098	108.31
312.328	109.31
312.557	116.31
312.787	130.31
313.017	128.31
313.246	101.31
313.476	105.31
313.706	116.31
313.935	109.31
314.165	113.31
314.394	117.31
314.624	117.31
314.853	106.31
315.083	106.31
315.312	97.31
315.542	92.31
315.771	94.31
316.001	114.31
316.23	110.31
316.46	92.31
316.689	104.31
316.919	105.31
317.148	100.31
317.377	111.31
317.607	99.31
317.836	103.31
318.065	108.31
318.295	92.31
318.524	97.31
318.753	89.31
318.983	90.31
319.212	99.31
319.441	130.31
319.67	133.31
319.9	91.31
320.129	99.31
320.358	97.31
320.587	115.31
320.816	112.31
321.046	103.31
321.275	92.31
321.504	103.31
321.733	109.31
321.962	108.31
322.191	117.31
322.42	112.31
322.649	130.31
322.878	133.31
323.108	128.31
323.337	145.31
323.566	173.31
323.795	183.31
324.024	251.31
324.253	498.31
324.482	1076.31
324.71	2239.31
324.939	3013.31
325.168	1091.31
325.397	307.31
325.626	177.31
325.855	155.31
326.084	135.31
326.313	157.31
326.542	190.31
326.77	289.31
326.999	550.31
327.228	1147.31
327.457	2150.31
327.686	1774.31
327.914	610.31
328.143	551.31
328.372	750.31
328.6	406.31
328.829	189.31
329.058	210.31
329.287	203.31
329.515	206.31
329.744	262.31
329.972	492.31
330.201	1049.31
330.43	1584.31
330.658	713.31
330.887	343.31
331.115	182.31
331.344	143.31
331.572	127.31
331.801	132.31
332.03	127.31
332.258	133.31
332.486	109.31
332.715	122.31
332.943	122.31
333.172	126.31
333.4	135.31
333.629	186.31
333.857	231.31
334.085	467.31
334.314	962.31
334.542	1909.31
334.771	1842.31
334.999	469.31
335.227	192.31
335.455	137.31
335.684	133.31
335.912	104.31
336.14	113.31
336.369	121.31
336.597	124.31
336.825	109.31
337.053	90.31
337.281	97.31
337.51	99.31
337.738	91.31
337.966	113.31
338.194	104.31
338.422	107.31
338.65	95.31
338.878	96.31
339.106	93.31
339.334	97.31
339.562	96.31
339.79	120.31
340.018	95.31
340.246	107.31
340.474	102.31
340.702	99.31
340.93	92.31
341.158	106.31
341.386	108.31
341.614	116.31
341.842	96.31
342.07	100.31
342.298	96.31
342.526	96.31
342.754	81.31
342.981	86.31
343.209	100.31
343.437	112.31
343.665	83.31
343.893	95.31
344.12	107.31
344.348	97.31
344.576	87.31
344.804	101.31
345.031	100.31
345.259	110.31
345.487	115.31
345.714	114.31
345.942	102.31
346.17	96.31
346.397	86.31
346.625	118.31
346.853	85.31
347.08	113.31
347.308	100.31
347.535	96.31
347.763	124.31
347.99	108.31
348.218	123.31
348.445	133.31
348.673	115.31
348.9	105.31
349.128	103.31
349.355	86.31
349.583	94.31
349.81	98.31
350.037	101.31
350.265	99.31
350.492	109.31
350.72	90.31
350.947	125.31
351.174	135.31
351.402	123.31
351.629	110.31
351.856	120.31
352.083	127.31
352.311	133.31
352.538	129.31
352.765	116.31
352.992	134.31
353.22	137.31
353.447	108.31
353.674	113.31
353.901	85.31
354.128	96.31
354.355	82.31
354.583	107.31
354.81	103.31
355.037	89.31
355.264	89.31
355.491	90.31
355.718	97.31
355.945	89.31
356.172	89.31
356.399	95.31
356.626	87.31
356.853	101.31
357.08	87.31
357.307	77.31
357.534	91.31
357.761	108.31
357.988	102.31
358.215	102.31
358.441	90.31
358.668	106.31
358.895	95.31
359.122	89.31
359.349	81.31
359.576	96.31
359.802	114.31
360.029	146.31
360.256	148.31
360.483	121.31
360.709	107.31
360.936	98.31
361.163	107.31
361.39	110.31
361.616	89.31
361.843	97.31
362.07	110.31
362.296	114.31
362.523	110.31
362.749	113.31
362.976	93.31
363.203	101.31
363.429	99.31
363.656	93.31
363.882	105.31
364.109	88.31
364.335	88.31
364.562	92.31
364.788	111.31
365.015	102.31
365.241	106.31
365.468	118.31
365.694	127.31
365.92	126.31
366.147	102.31
366.373	106.31
366.599	102.31
366.826	91.31
367.052	85.31
367.278	101.31
367.505	93.31
367.731	95.31
367.957	102.31
368.184	106.31
368.41	117.31
368.636	128.31
368.862	118.31
369.089	116.31
369.315	113.31
369.541	101.31
369.767	109.31
369.993	108.31
370.219	101.31
370.445	93.31
370.672	70.31
370.898	103.31
371.124	100.31
371.35	93.31
371.576	86.31
371.802	70.31
372.028	91.31
372.254	84.31
372.48	89.31
372.706	76.31
372.932	93.31
373.158	99.31
373.384	100.31
373.61	95.31
373.835	110.31
374.061	95.31
374.287	100.31
374.513	99.31
374.739	87.31
374.965	86.31
375.191	82.31
375.416	95.31
375.642	101.31
375.868	99.31
376.094	114.31
376.319	97.31
376.545	95.31
376.771	93.31
376.997	75.31
377.222	92.31
377.448	102.31
377.674	99.31
377.899	92.31
378.125	103.31
378.35	98.31
378.576	87.31
378.802	93.31
379.027	112.31
379.253	94.31
379.478	86.31
379.704	99.31
379.929	104.31
380.155	91.31
380.38	95.31
380.606	102.31
380.831	98.31
381.057	111.31
381.282	98.31
381.507	118.31
381.733	97.31
381.958	95.31
382.184	103.31
382.409	98.31
382.634	111.31
382.86	119.31
383.085	111.31
383.31	109.31
383.535	99.31
383.761	95.31
383.986	111.31
384.211	122.31
384.436	114.31
384.662	106.31
384.887	110.31
385.112	101.31
385.337	125.31
385.562	134.31
385.787	118.31
386.013	131.31
386.238	141.31
386.463	116.31
386.688	114.31
386.913	115.31
387.138	108.31
387.363	104.31
387.588	110.31
387.813	109.31
388.038	121.31
388.263	127.31
388.488	116.31
388.713	110.31
388.938	76.31
389.163	90.31
389.387	102.31
389.612	100.31
389.837	96.31
390.062	91.31
390.287	99.31
390.512	92.31
390.736	89.31
390.961	78.31
391.186	81.31
391.411	93.31
391.636	86.31
391.86	74.31
392.085	77.31
392.31	95.31
392.534	93.31
392.759	90.31
392.984	91.31
393.208	81.31
393.433	89.31
393.658	84.31
393.882	95.31
394.107	96.31
394.331	104.31
394.556	81.31
394.78	90.31
395.005	78.31
395.229	94.31
395.454	89.31
395.678	90.31
395.903	95.31
396.127	93.31
396.352	73.31
396.576	90.31
396.801	85.31
397.025	94.31
397.249	94.31
397.474	89.31
397.698	76.31
397.922	92.31
398.147	84.31
398.371	78.31
398.595	94.31
398.82	90.31
399.044	93.31
399.268	92.31
399.492	100.31
399.717	99.31
399.941	86.31
400.165	95.31
400.389	97.31
400.613	87.31
400.837	88.31
401.062	99.31
401.286	87.31
401.51	104.31
401.734	107.31
401.958	123.31
402.182	176.31
402.406	235.31
402.63	163.31
402.854	116.31
403.078	99.31
403.302	85.31
403.526	98.31
403.75	86.31
403.974	92.31
404.198	85.31
404.422	92.31
404.645	102.31
404.869	107.31
405.093	128.31
405.317	132.31
405.541	129.31
405.765	127.31
405.988	150.31
406.212	225.31
406.436	357.31
406.66	215.31
406.883	115.31
407.107	111.31
407.331	100.31
407.555	107.31
407.778	109.31
408.002	100.31
408.226	91.31
408.449	96.31
408.673	99.31
408.896	99.31
409.12	97.31
409.344	103.31
409.567	93.31
409.791	92.31
410.014	94.31
410.238	110.31
410.461	101.31
410.685	101.31
410.908	100.31
411.132	129.31
411.355	105.31
411.578	93.31
411.802	86.31
412.025	97.31
412.249	99.31
412.472	113.31
412.695	125.31
412.919	114.31
413.142	103.31
413.365	107.31
413.589	108.31
413.812	93.31
414.035	101.31
414.258	96.31
414.482	105.31
414.705	92.31
414.928	81.31
415.151	92.31
415.374	109.31
415.597	86.31
415.821	85.31
416.044	104.31
416.267	102.31
416.49	105.31
416.713	100.31
416.936	85.31
417.159	91.31
417.382	100.31
417.605	91.31
417.828	118.31
418.051	102.31
418.274	105.31
418.497	83.31
418.72	91.31
418.943	87.31
419.166	91.31
419.389	84.31
419.611	110.31
419.834	102.31
420.057	92.31
420.28	100.31
420.503	93.31
420.726	93.31
420.948	112.31
421.171	111.31
421.394	103.31
421.617	92.31
421.839	84.31
422.062	99.31
422.285	96.31
422.507	90.31
422.73	92.31
422.953	100.31
423.175	88.31
423.398	89.31
423.621	95.31
423.843	79.31
424.066	89.31
424.288	91.31
424.511	98.31
424.733	101.31
424.956	115.31
425.178	98.31
425.401	115.31
425.623	95.31
425.846	87.31
426.068	91.31
426.291	100.31
426.513	93.31
426.735	101.31
426.958	103.31
427.18	127.31
427.402	194.31
427.625	269.31
427.847	250.31
428.069	228.31
428.292	116.31
428.514	101.31
428.736	92.31
428.958	103.31
429.181	102.31
429.403	105.31
429.625	85.31
429.847	98.31
430.069	106.31
430.292	97.31
430.514	92.31
430.736	108.31
430.958	90.31
431.18	81.31
431.402	92.31
431.624	70.31
431.846	86.31
432.068	99.31
432.29	107.31
432.512	94.31
432.734	85.31
432.956	93.31
433.178	101.31
433.4	105.31
433.622	102.31
433.844	91.31
434.066	97.31
434.287	102.31
434.509	91.31
434.731	97.31
434.953	79.31
435.175	88.31
435.397	86.31
435.618	94.31
435.84	102.31
436.062	127.31
436.284	134.31
436.505	118.31
436.727	105.31
436.949	101.31
437.17	105.31
437.392	102.31
437.614	99.31
437.835	117.31
438.057	161.31
438.278	133.31
438.5	110.31
438.721	147.31
438.943	115.31
439.165	93.31
439.386	105.31
439.608	105.31
439.829	105.31
440.05	142.31
440.272	190.31
440.493	113.31
440.715	109.31
440.936	99.31
441.158	95.31
441.379	95.31
441.6	102.31
441.822	112.31
442.043	115.31
442.264	100.31
442.486	113.31
442.707	119.31
442.928	138.31
443.149	183.31
443.371	166.31
443.592	132.31
443.813	139.31
444.034	122.31
444.255	97.31
444.476	94.31
444.698	89.31
444.919	88.31
445.14	134.31
445.361	143.31
445.582	131.31
445.803	189.31
446.024	187.31
446.245	162.31
446.466	123.31
446.687	104.31
446.908	89.31
447.129	91.31
447.35	97.31
447.571	95.31
447.792	105.31
448.013	115.31
448.234	115.31
448.455	102.31
448.675	119.31
448.896	144.31
449.117	113.31
449.338	102.31
449.559	132.31
449.779	144.31
450	103.31
450.221	87.31
450.442	93.31
450.662	113.31
450.883	143.31
451.104	121.31
451.324	109.31
451.545	95.31
451.766	84.31
451.986	104.31
452.207	98.31
452.428	103.31
452.648	113.31
452.869	125.31
453.089	143.31
453.31	158.31
453.53	106.31
453.751	106.31
453.971	121.31
454.192	136.31
454.412	102.31
454.633	98.31
454.853	94.31
455.073	90.31
455.294	91.31
455.514	110.31
455.734	108.31
455.955	93.31
456.175	89.31
456.395	84.31
456.616	100.31
456.836	74.31
457.056	75.31
457.276	86.31
457.497	95.31
457.717	93.31
457.937	99.31
458.157	99.31
458.377	94.31
458.598	134.31
458.818	227.31
459.038	265.31
459.258	162.31
459.478	97.31
459.698	108.31
459.918	83.31
460.138	85.31
460.358	81.31
460.578	100.31
460.798	85.31
461.018	90.31
461.238	102.31
461.458	91.31
461.678	97.31
461.898	92.31
462.118	79.31
462.338	89.31
462.558	95.31
462.777	89.31
462.997	91.31
463.217	120.31
463.437	91.31
463.657	86.31
463.876	101.31
464.096	102.31
464.316	102.31
464.536	110.31
464.755	101.31
464.975	130.31
465.195	261.31
465.414	254.31
465.634	121.31
465.854	94.31
466.073	94.31
466.293	101.31
466.512	107.31
466.732	96.31
466.951	93.31
467.171	107.31
467.391	113.31
467.61	154.31
467.829	218.31
468.049	610.31
468.268	945.31
468.488	229.31
468.707	125.31
468.927	100.31
469.146	99.31
469.365	102.31
469.585	103.31
469.804	116.31
470.023	118.31
470.243	103.31
470.462	119.31
470.681	148.31
470.901	111.31
471.12	100.31
471.339	110.31
471.558	115.31
471.777	168.31
471.997	307.31
472.216	1155.31
472.435	2859.31
472.654	666.31
472.873	173.31
473.092	123.31
473.311	113.31
473.53	98.31
473.749	98.31
473.968	110.31
474.187	115.31
474.406	118.31
474.625	79.31
474.844	106.31
475.063	98.31
475.282	105.31
475.501	87.31
475.72	89.31
475.939	96.31
476.158	91.31
476.377	97.31
476.596	99.31
476.814	103.31
477.033	103.31
477.252	110.31
477.471	97.31
477.69	101.31
477.908	106.31
478.127	101.31
478.346	106.31
478.564	110.31
478.783	116.31
479.002	118.31
479.22	100.31
479.439	137.31
479.658	141.31
479.876	125.31
480.095	116.31
480.313	150.31
480.532	166.31
480.751	296.31
480.969	1076.31
481.188	4793.31
481.406	2724.31
481.624	388.31
481.843	153.31
482.061	112.31
482.28	111.31
482.498	108.31
482.717	91.31
482.935	97.31
483.153	107.31
483.372	94.31
483.59	91.31
483.808	94.31
484.027	109.31
484.245	97.31
484.463	98.31
484.681	90.31
484.9	91.31
485.118	95.31
485.336	93.31
485.554	106.31
485.772	102.31
485.99	110.31
486.209	110.31
486.427	117.31
486.645	126.31
486.863	130.31
487.081	118.31
487.299	116.31
487.517	107.31
487.735	90.31
487.953	85.31
488.171	92.31
488.389	109.31
488.607	113.31
488.825	84.31
489.043	97.31
489.261	81.31
489.479	74.31
489.696	86.31
489.914	85.31
490.132	82.31
490.35	101.31
490.568	93.31
490.786	101.31
491.003	87.31
491.221	103.31
491.439	102.31
491.657	100.31
491.874	92.31
492.092	89.31
492.31	102.31
492.527	94.31
492.745	101.31
492.963	90.31
493.18	87.31
493.398	92.31
493.615	95.31
493.833	98.31
494.05	95.31
494.268	76.31
494.485	97.31
494.703	98.31
494.92	90.31
495.138	74.31
495.355	82.31
495.573	99.31
495.79	102.31
496.008	114.31
496.225	101.31
496.442	83.31
496.66	97.31
496.877	102.31
497.094	98.31
497.312	73.31
497.529	93.31
497.746	85.31
497.963	94.31
498.181	89.31
498.398	105.31
498.615	138.31
498.832	117.31
499.049	105.31
499.267	98.31
499.484	89.31
499.701	92.31
499.918	96.31
500.135	84.31
500.352	84.31
500.569	85.31
500.786	92.31
501.003	83.31
501.22	98.31
501.437	97.31
501.654	95.31
501.871	128.31
502.088	101.31
502.305	96.31
502.522	87.31
502.739	98.31
502.956	98.31
503.172	101.31
503.389	100.31
503.606	136.31
503.823	115.31
504.04	103.31
504.256	86.31
504.473	83.31
504.69	91.31
504.907	98.31
505.123	82.31
505.34	84.31
505.557	123.31
505.773	105.31
505.99	98.31
506.207	100.31
506.423	92.31
506.64	97.31
506.856	95.31
507.073	82.31
507.289	86.31
507.506	114.31
507.722	161.31
507.939	137.31
508.155	110.31
508.372	102.31
508.588	105.31
508.805	94.31
509.021	106.31
509.238	100.31
509.454	101.31
509.67	102.31
509.887	113.31
510.103	157.31
510.319	244.31
510.536	987.31
510.752	3587.31
510.968	960.31
511.184	197.31
