Data from Circ_1995_H10_HRD10591_00046.txt Node
Date: Wed Jan 03 11:36:55 EST 2024
User: Yrep
Spectrometer: HR+D1059
Trigger mode: 1
Integration Time (sec): 1.000000E-1
Scans to average: 1
Electric dark correction enabled: true
Nonlinearity correction enabled: false
Boxcar width: 0
XAxis mode: Wavelengths
Number of Pixels in Spectrum: 2048
>>>>>Begin Spectral Data<<<<<
223.165	-18.38
223.4	-18.38
223.635	-18.38
223.869	-15.38
224.104	-10.38
224.338	-10.38
224.573	-15.38
224.808	-5.38
225.042	-6.38
225.277	-16.38
225.511	-1.38
225.746	3.62
225.98	0.62
226.215	19.62
226.449	12.62
226.683	17.62
226.918	21.62
227.152	23.62
227.387	34.62
227.621	31.62
227.856	43.62
228.09	56.62
228.324	50.62
228.559	60.62
228.793	61.62
229.027	75.62
229.262	59.62
229.496	81.62
229.73	116.62
229.964	103.62
230.199	80.62
230.433	78.62
230.667	92.62
230.901	83.62
231.136	85.62
231.37	86.62
231.604	79.62
231.838	80.62
232.072	98.62
232.306	93.62
232.541	95.62
232.775	82.62
233.009	98.62
233.243	76.62
233.477	64.62
233.711	86.62
233.945	85.62
234.179	91.62
234.413	83.62
234.647	71.62
234.881	78.62
235.115	83.62
235.349	90.62
235.583	84.62
235.817	81.62
236.051	90.62
236.285	78.62
236.519	77.62
236.753	77.62
236.987	98.62
237.221	100.62
237.455	89.62
237.689	88.62
237.922	70.62
238.156	93.62
238.39	69.62
238.624	86.62
238.858	87.62
239.091	79.62
239.325	86.62
239.559	90.62
239.793	95.62
240.027	86.62
240.26	85.62
240.494	95.62
240.728	80.62
240.961	77.62
241.195	91.62
241.429	82.62
241.662	86.62
241.896	97.62
242.13	77.62
242.363	71.62
242.597	82.62
242.83	83.62
243.064	91.62
243.298	78.62
243.531	95.62
243.765	97.62
243.998	87.62
244.232	67.62
244.465	89.62
244.699	80.62
244.932	89.62
245.166	89.62
245.399	82.62
245.633	96.62
245.866	80.62
246.099	95.62
246.333	93.62
246.566	85.62
246.8	90.62
247.033	97.62
247.266	99.62
247.5	75.62
247.733	69.62
247.966	81.62
248.2	90.62
248.433	83.62
248.666	90.62
248.899	96.62
249.133	95.62
249.366	109.62
249.599	121.62
249.832	90.62
250.066	82.62
250.299	97.62
250.532	102.62
250.765	91.62
250.998	101.62
251.231	94.62
251.465	96.62
251.698	99.62
251.931	100.62
252.164	102.62
252.397	81.62
252.63	82.62
252.863	81.62
253.096	77.62
253.329	83.62
253.562	78.62
253.795	81.62
254.028	86.62
254.261	82.62
254.494	83.62
254.727	80.62
254.96	85.62
255.193	88.62
255.426	94.62
255.659	91.62
255.892	105.62
256.124	115.62
256.357	98.62
256.59	99.62
256.823	96.62
257.056	94.62
257.289	113.62
257.521	96.62
257.754	79.62
257.987	113.62
258.22	105.62
258.452	111.62
258.685	100.62
258.918	104.62
259.151	95.62
259.383	99.62
259.616	79.62
259.849	93.62
260.081	91.62
260.314	98.62
260.547	96.62
260.779	105.62
261.012	127.62
261.244	132.62
261.477	89.62
261.71	113.62
261.942	152.62
262.175	165.62
262.407	108.62
262.64	82.62
262.872	91.62
263.105	95.62
263.337	94.62
263.57	100.62
263.802	94.62
264.035	98.62
264.267	76.62
264.499	96.62
264.732	92.62
264.964	92.62
265.197	74.62
265.429	80.62
265.661	94.62
265.894	93.62
266.126	82.62
266.358	91.62
266.591	100.62
266.823	80.62
267.055	97.62
267.287	96.62
267.52	98.62
267.752	91.62
267.984	98.62
268.216	84.62
268.448	98.62
268.681	102.62
268.913	96.62
269.145	84.62
269.377	87.62
269.609	96.62
269.841	85.62
270.073	95.62
270.306	98.62
270.538	85.62
270.77	90.62
271.002	98.62
271.234	98.62
271.466	111.62
271.698	97.62
271.93	83.62
272.162	94.62
272.394	106.62
272.626	96.62
272.858	98.62
273.09	100.62
273.322	85.62
273.553	83.62
273.785	95.62
274.017	102.62
274.249	76.62
274.481	99.62
274.713	97.62
274.945	101.62
275.176	93.62
275.408	110.62
275.64	130.62
275.872	133.62
276.104	108.62
276.335	123.62
276.567	145.62
276.799	184.62
277.031	240.62
277.262	272.62
277.494	201.62
277.726	97.62
277.957	88.62
278.189	102.62
278.421	101.62
278.652	100.62
278.884	81.62
279.115	114.62
279.347	90.62
279.579	126.62
279.81	164.62
280.042	283.62
280.273	393.62
280.505	260.62
280.736	125.62
280.968	95.62
281.199	114.62
281.431	110.62
281.662	88.62
281.894	105.62
282.125	122.62
282.356	160.62
282.588	210.62
282.819	158.62
283.051	99.62
283.282	98.62
283.513	97.62
283.745	82.62
283.976	99.62
284.207	86.62
284.439	97.62
284.67	92.62
284.901	86.62
285.132	81.62
285.364	94.62
285.595	100.62
285.826	76.62
286.057	94.62
286.288	87.62
286.52	95.62
286.751	100.62
286.982	85.62
287.213	93.62
287.444	88.62
287.675	98.62
287.906	109.62
288.138	96.62
288.369	101.62
288.6	106.62
288.831	77.62
289.062	103.62
289.293	91.62
289.524	92.62
289.755	90.62
289.986	97.62
290.217	87.62
290.448	96.62
290.679	81.62
290.91	91.62
291.141	89.62
291.371	92.62
291.602	101.62
291.833	91.62
292.064	109.62
292.295	99.62
292.526	85.62
292.757	103.62
292.987	106.62
293.218	99.62
293.449	89.62
293.68	99.62
293.91	92.62
294.141	106.62
294.372	101.62
294.603	66.62
294.833	92.62
295.064	105.62
295.295	86.62
295.525	114.62
295.756	113.62
295.987	148.62
296.217	199.62
296.448	166.62
296.679	116.62
296.909	115.62
297.14	101.62
297.37	97.62
297.601	107.62
297.831	92.62
298.062	97.62
298.292	95.62
298.523	87.62
298.753	90.62
298.984	109.62
299.214	98.62
299.445	108.62
299.675	89.62
299.905	98.62
300.136	108.62
300.366	90.62
300.597	113.62
300.827	96.62
301.057	112.62
301.288	132.62
301.518	108.62
301.748	116.62
301.979	129.62
302.209	107.62
302.439	117.62
302.669	107.62
302.9	91.62
303.13	93.62
303.36	124.62
303.59	163.62
303.82	202.62
304.051	124.62
304.281	100.62
304.511	114.62
304.741	101.62
304.971	88.62
305.201	89.62
305.431	95.62
305.661	93.62
305.891	103.62
306.121	117.62
306.352	118.62
306.582	113.62
306.812	131.62
307.042	132.62
307.272	218.62
307.502	250.62
307.731	213.62
307.961	171.62
308.191	89.62
308.421	88.62
308.651	104.62
308.881	101.62
309.111	101.62
309.341	98.62
309.571	97.62
309.8	115.62
310.03	108.62
310.26	122.62
310.49	120.62
310.72	115.62
310.949	133.62
311.179	121.62
311.409	109.62
311.639	107.62
311.868	106.62
312.098	104.62
312.328	113.62
312.557	135.62
312.787	132.62
313.017	113.62
313.246	102.62
313.476	99.62
313.706	110.62
313.935	115.62
314.165	109.62
314.394	127.62
314.624	130.62
314.853	126.62
315.083	96.62
315.312	103.62
315.542	99.62
315.771	102.62
316.001	103.62
316.23	106.62
316.46	85.62
316.689	98.62
316.919	104.62
317.148	93.62
317.377	112.62
317.607	109.62
317.836	117.62
318.065	97.62
318.295	83.62
318.524	103.62
318.753	95.62
318.983	90.62
319.212	116.62
319.441	126.62
319.67	125.62
319.9	111.62
320.129	96.62
320.358	111.62
320.587	129.62
320.816	111.62
321.046	126.62
321.275	113.62
321.504	107.62
321.733	106.62
321.962	106.62
322.191	117.62
322.42	127.62
322.649	140.62
322.878	133.62
323.108	134.62
323.337	163.62
323.566	176.62
323.795	219.62
324.024	294.62
324.253	613.62
324.482	1347.62
324.71	2836.62
324.939	3791.62
325.168	1373.62
325.397	364.62
325.626	209.62
325.855	169.62
326.084	155.62
326.313	185.62
326.542	198.62
326.77	324.62
326.999	656.62
327.228	1421.62
327.457	2680.62
327.686	2131.62
327.914	759.62
328.143	790.62
328.372	1049.62
328.6	576.62
328.829	272.62
329.058	252.62
329.287	248.62
329.515	254.62
329.744	371.62
329.972	755.62
330.201	1575.62
330.43	2357.62
330.658	1006.62
330.887	423.62
331.115	253.62
331.344	166.62
331.572	148.62
331.801	154.62
332.03	161.62
332.258	144.62
332.486	122.62
332.715	122.62
332.943	125.62
333.172	133.62
333.4	154.62
333.629	213.62
333.857	341.62
334.085	658.62
334.314	1459.62
334.542	2915.62
334.771	2736.62
334.999	638.62
335.227	229.62
335.455	168.62
335.684	137.62
335.912	112.62
336.14	113.62
336.369	113.62
336.597	118.62
336.825	121.62
337.053	123.62
337.281	100.62
337.51	113.62
337.738	117.62
337.966	117.62
338.194	130.62
338.422	125.62
338.65	111.62
338.878	102.62
339.106	85.62
339.334	89.62
339.562	93.62
339.79	117.62
340.018	107.62
340.246	105.62
340.474	102.62
340.702	105.62
340.93	113.62
341.158	106.62
341.386	101.62
341.614	120.62
341.842	113.62
342.07	106.62
342.298	102.62
342.526	103.62
342.754	98.62
342.981	89.62
343.209	113.62
343.437	109.62
343.665	97.62
343.893	113.62
344.12	106.62
344.348	100.62
344.576	98.62
344.804	84.62
345.031	116.62
345.259	132.62
345.487	105.62
345.714	104.62
345.942	125.62
346.17	97.62
346.397	94.62
346.625	109.62
346.853	119.62
347.08	96.62
347.308	113.62
347.535	109.62
347.763	135.62
347.99	131.62
348.218	128.62
348.445	142.62
348.673	104.62
348.9	98.62
349.128	101.62
349.355	99.62
349.583	97.62
349.81	106.62
350.037	94.62
350.265	103.62
350.492	114.62
350.72	100.62
350.947	124.62
351.174	128.62
351.402	151.62
351.629	116.62
351.856	107.62
352.083	120.62
352.311	138.62
352.538	153.62
352.765	138.62
352.992	121.62
353.22	118.62
353.447	121.62
353.674	96.62
353.901	106.62
354.128	109.62
354.355	84.62
354.583	84.62
354.81	94.62
355.037	105.62
355.264	93.62
355.491	88.62
355.718	86.62
355.945	96.62
356.172	110.62
356.399	98.62
356.626	92.62
356.853	101.62
357.08	116.62
357.307	108.62
357.534	109.62
357.761	98.62
357.988	95.62
358.215	108.62
358.441	97.62
358.668	95.62
358.895	93.62
359.122	97.62
359.349	100.62
359.576	98.62
359.802	132.62
360.029	191.62
360.256	171.62
360.483	125.62
360.709	80.62
360.936	89.62
361.163	111.62
361.39	121.62
361.616	121.62
361.843	102.62
362.07	115.62
362.296	121.62
362.523	107.62
362.749	103.62
362.976	95.62
363.203	104.62
363.429	106.62
363.656	94.62
363.882	97.62
364.109	99.62
364.335	118.62
364.562	102.62
364.788	117.62
365.015	118.62
365.241	126.62
365.468	138.62
365.694	144.62
365.92	116.62
366.147	111.62
366.373	101.62
366.599	98.62
366.826	99.62
367.052	98.62
367.278	102.62
367.505	95.62
367.731	104.62
367.957	100.62
368.184	114.62
368.41	106.62
368.636	131.62
368.862	151.62
369.089	145.62
369.315	108.62
369.541	112.62
369.767	90.62
369.993	111.62
370.219	111.62
370.445	92.62
370.672	96.62
370.898	90.62
371.124	75.62
371.35	98.62
371.576	104.62
371.802	105.62
372.028	80.62
372.254	97.62
372.48	97.62
372.706	98.62
372.932	96.62
373.158	82.62
373.384	87.62
373.61	108.62
373.835	105.62
374.061	99.62
374.287	111.62
374.513	92.62
374.739	86.62
374.965	93.62
375.191	90.62
375.416	75.62
375.642	94.62
375.868	103.62
376.094	93.62
376.319	97.62
376.545	99.62
376.771	100.62
376.997	96.62
377.222	103.62
377.448	101.62
377.674	106.62
377.899	99.62
378.125	88.62
378.35	90.62
378.576	99.62
378.802	94.62
379.027	91.62
379.253	101.62
379.478	101.62
379.704	97.62
379.929	107.62
380.155	110.62
380.38	121.62
380.606	103.62
380.831	102.62
381.057	102.62
381.282	91.62
381.507	95.62
381.733	104.62
381.958	116.62
382.184	105.62
382.409	107.62
382.634	102.62
382.86	94.62
383.085	97.62
383.31	112.62
383.535	99.62
383.761	114.62
383.986	122.62
384.211	94.62
384.436	105.62
384.662	83.62
384.887	99.62
385.112	104.62
385.337	117.62
385.562	115.62
385.787	118.62
386.013	111.62
386.238	132.62
386.463	127.62
386.688	127.62
386.913	114.62
387.138	112.62
387.363	114.62
387.588	98.62
387.813	111.62
388.038	106.62
388.263	113.62
388.488	110.62
388.713	101.62
388.938	99.62
389.163	101.62
389.387	107.62
389.612	106.62
389.837	88.62
390.062	92.62
390.287	83.62
390.512	94.62
390.736	93.62
390.961	105.62
391.186	101.62
391.411	97.62
391.636	86.62
391.86	93.62
392.085	76.62
392.31	95.62
392.534	95.62
392.759	89.62
392.984	89.62
393.208	99.62
393.433	87.62
393.658	82.62
393.882	88.62
394.107	87.62
394.331	89.62
394.556	90.62
394.78	75.62
395.005	102.62
395.229	93.62
395.454	93.62
395.678	75.62
395.903	92.62
396.127	98.62
396.352	86.62
396.576	97.62
396.801	79.62
397.025	75.62
397.249	98.62
397.474	107.62
397.698	110.62
397.922	96.62
398.147	97.62
398.371	91.62
398.595	99.62
398.82	92.62
399.044	84.62
399.268	95.62
399.492	94.62
399.717	96.62
399.941	101.62
400.165	104.62
400.389	108.62
400.613	85.62
400.837	94.62
401.062	92.62
401.286	91.62
401.51	100.62
401.734	116.62
401.958	116.62
402.182	182.62
402.406	273.62
402.63	185.62
402.854	113.62
403.078	107.62
403.302	95.62
403.526	107.62
403.75	109.62
403.974	94.62
404.198	89.62
404.422	90.62
404.645	101.62
404.869	89.62
405.093	125.62
405.317	176.62
405.541	182.62
405.765	143.62
405.988	162.62
406.212	293.62
406.436	420.62
406.66	269.62
406.883	145.62
407.107	106.62
407.331	112.62
407.555	116.62
407.778	93.62
408.002	95.62
408.226	92.62
408.449	87.62
408.673	100.62
408.896	95.62
409.12	102.62
409.344	101.62
409.567	103.62
409.791	105.62
410.014	95.62
410.238	86.62
410.461	90.62
410.685	101.62
410.908	100.62
411.132	115.62
411.355	113.62
411.578	102.62
411.802	93.62
412.025	107.62
412.249	123.62
412.472	138.62
412.695	150.62
412.919	135.62
413.142	114.62
413.365	90.62
413.589	97.62
413.812	96.62
414.035	107.62
414.258	84.62
414.482	105.62
414.705	96.62
414.928	99.62
415.151	109.62
415.374	102.62
415.597	85.62
415.821	97.62
416.044	93.62
416.267	92.62
416.49	96.62
416.713	103.62
416.936	115.62
417.159	109.62
417.382	96.62
417.605	125.62
417.828	130.62
418.051	113.62
418.274	83.62
418.497	91.62
418.72	82.62
418.943	89.62
419.166	107.62
419.389	93.62
419.611	114.62
419.834	97.62
420.057	97.62
420.28	111.62
420.503	85.62
420.726	109.62
420.948	104.62
421.171	125.62
421.394	99.62
421.617	102.62
421.839	83.62
422.062	83.62
422.285	101.62
422.507	107.62
422.73	122.62
422.953	99.62
423.175	94.62
423.398	95.62
423.621	98.62
423.843	105.62
424.066	82.62
424.288	98.62
424.511	111.62
424.733	122.62
424.956	131.62
425.178	131.62
425.401	108.62
425.623	114.62
425.846	113.62
426.068	111.62
426.291	102.62
426.513	99.62
426.735	99.62
426.958	106.62
427.18	130.62
427.402	220.62
427.625	324.62
427.847	325.62
428.069	275.62
428.292	162.62
428.514	111.62
428.736	83.62
428.958	109.62
429.181	104.62
429.403	91.62
429.625	93.62
429.847	109.62
430.069	113.62
430.292	101.62
430.514	76.62
430.736	87.62
430.958	97.62
431.18	94.62
431.402	106.62
431.624	85.62
431.846	89.62
432.068	107.62
432.29	81.62
432.512	77.62
432.734	82.62
432.956	100.62
433.178	116.62
433.4	122.62
433.622	94.62
433.844	92.62
434.066	97.62
434.287	106.62
434.509	102.62
434.731	110.62
434.953	103.62
435.175	96.62
435.397	87.62
435.618	97.62
435.84	112.62
436.062	146.62
436.284	121.62
436.505	99.62
436.727	100.62
436.949	93.62
437.17	96.62
437.392	117.62
437.614	92.62
437.835	141.62
438.057	201.62
438.278	140.62
438.5	128.62
438.721	143.62
438.943	121.62
439.165	89.62
439.386	101.62
439.608	117.62
439.829	124.62
440.05	195.62
440.272	231.62
440.493	133.62
440.715	113.62
440.936	89.62
441.158	96.62
441.379	99.62
441.6	117.62
441.822	125.62
442.043	117.62
442.264	137.62
442.486	108.62
442.707	112.62
442.928	155.62
443.149	215.62
443.371	213.62
443.592	154.62
443.813	156.62
444.034	146.62
444.255	101.62
444.476	93.62
444.698	99.62
444.919	101.62
445.14	125.62
445.361	130.62
445.582	157.62
445.803	226.62
446.024	204.62
446.245	206.62
446.466	151.62
446.687	118.62
446.908	107.62
447.129	85.62
447.35	104.62
447.571	100.62
447.792	99.62
448.013	119.62
448.234	126.62
448.455	121.62
448.675	149.62
448.896	158.62
449.117	109.62
449.338	125.62
449.559	165.62
449.779	162.62
450	114.62
450.221	107.62
450.442	109.62
450.662	109.62
450.883	143.62
451.104	174.62
451.324	113.62
451.545	103.62
451.766	99.62
451.986	84.62
452.207	120.62
452.428	91.62
452.648	124.62
452.869	134.62
453.089	162.62
453.31	197.62
453.53	124.62
453.751	102.62
453.971	145.62
454.192	179.62
454.412	117.62
454.633	94.62
454.853	96.62
455.073	108.62
455.294	116.62
455.514	126.62
455.734	108.62
455.955	93.62
456.175	82.62
456.395	84.62
456.616	81.62
456.836	83.62
457.056	91.62
457.276	84.62
457.497	102.62
457.717	103.62
457.937	98.62
458.157	87.62
458.377	114.62
458.598	154.62
458.818	267.62
459.038	288.62
459.258	190.62
459.478	124.62
459.698	119.62
459.918	98.62
460.138	102.62
460.358	78.62
460.578	116.62
460.798	105.62
461.018	114.62
461.238	86.62
461.458	81.62
461.678	79.62
461.898	102.62
462.118	104.62
462.338	94.62
462.558	97.62
462.777	99.62
462.997	105.62
463.217	126.62
463.437	112.62
463.657	109.62
463.876	100.62
464.096	115.62
464.316	110.62
464.536	99.62
464.755	103.62
464.975	156.62
465.195	327.62
465.414	313.62
465.634	121.62
465.854	99.62
466.073	95.62
466.293	103.62
466.512	93.62
466.732	97.62
466.951	94.62
467.171	112.62
467.391	132.62
467.61	197.62
467.829	307.62
468.049	907.62
468.268	1395.62
468.488	319.62
468.707	129.62
468.927	93.62
469.146	102.62
469.365	112.62
469.585	107.62
469.804	122.62
470.023	138.62
470.243	114.62
470.462	134.62
470.681	182.62
470.901	130.62
471.12	117.62
471.339	125.62
471.558	151.62
471.777	198.62
471.997	413.62
472.216	1781.62
472.435	4092.62
472.654	862.62
472.873	214.62
473.092	125.62
473.311	101.62
473.53	101.62
473.749	94.62
473.968	128.62
474.187	139.62
474.406	125.62
474.625	109.62
474.844	97.62
475.063	104.62
475.282	86.62
475.501	67.62
475.72	89.62
475.939	89.62
476.158	93.62
476.377	91.62
476.596	99.62
476.814	131.62
477.033	121.62
477.252	121.62
477.471	99.62
477.69	100.62
477.908	96.62
478.127	114.62
478.346	113.62
478.564	119.62
478.783	123.62
479.002	135.62
479.22	129.62
479.439	154.62
479.658	159.62
479.876	143.62
480.095	141.62
480.313	156.62
480.532	210.62
480.751	430.62
480.969	1561.62
481.188	6836.62
481.406	3868.62
481.624	516.62
481.843	180.62
482.061	120.62
482.28	122.62
482.498	120.62
482.717	93.62
482.935	101.62
483.153	97.62
483.372	96.62
483.59	89.62
483.808	95.62
484.027	91.62
484.245	113.62
484.463	96.62
484.681	105.62
484.9	105.62
485.118	99.62
485.336	108.62
485.554	117.62
485.772	118.62
485.99	96.62
486.209	111.62
486.427	118.62
486.645	121.62
486.863	153.62
487.081	132.62
487.299	107.62
487.517	106.62
487.735	99.62
487.953	85.62
488.171	100.62
488.389	112.62
488.607	118.62
488.825	102.62
489.043	107.62
489.261	99.62
489.479	91.62
489.696	89.62
489.914	97.62
490.132	96.62
490.35	88.62
490.568	102.62
490.786	93.62
491.003	98.62
491.221	100.62
491.439	105.62
491.657	94.62
491.874	106.62
492.092	83.62
492.31	101.62
492.527	114.62
492.745	109.62
492.963	90.62
493.18	97.62
493.398	96.62
493.615	97.62
493.833	89.62
494.05	102.62
494.268	99.62
494.485	98.62
494.703	99.62
494.92	94.62
495.138	74.62
495.355	90.62
495.573	106.62
495.79	100.62
496.008	101.62
496.225	99.62
496.442	104.62
496.66	95.62
496.877	88.62
497.094	97.62
497.312	114.62
497.529	91.62
497.746	102.62
497.963	106.62
498.181	114.62
498.398	106.62
498.615	128.62
498.832	115.62
499.049	88.62
499.267	97.62
499.484	101.62
499.701	91.62
499.918	99.62
500.135	86.62
500.352	92.62
500.569	98.62
500.786	108.62
501.003	89.62
501.22	113.62
501.437	104.62
501.654	99.62
501.871	163.62
502.088	117.62
502.305	95.62
502.522	98.62
502.739	87.62
502.956	95.62
503.172	109.62
503.389	124.62
503.606	131.62
503.823	97.62
504.04	85.62
504.256	88.62
504.473	81.62
504.69	102.62
504.907	82.62
505.123	102.62
505.34	84.62
505.557	101.62
505.773	106.62
505.99	108.62
506.207	96.62
506.423	95.62
506.64	99.62
506.856	96.62
507.073	88.62
507.289	101.62
507.506	119.62
507.722	176.62
507.939	167.62
508.155	115.62
508.372	93.62
508.588	94.62
508.805	112.62
509.021	113.62
509.238	113.62
509.454	132.62
509.67	116.62
509.887	135.62
