Data from Circ_1995_H10_HRD10591_00022.txt Node
Date: Wed Jan 03 11:36:51 EST 2024
User: Yrep
Spectrometer: HR+D1059
Trigger mode: 1
Integration Time (sec): 1.000000E-1
Scans to average: 1
Electric dark correction enabled: true
Nonlinearity correction enabled: false
Boxcar width: 0
XAxis mode: Wavelengths
Number of Pixels in Spectrum: 2048
>>>>>Begin Spectral Data<<<<<
223.165	-21
223.4	-21
223.635	-21
223.869	-17
224.104	-17
224.338	-6
224.573	-13
224.808	-11
225.042	-20
225.277	-9
225.511	1
225.746	-2
225.98	-8
226.215	26
226.449	19
226.683	32
226.918	13
227.152	33
227.387	40
227.621	40
227.856	48
228.09	46
228.324	56
228.559	51
228.793	67
229.027	73
229.262	74
229.496	91
229.73	96
229.964	100
230.199	80
230.433	62
230.667	78
230.901	81
231.136	71
231.37	80
231.604	86
231.838	89
232.072	72
232.306	77
232.541	82
232.775	90
233.009	81
233.243	94
233.477	59
233.711	71
233.945	88
234.179	80
234.413	83
234.647	91
234.881	87
235.115	89
235.349	84
235.583	76
235.817	73
236.051	72
236.285	76
236.519	96
236.753	83
236.987	82
237.221	82
237.455	102
237.689	80
237.922	78
238.156	86
238.39	90
238.624	92
238.858	91
239.091	83
239.325	82
239.559	101
239.793	78
240.027	77
240.26	72
240.494	88
240.728	76
240.961	83
241.195	88
241.429	82
241.662	81
241.896	86
242.13	64
242.363	76
242.597	89
242.83	92
243.064	97
243.298	88
243.531	79
243.765	79
243.998	87
244.232	91
244.465	82
244.699	96
244.932	70
245.166	88
245.399	91
245.633	67
245.866	90
246.099	62
246.333	85
246.566	70
246.8	70
247.033	74
247.266	84
247.5	84
247.733	75
247.966	82
248.2	96
248.433	88
248.666	86
248.899	87
249.133	82
249.366	114
249.599	107
249.832	75
250.066	75
250.299	87
250.532	77
250.765	92
250.998	74
251.231	77
251.465	82
251.698	78
251.931	71
252.164	82
252.397	77
252.63	86
252.863	83
253.096	79
253.329	88
253.562	84
253.795	92
254.028	73
254.261	84
254.494	84
254.727	84
254.96	83
255.193	77
255.426	86
255.659	82
255.892	95
256.124	83
256.357	100
256.59	90
256.823	91
257.056	91
257.289	97
257.521	80
257.754	96
257.987	81
258.22	91
258.452	99
258.685	86
258.918	91
259.151	82
259.383	84
259.616	80
259.849	90
260.081	78
260.314	89
260.547	95
260.779	90
261.012	123
261.244	124
261.477	100
261.71	109
261.942	142
262.175	166
262.407	104
262.64	88
262.872	86
263.105	93
263.337	83
263.57	87
263.802	76
264.035	88
264.267	66
264.499	77
264.732	82
264.964	84
265.197	90
265.429	71
265.661	80
265.894	84
266.126	79
266.358	86
266.591	87
266.823	90
267.055	83
267.287	83
267.52	82
267.752	77
267.984	90
268.216	87
268.448	91
268.681	98
268.913	87
269.145	91
269.377	82
269.609	88
269.841	87
270.073	82
270.306	77
270.538	95
270.77	87
271.002	91
271.234	80
271.466	92
271.698	90
271.93	78
272.162	94
272.394	89
272.626	88
272.858	96
273.09	92
273.322	93
273.553	77
273.785	89
274.017	94
274.249	100
274.481	90
274.713	80
274.945	93
275.176	101
275.408	105
275.64	117
275.872	124
276.104	111
276.335	115
276.567	120
276.799	163
277.031	213
277.262	218
277.494	172
277.726	105
277.957	95
278.189	86
278.421	91
278.652	90
278.884	94
279.115	103
279.347	94
279.579	100
279.81	142
280.042	225
280.273	311
280.505	222
280.736	99
280.968	112
281.199	92
281.431	84
281.662	100
281.894	101
282.125	103
282.356	145
282.588	187
282.819	135
283.051	96
283.282	90
283.513	86
283.745	83
283.976	82
284.207	97
284.439	87
284.67	94
284.901	97
285.132	94
285.364	92
285.595	87
285.826	77
286.057	97
286.288	104
286.52	83
286.751	79
286.982	81
287.213	66
287.444	90
287.675	86
287.906	101
288.138	75
288.369	81
288.6	103
288.831	86
289.062	78
289.293	82
289.524	84
289.755	90
289.986	94
290.217	79
290.448	107
290.679	83
290.91	87
291.141	78
291.371	88
291.602	77
291.833	98
292.064	86
292.295	94
292.526	97
292.757	92
292.987	101
293.218	88
293.449	98
293.68	95
293.91	83
294.141	97
294.372	85
294.603	88
294.833	84
295.064	84
295.295	99
295.525	95
295.756	107
295.987	123
296.217	182
296.448	168
296.679	89
296.909	87
297.14	87
297.37	77
297.601	79
297.831	94
298.062	94
298.292	86
298.523	98
298.753	89
298.984	94
299.214	84
299.445	90
299.675	88
299.905	102
300.136	97
300.366	86
300.597	92
300.827	111
301.057	110
301.288	131
301.518	107
301.748	107
301.979	115
302.209	105
302.439	109
302.669	88
302.9	87
303.13	99
303.36	114
303.59	145
303.82	162
304.051	116
304.281	78
304.511	92
304.741	87
304.971	79
305.201	81
305.431	96
305.661	97
305.891	91
306.121	93
306.352	120
306.582	115
306.812	99
307.042	145
307.272	189
307.502	184
307.731	191
307.961	151
308.191	111
308.421	82
308.651	97
308.881	92
309.111	87
309.341	92
309.571	105
309.8	104
310.03	125
310.26	90
310.49	87
310.72	109
310.949	125
311.179	122
311.409	107
311.639	104
311.868	93
312.098	100
312.328	108
312.557	117
312.787	126
313.017	124
313.246	102
313.476	81
313.706	106
313.935	94
314.165	106
314.394	118
314.624	101
314.853	108
315.083	102
315.312	94
315.542	83
315.771	87
316.001	95
316.23	93
316.46	92
316.689	87
316.919	106
317.148	96
317.377	103
317.607	104
317.836	104
318.065	90
318.295	101
318.524	99
318.753	87
318.983	97
319.212	105
319.441	126
319.67	126
319.9	109
320.129	106
320.358	97
320.587	105
320.816	106
321.046	110
321.275	114
321.504	113
321.733	115
321.962	114
322.191	109
322.42	111
322.649	124
322.878	138
323.108	135
323.337	152
323.566	177
323.795	202
324.024	268
324.253	563
324.482	1238
324.71	2614
324.939	3551
325.168	1274
325.397	367
325.626	200
325.855	172
326.084	160
326.313	158
326.542	196
326.77	306
326.999	628
327.228	1328
327.457	2521
327.686	2071
327.914	674
328.143	635
328.372	844
328.6	454
328.829	201
329.058	226
329.287	228
329.515	212
329.744	292
329.972	546
330.201	1182
330.43	1800
330.658	788
330.887	339
331.115	210
331.344	134
331.572	131
331.801	142
332.03	131
332.258	111
332.486	106
332.715	114
332.943	118
333.172	146
333.4	150
333.629	183
333.857	249
334.085	499
334.314	1046
334.542	2167
334.771	2086
334.999	496
335.227	192
335.455	135
335.684	130
335.912	102
336.14	110
336.369	111
336.597	115
336.825	114
337.053	98
337.281	98
337.51	92
337.738	97
337.966	99
338.194	114
338.422	113
338.65	99
338.878	91
339.106	98
339.334	96
339.562	93
339.79	105
340.018	94
340.246	111
340.474	104
340.702	106
340.93	92
341.158	81
341.386	100
341.614	106
341.842	102
342.07	103
342.298	104
342.526	75
342.754	98
342.981	77
343.209	82
343.437	95
343.665	101
343.893	96
344.12	97
344.348	90
344.576	66
344.804	99
345.031	81
345.259	104
345.487	111
345.714	110
345.942	105
346.17	99
346.397	85
346.625	105
346.853	105
347.08	96
347.308	83
347.535	96
347.763	118
347.99	110
348.218	108
348.445	112
348.673	104
348.9	101
349.128	105
349.355	86
349.583	101
349.81	100
350.037	98
350.265	100
350.492	99
350.72	108
350.947	114
351.174	118
351.402	129
351.629	99
351.856	102
352.083	119
352.311	118
352.538	123
352.765	126
352.992	123
353.22	121
353.447	110
353.674	116
353.901	83
354.128	102
354.355	97
354.583	103
354.81	91
355.037	102
355.264	90
355.491	88
355.718	86
355.945	90
356.172	99
356.399	99
356.626	95
356.853	83
357.08	90
357.307	88
357.534	103
357.761	86
357.988	94
358.215	79
358.441	106
358.668	106
358.895	96
359.122	96
359.349	100
359.576	108
359.802	120
360.029	153
360.256	159
360.483	119
360.709	95
360.936	107
361.163	101
361.39	118
361.616	115
361.843	93
362.07	104
362.296	121
362.523	95
362.749	107
362.976	100
363.203	106
363.429	99
363.656	90
363.882	80
364.109	104
364.335	89
364.562	101
364.788	108
365.015	108
365.241	99
365.468	108
365.694	139
365.92	99
366.147	103
366.373	90
366.599	92
366.826	104
367.052	97
367.278	90
367.505	95
367.731	108
367.957	93
368.184	96
368.41	122
368.636	127
368.862	136
369.089	140
369.315	114
369.541	99
369.767	82
369.993	90
370.219	95
370.445	98
370.672	91
370.898	73
371.124	98
371.35	95
371.576	90
371.802	86
372.028	76
372.254	85
372.48	84
372.706	76
372.932	90
373.158	83
373.384	67
373.61	97
373.835	102
374.061	92
374.287	94
374.513	85
374.739	90
374.965	89
375.191	83
375.416	93
375.642	90
375.868	95
376.094	89
376.319	78
376.545	93
376.771	74
376.997	109
377.222	88
377.448	105
377.674	97
377.899	93
378.125	98
378.35	91
378.576	102
378.802	91
379.027	96
379.253	78
379.478	81
379.704	95
379.929	109
380.155	104
380.38	89
380.606	100
380.831	102
381.057	108
381.282	94
381.507	110
381.733	87
381.958	89
382.184	96
382.409	108
382.634	101
382.86	112
383.085	107
383.31	100
383.535	118
383.761	102
383.986	114
384.211	118
384.436	96
384.662	106
384.887	120
385.112	115
385.337	114
385.562	110
385.787	109
386.013	127
386.238	126
386.463	125
386.688	135
386.913	114
387.138	122
387.363	117
387.588	114
387.813	119
388.038	113
388.263	123
388.488	130
388.713	108
388.938	87
389.163	81
389.387	94
389.612	93
389.837	99
390.062	96
390.287	104
390.512	82
390.736	95
390.961	88
391.186	105
391.411	95
391.636	100
391.86	99
392.085	95
392.31	94
392.534	85
392.759	87
392.984	90
393.208	87
393.433	99
393.658	91
393.882	90
394.107	81
394.331	96
394.556	95
394.78	117
395.005	103
395.229	90
395.454	98
395.678	93
395.903	86
396.127	93
396.352	91
396.576	88
396.801	83
397.025	95
397.249	83
397.474	85
397.698	86
397.922	84
398.147	82
398.371	89
398.595	86
398.82	90
399.044	92
399.268	88
399.492	99
399.717	88
399.941	88
400.165	72
400.389	99
400.613	81
400.837	86
401.062	93
401.286	110
401.51	107
401.734	110
401.958	100
402.182	167
402.406	231
402.63	174
402.854	97
403.078	109
403.302	103
403.526	90
403.75	80
403.974	96
404.198	90
404.422	92
404.645	109
404.869	113
405.093	126
405.317	156
405.541	136
405.765	128
405.988	143
406.212	247
406.436	379
406.66	248
406.883	132
407.107	113
407.331	98
407.555	114
407.778	111
408.002	96
408.226	89
408.449	102
408.673	90
408.896	96
409.12	103
409.344	102
409.567	85
409.791	89
410.014	96
410.238	86
410.461	98
410.685	91
410.908	91
411.132	103
411.355	95
411.578	102
411.802	82
412.025	96
412.249	104
412.472	118
412.695	141
412.919	116
413.142	104
413.365	102
413.589	91
413.812	82
414.035	93
414.258	94
414.482	97
414.705	94
414.928	115
415.151	94
415.374	100
415.597	92
415.821	88
416.044	90
416.267	104
416.49	102
416.713	90
416.936	93
417.159	98
417.382	102
417.605	111
417.828	118
418.051	94
418.274	87
418.497	95
418.72	87
418.943	105
419.166	103
419.389	88
419.611	94
419.834	105
420.057	93
420.28	112
420.503	100
420.726	103
420.948	88
421.171	109
421.394	101
421.617	96
421.839	97
422.062	93
422.285	88
422.507	85
422.73	97
422.953	82
423.175	95
423.398	95
423.621	92
423.843	100
424.066	84
424.288	90
424.511	98
424.733	122
424.956	119
425.178	109
425.401	99
425.623	110
425.846	115
426.068	105
426.291	103
426.513	105
426.735	100
426.958	122
427.18	129
427.402	195
427.625	299
427.847	278
428.069	242
428.292	126
428.514	90
428.736	96
428.958	98
429.181	106
429.403	86
429.625	82
429.847	93
430.069	118
430.292	95
430.514	97
430.736	87
430.958	83
431.18	82
431.402	95
431.624	82
431.846	82
432.068	94
432.29	78
432.512	105
432.734	74
432.956	104
433.178	100
433.4	108
433.622	92
433.844	91
434.066	91
434.287	94
434.509	106
434.731	96
434.953	83
435.175	89
435.397	103
435.618	102
435.84	117
436.062	132
436.284	130
436.505	128
436.727	107
436.949	80
437.17	78
437.392	89
437.614	108
437.835	138
438.057	164
438.278	134
438.5	109
438.721	152
438.943	112
439.165	94
439.386	82
439.608	99
439.829	114
440.05	175
440.272	209
440.493	121
440.715	88
440.936	86
441.158	83
441.379	92
441.6	89
441.822	106
442.043	108
442.264	132
442.486	116
442.707	97
442.928	122
443.149	202
443.371	186
443.592	151
443.813	130
444.034	119
444.255	101
444.476	96
444.698	106
444.919	88
445.14	137
445.361	147
445.582	148
445.803	188
446.024	177
446.245	170
446.466	134
446.687	93
446.908	98
447.129	91
447.35	90
447.571	94
447.792	109
448.013	116
448.234	126
448.455	114
448.675	131
448.896	144
449.117	104
449.338	122
449.559	155
449.779	139
450	113
450.221	99
450.442	92
450.662	111
450.883	147
451.104	168
451.324	97
451.545	115
451.766	91
451.986	95
452.207	99
452.428	103
452.648	119
452.869	142
453.089	136
453.31	159
453.53	110
453.751	108
453.971	114
454.192	166
454.412	102
454.633	93
454.853	92
455.073	92
455.294	99
455.514	113
455.734	100
455.955	90
456.175	92
456.395	75
456.616	93
456.836	95
457.056	100
457.276	78
457.497	91
457.717	89
457.937	100
458.157	90
458.377	89
458.598	137
458.818	241
459.038	264
459.258	159
459.478	108
459.698	88
459.918	82
460.138	77
460.358	81
460.578	89
460.798	98
461.018	94
461.238	99
461.458	84
461.678	91
461.898	97
462.118	91
462.338	76
462.558	80
462.777	106
462.997	95
463.217	122
463.437	114
463.657	99
463.876	114
464.096	105
464.316	100
464.536	104
464.755	100
464.975	128
465.195	278
465.414	282
465.634	135
465.854	92
466.073	96
466.293	94
466.512	83
466.732	92
466.951	89
467.171	103
467.391	128
467.61	163
467.829	241
468.049	684
468.268	1073
468.488	279
468.707	127
468.927	98
469.146	104
469.365	107
469.585	105
469.804	104
470.023	122
470.243	106
470.462	119
470.681	174
470.901	110
471.12	104
471.339	114
471.558	125
471.777	158
471.997	334
472.216	1306
472.435	3165
472.654	712
472.873	179
473.092	122
473.311	102
473.53	98
473.749	83
473.968	111
474.187	135
474.406	111
474.625	89
474.844	101
475.063	93
475.282	94
475.501	79
475.72	95
475.939	85
476.158	88
476.377	97
476.596	98
476.814	112
477.033	104
477.252	103
477.471	103
477.69	92
477.908	97
478.127	90
478.346	102
478.564	113
478.783	122
479.002	104
479.22	123
479.439	143
479.658	152
479.876	139
480.095	119
480.313	146
480.532	163
480.751	322
480.969	1144
481.188	5258
481.406	3041
481.624	432
481.843	153
482.061	112
482.28	110
482.498	91
482.717	102
482.935	108
483.153	95
483.372	104
483.59	95
483.808	93
484.027	85
484.245	103
484.463	94
484.681	98
484.9	98
485.118	94
485.336	95
485.554	99
485.772	103
485.99	104
486.209	119
486.427	124
486.645	121
486.863	145
487.081	114
487.299	105
487.517	97
487.735	96
487.953	105
488.171	95
488.389	104
488.607	115
488.825	95
489.043	98
489.261	94
489.479	98
489.696	105
489.914	94
490.132	101
490.35	97
490.568	111
490.786	87
491.003	90
491.221	87
491.439	103
491.657	88
491.874	101
492.092	88
492.31	91
492.527	91
492.745	92
492.963	93
493.18	80
493.398	98
493.615	96
493.833	105
494.05	91
494.268	100
494.485	80
494.703	97
494.92	100
495.138	103
495.355	103
495.573	92
495.79	112
496.008	97
496.225	93
496.442	87
496.66	88
496.877	83
497.094	87
497.312	85
497.529	89
497.746	74
497.963	96
498.181	88
498.398	95
498.615	116
498.832	113
499.049	108
499.267	106
499.484	95
499.701	97
499.918	83
500.135	82
500.352	83
500.569	78
500.786	92
501.003	98
501.22	104
501.437	97
501.654	96
501.871	158
502.088	100
502.305	96
502.522	91
502.739	95
502.956	90
503.172	105
503.389	110
503.606	132
503.823	112
504.04	100
504.256	82
504.473	94
504.69	93
504.907	86
505.123	97
505.34	88
505.557	82
505.773	89
505.99	90
506.207	91
506.423	93
506.64	92
506.856	81
507.073	96
507.289	105
507.506	97
507.722	140
507.939	155
508.155	105
508.372	84
508.588	108
508.805	89
509.021	86
509.238	90
509.454	101
509.67	96
509.887	135
510.103	151
510.319	254
510.536	1021
510.752	3806
510.968	990
511.184	207
511.401	150
511.617	119
511.833	103
512.049	94
512.265	96
512.481	84
512.698	96
512.914	92
513.13	104
513.346	97
513.562	94
513.778	103
513.994	108
514.21	139
514.426	168
514.642	204
514.858	173
515.074	269
515.29	875
515.506	3318
515.721	1163
515.937	250
516.153	158
516.369	118
516.585	110
516.801	113
517.016	102
517.232	110
517.448	97
517.664	100
517.879	97
518.095	100
518.311	112
518.527	119
518.742	99
518.958	93
519.173	104
519.389	97
519.605	110
519.82	118
520.036	128
520.251	163
520.467	153
520.682	136
520.898	135
521.113	138
521.329	191
521.544	354
521.76	1173
521.975	5525
522.19	3319
522.406	627
522.621	192
522.836	113
523.052	112
523.267	110
523.482	99
523.698	118
523.913	159
524.128	138
524.343	102
524.559	97
524.774	106
524.989	99
525.204	126
525.419	112
525.634	95
525.849	107
526.064	90
526.28	106
526.495	99
526.71	82
526.925	80
527.14	91
527.355	97
527.57	105
527.785	88
527.999	89
528.214	93
528.429	100
528.644	112
528.859	111
529.074	103
529.289	181
529.503	348
529.718	142
529.933	91
530.148	94
530.363	97
530.577	87
530.792	91
531.007	82
531.221	102
531.436	102
531.651	89
531.865	79
532.08	99
532.295	90
532.509	107
532.724	107
532.938	93
533.153	108
533.367	102
533.582	88
533.796	83
534.011	99
534.225	78
534.44	80
534.654	90
534.868	102
535.083	96
535.297	99
535.511	126
535.726	122
535.94	111
536.154	100
536.369	91
536.583	91
536.797	91
537.011	94
537.225	90
537.44	79
537.654	94
537.868	102
538.082	108
538.296	102
538.51	101
538.724	91
538.938	89
539.153	99
539.367	139
539.581	106
539.795	100
540.009	99
540.222	93
540.436	100
540.65	92
540.864	107
541.078	104
541.292	105
541.506	99
541.72	97
541.934	89
542.147	88
542.361	107
542.575	85
542.789	107
543.002	87
543.216	110
543.43	112
543.644	89
543.857	94
544.071	88
544.285	89
544.498	100
544.712	96
544.925	81
545.139	76
545.352	74
545.566	83
545.779	96
545.993	76
546.206	73
546.42	85
546.633	91
546.847	101
547.06	83
547.274	114
547.487	87
547.7	81
547.914	107
548.127	95
548.34	76
548.554	96
548.767	97
548.98	97
549.193	86
549.407	86
549.62	72
549.833	82
550.046	92
550.259	85
550.473	90
550.686	103
550.899	87
551.112	100
551.325	107
551.538	96
551.751	83
551.964	90
552.177	72
552.39	91
552.603	91
552.816	97
553.029	102
553.242	82
553.455	102
553.667	127
553.88	126
554.093	96
554.306	134
554.519	130
554.732	98
554.944	91
555.157	86
555.37	95
555.583	91
555.795	97
556.008	94
556.221	73
556.433	99
556.646	91
556.859	99
557.071	94
557.284	77
557.496	88
557.709	99
557.921	90
558.134	79
558.346	95
558.559	90
558.771	80
558.984	97
559.196	95
559.409	96
559.621	90
559.833	78
560.046	102
560.258	119
560.47	156
560.683	98
560.895	87
561.107	101
561.32	98
561.532	85
561.744	82
561.956	94
562.168	83
562.381	88
562.593	97
562.805	94
563.017	103
563.229	87
563.441	92
563.653	87
563.865	93
564.077	89
564.289	70
564.501	80
564.713	70
564.925	94
565.137	118
565.349	96
565.561	98
565.773	84
565.985	89
566.197	81
566.408	70
566.62	77
566.832	98
567.044	87
567.255	90
567.467	87
567.679	84
567.891	79
568.102	96
568.314	79
568.526	89
568.737	77
568.949	89
569.161	92
569.372	93
569.584	103
569.795	88
570.007	118
570.218	365
570.43	168
570.641	87
570.853	96
571.064	103
571.276	95
571.487	82
571.698	102
571.91	80
572.121	92
572.333	89
572.544	71
572.755	94
572.966	98
573.178	91
573.389	88
573.6	75
573.811	83
574.023	93
574.234	88
574.445	85
574.656	85
574.867	78
575.078	98
575.289	91
575.501	84
575.712	83
575.923	94
576.134	91
576.345	87
576.556	88
576.767	98
576.978	117
577.188	102
577.399	91
577.61	77
577.821	108
578.032	136
578.243	367
578.454	1186
578.665	281
