Data from Circ_1995_H10_HRD10591_00089.txt Node
Date: Wed Jan 03 11:37:04 EST 2024
User: Yrep
Spectrometer: HR+D1059
Trigger mode: 1
Integration Time (sec): 1.000000E-1
Scans to average: 1
Electric dark correction enabled: true
Nonlinearity correction enabled: false
Boxcar width: 0
XAxis mode: Wavelengths
Number of Pixels in Spectrum: 2048
>>>>>Begin Spectral Data<<<<<
223.165	-24.75
223.4	-24.75
223.635	-24.75
223.869	-18.75
224.104	-36.75
224.338	-23.75
224.573	-10.75
224.808	-19.75
225.042	3.25
225.277	4.25
225.511	14.25
225.746	12.25
225.98	-6.75
226.215	11.25
226.449	20.25
226.683	30.25
226.918	32.25
227.152	13.25
227.387	39.25
227.621	52.25
227.856	53.25
228.09	44.25
228.324	54.25
228.559	68.25
228.793	63.25
229.027	82.25
229.262	74.25
229.496	88.25
229.73	103.25
229.964	106.25
230.199	69.25
230.433	74.25
230.667	86.25
230.901	80.25
231.136	81.25
231.37	100.25
231.604	81.25
231.838	76.25
232.072	76.25
232.306	78.25
232.541	72.25
232.775	89.25
233.009	77.25
233.243	76.25
233.477	76.25
233.711	97.25
233.945	81.25
234.179	77.25
234.413	76.25
234.647	85.25
234.881	81.25
235.115	61.25
235.349	87.25
235.583	86.25
235.817	79.25
236.051	84.25
236.285	82.25
236.519	69.25
236.753	84.25
236.987	84.25
237.221	94.25
237.455	106.25
237.689	90.25
237.922	82.25
238.156	82.25
238.39	84.25
238.624	75.25
238.858	88.25
239.091	69.25
239.325	82.25
239.559	80.25
239.793	89.25
240.027	86.25
240.26	77.25
240.494	95.25
240.728	81.25
240.961	77.25
241.195	88.25
241.429	80.25
241.662	77.25
241.896	78.25
242.13	79.25
242.363	75.25
242.597	76.25
242.83	83.25
243.064	82.25
243.298	77.25
243.531	76.25
243.765	80.25
243.998	74.25
244.232	89.25
244.465	90.25
244.699	99.25
244.932	78.25
245.166	86.25
245.399	98.25
245.633	89.25
245.866	67.25
246.099	78.25
246.333	72.25
246.566	69.25
246.8	96.25
247.033	94.25
247.266	91.25
247.5	88.25
247.733	81.25
247.966	97.25
248.2	80.25
248.433	85.25
248.666	73.25
248.899	90.25
249.133	100.25
249.366	116.25
249.599	96.25
249.832	88.25
250.066	80.25
250.299	99.25
250.532	101.25
250.765	74.25
250.998	84.25
251.231	84.25
251.465	89.25
251.698	87.25
251.931	93.25
252.164	96.25
252.397	89.25
252.63	86.25
252.863	79.25
253.096	81.25
253.329	83.25
253.562	89.25
253.795	90.25
254.028	96.25
254.261	89.25
254.494	86.25
254.727	99.25
254.96	96.25
255.193	86.25
255.426	83.25
255.659	84.25
255.892	96.25
256.124	101.25
256.357	90.25
256.59	88.25
256.823	92.25
257.056	93.25
257.289	90.25
257.521	91.25
257.754	90.25
257.987	97.25
258.22	116.25
258.452	114.25
258.685	110.25
258.918	94.25
259.151	74.25
259.383	89.25
259.616	95.25
259.849	90.25
260.081	83.25
260.314	94.25
260.547	100.25
260.779	109.25
261.012	130.25
261.244	124.25
261.477	112.25
261.71	122.25
261.942	150.25
262.175	174.25
262.407	107.25
262.64	86.25
262.872	88.25
263.105	104.25
263.337	85.25
263.57	89.25
263.802	102.25
264.035	98.25
264.267	81.25
264.499	82.25
264.732	80.25
264.964	83.25
265.197	78.25
265.429	83.25
265.661	88.25
265.894	92.25
266.126	81.25
266.358	91.25
266.591	88.25
266.823	91.25
267.055	75.25
267.287	81.25
267.52	97.25
267.752	96.25
267.984	98.25
268.216	82.25
268.448	87.25
268.681	94.25
268.913	79.25
269.145	97.25
269.377	92.25
269.609	86.25
269.841	88.25
270.073	83.25
270.306	92.25
270.538	92.25
270.77	81.25
271.002	100.25
271.234	92.25
271.466	98.25
271.698	106.25
271.93	78.25
272.162	87.25
272.394	89.25
272.626	87.25
272.858	95.25
273.09	93.25
273.322	76.25
273.553	79.25
273.785	94.25
274.017	93.25
274.249	86.25
274.481	93.25
274.713	88.25
274.945	105.25
275.176	104.25
275.408	130.25
275.64	126.25
275.872	157.25
276.104	126.25
276.335	110.25
276.567	139.25
276.799	176.25
277.031	221.25
277.262	266.25
277.494	182.25
277.726	124.25
277.957	108.25
278.189	103.25
278.421	86.25
278.652	86.25
278.884	101.25
279.115	102.25
279.347	106.25
279.579	111.25
279.81	156.25
280.042	254.25
280.273	382.25
280.505	257.25
280.736	124.25
280.968	90.25
281.199	92.25
281.431	105.25
281.662	93.25
281.894	91.25
282.125	109.25
282.356	148.25
282.588	205.25
282.819	168.25
283.051	101.25
283.282	103.25
283.513	75.25
283.745	104.25
283.976	88.25
284.207	90.25
284.439	90.25
284.67	90.25
284.901	93.25
285.132	96.25
285.364	90.25
285.595	86.25
285.826	79.25
286.057	90.25
286.288	88.25
286.52	86.25
286.751	68.25
286.982	90.25
287.213	82.25
287.444	91.25
287.675	88.25
287.906	111.25
288.138	88.25
288.369	99.25
288.6	105.25
288.831	93.25
289.062	90.25
289.293	94.25
289.524	85.25
289.755	94.25
289.986	92.25
290.217	86.25
290.448	84.25
290.679	101.25
290.91	99.25
291.141	79.25
291.371	89.25
291.602	83.25
291.833	87.25
292.064	88.25
292.295	82.25
292.526	93.25
292.757	94.25
292.987	99.25
293.218	78.25
293.449	92.25
293.68	100.25
293.91	90.25
294.141	96.25
294.372	88.25
294.603	80.25
294.833	91.25
295.064	96.25
295.295	94.25
295.525	98.25
295.756	121.25
295.987	140.25
296.217	188.25
296.448	165.25
296.679	105.25
296.909	96.25
297.14	88.25
297.37	88.25
297.601	100.25
297.831	102.25
298.062	91.25
298.292	86.25
298.523	107.25
298.753	96.25
298.984	96.25
299.214	99.25
299.445	89.25
299.675	102.25
299.905	104.25
300.136	91.25
300.366	101.25
300.597	105.25
300.827	87.25
301.057	119.25
301.288	122.25
301.518	100.25
301.748	101.25
301.979	128.25
302.209	107.25
302.439	94.25
302.669	96.25
302.9	91.25
303.13	102.25
303.36	120.25
303.59	165.25
303.82	162.25
304.051	118.25
304.281	89.25
304.511	101.25
304.741	102.25
304.971	92.25
305.201	87.25
305.431	96.25
305.661	87.25
305.891	89.25
306.121	92.25
306.352	124.25
306.582	128.25
306.812	122.25
307.042	145.25
307.272	214.25
307.502	230.25
307.731	207.25
307.961	151.25
308.191	102.25
308.421	110.25
308.651	101.25
308.881	101.25
309.111	89.25
309.341	110.25
309.571	100.25
309.8	107.25
310.03	119.25
310.26	127.25
310.49	107.25
310.72	123.25
310.949	125.25
311.179	110.25
311.409	93.25
311.639	102.25
311.868	108.25
312.098	99.25
312.328	102.25
312.557	132.25
312.787	132.25
313.017	130.25
313.246	117.25
313.476	85.25
313.706	101.25
313.935	83.25
314.165	131.25
314.394	142.25
314.624	121.25
314.853	103.25
315.083	91.25
315.312	93.25
315.542	90.25
315.771	105.25
316.001	96.25
316.23	106.25
316.46	105.25
316.689	105.25
316.919	101.25
317.148	113.25
317.377	118.25
317.607	110.25
317.836	92.25
318.065	90.25
318.295	94.25
318.524	102.25
318.753	106.25
318.983	92.25
319.212	103.25
319.441	117.25
319.67	109.25
319.9	88.25
320.129	98.25
320.358	108.25
320.587	112.25
320.816	111.25
321.046	115.25
321.275	112.25
321.504	111.25
321.733	119.25
321.962	111.25
322.191	121.25
322.42	121.25
322.649	131.25
322.878	125.25
323.108	149.25
323.337	149.25
323.566	161.25
323.795	216.25
324.024	290.25
324.253	552.25
324.482	1260.25
324.71	2597.25
324.939	3427.25
325.168	1251.25
325.397	346.25
325.626	217.25
325.855	170.25
326.084	162.25
326.313	183.25
326.542	205.25
326.77	302.25
326.999	602.25
327.228	1310.25
327.457	2396.25
327.686	1962.25
327.914	750.25
328.143	802.25
328.372	1058.25
328.6	586.25
328.829	253.25
329.058	232.25
329.287	234.25
329.515	212.25
329.744	353.25
329.972	751.25
330.201	1636.25
330.43	2404.25
330.658	1003.25
330.887	386.25
331.115	251.25
331.344	152.25
331.572	134.25
331.801	150.25
332.03	138.25
332.258	134.25
332.486	123.25
332.715	127.25
332.943	129.25
333.172	139.25
333.4	163.25
333.629	200.25
333.857	301.25
334.085	646.25
334.314	1422.25
334.542	2876.25
334.771	2698.25
334.999	665.25
335.227	239.25
335.455	162.25
335.684	140.25
335.912	114.25
336.14	109.25
336.369	120.25
336.597	124.25
336.825	127.25
337.053	112.25
337.281	102.25
337.51	96.25
337.738	96.25
337.966	98.25
338.194	117.25
338.422	111.25
338.65	110.25
338.878	108.25
339.106	89.25
339.334	101.25
339.562	100.25
339.79	107.25
340.018	112.25
340.246	108.25
340.474	117.25
340.702	104.25
340.93	111.25
341.158	108.25
341.386	106.25
341.614	111.25
341.842	108.25
342.07	116.25
342.298	109.25
342.526	99.25
342.754	87.25
342.981	95.25
343.209	92.25
343.437	93.25
343.665	85.25
343.893	94.25
344.12	99.25
344.348	101.25
344.576	101.25
344.804	105.25
345.031	95.25
345.259	119.25
345.487	103.25
345.714	96.25
345.942	104.25
346.17	108.25
346.397	108.25
346.625	115.25
346.853	86.25
347.08	85.25
347.308	118.25
347.535	105.25
347.763	126.25
347.99	114.25
348.218	116.25
348.445	135.25
348.673	121.25
348.9	93.25
349.128	100.25
349.355	102.25
349.583	99.25
349.81	103.25
350.037	106.25
350.265	114.25
350.492	105.25
350.72	118.25
350.947	122.25
351.174	112.25
351.402	143.25
351.629	125.25
351.856	117.25
352.083	122.25
352.311	118.25
352.538	144.25
352.765	123.25
352.992	125.25
353.22	120.25
353.447	109.25
353.674	101.25
353.901	93.25
354.128	79.25
354.355	96.25
354.583	97.25
354.81	101.25
355.037	106.25
355.264	97.25
355.491	97.25
355.718	98.25
355.945	102.25
356.172	113.25
356.399	96.25
356.626	100.25
356.853	92.25
357.08	99.25
357.307	104.25
357.534	90.25
357.761	85.25
357.988	87.25
358.215	82.25
358.441	88.25
358.668	88.25
358.895	94.25
359.122	103.25
359.349	88.25
359.576	99.25
359.802	125.25
360.029	172.25
360.256	163.25
360.483	137.25
360.709	82.25
360.936	121.25
361.163	104.25
361.39	91.25
361.616	105.25
361.843	108.25
362.07	110.25
362.296	111.25
362.523	106.25
362.749	92.25
362.976	93.25
363.203	97.25
363.429	98.25
363.656	96.25
363.882	97.25
364.109	89.25
364.335	113.25
364.562	104.25
364.788	106.25
365.015	100.25
365.241	122.25
365.468	138.25
365.694	129.25
365.92	116.25
366.147	102.25
366.373	99.25
366.599	95.25
366.826	92.25
367.052	93.25
367.278	106.25
367.505	96.25
367.731	94.25
367.957	94.25
368.184	103.25
368.41	120.25
368.636	126.25
368.862	143.25
369.089	119.25
369.315	104.25
369.541	94.25
369.767	105.25
369.993	96.25
370.219	97.25
370.445	96.25
370.672	93.25
370.898	89.25
371.124	102.25
371.35	94.25
371.576	91.25
371.802	70.25
372.028	104.25
372.254	98.25
372.48	90.25
372.706	88.25
372.932	77.25
373.158	94.25
373.384	88.25
373.61	111.25
373.835	93.25
374.061	82.25
374.287	97.25
374.513	92.25
374.739	98.25
374.965	90.25
375.191	102.25
375.416	93.25
375.642	86.25
375.868	88.25
376.094	100.25
376.319	87.25
376.545	85.25
376.771	94.25
376.997	97.25
377.222	81.25
377.448	92.25
377.674	103.25
377.899	103.25
378.125	105.25
378.35	88.25
378.576	85.25
378.802	100.25
379.027	92.25
379.253	91.25
379.478	92.25
379.704	76.25
379.929	85.25
380.155	96.25
380.38	90.25
380.606	82.25
380.831	109.25
381.057	98.25
381.282	89.25
381.507	77.25
381.733	98.25
381.958	101.25
382.184	107.25
382.409	99.25
382.634	108.25
382.86	120.25
383.085	113.25
383.31	102.25
383.535	102.25
383.761	93.25
383.986	85.25
384.211	93.25
384.436	101.25
384.662	89.25
384.887	106.25
385.112	112.25
385.337	113.25
385.562	102.25
385.787	102.25
386.013	113.25
386.238	147.25
386.463	124.25
386.688	112.25
386.913	93.25
387.138	104.25
387.363	109.25
387.588	108.25
387.813	98.25
388.038	116.25
388.263	115.25
388.488	100.25
388.713	104.25
388.938	96.25
389.163	92.25
389.387	96.25
389.612	86.25
389.837	92.25
390.062	92.25
390.287	85.25
390.512	92.25
390.736	85.25
390.961	85.25
391.186	94.25
391.411	99.25
391.636	99.25
391.86	89.25
392.085	93.25
392.31	99.25
392.534	96.25
392.759	84.25
392.984	88.25
393.208	94.25
393.433	89.25
393.658	95.25
393.882	87.25
394.107	99.25
394.331	106.25
394.556	85.25
394.78	90.25
395.005	101.25
395.229	88.25
395.454	84.25
395.678	82.25
395.903	83.25
396.127	93.25
396.352	96.25
396.576	92.25
396.801	79.25
397.025	83.25
397.249	79.25
397.474	106.25
397.698	79.25
397.922	85.25
398.147	92.25
398.371	98.25
398.595	80.25
398.82	100.25
399.044	95.25
399.268	89.25
399.492	94.25
399.717	92.25
399.941	96.25
400.165	113.25
400.389	101.25
400.613	102.25
400.837	85.25
401.062	106.25
401.286	96.25
401.51	101.25
401.734	110.25
401.958	129.25
402.182	158.25
402.406	237.25
402.63	165.25
402.854	114.25
403.078	89.25
403.302	94.25
403.526	93.25
403.75	91.25
403.974	113.25
404.198	98.25
404.422	95.25
404.645	88.25
404.869	113.25
405.093	120.25
405.317	184.25
405.541	172.25
405.765	145.25
405.988	155.25
406.212	245.25
406.436	378.25
406.66	243.25
406.883	138.25
407.107	112.25
407.331	126.25
407.555	113.25
407.778	118.25
408.002	111.25
408.226	111.25
408.449	106.25
408.673	88.25
408.896	93.25
409.12	90.25
409.344	80.25
409.567	108.25
409.791	89.25
410.014	95.25
410.238	99.25
410.461	77.25
410.685	107.25
410.908	98.25
411.132	114.25
411.355	109.25
411.578	95.25
411.802	104.25
412.025	92.25
412.249	117.25
412.472	117.25
412.695	158.25
412.919	120.25
413.142	109.25
413.365	95.25
413.589	94.25
413.812	84.25
414.035	88.25
414.258	99.25
414.482	114.25
414.705	97.25
414.928	83.25
415.151	90.25
415.374	80.25
415.597	98.25
415.821	111.25
416.044	85.25
416.267	95.25
416.49	98.25
416.713	88.25
416.936	102.25
417.159	104.25
417.382	112.25
417.605	119.25
417.828	116.25
418.051	111.25
418.274	91.25
418.497	91.25
418.72	99.25
418.943	91.25
419.166	80.25
419.389	96.25
419.611	94.25
419.834	88.25
420.057	101.25
420.28	88.25
420.503	95.25
420.726	95.25
420.948	101.25
421.171	106.25
421.394	105.25
421.617	96.25
421.839	90.25
422.062	101.25
422.285	91.25
422.507	108.25
422.73	97.25
422.953	100.25
423.175	96.25
423.398	90.25
423.621	67.25
423.843	96.25
424.066	90.25
424.288	95.25
424.511	102.25
424.733	117.25
424.956	122.25
425.178	118.25
425.401	129.25
425.623	94.25
425.846	101.25
426.068	126.25
426.291	97.25
426.513	105.25
426.735	89.25
426.958	101.25
427.18	139.25
427.402	210.25
427.625	317.25
427.847	308.25
428.069	273.25
428.292	168.25
428.514	111.25
428.736	109.25
428.958	85.25
429.181	96.25
429.403	91.25
429.625	94.25
429.847	102.25
430.069	117.25
430.292	110.25
430.514	91.25
430.736	96.25
430.958	92.25
431.18	100.25
431.402	86.25
431.624	93.25
431.846	97.25
432.068	93.25
432.29	99.25
432.512	102.25
432.734	88.25
432.956	90.25
433.178	111.25
433.4	99.25
433.622	104.25
433.844	99.25
434.066	88.25
434.287	95.25
434.509	91.25
434.731	107.25
434.953	89.25
435.175	95.25
435.397	100.25
435.618	99.25
435.84	123.25
436.062	149.25
436.284	149.25
436.505	112.25
436.727	111.25
436.949	87.25
437.17	85.25
437.392	112.25
437.614	103.25
437.835	143.25
438.057	166.25
438.278	140.25
438.5	124.25
438.721	149.25
438.943	112.25
439.165	96.25
439.386	81.25
439.608	110.25
439.829	105.25
440.05	165.25
440.272	212.25
440.493	109.25
440.715	85.25
440.936	78.25
441.158	100.25
441.379	99.25
441.6	111.25
441.822	102.25
442.043	107.25
442.264	119.25
442.486	123.25
442.707	109.25
442.928	139.25
443.149	200.25
443.371	195.25
443.592	141.25
443.813	145.25
444.034	148.25
444.255	98.25
444.476	96.25
444.698	98.25
444.919	98.25
445.14	149.25
445.361	142.25
445.582	156.25
445.803	230.25
446.024	205.25
446.245	190.25
446.466	145.25
446.687	98.25
446.908	103.25
447.129	102.25
447.35	99.25
447.571	118.25
447.792	97.25
448.013	115.25
448.234	136.25
448.455	141.25
448.675	144.25
448.896	165.25
449.117	116.25
449.338	116.25
449.559	161.25
449.779	173.25
450	116.25
450.221	85.25
450.442	91.25
450.662	120.25
450.883	156.25
451.104	174.25
451.324	114.25
451.545	86.25
451.766	97.25
451.986	92.25
452.207	107.25
452.428	97.25
452.648	115.25
452.869	146.25
453.089	152.25
453.31	176.25
453.53	115.25
453.751	106.25
453.971	134.25
454.192	152.25
454.412	114.25
454.633	107.25
454.853	85.25
455.073	88.25
455.294	89.25
455.514	113.25
455.734	97.25
455.955	82.25
456.175	99.25
456.395	93.25
456.616	84.25
456.836	82.25
457.056	92.25
457.276	83.25
457.497	91.25
457.717	88.25
457.937	112.25
458.157	99.25
458.377	109.25
458.598	129.25
458.818	256.25
459.038	277.25
459.258	171.25
459.478	97.25
459.698	89.25
459.918	96.25
460.138	91.25
460.358	94.25
460.578	82.25
460.798	104.25
461.018	110.25
461.238	82.25
461.458	96.25
461.678	99.25
461.898	84.25
462.118	98.25
462.338	94.25
462.558	97.25
462.777	88.25
462.997	95.25
463.217	138.25
463.437	101.25
463.657	104.25
463.876	95.25
464.096	93.25
464.316	121.25
464.536	120.25
464.755	106.25
464.975	130.25
465.195	271.25
465.414	298.25
465.634	123.25
465.854	113.25
466.073	100.25
466.293	92.25
466.512	108.25
466.732	84.25
466.951	99.25
467.171	110.25
467.391	128.25
467.61	177.25
467.829	312.25
468.049	913.25
468.268	1467.25
468.488	328.25
468.707	128.25
468.927	91.25
469.146	105.25
469.365	90.25
469.585	122.25
469.804	127.25
470.023	129.25
470.243	124.25
470.462	130.25
470.681	148.25
470.901	111.25
471.12	112.25
471.339	108.25
471.558	150.25
471.777	202.25
471.997	449.25
472.216	1781.25
472.435	4204.25
472.654	901.25
472.873	228.25
473.092	114.25
473.311	116.25
473.53	105.25
473.749	105.25
473.968	122.25
474.187	136.25
474.406	113.25
474.625	96.25
474.844	88.25
475.063	95.25
475.282	96.25
475.501	111.25
475.72	102.25
475.939	81.25
476.158	108.25
476.377	95.25
476.596	95.25
476.814	100.25
477.033	118.25
477.252	96.25
477.471	92.25
477.69	99.25
477.908	114.25
478.127	98.25
478.346	93.25
478.564	105.25
478.783	108.25
479.002	116.25
479.22	117.25
479.439	162.25
479.658	167.25
479.876	156.25
480.095	132.25
480.313	160.25
480.532	208.25
480.751	396.25
480.969	1606.25
481.188	7030.25
481.406	3905.25
481.624	513.25
481.843	159.25
482.061	132.25
482.28	120.25
482.498	99.25
482.717	101.25
482.935	96.25
483.153	102.25
483.372	97.25
483.59	95.25
483.808	83.25
484.027	95.25
484.245	98.25
484.463	112.25
484.681	106.25
484.9	114.25
485.118	107.25
485.336	104.25
485.554	111.25
485.772	114.25
485.99	115.25
486.209	105.25
486.427	114.25
486.645	144.25
486.863	129.25
487.081	124.25
487.299	102.25
487.517	89.25
487.735	94.25
487.953	100.25
488.171	99.25
488.389	110.25
488.607	113.25
488.825	96.25
489.043	102.25
489.261	87.25
489.479	99.25
489.696	97.25
489.914	85.25
490.132	106.25
490.35	92.25
490.568	70.25
490.786	101.25
491.003	97.25
491.221	93.25
491.439	110.25
491.657	103.25
491.874	106.25
492.092	99.25
492.31	89.25
492.527	101.25
492.745	107.25
492.963	88.25
493.18	85.25
493.398	93.25
493.615	97.25
493.833	98.25
494.05	86.25
494.268	94.25
494.485	95.25
494.703	98.25
494.92	89.25
495.138	100.25
495.355	92.25
495.573	101.25
495.79	91.25
496.008	95.25
496.225	99.25
496.442	97.25
496.66	104.25
496.877	105.25
497.094	94.25
497.312	78.25
497.529	95.25
497.746	97.25
497.963	109.25
498.181	96.25
498.398	102.25
498.615	140.25
498.832	112.25
499.049	114.25
499.267	85.25
499.484	89.25
499.701	99.25
499.918	99.25
500.135	98.25
500.352	107.25
500.569	102.25
500.786	106.25
501.003	99.25
501.22	91.25
501.437	98.25
501.654	118.25
501.871	134.25
502.088	122.25
502.305	100.25
502.522	102.25
502.739	91.25
502.956	94.25
503.172	112.25
503.389	108.25
503.606	132.25
503.823	136.25
504.04	100.25
504.256	94.25
504.473	91.25
504.69	76.25
504.907	102.25
505.123	96.25
505.34	91.25
505.557	90.25
505.773	88.25
505.99	88.25
506.207	101.25
506.423	92.25
506.64	94.25
506.856	105.25
507.073	109.25
507.289	106.25
507.506	111.25
507.722	156.25
507.939	164.25
508.155	115.25
508.372	105.25
508.588	99.25
508.805	108.25
509.021	108.25
509.238	110.25
509.454	117.25
509.67	115.25
509.887	120.25
510.103	152.25
510.319	283.25
510.536	1161.25
510.752	4071.25
