Data from Circ_1995_H10_HRD10591_00072.txt Node
Date: Wed Jan 03 11:37:01 EST 2024
User: Yrep
Spectrometer: HR+D1059
Trigger mode: 1
Integration Time (sec): 1.000000E-1
Scans to average: 1
Electric dark correction enabled: true
Nonlinearity correction enabled: false
Boxcar width: 0
XAxis mode: Wavelengths
Number of Pixels in Spectrum: 2048
>>>>>Begin Spectral Data<<<<<
223.165	-9.94
223.4	-9.94
223.635	-9.94
223.869	-17.94
224.104	-32.94
224.338	-8.94
224.573	-18.94
224.808	-6.94
225.042	-1.94
225.277	-16.94
225.511	2.06
225.746	-4.94
225.98	5.06
226.215	6.06
226.449	17.06
226.683	29.06
226.918	28.06
227.152	32.06
227.387	38.06
227.621	41.06
227.856	54.06
228.09	54.06
228.324	50.06
228.559	61.06
228.793	66.06
229.027	74.06
229.262	74.06
229.496	89.06
229.73	98.06
229.964	105.06
230.199	89.06
230.433	86.06
230.667	89.06
230.901	67.06
231.136	83.06
231.37	80.06
231.604	77.06
231.838	82.06
232.072	68.06
232.306	85.06
232.541	81.06
232.775	92.06
233.009	81.06
233.243	80.06
233.477	94.06
233.711	90.06
233.945	84.06
234.179	84.06
234.413	81.06
234.647	77.06
234.881	79.06
235.115	86.06
235.349	83.06
235.583	84.06
235.817	63.06
236.051	87.06
236.285	84.06
236.519	86.06
236.753	89.06
236.987	84.06
237.221	93.06
237.455	95.06
237.689	90.06
237.922	83.06
238.156	69.06
238.39	79.06
238.624	82.06
238.858	89.06
239.091	81.06
239.325	85.06
239.559	82.06
239.793	94.06
240.027	99.06
240.26	77.06
240.494	89.06
240.728	77.06
240.961	78.06
241.195	82.06
241.429	62.06
241.662	82.06
241.896	76.06
242.13	77.06
242.363	75.06
242.597	75.06
242.83	78.06
243.064	100.06
243.298	89.06
243.531	97.06
243.765	87.06
243.998	90.06
244.232	88.06
244.465	112.06
244.699	82.06
244.932	89.06
245.166	80.06
245.399	85.06
245.633	88.06
245.866	88.06
246.099	100.06
246.333	95.06
246.566	91.06
246.8	83.06
247.033	96.06
247.266	85.06
247.5	82.06
247.733	93.06
247.966	80.06
248.2	95.06
248.433	88.06
248.666	90.06
248.899	91.06
249.133	110.06
249.366	113.06
249.599	113.06
249.832	97.06
250.066	100.06
250.299	98.06
250.532	78.06
250.765	87.06
250.998	93.06
251.231	98.06
251.465	90.06
251.698	83.06
251.931	94.06
252.164	82.06
252.397	81.06
252.63	92.06
252.863	86.06
253.096	94.06
253.329	86.06
253.562	84.06
253.795	93.06
254.028	83.06
254.261	88.06
254.494	86.06
254.727	85.06
254.96	67.06
255.193	95.06
255.426	86.06
255.659	94.06
255.892	101.06
256.124	98.06
256.357	85.06
256.59	87.06
256.823	80.06
257.056	96.06
257.289	98.06
257.521	96.06
257.754	101.06
257.987	102.06
258.22	102.06
258.452	117.06
258.685	101.06
258.918	103.06
259.151	90.06
259.383	103.06
259.616	92.06
259.849	96.06
260.081	98.06
260.314	83.06
260.547	105.06
260.779	114.06
261.012	129.06
261.244	117.06
261.477	126.06
261.71	134.06
261.942	160.06
262.175	179.06
262.407	97.06
262.64	94.06
262.872	89.06
263.105	100.06
263.337	100.06
263.57	87.06
263.802	83.06
264.035	97.06
264.267	106.06
264.499	97.06
264.732	89.06
264.964	97.06
265.197	84.06
265.429	85.06
265.661	94.06
265.894	84.06
266.126	83.06
266.358	86.06
266.591	76.06
266.823	85.06
267.055	86.06
267.287	79.06
267.52	89.06
267.752	81.06
267.984	79.06
268.216	97.06
268.448	98.06
268.681	94.06
268.913	99.06
269.145	93.06
269.377	86.06
269.609	89.06
269.841	89.06
270.073	102.06
270.306	75.06
270.538	94.06
270.77	101.06
271.002	89.06
271.234	102.06
271.466	101.06
271.698	99.06
271.93	99.06
272.162	90.06
272.394	96.06
272.626	110.06
272.858	87.06
273.09	91.06
273.322	87.06
273.553	78.06
273.785	89.06
274.017	93.06
274.249	99.06
274.481	91.06
274.713	100.06
274.945	89.06
275.176	103.06
275.408	121.06
275.64	141.06
275.872	151.06
276.104	126.06
276.335	118.06
276.567	143.06
276.799	185.06
277.031	237.06
277.262	300.06
277.494	202.06
277.726	114.06
277.957	89.06
278.189	92.06
278.421	94.06
278.652	99.06
278.884	116.06
279.115	89.06
279.347	101.06
279.579	115.06
279.81	193.06
280.042	301.06
280.273	434.06
280.505	268.06
280.736	143.06
280.968	99.06
281.199	107.06
281.431	95.06
281.662	110.06
281.894	106.06
282.125	100.06
282.356	174.06
282.588	208.06
282.819	169.06
283.051	101.06
283.282	95.06
283.513	93.06
283.745	103.06
283.976	99.06
284.207	97.06
284.439	93.06
284.67	110.06
284.901	85.06
285.132	83.06
285.364	86.06
285.595	98.06
285.826	105.06
286.057	103.06
286.288	103.06
286.52	90.06
286.751	82.06
286.982	90.06
287.213	83.06
287.444	104.06
287.675	93.06
287.906	90.06
288.138	88.06
288.369	90.06
288.6	94.06
288.831	82.06
289.062	86.06
289.293	110.06
289.524	102.06
289.755	93.06
289.986	86.06
290.217	82.06
290.448	98.06
290.679	99.06
290.91	94.06
291.141	99.06
291.371	94.06
291.602	83.06
291.833	81.06
292.064	94.06
292.295	100.06
292.526	109.06
292.757	98.06
292.987	86.06
293.218	84.06
293.449	91.06
293.68	102.06
293.91	97.06
294.141	105.06
294.372	100.06
294.603	103.06
294.833	98.06
295.064	94.06
295.295	98.06
295.525	87.06
295.756	127.06
295.987	133.06
296.217	185.06
296.448	174.06
296.679	106.06
296.909	79.06
297.14	89.06
297.37	85.06
297.601	95.06
297.831	101.06
298.062	93.06
298.292	98.06
298.523	94.06
298.753	97.06
298.984	87.06
299.214	108.06
299.445	87.06
299.675	107.06
299.905	115.06
300.136	93.06
300.366	83.06
300.597	97.06
300.827	99.06
301.057	113.06
301.288	132.06
301.518	94.06
301.748	115.06
301.979	131.06
302.209	117.06
302.439	113.06
302.669	114.06
302.9	95.06
303.13	106.06
303.36	134.06
303.59	177.06
303.82	186.06
304.051	121.06
304.281	94.06
304.511	107.06
304.741	86.06
304.971	102.06
305.201	98.06
305.431	91.06
305.661	99.06
305.891	97.06
306.121	101.06
306.352	107.06
306.582	133.06
306.812	138.06
307.042	147.06
307.272	192.06
307.502	262.06
307.731	247.06
307.961	166.06
308.191	116.06
308.421	102.06
308.651	107.06
308.881	98.06
309.111	102.06
309.341	109.06
309.571	119.06
309.8	112.06
310.03	135.06
310.26	129.06
310.49	119.06
310.72	115.06
310.949	138.06
311.179	130.06
311.409	112.06
311.639	112.06
311.868	112.06
312.098	115.06
312.328	105.06
312.557	139.06
312.787	142.06
313.017	144.06
313.246	93.06
313.476	97.06
313.706	113.06
313.935	116.06
314.165	124.06
314.394	129.06
314.624	119.06
314.853	129.06
315.083	106.06
315.312	111.06
315.542	100.06
315.771	102.06
316.001	109.06
316.23	99.06
316.46	116.06
316.689	87.06
316.919	105.06
317.148	115.06
317.377	114.06
317.607	118.06
317.836	112.06
318.065	106.06
318.295	103.06
318.524	107.06
318.753	91.06
318.983	109.06
319.212	125.06
319.441	142.06
319.67	154.06
319.9	112.06
320.129	103.06
320.358	109.06
320.587	96.06
320.816	121.06
321.046	126.06
321.275	102.06
321.504	96.06
321.733	110.06
321.962	141.06
322.191	121.06
322.42	125.06
322.649	118.06
322.878	123.06
323.108	133.06
323.337	150.06
323.566	194.06
323.795	211.06
324.024	290.06
324.253	575.06
324.482	1190.06
324.71	2499.06
324.939	3335.06
325.168	1205.06
325.397	359.06
325.626	205.06
325.855	173.06
326.084	157.06
326.313	161.06
326.542	199.06
326.77	316.06
326.999	615.06
327.228	1225.06
327.457	2265.06
327.686	1939.06
327.914	752.06
328.143	799.06
328.372	1085.06
328.6	603.06
328.829	271.06
329.058	247.06
329.287	245.06
329.515	238.06
329.744	355.06
329.972	714.06
330.201	1581.06
330.43	2442.06
330.658	1027.06
330.887	437.06
331.115	252.06
331.344	155.06
331.572	158.06
331.801	165.06
332.03	155.06
332.258	147.06
332.486	139.06
332.715	128.06
332.943	147.06
333.172	151.06
333.4	161.06
333.629	193.06
333.857	313.06
334.085	622.06
334.314	1371.06
334.542	2895.06
334.771	2707.06
334.999	652.06
335.227	224.06
335.455	147.06
335.684	132.06
335.912	117.06
336.14	116.06
336.369	121.06
336.597	131.06
336.825	135.06
337.053	112.06
337.281	108.06
337.51	106.06
337.738	122.06
337.966	123.06
338.194	116.06
338.422	115.06
338.65	109.06
338.878	93.06
339.106	97.06
339.334	90.06
339.562	117.06
339.79	101.06
340.018	99.06
340.246	112.06
340.474	121.06
340.702	121.06
340.93	106.06
341.158	101.06
341.386	113.06
341.614	133.06
341.842	94.06
342.07	100.06
342.298	94.06
342.526	105.06
342.754	98.06
342.981	93.06
343.209	93.06
343.437	105.06
343.665	94.06
343.893	100.06
344.12	98.06
344.348	95.06
344.576	104.06
344.804	94.06
345.031	124.06
345.259	122.06
345.487	114.06
345.714	116.06
345.942	112.06
346.17	106.06
346.397	99.06
346.625	105.06
346.853	116.06
347.08	104.06
347.308	111.06
347.535	107.06
347.763	129.06
347.99	128.06
348.218	126.06
348.445	139.06
348.673	128.06
348.9	123.06
349.128	96.06
349.355	104.06
349.583	102.06
349.81	98.06
350.037	104.06
350.265	91.06
350.492	107.06
350.72	114.06
350.947	99.06
351.174	126.06
351.402	149.06
351.629	130.06
351.856	117.06
352.083	117.06
352.311	137.06
352.538	149.06
352.765	133.06
352.992	129.06
353.22	111.06
353.447	119.06
353.674	117.06
353.901	109.06
354.128	110.06
354.355	102.06
354.583	108.06
354.81	123.06
355.037	100.06
355.264	100.06
355.491	98.06
355.718	98.06
355.945	105.06
356.172	91.06
356.399	101.06
356.626	101.06
356.853	102.06
357.08	110.06
357.307	92.06
357.534	93.06
357.761	100.06
357.988	94.06
358.215	97.06
358.441	106.06
358.668	86.06
358.895	87.06
359.122	90.06
359.349	98.06
359.576	114.06
359.802	124.06
360.029	174.06
360.256	178.06
360.483	141.06
360.709	99.06
360.936	94.06
361.163	113.06
361.39	123.06
361.616	110.06
361.843	107.06
362.07	97.06
362.296	129.06
362.523	104.06
362.749	111.06
362.976	113.06
363.203	105.06
363.429	83.06
363.656	113.06
363.882	102.06
364.109	99.06
364.335	99.06
364.562	109.06
364.788	114.06
365.015	117.06
365.241	102.06
365.468	132.06
365.694	145.06
365.92	111.06
366.147	107.06
366.373	111.06
366.599	102.06
366.826	103.06
367.052	68.06
367.278	98.06
367.505	93.06
367.731	111.06
367.957	101.06
368.184	109.06
368.41	108.06
368.636	140.06
368.862	149.06
369.089	142.06
369.315	113.06
369.541	110.06
369.767	101.06
369.993	103.06
370.219	103.06
370.445	100.06
370.672	89.06
370.898	91.06
371.124	95.06
371.35	101.06
371.576	92.06
371.802	96.06
372.028	86.06
372.254	93.06
372.48	93.06
372.706	93.06
372.932	96.06
373.158	90.06
373.384	101.06
373.61	107.06
373.835	109.06
374.061	87.06
374.287	103.06
374.513	106.06
374.739	100.06
374.965	93.06
375.191	90.06
375.416	92.06
375.642	93.06
375.868	80.06
376.094	93.06
376.319	95.06
376.545	77.06
376.771	103.06
376.997	99.06
377.222	92.06
377.448	94.06
377.674	96.06
377.899	81.06
378.125	91.06
378.35	106.06
378.576	82.06
378.802	93.06
379.027	101.06
379.253	96.06
379.478	108.06
379.704	109.06
379.929	99.06
380.155	98.06
380.38	107.06
380.606	104.06
380.831	86.06
381.057	106.06
381.282	114.06
381.507	102.06
381.733	106.06
381.958	99.06
382.184	96.06
382.409	103.06
382.634	107.06
382.86	88.06
383.085	102.06
383.31	106.06
383.535	109.06
383.761	109.06
383.986	108.06
384.211	108.06
384.436	110.06
384.662	105.06
384.887	95.06
385.112	107.06
385.337	91.06
385.562	118.06
385.787	106.06
386.013	130.06
386.238	129.06
386.463	128.06
386.688	124.06
386.913	110.06
387.138	114.06
387.363	102.06
387.588	94.06
387.813	95.06
388.038	116.06
388.263	101.06
388.488	106.06
388.713	96.06
388.938	103.06
389.163	103.06
389.387	88.06
389.612	87.06
389.837	95.06
390.062	92.06
390.287	84.06
390.512	94.06
390.736	98.06
390.961	97.06
391.186	100.06
391.411	94.06
391.636	101.06
391.86	85.06
392.085	85.06
392.31	91.06
392.534	85.06
392.759	102.06
392.984	80.06
393.208	87.06
393.433	87.06
393.658	81.06
393.882	94.06
394.107	89.06
394.331	109.06
394.556	91.06
394.78	75.06
395.005	105.06
395.229	90.06
395.454	103.06
395.678	83.06
395.903	100.06
396.127	109.06
396.352	99.06
396.576	90.06
396.801	80.06
397.025	95.06
397.249	77.06
397.474	102.06
397.698	97.06
397.922	95.06
398.147	94.06
398.371	83.06
398.595	109.06
398.82	83.06
399.044	83.06
399.268	90.06
399.492	92.06
399.717	87.06
399.941	73.06
400.165	106.06
400.389	100.06
400.613	92.06
400.837	96.06
401.062	95.06
401.286	97.06
401.51	94.06
401.734	119.06
401.958	109.06
402.182	179.06
402.406	250.06
402.63	187.06
402.854	121.06
403.078	103.06
403.302	91.06
403.526	89.06
403.75	93.06
403.974	114.06
404.198	97.06
404.422	96.06
404.645	101.06
404.869	109.06
405.093	128.06
405.317	170.06
405.541	167.06
405.765	149.06
405.988	173.06
406.212	272.06
406.436	417.06
406.66	283.06
406.883	165.06
407.107	114.06
407.331	122.06
407.555	121.06
407.778	123.06
408.002	111.06
408.226	98.06
408.449	89.06
408.673	91.06
408.896	94.06
409.12	112.06
409.344	90.06
409.567	90.06
409.791	97.06
410.014	98.06
410.238	95.06
410.461	97.06
410.685	95.06
410.908	100.06
411.132	106.06
411.355	97.06
411.578	98.06
411.802	89.06
412.025	81.06
412.249	93.06
412.472	133.06
412.695	138.06
412.919	134.06
413.142	105.06
413.365	92.06
413.589	107.06
413.812	100.06
414.035	112.06
414.258	95.06
414.482	100.06
414.705	93.06
414.928	92.06
415.151	100.06
415.374	83.06
415.597	86.06
415.821	78.06
416.044	94.06
416.267	100.06
416.49	83.06
416.713	79.06
416.936	101.06
417.159	100.06
417.382	118.06
417.605	119.06
417.828	123.06
418.051	123.06
418.274	95.06
418.497	106.06
418.72	93.06
418.943	105.06
419.166	102.06
419.389	95.06
419.611	112.06
419.834	97.06
420.057	97.06
420.28	113.06
420.503	83.06
420.726	89.06
420.948	99.06
421.171	113.06
421.394	99.06
421.617	97.06
421.839	90.06
422.062	85.06
422.285	105.06
422.507	116.06
422.73	115.06
422.953	119.06
423.175	91.06
423.398	98.06
423.621	89.06
423.843	102.06
424.066	94.06
424.288	77.06
424.511	101.06
424.733	110.06
424.956	125.06
425.178	126.06
425.401	116.06
425.623	122.06
425.846	97.06
426.068	108.06
426.291	97.06
426.513	98.06
426.735	114.06
426.958	109.06
427.18	120.06
427.402	217.06
427.625	324.06
427.847	300.06
428.069	273.06
428.292	155.06
428.514	111.06
428.736	103.06
428.958	101.06
429.181	100.06
429.403	96.06
429.625	104.06
429.847	112.06
430.069	124.06
430.292	104.06
430.514	100.06
430.736	92.06
430.958	94.06
431.18	86.06
431.402	88.06
431.624	100.06
431.846	94.06
432.068	80.06
432.29	88.06
432.512	96.06
432.734	90.06
432.956	91.06
433.178	113.06
433.4	112.06
433.622	107.06
433.844	91.06
434.066	85.06
434.287	90.06
434.509	93.06
434.731	89.06
434.953	92.06
435.175	85.06
435.397	97.06
435.618	94.06
435.84	104.06
436.062	142.06
436.284	135.06
436.505	111.06
436.727	94.06
436.949	100.06
437.17	98.06
437.392	99.06
437.614	117.06
437.835	164.06
438.057	161.06
438.278	143.06
438.5	134.06
438.721	156.06
438.943	109.06
439.165	91.06
439.386	101.06
439.608	115.06
439.829	119.06
440.05	163.06
440.272	235.06
440.493	143.06
440.715	91.06
440.936	110.06
441.158	94.06
441.379	95.06
441.6	116.06
441.822	120.06
442.043	130.06
442.264	124.06
442.486	128.06
442.707	117.06
442.928	142.06
443.149	201.06
443.371	212.06
443.592	145.06
443.813	131.06
444.034	139.06
444.255	118.06
444.476	91.06
444.698	81.06
444.919	105.06
445.14	157.06
445.361	137.06
445.582	146.06
445.803	218.06
446.024	208.06
446.245	168.06
446.466	129.06
446.687	101.06
446.908	106.06
447.129	121.06
447.35	96.06
447.571	105.06
447.792	97.06
448.013	108.06
448.234	145.06
448.455	120.06
448.675	134.06
448.896	143.06
449.117	116.06
449.338	121.06
449.559	139.06
449.779	173.06
450	95.06
450.221	99.06
450.442	108.06
450.662	113.06
450.883	165.06
451.104	178.06
451.324	126.06
451.545	99.06
451.766	103.06
451.986	93.06
452.207	101.06
452.428	105.06
452.648	109.06
452.869	153.06
453.089	166.06
453.31	170.06
453.53	114.06
453.751	116.06
453.971	147.06
454.192	161.06
454.412	128.06
454.633	102.06
454.853	100.06
455.073	90.06
455.294	101.06
455.514	124.06
455.734	103.06
455.955	108.06
456.175	87.06
456.395	90.06
456.616	92.06
456.836	93.06
457.056	97.06
457.276	91.06
457.497	98.06
457.717	95.06
457.937	99.06
458.157	106.06
458.377	107.06
458.598	168.06
458.818	281.06
459.038	318.06
459.258	183.06
459.478	105.06
459.698	100.06
459.918	76.06
460.138	85.06
460.358	99.06
460.578	94.06
460.798	84.06
461.018	93.06
461.238	91.06
461.458	69.06
461.678	92.06
461.898	96.06
462.118	95.06
462.338	85.06
462.558	97.06
462.777	97.06
462.997	109.06
463.217	126.06
463.437	112.06
463.657	113.06
463.876	106.06
464.096	96.06
464.316	109.06
464.536	110.06
464.755	109.06
464.975	162.06
465.195	318.06
465.414	334.06
465.634	134.06
465.854	111.06
466.073	113.06
466.293	88.06
466.512	106.06
466.732	114.06
466.951	98.06
467.171	124.06
467.391	122.06
467.61	190.06
467.829	300.06
468.049	923.06
468.268	1491.06
468.488	333.06
468.707	129.06
468.927	111.06
469.146	106.06
469.365	110.06
469.585	113.06
469.804	127.06
470.023	135.06
470.243	118.06
470.462	138.06
470.681	181.06
470.901	108.06
471.12	106.06
471.339	115.06
471.558	155.06
471.777	190.06
471.997	442.06
472.216	1705.06
472.435	4192.06
472.654	918.06
472.873	227.06
473.092	125.06
473.311	111.06
473.53	110.06
473.749	100.06
473.968	107.06
474.187	134.06
474.406	125.06
474.625	97.06
474.844	93.06
475.063	103.06
475.282	93.06
475.501	105.06
475.72	101.06
475.939	90.06
476.158	99.06
476.377	93.06
476.596	92.06
476.814	109.06
477.033	105.06
477.252	101.06
477.471	109.06
477.69	110.06
477.908	99.06
478.127	99.06
478.346	112.06
478.564	109.06
478.783	138.06
479.002	126.06
479.22	135.06
479.439	144.06
479.658	165.06
479.876	141.06
480.095	143.06
480.313	181.06
480.532	225.06
480.751	409.06
480.969	1509.06
481.188	6758.06
481.406	3983.06
481.624	543.06
481.843	178.06
482.061	130.06
482.28	118.06
482.498	105.06
482.717	95.06
482.935	96.06
483.153	100.06
483.372	92.06
483.59	99.06
483.808	95.06
484.027	82.06
484.245	106.06
484.463	112.06
484.681	85.06
484.9	100.06
485.118	112.06
485.336	107.06
485.554	109.06
485.772	101.06
485.99	127.06
486.209	104.06
486.427	108.06
486.645	138.06
486.863	147.06
487.081	128.06
487.299	109.06
487.517	104.06
487.735	102.06
487.953	101.06
488.171	117.06
488.389	97.06
488.607	114.06
488.825	99.06
489.043	106.06
489.261	96.06
489.479	95.06
489.696	107.06
489.914	100.06
490.132	88.06
490.35	103.06
490.568	96.06
490.786	92.06
491.003	113.06
491.221	100.06
491.439	102.06
491.657	96.06
491.874	102.06
492.092	103.06
492.31	98.06
492.527	111.06
492.745	103.06
492.963	92.06
493.18	98.06
493.398	112.06
493.615	98.06
493.833	109.06
494.05	93.06
494.268	92.06
494.485	102.06
494.703	104.06
494.92	99.06
495.138	89.06
495.355	99.06
495.573	86.06
495.79	84.06
496.008	95.06
496.225	96.06
496.442	109.06
496.66	104.06
496.877	81.06
497.094	108.06
497.312	83.06
497.529	83.06
497.746	97.06
497.963	97.06
498.181	107.06
498.398	112.06
498.615	134.06
498.832	128.06
499.049	92.06
499.267	99.06
499.484	88.06
499.701	101.06
499.918	98.06
500.135	93.06
500.352	94.06
500.569	95.06
500.786	108.06
501.003	97.06
501.22	105.06
501.437	109.06
501.654	124.06
501.871	150.06
502.088	115.06
502.305	102.06
502.522	109.06
502.739	111.06
502.956	98.06
503.172	96.06
503.389	124.06
503.606	132.06
503.823	146.06
504.04	123.06
504.256	101.06
504.473	106.06
504.69	90.06
504.907	108.06
505.123	103.06
505.34	94.06
505.557	102.06
505.773	91.06
505.99	82.06
506.207	101.06
506.423	107.06
506.64	103.06
506.856	101.06
507.073	93.06
507.289	102.06
507.506	120.06
507.722	159.06
507.939	159.06
508.155	114.06
508.372	97.06
508.588	108.06
508.805	106.06
509.021	110.06
509.238	114.06
509.454	117.06
509.67	127.06
