Data from Circ_1995_H10_HRD10591_00002.txt Node
Date: Wed Jan 03 11:36:47 EST 2024
User: Yrep
Spectrometer: HR+D1059
Trigger mode: 1
Integration Time (sec): 1.000000E-1
Scans to average: 1
Electric dark correction enabled: true
Nonlinearity correction enabled: false
Boxcar width: 0
XAxis mode: Wavelengths
Number of Pixels in Spectrum: 2048
>>>>>Begin Spectral Data<<<<<
223.165	-9.88
223.4	-9.88
223.635	-9.88
223.869	-28.88
224.104	-18.88
224.338	-23.88
224.573	-18.88
224.808	-16.88
225.042	5.12
225.277	-6.88
225.511	-2.88
225.746	-4.88
225.98	1.12
226.215	13.12
226.449	27.12
226.683	15.12
226.918	38.12
227.152	32.12
227.387	45.12
227.621	33.12
227.856	45.12
228.09	47.12
228.324	61.12
228.559	61.12
228.793	53.12
229.027	62.12
229.262	66.12
229.496	71.12
229.73	93.12
229.964	103.12
230.199	65.12
230.433	71.12
230.667	81.12
230.901	84.12
231.136	79.12
231.37	74.12
231.604	79.12
231.838	82.12
232.072	77.12
232.306	82.12
232.541	78.12
232.775	67.12
233.009	83.12
233.243	80.12
233.477	70.12
233.711	79.12
233.945	78.12
234.179	79.12
234.413	73.12
234.647	66.12
234.881	74.12
235.115	78.12
235.349	81.12
235.583	70.12
235.817	74.12
236.051	97.12
236.285	89.12
236.519	77.12
236.753	73.12
236.987	80.12
237.221	103.12
237.455	96.12
237.689	88.12
237.922	70.12
238.156	74.12
238.39	75.12
238.624	74.12
238.858	77.12
239.091	75.12
239.325	81.12
239.559	80.12
239.793	82.12
240.027	83.12
240.26	89.12
240.494	101.12
240.728	85.12
240.961	69.12
241.195	83.12
241.429	73.12
241.662	82.12
241.896	65.12
242.13	55.12
242.363	69.12
242.597	73.12
242.83	72.12
243.064	57.12
243.298	76.12
243.531	77.12
243.765	81.12
243.998	83.12
244.232	82.12
244.465	75.12
244.699	93.12
244.932	89.12
245.166	69.12
245.399	73.12
245.633	73.12
245.866	81.12
246.099	88.12
246.333	86.12
246.566	70.12
246.8	76.12
247.033	93.12
247.266	80.12
247.5	81.12
247.733	82.12
247.966	58.12
248.2	73.12
248.433	81.12
248.666	96.12
248.899	81.12
249.133	86.12
249.366	112.12
249.599	105.12
249.832	82.12
250.066	83.12
250.299	88.12
250.532	103.12
250.765	98.12
250.998	77.12
251.231	101.12
251.465	81.12
251.698	86.12
251.931	82.12
252.164	83.12
252.397	65.12
252.63	83.12
252.863	83.12
253.096	82.12
253.329	81.12
253.562	83.12
253.795	87.12
254.028	70.12
254.261	75.12
254.494	71.12
254.727	90.12
254.96	75.12
255.193	72.12
255.426	75.12
255.659	94.12
255.892	92.12
256.124	113.12
256.357	78.12
256.59	106.12
256.823	73.12
257.056	75.12
257.289	80.12
257.521	89.12
257.754	83.12
257.987	87.12
258.22	93.12
258.452	93.12
258.685	86.12
258.918	97.12
259.151	86.12
259.383	78.12
259.616	94.12
259.849	82.12
260.081	80.12
260.314	83.12
260.547	80.12
260.779	93.12
261.012	89.12
261.244	93.12
261.477	99.12
261.71	100.12
261.942	129.12
262.175	137.12
262.407	95.12
262.64	97.12
262.872	85.12
263.105	83.12
263.337	94.12
263.57	87.12
263.802	69.12
264.035	92.12
264.267	100.12
264.499	85.12
264.732	79.12
264.964	89.12
265.197	76.12
265.429	106.12
265.661	93.12
265.894	81.12
266.126	87.12
266.358	76.12
266.591	66.12
266.823	74.12
267.055	88.12
267.287	71.12
267.52	89.12
267.752	82.12
267.984	76.12
268.216	89.12
268.448	89.12
268.681	93.12
268.913	94.12
269.145	83.12
269.377	88.12
269.609	80.12
269.841	88.12
270.073	78.12
270.306	81.12
270.538	94.12
270.77	78.12
271.002	74.12
271.234	95.12
271.466	96.12
271.698	96.12
271.93	99.12
272.162	99.12
272.394	88.12
272.626	81.12
272.858	81.12
273.09	83.12
273.322	89.12
273.553	86.12
273.785	65.12
274.017	87.12
274.249	91.12
274.481	87.12
274.713	85.12
274.945	87.12
275.176	98.12
275.408	102.12
275.64	101.12
275.872	123.12
276.104	120.12
276.335	102.12
276.567	102.12
276.799	152.12
277.031	173.12
277.262	190.12
277.494	145.12
277.726	85.12
277.957	78.12
278.189	98.12
278.421	97.12
278.652	95.12
278.884	85.12
279.115	85.12
279.347	106.12
279.579	104.12
279.81	117.12
280.042	193.12
280.273	231.12
280.505	162.12
280.736	124.12
280.968	90.12
281.199	97.12
281.431	91.12
281.662	95.12
281.894	87.12
282.125	109.12
282.356	133.12
282.588	183.12
282.819	143.12
283.051	89.12
283.282	87.12
283.513	85.12
283.745	97.12
283.976	96.12
284.207	77.12
284.439	89.12
284.67	82.12
284.901	85.12
285.132	102.12
285.364	87.12
285.595	85.12
285.826	77.12
286.057	93.12
286.288	88.12
286.52	98.12
286.751	86.12
286.982	84.12
287.213	89.12
287.444	99.12
287.675	103.12
287.906	89.12
288.138	85.12
288.369	98.12
288.6	88.12
288.831	97.12
289.062	79.12
289.293	76.12
289.524	105.12
289.755	76.12
289.986	89.12
290.217	77.12
290.448	90.12
290.679	91.12
290.91	82.12
291.141	92.12
291.371	86.12
291.602	97.12
291.833	80.12
292.064	82.12
292.295	99.12
292.526	98.12
292.757	80.12
292.987	84.12
293.218	95.12
293.449	88.12
293.68	91.12
293.91	74.12
294.141	105.12
294.372	97.12
294.603	101.12
294.833	87.12
295.064	97.12
295.295	86.12
295.525	93.12
295.756	106.12
295.987	126.12
296.217	169.12
296.448	128.12
296.679	89.12
296.909	95.12
297.14	91.12
297.37	89.12
297.601	77.12
297.831	94.12
298.062	86.12
298.292	94.12
298.523	103.12
298.753	94.12
298.984	73.12
299.214	93.12
299.445	89.12
299.675	89.12
299.905	96.12
300.136	89.12
300.366	80.12
300.597	95.12
300.827	94.12
301.057	96.12
301.288	102.12
301.518	101.12
301.748	96.12
301.979	119.12
302.209	108.12
302.439	95.12
302.669	86.12
302.9	102.12
303.13	81.12
303.36	103.12
303.59	127.12
303.82	139.12
304.051	93.12
304.281	89.12
304.511	103.12
304.741	97.12
304.971	83.12
305.201	93.12
305.431	93.12
305.661	95.12
305.891	85.12
306.121	92.12
306.352	118.12
306.582	111.12
306.812	109.12
307.042	104.12
307.272	134.12
307.502	162.12
307.731	159.12
307.961	126.12
308.191	101.12
308.421	91.12
308.651	88.12
308.881	89.12
309.111	99.12
309.341	103.12
309.571	95.12
309.8	91.12
310.03	107.12
310.26	108.12
310.49	101.12
310.72	125.12
310.949	122.12
311.179	111.12
311.409	110.12
311.639	110.12
311.868	102.12
312.098	91.12
312.328	108.12
312.557	100.12
312.787	133.12
313.017	111.12
313.246	96.12
313.476	90.12
313.706	90.12
313.935	102.12
314.165	102.12
314.394	118.12
314.624	112.12
314.853	100.12
315.083	108.12
315.312	99.12
315.542	106.12
315.771	95.12
316.001	88.12
316.23	89.12
316.46	79.12
316.689	97.12
316.919	88.12
317.148	106.12
317.377	103.12
317.607	103.12
317.836	98.12
318.065	98.12
318.295	81.12
318.524	97.12
318.753	87.12
318.983	107.12
319.212	95.12
319.441	106.12
319.67	118.12
319.9	95.12
320.129	87.12
320.358	89.12
320.587	96.12
320.816	100.12
321.046	113.12
321.275	81.12
321.504	106.12
321.733	107.12
321.962	103.12
322.191	109.12
322.42	113.12
322.649	130.12
322.878	143.12
323.108	134.12
323.337	156.12
323.566	156.12
323.795	182.12
324.024	261.12
324.253	557.12
324.482	1209.12
324.71	2511.12
324.939	3395.12
325.168	1161.12
325.397	301.12
325.626	182.12
325.855	161.12
326.084	145.12
326.313	139.12
326.542	194.12
326.77	295.12
326.999	638.12
327.228	1340.12
327.457	2499.12
327.686	1965.12
327.914	615.12
328.143	531.12
328.372	623.12
328.6	349.12
328.829	183.12
329.058	195.12
329.287	204.12
329.515	181.12
329.744	249.12
329.972	464.12
330.201	930.12
330.43	1337.12
330.658	608.12
330.887	312.12
331.115	200.12
331.344	133.12
331.572	116.12
331.801	133.12
332.03	125.12
332.258	120.12
332.486	98.12
332.715	121.12
332.943	121.12
333.172	115.12
333.4	120.12
333.629	167.12
333.857	217.12
334.085	423.12
334.314	869.12
334.542	1786.12
334.771	1593.12
334.999	415.12
335.227	165.12
335.455	119.12
335.684	111.12
335.912	108.12
336.14	108.12
336.369	121.12
336.597	117.12
336.825	102.12
337.053	93.12
337.281	111.12
337.51	112.12
337.738	102.12
337.966	109.12
338.194	114.12
338.422	115.12
338.65	94.12
338.878	89.12
339.106	103.12
339.334	94.12
339.562	98.12
339.79	96.12
340.018	90.12
340.246	96.12
340.474	102.12
340.702	102.12
340.93	100.12
341.158	94.12
341.386	91.12
341.614	100.12
341.842	98.12
342.07	83.12
342.298	88.12
342.526	104.12
342.754	106.12
342.981	90.12
343.209	82.12
343.437	110.12
343.665	92.12
343.893	92.12
344.12	91.12
344.348	96.12
344.576	96.12
344.804	92.12
345.031	97.12
345.259	107.12
345.487	110.12
345.714	99.12
345.942	89.12
346.17	95.12
346.397	88.12
346.625	96.12
346.853	90.12
347.08	94.12
347.308	117.12
347.535	103.12
347.763	114.12
347.99	101.12
348.218	110.12
348.445	126.12
348.673	98.12
348.9	95.12
349.128	79.12
349.355	89.12
349.583	93.12
349.81	99.12
350.037	99.12
350.265	97.12
350.492	97.12
350.72	99.12
350.947	92.12
351.174	119.12
351.402	134.12
351.629	104.12
351.856	103.12
352.083	105.12
352.311	116.12
352.538	121.12
352.765	125.12
352.992	123.12
353.22	120.12
353.447	102.12
353.674	96.12
353.901	97.12
354.128	96.12
354.355	103.12
354.583	95.12
354.81	99.12
355.037	101.12
355.264	76.12
355.491	95.12
355.718	94.12
355.945	93.12
356.172	89.12
356.399	70.12
356.626	82.12
356.853	100.12
357.08	88.12
357.307	91.12
357.534	88.12
357.761	95.12
357.988	98.12
358.215	86.12
358.441	111.12
358.668	90.12
358.895	91.12
359.122	98.12
359.349	88.12
359.576	111.12
359.802	114.12
360.029	155.12
360.256	155.12
360.483	122.12
360.709	92.12
360.936	101.12
361.163	97.12
361.39	106.12
361.616	106.12
361.843	109.12
362.07	105.12
362.296	114.12
362.523	98.12
362.749	84.12
362.976	80.12
363.203	104.12
363.429	91.12
363.656	100.12
363.882	81.12
364.109	95.12
364.335	104.12
364.562	100.12
364.788	90.12
365.015	94.12
365.241	109.12
365.468	113.12
365.694	114.12
365.92	112.12
366.147	97.12
366.373	80.12
366.599	91.12
366.826	93.12
367.052	77.12
367.278	101.12
367.505	83.12
367.731	95.12
367.957	93.12
368.184	93.12
368.41	118.12
368.636	114.12
368.862	140.12
369.089	103.12
369.315	97.12
369.541	88.12
369.767	107.12
369.993	95.12
370.219	112.12
370.445	85.12
370.672	96.12
370.898	91.12
371.124	81.12
371.35	93.12
371.576	101.12
371.802	79.12
372.028	81.12
372.254	98.12
372.48	72.12
372.706	70.12
372.932	90.12
373.158	88.12
373.384	95.12
373.61	85.12
373.835	95.12
374.061	90.12
374.287	92.12
374.513	80.12
374.739	72.12
374.965	86.12
375.191	87.12
375.416	87.12
375.642	80.12
375.868	98.12
376.094	90.12
376.319	86.12
376.545	83.12
376.771	97.12
376.997	104.12
377.222	95.12
377.448	95.12
377.674	97.12
377.899	95.12
378.125	94.12
378.35	109.12
378.576	99.12
378.802	110.12
379.027	96.12
379.253	77.12
379.478	95.12
379.704	90.12
379.929	112.12
380.155	102.12
380.38	101.12
380.606	120.12
380.831	84.12
381.057	109.12
381.282	90.12
381.507	109.12
381.733	109.12
381.958	93.12
382.184	102.12
382.409	105.12
382.634	121.12
382.86	93.12
383.085	107.12
383.31	111.12
383.535	109.12
383.761	107.12
383.986	111.12
384.211	98.12
384.436	109.12
384.662	119.12
384.887	112.12
385.112	123.12
385.337	108.12
385.562	136.12
385.787	142.12
386.013	149.12
386.238	153.12
386.463	130.12
386.688	130.12
386.913	122.12
387.138	128.12
387.363	121.12
387.588	114.12
387.813	125.12
388.038	135.12
388.263	138.12
388.488	138.12
388.713	111.12
388.938	94.12
389.163	85.12
389.387	81.12
389.612	90.12
389.837	86.12
390.062	95.12
390.287	73.12
390.512	86.12
390.736	88.12
390.961	87.12
391.186	82.12
391.411	92.12
391.636	103.12
391.86	77.12
392.085	83.12
392.31	88.12
392.534	80.12
392.759	85.12
392.984	102.12
393.208	85.12
393.433	99.12
393.658	95.12
393.882	97.12
394.107	90.12
394.331	87.12
394.556	78.12
394.78	92.12
395.005	86.12
395.229	83.12
395.454	93.12
395.678	74.12
395.903	86.12
396.127	96.12
396.352	84.12
396.576	88.12
396.801	75.12
397.025	91.12
397.249	89.12
397.474	89.12
397.698	76.12
397.922	101.12
398.147	95.12
398.371	83.12
398.595	84.12
398.82	74.12
399.044	105.12
399.268	94.12
399.492	87.12
399.717	83.12
399.941	87.12
400.165	89.12
400.389	99.12
400.613	95.12
400.837	82.12
401.062	96.12
401.286	88.12
401.51	105.12
401.734	102.12
401.958	96.12
402.182	135.12
402.406	209.12
402.63	158.12
402.854	110.12
403.078	81.12
403.302	87.12
403.526	100.12
403.75	89.12
403.974	76.12
404.198	86.12
404.422	85.12
404.645	87.12
404.869	99.12
405.093	127.12
405.317	158.12
405.541	158.12
405.765	130.12
405.988	126.12
406.212	207.12
406.436	301.12
406.66	197.12
406.883	127.12
407.107	118.12
407.331	112.12
407.555	99.12
407.778	105.12
408.002	99.12
408.226	92.12
408.449	85.12
408.673	92.12
408.896	104.12
409.12	110.12
409.344	99.12
409.567	79.12
409.791	77.12
410.014	90.12
410.238	93.12
410.461	97.12
410.685	84.12
410.908	93.12
411.132	90.12
411.355	102.12
411.578	91.12
411.802	91.12
412.025	85.12
412.249	95.12
412.472	110.12
412.695	141.12
412.919	121.12
413.142	93.12
413.365	99.12
413.589	88.12
413.812	89.12
414.035	93.12
414.258	102.12
414.482	77.12
414.705	100.12
414.928	86.12
415.151	98.12
415.374	93.12
415.597	91.12
415.821	92.12
416.044	82.12
416.267	102.12
416.49	88.12
416.713	83.12
416.936	89.12
417.159	86.12
417.382	91.12
417.605	105.12
417.828	112.12
418.051	101.12
418.274	92.12
418.497	81.12
418.72	86.12
418.943	88.12
419.166	91.12
419.389	82.12
419.611	97.12
419.834	93.12
420.057	108.12
420.28	102.12
420.503	94.12
420.726	95.12
420.948	102.12
421.171	107.12
421.394	105.12
421.617	91.12
421.839	90.12
422.062	76.12
422.285	80.12
422.507	102.12
422.73	105.12
422.953	92.12
423.175	85.12
423.398	102.12
423.621	82.12
423.843	81.12
424.066	91.12
424.288	96.12
424.511	93.12
424.733	116.12
424.956	114.12
425.178	107.12
425.401	98.12
425.623	102.12
425.846	96.12
426.068	99.12
426.291	104.12
426.513	100.12
426.735	96.12
426.958	115.12
427.18	123.12
427.402	189.12
427.625	277.12
427.847	255.12
428.069	253.12
428.292	138.12
428.514	95.12
428.736	93.12
428.958	95.12
429.181	85.12
429.403	82.12
429.625	97.12
429.847	93.12
430.069	122.12
430.292	88.12
430.514	99.12
430.736	97.12
430.958	87.12
431.18	91.12
431.402	89.12
431.624	91.12
431.846	76.12
432.068	85.12
432.29	97.12
432.512	79.12
432.734	80.12
432.956	104.12
433.178	113.12
433.4	108.12
433.622	84.12
433.844	91.12
434.066	87.12
434.287	86.12
434.509	87.12
434.731	93.12
434.953	81.12
435.175	95.12
435.397	88.12
435.618	101.12
435.84	114.12
436.062	145.12
436.284	137.12
436.505	121.12
436.727	122.12
436.949	94.12
437.17	103.12
437.392	82.12
437.614	107.12
437.835	122.12
438.057	155.12
438.278	147.12
438.5	130.12
438.721	157.12
438.943	119.12
439.165	98.12
439.386	85.12
439.608	82.12
439.829	110.12
440.05	173.12
440.272	223.12
440.493	120.12
440.715	86.12
440.936	83.12
441.158	93.12
441.379	92.12
441.6	103.12
441.822	107.12
442.043	105.12
442.264	125.12
442.486	94.12
442.707	105.12
442.928	138.12
443.149	189.12
443.371	181.12
443.592	143.12
443.813	143.12
444.034	127.12
444.255	94.12
444.476	78.12
444.698	81.12
444.919	94.12
445.14	126.12
445.361	138.12
445.582	138.12
445.803	211.12
446.024	182.12
446.245	198.12
446.466	139.12
446.687	105.12
446.908	105.12
447.129	105.12
447.35	97.12
447.571	107.12
447.792	91.12
448.013	103.12
448.234	133.12
448.455	121.12
448.675	135.12
448.896	157.12
449.117	115.12
449.338	125.12
449.559	163.12
449.779	169.12
450	96.12
450.221	79.12
450.442	88.12
450.662	98.12
450.883	146.12
451.104	140.12
451.324	104.12
451.545	87.12
451.766	81.12
451.986	87.12
452.207	89.12
452.428	104.12
452.648	114.12
452.869	127.12
453.089	126.12
453.31	145.12
453.53	111.12
453.751	93.12
453.971	110.12
454.192	142.12
454.412	115.12
454.633	93.12
454.853	83.12
455.073	88.12
455.294	100.12
455.514	105.12
455.734	92.12
455.955	96.12
456.175	78.12
456.395	88.12
456.616	89.12
456.836	87.12
457.056	84.12
457.276	80.12
457.497	73.12
457.717	78.12
457.937	91.12
458.157	77.12
458.377	101.12
458.598	129.12
458.818	222.12
459.038	246.12
459.258	144.12
459.478	107.12
459.698	93.12
459.918	95.12
460.138	100.12
460.358	90.12
460.578	80.12
460.798	93.12
461.018	88.12
461.238	78.12
461.458	83.12
461.678	89.12
461.898	87.12
462.118	73.12
462.338	92.12
462.558	82.12
462.777	76.12
462.997	82.12
463.217	101.12
463.437	86.12
463.657	89.12
463.876	91.12
464.096	97.12
464.316	102.12
464.536	106.12
464.755	88.12
464.975	121.12
465.195	246.12
465.414	233.12
465.634	114.12
465.854	95.12
466.073	89.12
466.293	80.12
466.512	93.12
466.732	88.12
466.951	87.12
467.171	109.12
467.391	109.12
467.61	138.12
467.829	190.12
468.049	478.12
468.268	689.12
468.488	187.12
468.707	95.12
468.927	105.12
469.146	94.12
469.365	98.12
469.585	95.12
469.804	114.12
470.023	112.12
470.243	85.12
470.462	107.12
470.681	147.12
470.901	113.12
471.12	92.12
471.339	110.12
471.558	119.12
471.777	145.12
471.997	269.12
472.216	965.12
472.435	2164.12
472.654	519.12
472.873	156.12
473.092	94.12
473.311	110.12
473.53	110.12
473.749	97.12
473.968	121.12
474.187	129.12
474.406	113.12
474.625	93.12
474.844	84.12
475.063	76.12
475.282	90.12
475.501	83.12
475.72	93.12
475.939	82.12
476.158	81.12
476.377	102.12
476.596	105.12
476.814	92.12
477.033	92.12
477.252	92.12
477.471	97.12
477.69	99.12
477.908	81.12
478.127	97.12
478.346	81.12
478.564	105.12
478.783	108.12
479.002	111.12
479.22	115.12
479.439	109.12
479.658	139.12
479.876	120.12
480.095	119.12
480.313	144.12
480.532	164.12
480.751	263.12
480.969	877.12
481.188	3811.12
481.406	2170.12
481.624	331.12
481.843	131.12
482.061	108.12
482.28	97.12
482.498	98.12
482.717	91.12
482.935	90.12
483.153	89.12
483.372	90.12
483.59	85.12
483.808	85.12
484.027	101.12
484.245	94.12
484.463	94.12
484.681	94.12
484.9	93.12
485.118	100.12
485.336	107.12
485.554	104.12
485.772	106.12
485.99	124.12
486.209	98.12
486.427	113.12
486.645	128.12
486.863	133.12
487.081	103.12
487.299	97.12
487.517	79.12
487.735	92.12
487.953	88.12
488.171	110.12
488.389	108.12
488.607	89.12
488.825	99.12
489.043	95.12
489.261	93.12
489.479	74.12
489.696	94.12
489.914	89.12
490.132	87.12
490.35	91.12
490.568	92.12
490.786	81.12
491.003	94.12
491.221	105.12
491.439	96.12
491.657	93.12
491.874	96.12
492.092	94.12
492.31	104.12
492.527	107.12
492.745	93.12
492.963	95.12
493.18	92.12
493.398	95.12
493.615	86.12
493.833	106.12
494.05	91.12
494.268	89.12
494.485	91.12
494.703	102.12
494.92	92.12
495.138	78.12
495.355	99.12
495.573	99.12
495.79	80.12
496.008	86.12
496.225	90.12
496.442	91.12
496.66	90.12
496.877	90.12
497.094	102.12
497.312	96.12
497.529	83.12
497.746	97.12
497.963	91.12
498.181	98.12
498.398	97.12
498.615	117.12
498.832	108.12
499.049	79.12
499.267	89.12
499.484	99.12
499.701	107.12
499.918	91.12
500.135	94.12
500.352	96.12
500.569	103.12
500.786	94.12
501.003	89.12
501.22	81.12
501.437	103.12
501.654	93.12
501.871	114.12
502.088	96.12
502.305	106.12
502.522	86.12
502.739	95.12
502.956	95.12
503.172	101.12
503.389	102.12
503.606	122.12
503.823	120.12
504.04	109.12
504.256	97.12
504.473	89.12
504.69	73.12
504.907	90.12
505.123	73.12
505.34	86.12
505.557	73.12
505.773	100.12
505.99	91.12
506.207	86.12
506.423	93.12
506.64	87.12
506.856	93.12
507.073	92.12
507.289	97.12
507.506	97.12
507.722	129.12
507.939	126.12
508.155	91.12
508.372	103.12
508.588	99.12
508.805	101.12
509.021	96.12
509.238	104.12
509.454	94.12
509.67	90.12
509.887	109.12
510.103	140.12
510.319	215.12
510.536	805.12
510.752	2845.12
510.968	768.12
511.184	165.12
511.401	133.12
511.617	114.12
511.833	104.12
512.049	92.12
512.265	81.12
512.481	93.12
512.698	89.12
512.914	92.12
