Data from Circ_1995_H10_HRD10591_00059.txt Node
Date: Wed Jan 03 11:36:58 EST 2024
User: Yrep
Spectrometer: HR+D1059
Trigger mode: 1
Integration Time (sec): 1.000000E-1
Scans to average: 1
Electric dark correction enabled: true
Nonlinearity correction enabled: false
Boxcar width: 0
XAxis mode: Wavelengths
Number of Pixels in Spectrum: 2048
>>>>>Begin Spectral Data<<<<<
223.165	-21.5
223.4	-21.5
223.635	-21.5
223.869	-18.5
224.104	-3.5
224.338	-23.5
224.573	-23.5
224.808	-14.5
225.042	-0.5
225.277	-16.5
225.511	-8.5
225.746	7.5
225.98	10.5
226.215	21.5
226.449	14.5
226.683	26.5
226.918	28.5
227.152	21.5
227.387	43.5
227.621	46.5
227.856	40.5
228.09	43.5
228.324	55.5
228.559	50.5
228.793	50.5
229.027	56.5
229.262	68.5
229.496	83.5
229.73	104.5
229.964	105.5
230.199	76.5
230.433	89.5
230.667	78.5
230.901	89.5
231.136	69.5
231.37	83.5
231.604	60.5
231.838	77.5
232.072	90.5
232.306	84.5
232.541	88.5
232.775	79.5
233.009	78.5
233.243	81.5
233.477	85.5
233.711	95.5
233.945	81.5
234.179	75.5
234.413	70.5
234.647	76.5
234.881	83.5
235.115	78.5
235.349	81.5
235.583	82.5
235.817	75.5
236.051	65.5
236.285	75.5
236.519	67.5
236.753	80.5
236.987	95.5
237.221	99.5
237.455	80.5
237.689	76.5
237.922	84.5
238.156	81.5
238.39	87.5
238.624	67.5
238.858	86.5
239.091	93.5
239.325	90.5
239.559	88.5
239.793	78.5
240.027	68.5
240.26	82.5
240.494	81.5
240.728	93.5
240.961	75.5
241.195	86.5
241.429	77.5
241.662	75.5
241.896	70.5
242.13	75.5
242.363	65.5
242.597	68.5
242.83	94.5
243.064	73.5
243.298	89.5
243.531	84.5
243.765	62.5
243.998	81.5
244.232	97.5
244.465	79.5
244.699	74.5
244.932	81.5
245.166	76.5
245.399	77.5
245.633	73.5
245.866	61.5
246.099	73.5
246.333	84.5
246.566	79.5
246.8	64.5
247.033	83.5
247.266	70.5
247.5	80.5
247.733	82.5
247.966	86.5
248.2	84.5
248.433	94.5
248.666	72.5
248.899	68.5
249.133	84.5
249.366	123.5
249.599	106.5
249.832	85.5
250.066	85.5
250.299	100.5
250.532	85.5
250.765	89.5
250.998	91.5
251.231	79.5
251.465	78.5
251.698	82.5
251.931	85.5
252.164	92.5
252.397	76.5
252.63	97.5
252.863	82.5
253.096	91.5
253.329	81.5
253.562	86.5
253.795	75.5
254.028	94.5
254.261	75.5
254.494	87.5
254.727	84.5
254.96	81.5
255.193	81.5
255.426	87.5
255.659	88.5
255.892	95.5
256.124	99.5
256.357	93.5
256.59	67.5
256.823	89.5
257.056	83.5
257.289	74.5
257.521	89.5
257.754	92.5
257.987	89.5
258.22	108.5
258.452	100.5
258.685	98.5
258.918	90.5
259.151	73.5
259.383	75.5
259.616	91.5
259.849	90.5
260.081	89.5
260.314	85.5
260.547	85.5
260.779	104.5
261.012	124.5
261.244	116.5
261.477	92.5
261.71	102.5
261.942	153.5
262.175	159.5
262.407	100.5
262.64	87.5
262.872	83.5
263.105	93.5
263.337	94.5
263.57	87.5
263.802	90.5
264.035	91.5
264.267	86.5
264.499	88.5
264.732	83.5
264.964	89.5
265.197	79.5
265.429	83.5
265.661	75.5
265.894	95.5
266.126	91.5
266.358	79.5
266.591	83.5
266.823	83.5
267.055	82.5
267.287	93.5
267.52	91.5
267.752	79.5
267.984	77.5
268.216	89.5
268.448	82.5
268.681	92.5
268.913	81.5
269.145	77.5
269.377	90.5
269.609	89.5
269.841	84.5
270.073	89.5
270.306	84.5
270.538	87.5
270.77	99.5
271.002	90.5
271.234	95.5
271.466	107.5
271.698	89.5
271.93	91.5
272.162	91.5
272.394	104.5
272.626	89.5
272.858	73.5
273.09	95.5
273.322	77.5
273.553	96.5
273.785	101.5
274.017	68.5
274.249	105.5
274.481	95.5
274.713	98.5
274.945	81.5
275.176	96.5
275.408	116.5
275.64	129.5
275.872	141.5
276.104	119.5
276.335	112.5
276.567	132.5
276.799	166.5
277.031	217.5
277.262	241.5
277.494	179.5
277.726	109.5
277.957	100.5
278.189	89.5
278.421	87.5
278.652	93.5
278.884	96.5
279.115	98.5
279.347	96.5
279.579	110.5
279.81	152.5
280.042	234.5
280.273	338.5
280.505	242.5
280.736	101.5
280.968	100.5
281.199	109.5
281.431	99.5
281.662	102.5
281.894	107.5
282.125	106.5
282.356	120.5
282.588	168.5
282.819	144.5
283.051	91.5
283.282	100.5
283.513	107.5
283.745	93.5
283.976	97.5
284.207	87.5
284.439	96.5
284.67	86.5
284.901	78.5
285.132	80.5
285.364	95.5
285.595	78.5
285.826	94.5
286.057	96.5
286.288	90.5
286.52	94.5
286.751	83.5
286.982	100.5
287.213	100.5
287.444	101.5
287.675	90.5
287.906	93.5
288.138	89.5
288.369	83.5
288.6	99.5
288.831	94.5
289.062	103.5
289.293	94.5
289.524	84.5
289.755	84.5
289.986	98.5
290.217	93.5
290.448	78.5
290.679	85.5
290.91	101.5
291.141	77.5
291.371	103.5
291.602	82.5
291.833	90.5
292.064	100.5
292.295	97.5
292.526	78.5
292.757	90.5
292.987	85.5
293.218	99.5
293.449	96.5
293.68	85.5
293.91	82.5
294.141	91.5
294.372	83.5
294.603	100.5
294.833	90.5
295.064	79.5
295.295	95.5
295.525	104.5
295.756	111.5
295.987	154.5
296.217	180.5
296.448	162.5
296.679	103.5
296.909	77.5
297.14	83.5
297.37	83.5
297.601	78.5
297.831	100.5
298.062	105.5
298.292	88.5
298.523	106.5
298.753	96.5
298.984	88.5
299.214	95.5
299.445	98.5
299.675	91.5
299.905	105.5
300.136	101.5
300.366	113.5
300.597	95.5
300.827	107.5
301.057	113.5
301.288	100.5
301.518	104.5
301.748	94.5
301.979	129.5
302.209	110.5
302.439	95.5
302.669	96.5
302.9	98.5
303.13	108.5
303.36	125.5
303.59	143.5
303.82	164.5
304.051	118.5
304.281	98.5
304.511	105.5
304.741	99.5
304.971	100.5
305.201	83.5
305.431	89.5
305.661	80.5
305.891	105.5
306.121	94.5
306.352	120.5
306.582	125.5
306.812	113.5
307.042	121.5
307.272	185.5
307.502	222.5
307.731	193.5
307.961	125.5
308.191	108.5
308.421	100.5
308.651	100.5
308.881	97.5
309.111	107.5
309.341	92.5
309.571	118.5
309.8	107.5
310.03	108.5
310.26	113.5
310.49	99.5
310.72	109.5
310.949	118.5
311.179	104.5
311.409	98.5
311.639	99.5
311.868	100.5
312.098	97.5
312.328	110.5
312.557	117.5
312.787	128.5
313.017	113.5
313.246	104.5
313.476	92.5
313.706	104.5
313.935	101.5
314.165	104.5
314.394	117.5
314.624	106.5
314.853	105.5
315.083	99.5
315.312	91.5
315.542	89.5
315.771	105.5
316.001	96.5
316.23	91.5
316.46	95.5
316.689	92.5
316.919	103.5
317.148	89.5
317.377	112.5
317.607	104.5
317.836	110.5
318.065	94.5
318.295	103.5
318.524	83.5
318.753	90.5
318.983	97.5
319.212	114.5
319.441	131.5
319.67	102.5
319.9	98.5
320.129	100.5
320.358	106.5
320.587	105.5
320.816	126.5
321.046	102.5
321.275	98.5
321.504	97.5
321.733	108.5
321.962	99.5
322.191	110.5
322.42	124.5
322.649	136.5
322.878	123.5
323.108	132.5
323.337	157.5
323.566	175.5
323.795	190.5
324.024	250.5
324.253	529.5
324.482	1105.5
324.71	2314.5
324.939	3071.5
325.168	1133.5
325.397	328.5
325.626	178.5
325.855	161.5
326.084	146.5
326.313	143.5
326.542	188.5
326.77	285.5
326.999	575.5
327.228	1149.5
327.457	2213.5
327.686	1764.5
327.914	629.5
328.143	663.5
328.372	889.5
328.6	489.5
328.829	194.5
329.058	209.5
329.287	235.5
329.515	222.5
329.744	304.5
329.972	609.5
330.201	1268.5
330.43	1943.5
330.658	815.5
330.887	334.5
331.115	225.5
331.344	130.5
331.572	129.5
331.801	138.5
332.03	127.5
332.258	128.5
332.486	117.5
332.715	108.5
332.943	88.5
333.172	130.5
333.4	148.5
333.629	173.5
333.857	256.5
334.085	514.5
334.314	1103.5
334.542	2270.5
334.771	2227.5
334.999	561.5
335.227	196.5
335.455	140.5
335.684	129.5
335.912	119.5
336.14	102.5
336.369	126.5
336.597	124.5
336.825	114.5
337.053	110.5
337.281	84.5
337.51	94.5
337.738	109.5
337.966	119.5
338.194	96.5
338.422	111.5
338.65	101.5
338.878	96.5
339.106	87.5
339.334	105.5
339.562	115.5
339.79	107.5
340.018	92.5
340.246	96.5
340.474	107.5
340.702	95.5
340.93	87.5
341.158	100.5
341.386	107.5
341.614	120.5
341.842	101.5
342.07	108.5
342.298	114.5
342.526	100.5
342.754	101.5
342.981	92.5
343.209	91.5
343.437	96.5
343.665	88.5
343.893	99.5
344.12	103.5
344.348	92.5
344.576	97.5
344.804	94.5
345.031	108.5
345.259	112.5
345.487	103.5
345.714	93.5
345.942	92.5
346.17	95.5
346.397	93.5
346.625	96.5
346.853	93.5
347.08	96.5
347.308	105.5
347.535	101.5
347.763	117.5
347.99	99.5
348.218	115.5
348.445	114.5
348.673	104.5
348.9	106.5
349.128	104.5
349.355	86.5
349.583	96.5
349.81	104.5
350.037	112.5
350.265	101.5
350.492	110.5
350.72	97.5
350.947	108.5
351.174	116.5
351.402	123.5
351.629	119.5
351.856	113.5
352.083	116.5
352.311	133.5
352.538	116.5
352.765	140.5
352.992	125.5
353.22	129.5
353.447	115.5
353.674	88.5
353.901	81.5
354.128	91.5
354.355	99.5
354.583	92.5
354.81	91.5
355.037	83.5
355.264	104.5
355.491	89.5
355.718	105.5
355.945	104.5
356.172	105.5
356.399	91.5
356.626	76.5
356.853	113.5
357.08	87.5
357.307	88.5
357.534	99.5
357.761	96.5
357.988	102.5
358.215	98.5
358.441	93.5
358.668	100.5
358.895	101.5
359.122	93.5
359.349	97.5
359.576	111.5
359.802	132.5
360.029	156.5
360.256	148.5
360.483	129.5
360.709	83.5
360.936	103.5
361.163	94.5
361.39	120.5
361.616	87.5
361.843	99.5
362.07	104.5
362.296	115.5
362.523	93.5
362.749	98.5
362.976	106.5
363.203	101.5
363.429	90.5
363.656	87.5
363.882	91.5
364.109	100.5
364.335	79.5
364.562	92.5
364.788	85.5
365.015	81.5
365.241	121.5
365.468	125.5
365.694	127.5
365.92	113.5
366.147	104.5
366.373	106.5
366.599	90.5
366.826	91.5
367.052	97.5
367.278	98.5
367.505	88.5
367.731	114.5
367.957	110.5
368.184	105.5
368.41	109.5
368.636	111.5
368.862	136.5
369.089	121.5
369.315	114.5
369.541	116.5
369.767	86.5
369.993	106.5
370.219	93.5
370.445	87.5
370.672	90.5
370.898	91.5
371.124	96.5
371.35	90.5
371.576	94.5
371.802	90.5
372.028	82.5
372.254	107.5
372.48	96.5
372.706	102.5
372.932	95.5
373.158	87.5
373.384	93.5
373.61	96.5
373.835	93.5
374.061	104.5
374.287	118.5
374.513	95.5
374.739	74.5
374.965	82.5
375.191	96.5
375.416	103.5
375.642	88.5
375.868	91.5
376.094	96.5
376.319	83.5
376.545	87.5
376.771	98.5
376.997	91.5
377.222	99.5
377.448	102.5
377.674	81.5
377.899	97.5
378.125	95.5
378.35	102.5
378.576	101.5
378.802	77.5
379.027	94.5
379.253	89.5
379.478	91.5
379.704	91.5
379.929	80.5
380.155	99.5
380.38	99.5
380.606	89.5
380.831	94.5
381.057	106.5
381.282	91.5
381.507	88.5
381.733	118.5
381.958	91.5
382.184	111.5
382.409	103.5
382.634	101.5
382.86	101.5
383.085	110.5
383.31	90.5
383.535	101.5
383.761	92.5
383.986	110.5
384.211	100.5
384.436	107.5
384.662	95.5
384.887	93.5
385.112	111.5
385.337	101.5
385.562	100.5
385.787	116.5
386.013	107.5
386.238	124.5
386.463	119.5
386.688	108.5
386.913	109.5
387.138	109.5
387.363	111.5
387.588	100.5
387.813	114.5
388.038	106.5
388.263	120.5
388.488	108.5
388.713	89.5
388.938	91.5
389.163	73.5
389.387	103.5
389.612	87.5
389.837	98.5
390.062	96.5
390.287	90.5
390.512	87.5
390.736	91.5
390.961	92.5
391.186	98.5
391.411	89.5
391.636	84.5
391.86	79.5
392.085	67.5
392.31	79.5
392.534	79.5
392.759	87.5
392.984	105.5
393.208	89.5
393.433	93.5
393.658	87.5
393.882	90.5
394.107	80.5
394.331	90.5
394.556	80.5
394.78	98.5
395.005	86.5
395.229	87.5
395.454	99.5
395.678	96.5
395.903	91.5
396.127	88.5
396.352	79.5
396.576	88.5
396.801	82.5
397.025	88.5
397.249	90.5
397.474	87.5
397.698	87.5
397.922	100.5
398.147	96.5
398.371	106.5
398.595	95.5
398.82	87.5
399.044	87.5
399.268	88.5
399.492	91.5
399.717	79.5
399.941	87.5
400.165	72.5
400.389	91.5
400.613	88.5
400.837	97.5
401.062	92.5
401.286	97.5
401.51	106.5
401.734	96.5
401.958	107.5
402.182	168.5
402.406	227.5
402.63	144.5
402.854	116.5
403.078	93.5
403.302	98.5
403.526	98.5
403.75	106.5
403.974	80.5
404.198	111.5
404.422	98.5
404.645	85.5
404.869	108.5
405.093	109.5
405.317	143.5
405.541	152.5
405.765	116.5
405.988	149.5
406.212	220.5
406.436	349.5
406.66	208.5
406.883	133.5
407.107	115.5
407.331	101.5
407.555	118.5
407.778	96.5
408.002	103.5
408.226	107.5
408.449	92.5
408.673	94.5
408.896	92.5
409.12	106.5
409.344	96.5
409.567	96.5
409.791	97.5
410.014	76.5
410.238	95.5
410.461	94.5
410.685	98.5
410.908	106.5
411.132	101.5
411.355	99.5
411.578	100.5
411.802	79.5
412.025	83.5
412.249	104.5
412.472	104.5
412.695	144.5
412.919	106.5
413.142	112.5
413.365	101.5
413.589	82.5
413.812	83.5
414.035	107.5
414.258	94.5
414.482	91.5
414.705	94.5
414.928	85.5
415.151	96.5
415.374	75.5
415.597	80.5
415.821	94.5
416.044	101.5
416.267	101.5
416.49	100.5
416.713	100.5
416.936	85.5
417.159	92.5
417.382	96.5
417.605	98.5
417.828	110.5
418.051	104.5
418.274	102.5
418.497	90.5
418.72	89.5
418.943	85.5
419.166	90.5
419.389	103.5
419.611	87.5
419.834	103.5
420.057	87.5
420.28	107.5
420.503	108.5
420.726	88.5
420.948	103.5
421.171	123.5
421.394	87.5
421.617	81.5
421.839	104.5
422.062	95.5
422.285	99.5
422.507	95.5
422.73	95.5
422.953	106.5
423.175	91.5
423.398	90.5
423.621	90.5
423.843	80.5
424.066	87.5
424.288	90.5
424.511	81.5
424.733	96.5
424.956	120.5
425.178	112.5
425.401	110.5
425.623	104.5
425.846	106.5
426.068	112.5
426.291	106.5
426.513	97.5
426.735	89.5
426.958	92.5
427.18	121.5
427.402	203.5
427.625	277.5
427.847	273.5
428.069	240.5
428.292	145.5
428.514	106.5
428.736	106.5
428.958	92.5
429.181	97.5
429.403	84.5
429.625	88.5
429.847	92.5
430.069	104.5
430.292	104.5
430.514	85.5
430.736	94.5
430.958	96.5
431.18	87.5
431.402	92.5
431.624	81.5
431.846	83.5
432.068	83.5
432.29	97.5
432.512	97.5
432.734	83.5
432.956	91.5
433.178	84.5
433.4	92.5
433.622	89.5
433.844	96.5
434.066	97.5
434.287	95.5
434.509	95.5
434.731	88.5
434.953	77.5
435.175	88.5
435.397	100.5
435.618	100.5
435.84	105.5
436.062	134.5
436.284	146.5
436.505	124.5
436.727	113.5
436.949	113.5
437.17	87.5
437.392	91.5
437.614	107.5
437.835	123.5
438.057	163.5
438.278	128.5
438.5	143.5
438.721	132.5
438.943	109.5
439.165	94.5
439.386	110.5
439.608	100.5
439.829	111.5
440.05	155.5
440.272	190.5
440.493	124.5
440.715	104.5
440.936	88.5
441.158	93.5
441.379	105.5
441.6	104.5
441.822	111.5
442.043	104.5
442.264	121.5
442.486	108.5
442.707	120.5
442.928	125.5
443.149	168.5
443.371	191.5
443.592	136.5
443.813	128.5
444.034	117.5
444.255	100.5
444.476	91.5
444.698	88.5
444.919	108.5
445.14	137.5
445.361	129.5
445.582	143.5
445.803	193.5
446.024	164.5
446.245	186.5
446.466	132.5
446.687	103.5
446.908	96.5
447.129	95.5
447.35	108.5
447.571	98.5
447.792	95.5
448.013	124.5
448.234	136.5
448.455	111.5
448.675	139.5
448.896	136.5
449.117	105.5
449.338	116.5
449.559	145.5
449.779	155.5
450	100.5
450.221	89.5
450.442	85.5
450.662	101.5
450.883	136.5
451.104	149.5
451.324	127.5
451.545	90.5
451.766	90.5
451.986	83.5
452.207	101.5
452.428	108.5
452.648	100.5
452.869	133.5
453.089	150.5
453.31	170.5
453.53	117.5
453.751	103.5
453.971	132.5
454.192	141.5
454.412	106.5
454.633	87.5
454.853	98.5
455.073	92.5
455.294	104.5
455.514	115.5
455.734	98.5
455.955	88.5
456.175	87.5
456.395	91.5
456.616	94.5
456.836	94.5
457.056	93.5
457.276	95.5
457.497	98.5
457.717	95.5
457.937	95.5
458.157	94.5
458.377	104.5
458.598	131.5
458.818	237.5
459.038	248.5
459.258	171.5
459.478	115.5
459.698	105.5
459.918	85.5
460.138	93.5
460.358	75.5
460.578	87.5
460.798	87.5
461.018	103.5
461.238	106.5
461.458	98.5
461.678	84.5
461.898	90.5
462.118	107.5
462.338	87.5
462.558	75.5
462.777	82.5
462.997	106.5
463.217	124.5
463.437	95.5
463.657	95.5
463.876	92.5
464.096	101.5
464.316	103.5
464.536	111.5
464.755	111.5
464.975	117.5
465.195	271.5
465.414	281.5
465.634	107.5
465.854	91.5
466.073	78.5
466.293	83.5
466.512	93.5
466.732	91.5
466.951	100.5
467.171	102.5
467.391	129.5
467.61	181.5
467.829	261.5
468.049	723.5
468.268	1169.5
468.488	292.5
468.707	128.5
468.927	100.5
469.146	102.5
469.365	95.5
469.585	100.5
469.804	99.5
470.023	110.5
470.243	118.5
470.462	125.5
470.681	162.5
470.901	109.5
471.12	103.5
471.339	109.5
471.558	125.5
471.777	167.5
471.997	382.5
472.216	1408.5
472.435	3423.5
472.654	765.5
472.873	205.5
473.092	117.5
473.311	110.5
473.53	108.5
473.749	95.5
473.968	95.5
474.187	127.5
474.406	128.5
474.625	100.5
474.844	88.5
475.063	101.5
475.282	92.5
475.501	81.5
475.72	93.5
475.939	97.5
476.158	102.5
476.377	90.5
476.596	90.5
476.814	109.5
477.033	109.5
477.252	104.5
477.471	94.5
477.69	97.5
477.908	85.5
478.127	105.5
478.346	94.5
478.564	99.5
478.783	111.5
479.002	98.5
479.22	111.5
479.439	120.5
479.658	153.5
479.876	134.5
480.095	127.5
480.313	151.5
480.532	191.5
480.751	337.5
480.969	1234.5
481.188	5627.5
481.406	3225.5
481.624	453.5
481.843	163.5
482.061	120.5
482.28	111.5
482.498	108.5
482.717	105.5
482.935	105.5
483.153	93.5
483.372	97.5
483.59	95.5
483.808	105.5
484.027	99.5
484.245	93.5
484.463	106.5
484.681	98.5
484.9	84.5
485.118	97.5
485.336	116.5
485.554	107.5
485.772	103.5
485.99	102.5
486.209	113.5
486.427	118.5
486.645	123.5
486.863	140.5
487.081	112.5
487.299	98.5
487.517	98.5
487.735	97.5
487.953	88.5
488.171	100.5
488.389	104.5
488.607	110.5
488.825	83.5
489.043	84.5
489.261	92.5
489.479	88.5
489.696	90.5
489.914	91.5
490.132	88.5
490.35	90.5
490.568	89.5
490.786	91.5
491.003	104.5
491.221	89.5
491.439	105.5
491.657	91.5
491.874	98.5
492.092	98.5
492.31	102.5
492.527	101.5
492.745	81.5
492.963	113.5
493.18	84.5
493.398	97.5
493.615	108.5
493.833	87.5
494.05	84.5
494.268	89.5
494.485	94.5
494.703	82.5
494.92	85.5
495.138	83.5
495.355	97.5
495.573	101.5
495.79	102.5
496.008	97.5
496.225	97.5
496.442	87.5
496.66	94.5
496.877	90.5
497.094	89.5
497.312	87.5
497.529	99.5
497.746	90.5
497.963	86.5
498.181	94.5
498.398	91.5
498.615	109.5
498.832	112.5
499.049	85.5
499.267	91.5
499.484	96.5
499.701	97.5
499.918	95.5
500.135	98.5
500.352	112.5
500.569	95.5
500.786	91.5
501.003	93.5
501.22	90.5
501.437	105.5
501.654	103.5
501.871	134.5
502.088	109.5
502.305	107.5
502.522	81.5
502.739	83.5
502.956	98.5
503.172	106.5
503.389	110.5
503.606	138.5
503.823	112.5
504.04	105.5
504.256	91.5
504.473	89.5
504.69	89.5
504.907	112.5
505.123	99.5
505.34	91.5
505.557	90.5
505.773	84.5
505.99	84.5
506.207	96.5
506.423	96.5
506.64	99.5
506.856	98.5
507.073	77.5
507.289	95.5
507.506	102.5
507.722	128.5
507.939	145.5
508.155	98.5
508.372	105.5
508.588	102.5
508.805	99.5
509.021	106.5
509.238	100.5
509.454	107.5
509.67	106.5
509.887	117.5
510.103	169.5
510.319	244.5
510.536	973.5
510.752	3544.5
510.968	935.5
511.184	213.5
511.401	149.5
511.617	113.5
511.833	111.5
512.049	102.5
512.265	89.5
512.481	95.5
512.698	93.5
512.914	90.5
513.13	95.5
513.346	96.5
513.562	98.5
513.778	92.5
513.994	107.5
514.21	135.5
514.426	144.5
514.642	189.5
514.858	163.5
515.074	257.5
515.29	792.5
515.506	3006.5
515.721	1034.5
515.937	241.5
516.153	149.5
516.369	127.5
516.585	129.5
516.801	120.5
517.016	108.5
517.232	87.5
517.448	83.5
517.664	95.5
517.879	90.5
518.095	96.5
518.311	124.5
518.527	123.5
518.742	99.5
518.958	111.5
519.173	99.5
519.389	111.5
519.605	102.5
519.82	113.5
520.036	108.5
520.251	169.5
520.467	129.5
520.682	120.5
520.898	121.5
521.113	159.5
521.329	199.5
521.544	330.5
521.76	1061.5
521.975	5000.5
522.19	2993.5
522.406	596.5
522.621	186.5
522.836	125.5
523.052	123.5
523.267	110.5
523.482	89.5
523.698	120.5
523.913	154.5
524.128	129.5
524.343	114.5
524.559	107.5
524.774	94.5
524.989	101.5
525.204	121.5
525.419	109.5
525.634	99.5
525.849	82.5
526.064	102.5
526.28	101.5
526.495	83.5
526.71	88.5
526.925	83.5
527.14	91.5
527.355	94.5
527.57	90.5
527.785	94.5
527.999	99.5
528.214	97.5
528.429	99.5
528.644	95.5
528.859	92.5
529.074	91.5
529.289	171.5
529.503	322.5
529.718	134.5
529.933	95.5
530.148	89.5
530.363	101.5
