Data from Circ_1995_H10_HRD10591_00054.txt Node
Date: Wed Jan 03 11:36:57 EST 2024
User: Yrep
Spectrometer: HR+D1059
Trigger mode: 1
Integration Time (sec): 1.000000E-1
Scans to average: 1
Electric dark correction enabled: true
Nonlinearity correction enabled: false
Boxcar width: 0
XAxis mode: Wavelengths
Number of Pixels in Spectrum: 2048
>>>>>Begin Spectral Data<<<<<
223.165	-25.44
223.4	-25.44
223.635	-25.44
223.869	-14.44
224.104	-22.44
224.338	-8.44
224.573	-12.44
224.808	-13.44
225.042	-4.44
225.277	-1.44
225.511	-16.44
225.746	1.56
225.98	4.56
226.215	17.56
226.449	16.56
226.683	24.56
226.918	17.56
227.152	36.56
227.387	34.56
227.621	37.56
227.856	35.56
228.09	49.56
228.324	33.56
228.559	57.56
228.793	54.56
229.027	62.56
229.262	76.56
229.496	83.56
229.73	102.56
229.964	96.56
230.199	74.56
230.433	76.56
230.667	78.56
230.901	74.56
231.136	63.56
231.37	72.56
231.604	64.56
231.838	87.56
232.072	71.56
232.306	71.56
232.541	71.56
232.775	72.56
233.009	79.56
233.243	78.56
233.477	77.56
233.711	83.56
233.945	85.56
234.179	68.56
234.413	76.56
234.647	84.56
234.881	71.56
235.115	75.56
235.349	60.56
235.583	92.56
235.817	70.56
236.051	60.56
236.285	79.56
236.519	96.56
236.753	81.56
236.987	86.56
237.221	98.56
237.455	95.56
237.689	82.56
237.922	82.56
238.156	69.56
238.39	79.56
238.624	78.56
238.858	83.56
239.091	68.56
239.325	92.56
239.559	86.56
239.793	77.56
240.027	63.56
240.26	75.56
240.494	76.56
240.728	83.56
240.961	68.56
241.195	85.56
241.429	67.56
241.662	83.56
241.896	77.56
242.13	85.56
242.363	75.56
242.597	70.56
242.83	77.56
243.064	85.56
243.298	76.56
243.531	74.56
243.765	74.56
243.998	71.56
244.232	73.56
244.465	99.56
244.699	79.56
244.932	79.56
245.166	80.56
245.399	94.56
245.633	86.56
245.866	75.56
246.099	70.56
246.333	82.56
246.566	93.56
246.8	72.56
247.033	76.56
247.266	80.56
247.5	96.56
247.733	89.56
247.966	82.56
248.2	95.56
248.433	82.56
248.666	77.56
248.899	86.56
249.133	89.56
249.366	121.56
249.599	107.56
249.832	102.56
250.066	81.56
250.299	74.56
250.532	78.56
250.765	91.56
250.998	70.56
251.231	89.56
251.465	92.56
251.698	86.56
251.931	72.56
252.164	84.56
252.397	78.56
252.63	88.56
252.863	81.56
253.096	63.56
253.329	79.56
253.562	95.56
253.795	86.56
254.028	94.56
254.261	70.56
254.494	86.56
254.727	83.56
254.96	84.56
255.193	91.56
255.426	91.56
255.659	72.56
255.892	87.56
256.124	94.56
256.357	91.56
256.59	80.56
256.823	94.56
257.056	88.56
257.289	94.56
257.521	91.56
257.754	86.56
257.987	70.56
258.22	80.56
258.452	100.56
258.685	104.56
258.918	99.56
259.151	86.56
259.383	81.56
259.616	82.56
259.849	92.56
260.081	86.56
260.314	80.56
260.547	87.56
260.779	103.56
261.012	138.56
261.244	117.56
261.477	103.56
261.71	103.56
261.942	150.56
262.175	164.56
262.407	113.56
262.64	82.56
262.872	89.56
263.105	75.56
263.337	85.56
263.57	98.56
263.802	89.56
264.035	94.56
264.267	77.56
264.499	91.56
264.732	92.56
264.964	90.56
265.197	82.56
265.429	91.56
265.661	83.56
265.894	75.56
266.126	92.56
266.358	78.56
266.591	77.56
266.823	77.56
267.055	86.56
267.287	80.56
267.52	76.56
267.752	87.56
267.984	76.56
268.216	92.56
268.448	97.56
268.681	94.56
268.913	81.56
269.145	78.56
269.377	82.56
269.609	74.56
269.841	83.56
270.073	77.56
270.306	82.56
270.538	80.56
270.77	71.56
271.002	87.56
271.234	86.56
271.466	105.56
271.698	88.56
271.93	105.56
272.162	91.56
272.394	83.56
272.626	104.56
272.858	75.56
273.09	83.56
273.322	78.56
273.553	91.56
273.785	84.56
274.017	105.56
274.249	76.56
274.481	82.56
274.713	90.56
274.945	111.56
275.176	97.56
275.408	109.56
275.64	138.56
275.872	156.56
276.104	135.56
276.335	117.56
276.567	108.56
276.799	174.56
277.031	232.56
277.262	286.56
277.494	205.56
277.726	118.56
277.957	101.56
278.189	102.56
278.421	108.56
278.652	87.56
278.884	81.56
279.115	99.56
279.347	92.56
279.579	105.56
279.81	166.56
280.042	274.56
280.273	386.56
280.505	255.56
280.736	119.56
280.968	110.56
281.199	83.56
281.431	89.56
281.662	98.56
281.894	94.56
282.125	116.56
282.356	141.56
282.588	198.56
282.819	135.56
283.051	102.56
283.282	92.56
283.513	86.56
283.745	90.56
283.976	88.56
284.207	74.56
284.439	71.56
284.67	89.56
284.901	72.56
285.132	91.56
285.364	85.56
285.595	88.56
285.826	102.56
286.057	92.56
286.288	87.56
286.52	90.56
286.751	91.56
286.982	83.56
287.213	78.56
287.444	88.56
287.675	89.56
287.906	78.56
288.138	99.56
288.369	92.56
288.6	91.56
288.831	86.56
289.062	75.56
289.293	75.56
289.524	88.56
289.755	81.56
289.986	91.56
290.217	86.56
290.448	69.56
290.679	73.56
290.91	86.56
291.141	91.56
291.371	90.56
291.602	84.56
291.833	92.56
292.064	85.56
292.295	87.56
292.526	96.56
292.757	105.56
292.987	98.56
293.218	88.56
293.449	76.56
293.68	78.56
293.91	96.56
294.141	96.56
294.372	92.56
294.603	101.56
294.833	68.56
295.064	90.56
295.295	100.56
295.525	90.56
295.756	98.56
295.987	134.56
296.217	202.56
296.448	164.56
296.679	103.56
296.909	86.56
297.14	102.56
297.37	105.56
297.601	90.56
297.831	87.56
298.062	98.56
298.292	93.56
298.523	96.56
298.753	98.56
298.984	78.56
299.214	90.56
299.445	90.56
299.675	86.56
299.905	100.56
300.136	103.56
300.366	100.56
300.597	85.56
300.827	103.56
301.057	100.56
301.288	120.56
301.518	100.56
301.748	118.56
301.979	117.56
302.209	95.56
302.439	89.56
302.669	94.56
302.9	91.56
303.13	106.56
303.36	116.56
303.59	143.56
303.82	192.56
304.051	113.56
304.281	112.56
304.511	92.56
304.741	81.56
304.971	90.56
305.201	88.56
305.431	94.56
305.661	107.56
305.891	92.56
306.121	119.56
306.352	116.56
306.582	128.56
306.812	109.56
307.042	154.56
307.272	186.56
307.502	225.56
307.731	205.56
307.961	150.56
308.191	123.56
308.421	98.56
308.651	82.56
308.881	100.56
309.111	92.56
309.341	111.56
309.571	97.56
309.8	96.56
310.03	100.56
310.26	109.56
310.49	108.56
310.72	116.56
310.949	129.56
311.179	134.56
311.409	112.56
311.639	115.56
311.868	110.56
312.098	109.56
312.328	108.56
312.557	133.56
312.787	162.56
313.017	121.56
313.246	110.56
313.476	107.56
313.706	96.56
313.935	107.56
314.165	109.56
314.394	112.56
314.624	110.56
314.853	111.56
315.083	88.56
315.312	97.56
315.542	86.56
315.771	99.56
316.001	99.56
316.23	98.56
316.46	83.56
316.689	93.56
316.919	104.56
317.148	107.56
317.377	98.56
317.607	86.56
317.836	104.56
318.065	91.56
318.295	98.56
318.524	86.56
318.753	93.56
318.983	95.56
319.212	103.56
319.441	131.56
319.67	126.56
319.9	100.56
320.129	93.56
320.358	103.56
320.587	108.56
320.816	110.56
321.046	119.56
321.275	101.56
321.504	98.56
321.733	96.56
321.962	100.56
322.191	103.56
322.42	142.56
322.649	133.56
322.878	121.56
323.108	138.56
323.337	169.56
323.566	173.56
323.795	220.56
324.024	325.56
324.253	652.56
324.482	1503.56
324.71	3158.56
324.939	4312.56
325.168	1500.56
325.397	394.56
325.626	209.56
325.855	178.56
326.084	151.56
326.313	162.56
326.542	199.56
326.77	349.56
326.999	774.56
327.228	1644.56
327.457	3108.56
327.686	2454.56
327.914	845.56
328.143	820.56
328.372	1132.56
328.6	562.56
328.829	247.56
329.058	243.56
329.287	276.56
329.515	247.56
329.744	390.56
329.972	778.56
330.201	1754.56
330.43	2558.56
330.658	1047.56
330.887	442.56
331.115	259.56
331.344	148.56
331.572	158.56
331.801	151.56
332.03	157.56
332.258	132.56
332.486	117.56
332.715	126.56
332.943	135.56
333.172	135.56
333.4	170.56
333.629	216.56
333.857	335.56
334.085	673.56
334.314	1540.56
334.542	3218.56
334.771	3012.56
334.999	703.56
335.227	248.56
335.455	153.56
335.684	120.56
335.912	111.56
336.14	119.56
336.369	122.56
336.597	134.56
336.825	106.56
337.053	106.56
337.281	100.56
337.51	91.56
337.738	100.56
337.966	116.56
338.194	118.56
338.422	109.56
338.65	96.56
338.878	91.56
339.106	109.56
339.334	89.56
339.562	84.56
339.79	127.56
340.018	96.56
340.246	109.56
340.474	100.56
340.702	94.56
340.93	92.56
341.158	107.56
341.386	106.56
341.614	109.56
341.842	94.56
342.07	107.56
342.298	92.56
342.526	105.56
342.754	98.56
342.981	77.56
343.209	76.56
343.437	96.56
343.665	88.56
343.893	97.56
344.12	86.56
344.348	90.56
344.576	96.56
344.804	99.56
345.031	110.56
345.259	105.56
345.487	112.56
345.714	100.56
345.942	107.56
346.17	86.56
346.397	97.56
346.625	110.56
346.853	90.56
347.08	104.56
347.308	101.56
347.535	99.56
347.763	97.56
347.99	122.56
348.218	114.56
348.445	150.56
348.673	122.56
348.9	92.56
349.128	98.56
349.355	93.56
349.583	108.56
349.81	107.56
350.037	101.56
350.265	96.56
350.492	102.56
350.72	86.56
350.947	104.56
351.174	124.56
351.402	135.56
351.629	119.56
351.856	124.56
352.083	128.56
352.311	128.56
352.538	124.56
352.765	142.56
352.992	110.56
353.22	123.56
353.447	114.56
353.674	106.56
353.901	101.56
354.128	104.56
354.355	91.56
354.583	97.56
354.81	89.56
355.037	70.56
355.264	89.56
355.491	91.56
355.718	102.56
355.945	73.56
356.172	71.56
356.399	81.56
356.626	86.56
356.853	99.56
357.08	81.56
357.307	88.56
357.534	89.56
357.761	84.56
357.988	86.56
358.215	95.56
358.441	78.56
358.668	92.56
358.895	81.56
359.122	82.56
359.349	96.56
359.576	82.56
359.802	132.56
360.029	180.56
360.256	164.56
360.483	116.56
360.709	94.56
360.936	100.56
361.163	108.56
361.39	111.56
361.616	115.56
361.843	90.56
362.07	101.56
362.296	121.56
362.523	91.56
362.749	93.56
362.976	91.56
363.203	99.56
363.429	84.56
363.656	102.56
363.882	84.56
364.109	97.56
364.335	90.56
364.562	92.56
364.788	102.56
365.015	87.56
365.241	115.56
365.468	128.56
365.694	114.56
365.92	104.56
366.147	85.56
366.373	91.56
366.599	84.56
366.826	81.56
367.052	84.56
367.278	106.56
367.505	90.56
367.731	79.56
367.957	105.56
368.184	92.56
368.41	110.56
368.636	139.56
368.862	146.56
369.089	121.56
369.315	101.56
369.541	102.56
369.767	91.56
369.993	91.56
370.219	87.56
370.445	94.56
370.672	85.56
370.898	79.56
371.124	96.56
371.35	91.56
371.576	71.56
371.802	72.56
372.028	84.56
372.254	94.56
372.48	85.56
372.706	81.56
372.932	75.56
373.158	77.56
373.384	79.56
373.61	104.56
373.835	91.56
374.061	93.56
374.287	93.56
374.513	94.56
374.739	87.56
374.965	92.56
375.191	82.56
375.416	69.56
375.642	93.56
375.868	83.56
376.094	100.56
376.319	87.56
376.545	89.56
376.771	67.56
376.997	98.56
377.222	80.56
377.448	103.56
377.674	93.56
377.899	79.56
378.125	70.56
378.35	99.56
378.576	91.56
378.802	89.56
379.027	76.56
379.253	76.56
379.478	93.56
379.704	79.56
379.929	81.56
380.155	83.56
380.38	86.56
380.606	96.56
380.831	90.56
381.057	93.56
381.282	82.56
381.507	90.56
381.733	96.56
381.958	82.56
382.184	86.56
382.409	102.56
382.634	94.56
382.86	82.56
383.085	96.56
383.31	91.56
383.535	98.56
383.761	93.56
383.986	90.56
384.211	90.56
384.436	96.56
384.662	95.56
384.887	102.56
385.112	103.56
385.337	99.56
385.562	101.56
385.787	100.56
386.013	116.56
386.238	119.56
386.463	111.56
386.688	106.56
386.913	101.56
387.138	102.56
387.363	94.56
387.588	95.56
387.813	101.56
388.038	92.56
388.263	96.56
388.488	103.56
388.713	90.56
388.938	89.56
389.163	84.56
389.387	88.56
389.612	97.56
389.837	81.56
390.062	83.56
390.287	70.56
390.512	67.56
390.736	77.56
390.961	82.56
391.186	94.56
391.411	98.56
391.636	89.56
391.86	76.56
392.085	80.56
392.31	94.56
392.534	88.56
392.759	86.56
392.984	79.56
393.208	78.56
393.433	91.56
393.658	94.56
393.882	90.56
394.107	88.56
394.331	75.56
394.556	77.56
394.78	81.56
395.005	86.56
395.229	93.56
395.454	89.56
395.678	75.56
395.903	78.56
396.127	89.56
396.352	88.56
396.576	88.56
396.801	76.56
397.025	85.56
397.249	85.56
397.474	84.56
397.698	91.56
397.922	92.56
398.147	94.56
398.371	83.56
398.595	83.56
398.82	72.56
399.044	76.56
399.268	80.56
399.492	77.56
399.717	81.56
399.941	92.56
400.165	102.56
400.389	88.56
400.613	82.56
400.837	87.56
401.062	94.56
401.286	85.56
401.51	96.56
401.734	93.56
401.958	109.56
402.182	164.56
402.406	222.56
402.63	176.56
402.854	103.56
403.078	102.56
403.302	74.56
403.526	99.56
403.75	92.56
403.974	90.56
404.198	80.56
404.422	103.56
404.645	98.56
404.869	105.56
405.093	138.56
405.317	179.56
405.541	156.56
405.765	139.56
405.988	146.56
406.212	274.56
406.436	392.56
406.66	263.56
406.883	131.56
407.107	102.56
407.331	110.56
407.555	131.56
407.778	110.56
408.002	93.56
408.226	96.56
408.449	95.56
408.673	91.56
408.896	92.56
409.12	110.56
409.344	105.56
409.567	60.56
409.791	75.56
410.014	79.56
410.238	79.56
410.461	105.56
410.685	98.56
410.908	99.56
411.132	97.56
411.355	117.56
411.578	99.56
411.802	99.56
412.025	92.56
412.249	103.56
412.472	140.56
412.695	154.56
412.919	123.56
413.142	112.56
413.365	100.56
413.589	78.56
413.812	86.56
414.035	95.56
414.258	89.56
414.482	70.56
414.705	90.56
414.928	75.56
415.151	79.56
415.374	87.56
415.597	92.56
415.821	93.56
416.044	107.56
416.267	90.56
416.49	91.56
416.713	97.56
416.936	85.56
417.159	90.56
417.382	112.56
417.605	115.56
417.828	117.56
418.051	119.56
418.274	88.56
418.497	92.56
418.72	91.56
418.943	88.56
419.166	63.56
419.389	82.56
419.611	88.56
419.834	84.56
420.057	91.56
420.28	95.56
420.503	88.56
420.726	95.56
420.948	111.56
421.171	112.56
421.394	106.56
421.617	86.56
421.839	88.56
422.062	87.56
422.285	107.56
422.507	101.56
422.73	125.56
422.953	86.56
423.175	84.56
423.398	84.56
423.621	86.56
423.843	77.56
424.066	98.56
424.288	87.56
424.511	100.56
424.733	109.56
424.956	127.56
425.178	116.56
425.401	134.56
425.623	120.56
425.846	99.56
426.068	99.56
426.291	89.56
426.513	97.56
426.735	104.56
426.958	115.56
427.18	134.56
427.402	217.56
427.625	352.56
427.847	354.56
428.069	351.56
428.292	168.56
428.514	109.56
428.736	102.56
428.958	94.56
429.181	85.56
429.403	79.56
429.625	98.56
429.847	103.56
430.069	127.56
430.292	91.56
430.514	99.56
430.736	91.56
430.958	92.56
431.18	93.56
431.402	74.56
431.624	88.56
431.846	77.56
432.068	84.56
432.29	70.56
432.512	80.56
432.734	84.56
432.956	94.56
433.178	109.56
433.4	108.56
433.622	88.56
433.844	97.56
434.066	96.56
434.287	106.56
434.509	75.56
434.731	91.56
434.953	92.56
435.175	90.56
435.397	87.56
435.618	103.56
435.84	107.56
436.062	176.56
436.284	127.56
436.505	117.56
436.727	127.56
436.949	104.56
437.17	90.56
437.392	90.56
437.614	105.56
437.835	151.56
438.057	182.56
438.278	148.56
438.5	140.56
438.721	176.56
438.943	116.56
439.165	82.56
439.386	83.56
439.608	97.56
439.829	139.56
440.05	202.56
440.272	255.56
440.493	131.56
440.715	84.56
440.936	74.56
441.158	93.56
441.379	96.56
441.6	106.56
441.822	126.56
442.043	119.56
442.264	141.56
442.486	123.56
442.707	90.56
442.928	127.56
443.149	206.56
443.371	212.56
443.592	156.56
443.813	146.56
444.034	121.56
444.255	88.56
444.476	82.56
444.698	84.56
444.919	82.56
445.14	141.56
445.361	152.56
445.582	177.56
445.803	262.56
446.024	234.56
446.245	208.56
446.466	151.56
446.687	103.56
446.908	82.56
447.129	93.56
447.35	98.56
447.571	91.56
447.792	101.56
448.013	120.56
448.234	130.56
448.455	119.56
448.675	151.56
448.896	161.56
449.117	116.56
449.338	123.56
449.559	176.56
449.779	187.56
450	106.56
450.221	103.56
450.442	95.56
450.662	115.56
450.883	158.56
451.104	162.56
451.324	109.56
451.545	92.56
451.766	90.56
451.986	84.56
452.207	92.56
452.428	100.56
452.648	122.56
452.869	124.56
453.089	152.56
453.31	158.56
453.53	99.56
453.751	97.56
453.971	135.56
454.192	148.56
454.412	108.56
454.633	85.56
454.853	82.56
455.073	75.56
455.294	99.56
455.514	116.56
455.734	96.56
455.955	85.56
456.175	82.56
456.395	82.56
456.616	71.56
456.836	73.56
457.056	84.56
457.276	85.56
457.497	86.56
457.717	79.56
457.937	85.56
458.157	105.56
458.377	110.56
458.598	146.56
458.818	263.56
459.038	297.56
459.258	182.56
459.478	108.56
459.698	100.56
459.918	88.56
460.138	77.56
460.358	96.56
460.578	80.56
460.798	96.56
461.018	99.56
461.238	76.56
461.458	76.56
461.678	91.56
461.898	84.56
462.118	85.56
462.338	90.56
462.558	88.56
462.777	73.56
462.997	117.56
463.217	124.56
463.437	103.56
463.657	71.56
463.876	80.56
464.096	94.56
464.316	100.56
464.536	113.56
464.755	108.56
464.975	122.56
465.195	308.56
465.414	319.56
465.634	119.56
465.854	98.56
466.073	95.56
466.293	86.56
466.512	83.56
466.732	87.56
466.951	90.56
467.171	114.56
467.391	124.56
467.61	176.56
467.829	297.56
468.049	896.56
468.268	1390.56
468.488	326.56
468.707	116.56
468.927	103.56
469.146	87.56
469.365	102.56
469.585	83.56
469.804	130.56
470.023	125.56
470.243	102.56
470.462	122.56
470.681	150.56
470.901	133.56
471.12	110.56
471.339	109.56
471.558	146.56
471.777	194.56
471.997	452.56
472.216	1786.56
472.435	4286.56
472.654	891.56
472.873	223.56
473.092	115.56
473.311	109.56
473.53	105.56
473.749	95.56
473.968	110.56
474.187	134.56
474.406	109.56
474.625	94.56
474.844	91.56
475.063	101.56
475.282	89.56
475.501	86.56
475.72	102.56
475.939	86.56
476.158	86.56
476.377	89.56
476.596	100.56
476.814	111.56
477.033	101.56
477.252	82.56
477.471	98.56
477.69	100.56
477.908	101.56
478.127	84.56
478.346	85.56
478.564	101.56
478.783	126.56
479.002	109.56
479.22	96.56
479.439	126.56
479.658	150.56
479.876	151.56
480.095	130.56
480.313	178.56
480.532	200.56
480.751	399.56
480.969	1622.56
481.188	7204.56
481.406	4101.56
481.624	552.56
481.843	180.56
482.061	132.56
482.28	110.56
482.498	90.56
482.717	88.56
482.935	102.56
483.153	98.56
483.372	91.56
483.59	99.56
483.808	93.56
484.027	91.56
484.245	102.56
484.463	100.56
484.681	104.56
484.9	86.56
485.118	103.56
485.336	96.56
485.554	93.56
485.772	121.56
485.99	98.56
486.209	115.56
486.427	109.56
486.645	123.56
486.863	135.56
487.081	108.56
487.299	94.56
487.517	103.56
487.735	96.56
487.953	99.56
488.171	87.56
488.389	106.56
488.607	105.56
488.825	88.56
489.043	84.56
489.261	81.56
489.479	82.56
489.696	87.56
489.914	93.56
490.132	90.56
490.35	84.56
490.568	94.56
490.786	67.56
491.003	91.56
491.221	100.56
491.439	103.56
491.657	87.56
491.874	95.56
492.092	84.56
492.31	96.56
492.527	117.56
492.745	92.56
492.963	81.56
493.18	86.56
493.398	94.56
493.615	100.56
493.833	103.56
494.05	95.56
494.268	90.56
494.485	98.56
494.703	80.56
494.92	91.56
495.138	89.56
495.355	92.56
495.573	101.56
495.79	76.56
496.008	91.56
496.225	94.56
496.442	79.56
496.66	87.56
496.877	79.56
497.094	83.56
497.312	78.56
497.529	88.56
497.746	95.56
497.963	85.56
498.181	100.56
498.398	103.56
498.615	123.56
498.832	104.56
499.049	100.56
499.267	86.56
499.484	87.56
499.701	86.56
499.918	93.56
500.135	76.56
500.352	88.56
500.569	102.56
500.786	94.56
501.003	76.56
501.22	96.56
501.437	82.56
501.654	95.56
501.871	144.56
502.088	114.56
502.305	96.56
502.522	74.56
502.739	71.56
502.956	95.56
503.172	93.56
503.389	106.56
503.606	131.56
503.823	117.56
504.04	98.56
504.256	97.56
504.473	90.56
504.69	92.56
504.907	91.56
505.123	89.56
505.34	93.56
505.557	95.56
505.773	82.56
505.99	95.56
506.207	76.56
506.423	86.56
506.64	72.56
506.856	85.56
507.073	92.56
507.289	92.56
507.506	115.56
507.722	146.56
507.939	146.56
508.155	101.56
508.372	100.56
508.588	86.56
508.805	98.56
509.021	102.56
509.238	107.56
509.454	102.56
509.67	100.56
509.887	108.56
510.103	125.56
510.319	270.56
510.536	1087.56
510.752	3960.56
510.968	1046.56
511.184	202.56
511.401	150.56
511.617	133.56
511.833	130.56
512.049	112.56
512.265	96.56
