Data from Circ_1995_H10_HRD10591_00030.txt Node
Date: Wed Jan 03 11:36:52 EST 2024
User: Yrep
Spectrometer: HR+D1059
Trigger mode: 1
Integration Time (sec): 1.000000E-1
Scans to average: 1
Electric dark correction enabled: true
Nonlinearity correction enabled: false
Boxcar width: 0
XAxis mode: Wavelengths
Number of Pixels in Spectrum: 2048
>>>>>Begin Spectral Data<<<<<
223.165	-3.62
223.4	-3.62
223.635	-3.62
223.869	-10.62
224.104	-17.62
224.338	-15.62
224.573	-14.62
224.808	-12.62
225.042	-14.62
225.277	3.38
225.511	-1.62
225.746	2.38
225.98	-0.62
226.215	6.38
226.449	17.38
226.683	15.38
226.918	23.38
227.152	23.38
227.387	34.38
227.621	56.38
227.856	43.38
228.09	32.38
228.324	54.38
228.559	46.38
228.793	49.38
229.027	64.38
229.262	64.38
229.496	79.38
229.73	95.38
229.964	80.38
230.199	64.38
230.433	78.38
230.667	87.38
230.901	81.38
231.136	79.38
231.37	86.38
231.604	83.38
231.838	90.38
232.072	83.38
232.306	82.38
232.541	84.38
232.775	78.38
233.009	82.38
233.243	66.38
233.477	90.38
233.711	84.38
233.945	91.38
234.179	82.38
234.413	72.38
234.647	73.38
234.881	80.38
235.115	63.38
235.349	80.38
235.583	87.38
235.817	79.38
236.051	78.38
236.285	82.38
236.519	61.38
236.753	81.38
236.987	88.38
237.221	87.38
237.455	93.38
237.689	90.38
237.922	72.38
238.156	76.38
238.39	90.38
238.624	67.38
238.858	73.38
239.091	76.38
239.325	94.38
239.559	79.38
239.793	79.38
240.027	74.38
240.26	99.38
240.494	82.38
240.728	75.38
240.961	90.38
241.195	81.38
241.429	65.38
241.662	74.38
241.896	76.38
242.13	79.38
242.363	90.38
242.597	86.38
242.83	78.38
243.064	83.38
243.298	82.38
243.531	71.38
243.765	70.38
243.998	95.38
244.232	83.38
244.465	95.38
244.699	83.38
244.932	78.38
245.166	76.38
245.399	78.38
245.633	79.38
245.866	74.38
246.099	59.38
246.333	87.38
246.566	74.38
246.8	72.38
247.033	81.38
247.266	89.38
247.5	75.38
247.733	73.38
247.966	75.38
248.2	87.38
248.433	73.38
248.666	73.38
248.899	89.38
249.133	89.38
249.366	100.38
249.599	114.38
249.832	91.38
250.066	79.38
250.299	96.38
250.532	86.38
250.765	78.38
250.998	75.38
251.231	79.38
251.465	74.38
251.698	87.38
251.931	99.38
252.164	63.38
252.397	80.38
252.63	83.38
252.863	75.38
253.096	82.38
253.329	77.38
253.562	80.38
253.795	74.38
254.028	80.38
254.261	87.38
254.494	70.38
254.727	74.38
254.96	83.38
255.193	74.38
255.426	85.38
255.659	86.38
255.892	100.38
256.124	107.38
256.357	96.38
256.59	71.38
256.823	90.38
257.056	90.38
257.289	82.38
257.521	90.38
257.754	80.38
257.987	83.38
258.22	104.38
258.452	96.38
258.685	104.38
258.918	78.38
259.151	82.38
259.383	80.38
259.616	85.38
259.849	74.38
260.081	77.38
260.314	80.38
260.547	94.38
260.779	91.38
261.012	101.38
261.244	96.38
261.477	108.38
261.71	96.38
261.942	127.38
262.175	160.38
262.407	100.38
262.64	85.38
262.872	93.38
263.105	86.38
263.337	75.38
263.57	77.38
263.802	83.38
264.035	84.38
264.267	88.38
264.499	74.38
264.732	87.38
264.964	62.38
265.197	70.38
265.429	79.38
265.661	71.38
265.894	84.38
266.126	95.38
266.358	81.38
266.591	90.38
266.823	90.38
267.055	74.38
267.287	92.38
267.52	84.38
267.752	92.38
267.984	80.38
268.216	86.38
268.448	87.38
268.681	79.38
268.913	81.38
269.145	85.38
269.377	94.38
269.609	66.38
269.841	99.38
270.073	84.38
270.306	89.38
270.538	84.38
270.77	100.38
271.002	89.38
271.234	88.38
271.466	98.38
271.698	78.38
271.93	80.38
272.162	87.38
272.394	101.38
272.626	86.38
272.858	92.38
273.09	84.38
273.322	84.38
273.553	91.38
273.785	79.38
274.017	89.38
274.249	94.38
274.481	83.38
274.713	97.38
274.945	87.38
275.176	91.38
275.408	104.38
275.64	94.38
275.872	116.38
276.104	105.38
276.335	104.38
276.567	107.38
276.799	136.38
277.031	185.38
277.262	200.38
277.494	160.38
277.726	90.38
277.957	99.38
278.189	87.38
278.421	79.38
278.652	93.38
278.884	88.38
279.115	98.38
279.347	102.38
279.579	112.38
279.81	117.38
280.042	196.38
280.273	281.38
280.505	215.38
280.736	112.38
280.968	102.38
281.199	93.38
281.431	106.38
281.662	90.38
281.894	83.38
282.125	107.38
282.356	138.38
282.588	169.38
282.819	131.38
283.051	100.38
283.282	91.38
283.513	87.38
283.745	94.38
283.976	97.38
284.207	94.38
284.439	94.38
284.67	93.38
284.901	84.38
285.132	106.38
285.364	98.38
285.595	76.38
285.826	74.38
286.057	95.38
286.288	95.38
286.52	89.38
286.751	86.38
286.982	84.38
287.213	88.38
287.444	78.38
287.675	95.38
287.906	105.38
288.138	96.38
288.369	102.38
288.6	93.38
288.831	86.38
289.062	86.38
289.293	104.38
289.524	80.38
289.755	85.38
289.986	90.38
290.217	87.38
290.448	82.38
290.679	77.38
290.91	84.38
291.141	84.38
291.371	94.38
291.602	79.38
291.833	106.38
292.064	77.38
292.295	87.38
292.526	96.38
292.757	102.38
292.987	82.38
293.218	77.38
293.449	88.38
293.68	86.38
293.91	76.38
294.141	92.38
294.372	92.38
294.603	88.38
294.833	88.38
295.064	89.38
295.295	91.38
295.525	91.38
295.756	83.38
295.987	125.38
296.217	181.38
296.448	154.38
296.679	103.38
296.909	83.38
297.14	86.38
297.37	93.38
297.601	106.38
297.831	88.38
298.062	94.38
298.292	102.38
298.523	92.38
298.753	93.38
298.984	88.38
299.214	79.38
299.445	95.38
299.675	94.38
299.905	102.38
300.136	100.38
300.366	73.38
300.597	88.38
300.827	78.38
301.057	115.38
301.288	99.38
301.518	94.38
301.748	90.38
301.979	106.38
302.209	90.38
302.439	104.38
302.669	93.38
302.9	91.38
303.13	102.38
303.36	92.38
303.59	111.38
303.82	157.38
304.051	114.38
304.281	88.38
304.511	99.38
304.741	95.38
304.971	89.38
305.201	85.38
305.431	87.38
305.661	82.38
305.891	84.38
306.121	89.38
306.352	116.38
306.582	126.38
306.812	108.38
307.042	126.38
307.272	161.38
307.502	187.38
307.731	169.38
307.961	132.38
308.191	106.38
308.421	108.38
308.651	97.38
308.881	86.38
309.111	91.38
309.341	86.38
309.571	86.38
309.8	110.38
310.03	102.38
310.26	94.38
310.49	98.38
310.72	106.38
310.949	123.38
311.179	119.38
311.409	96.38
311.639	101.38
311.868	99.38
312.098	110.38
312.328	89.38
312.557	108.38
312.787	128.38
313.017	119.38
313.246	117.38
313.476	103.38
313.706	91.38
313.935	112.38
314.165	119.38
314.394	121.38
314.624	106.38
314.853	106.38
315.083	97.38
315.312	92.38
315.542	90.38
315.771	98.38
316.001	95.38
316.23	93.38
316.46	97.38
316.689	100.38
316.919	91.38
317.148	87.38
317.377	109.38
317.607	99.38
317.836	99.38
318.065	93.38
318.295	103.38
318.524	83.38
318.753	93.38
318.983	96.38
319.212	99.38
319.441	115.38
319.67	118.38
319.9	99.38
320.129	97.38
320.358	106.38
320.587	99.38
320.816	118.38
321.046	102.38
321.275	95.38
321.504	90.38
321.733	94.38
321.962	109.38
322.191	113.38
322.42	119.38
322.649	121.38
322.878	124.38
323.108	130.38
323.337	147.38
323.566	169.38
323.795	194.38
324.024	261.38
324.253	526.38
324.482	1143.38
324.71	2412.38
324.939	3188.38
325.168	1137.38
325.397	312.38
325.626	192.38
325.855	134.38
326.084	160.38
326.313	148.38
326.542	200.38
326.77	300.38
326.999	601.38
327.228	1241.38
327.457	2282.38
327.686	1851.38
327.914	630.38
328.143	570.38
328.372	722.38
328.6	394.38
328.829	210.38
329.058	209.38
329.287	208.38
329.515	171.38
329.744	249.38
329.972	504.38
330.201	1078.38
330.43	1616.38
330.658	732.38
330.887	321.38
331.115	220.38
331.344	131.38
331.572	111.38
331.801	137.38
332.03	134.38
332.258	114.38
332.486	103.38
332.715	112.38
332.943	110.38
333.172	139.38
333.4	139.38
333.629	164.38
333.857	241.38
334.085	468.38
334.314	981.38
334.542	1944.38
334.771	1828.38
334.999	467.38
335.227	185.38
335.455	132.38
335.684	125.38
335.912	114.38
336.14	122.38
336.369	108.38
336.597	129.38
336.825	120.38
337.053	99.38
337.281	88.38
337.51	93.38
337.738	106.38
337.966	91.38
338.194	121.38
338.422	121.38
338.65	103.38
338.878	88.38
339.106	115.38
339.334	97.38
339.562	93.38
339.79	92.38
340.018	99.38
340.246	116.38
340.474	111.38
340.702	97.38
340.93	90.38
341.158	91.38
341.386	95.38
341.614	110.38
341.842	110.38
342.07	102.38
342.298	100.38
342.526	89.38
342.754	87.38
342.981	85.38
343.209	80.38
343.437	103.38
343.665	100.38
343.893	81.38
344.12	98.38
344.348	97.38
344.576	104.38
344.804	96.38
345.031	113.38
345.259	126.38
345.487	109.38
345.714	106.38
345.942	102.38
346.17	94.38
346.397	100.38
346.625	104.38
346.853	90.38
347.08	98.38
347.308	103.38
347.535	116.38
347.763	123.38
347.99	88.38
348.218	104.38
348.445	116.38
348.673	122.38
348.9	108.38
349.128	89.38
349.355	92.38
349.583	101.38
349.81	103.38
350.037	95.38
350.265	93.38
350.492	100.38
350.72	89.38
350.947	98.38
351.174	122.38
351.402	126.38
351.629	102.38
351.856	106.38
352.083	119.38
352.311	128.38
352.538	134.38
352.765	134.38
352.992	109.38
353.22	118.38
353.447	124.38
353.674	103.38
353.901	94.38
354.128	95.38
354.355	96.38
354.583	91.38
354.81	90.38
355.037	94.38
355.264	95.38
355.491	95.38
355.718	84.38
355.945	71.38
356.172	90.38
356.399	94.38
356.626	100.38
356.853	98.38
357.08	83.38
357.307	95.38
357.534	83.38
357.761	90.38
357.988	104.38
358.215	87.38
358.441	93.38
358.668	88.38
358.895	86.38
359.122	91.38
359.349	85.38
359.576	105.38
359.802	117.38
360.029	134.38
360.256	149.38
360.483	119.38
360.709	96.38
360.936	97.38
361.163	108.38
361.39	104.38
361.616	111.38
361.843	98.38
362.07	108.38
362.296	107.38
362.523	99.38
362.749	92.38
362.976	105.38
363.203	84.38
363.429	91.38
363.656	73.38
363.882	87.38
364.109	102.38
364.335	93.38
364.562	94.38
364.788	86.38
365.015	107.38
365.241	107.38
365.468	116.38
365.694	136.38
365.92	104.38
366.147	98.38
366.373	93.38
366.599	96.38
366.826	80.38
367.052	100.38
367.278	103.38
367.505	94.38
367.731	106.38
367.957	88.38
368.184	96.38
368.41	114.38
368.636	121.38
368.862	139.38
369.089	110.38
369.315	96.38
369.541	96.38
369.767	95.38
369.993	98.38
370.219	103.38
370.445	97.38
370.672	92.38
370.898	86.38
371.124	100.38
371.35	85.38
371.576	83.38
371.802	79.38
372.028	89.38
372.254	101.38
372.48	92.38
372.706	91.38
372.932	71.38
373.158	86.38
373.384	82.38
373.61	84.38
373.835	89.38
374.061	98.38
374.287	110.38
374.513	96.38
374.739	81.38
374.965	74.38
375.191	98.38
375.416	105.38
375.642	86.38
375.868	99.38
376.094	95.38
376.319	80.38
376.545	90.38
376.771	107.38
376.997	78.38
377.222	96.38
377.448	86.38
377.674	84.38
377.899	94.38
378.125	99.38
378.35	98.38
378.576	80.38
378.802	86.38
379.027	102.38
379.253	93.38
379.478	98.38
379.704	87.38
379.929	92.38
380.155	89.38
380.38	94.38
380.606	114.38
380.831	101.38
381.057	97.38
381.282	96.38
381.507	98.38
381.733	94.38
381.958	108.38
382.184	97.38
382.409	107.38
382.634	106.38
382.86	112.38
383.085	113.38
383.31	102.38
383.535	107.38
383.761	107.38
383.986	105.38
384.211	110.38
384.436	104.38
384.662	101.38
384.887	108.38
385.112	105.38
385.337	94.38
385.562	111.38
385.787	110.38
386.013	105.38
386.238	135.38
386.463	121.38
386.688	115.38
386.913	105.38
387.138	114.38
387.363	95.38
387.588	102.38
387.813	114.38
388.038	115.38
388.263	121.38
388.488	114.38
388.713	87.38
388.938	96.38
389.163	84.38
389.387	85.38
389.612	96.38
389.837	97.38
390.062	96.38
390.287	94.38
390.512	93.38
390.736	98.38
390.961	78.38
391.186	81.38
391.411	86.38
391.636	90.38
391.86	92.38
392.085	87.38
392.31	83.38
392.534	87.38
392.759	82.38
392.984	86.38
393.208	79.38
393.433	78.38
393.658	104.38
393.882	98.38
394.107	82.38
394.331	83.38
394.556	91.38
394.78	95.38
395.005	73.38
395.229	86.38
395.454	91.38
395.678	79.38
395.903	93.38
396.127	79.38
396.352	87.38
396.576	79.38
396.801	78.38
397.025	87.38
397.249	91.38
397.474	81.38
397.698	74.38
397.922	104.38
398.147	102.38
398.371	91.38
398.595	94.38
398.82	86.38
399.044	74.38
399.268	87.38
399.492	92.38
399.717	86.38
399.941	94.38
400.165	103.38
400.389	89.38
400.613	76.38
400.837	103.38
401.062	88.38
401.286	88.38
401.51	90.38
401.734	97.38
401.958	111.38
402.182	155.38
402.406	217.38
402.63	135.38
402.854	98.38
403.078	82.38
403.302	92.38
403.526	89.38
403.75	95.38
403.974	97.38
404.198	86.38
404.422	92.38
404.645	93.38
404.869	101.38
405.093	124.38
405.317	148.38
405.541	145.38
405.765	109.38
405.988	141.38
406.212	227.38
406.436	343.38
406.66	211.38
406.883	112.38
407.107	104.38
407.331	89.38
407.555	109.38
407.778	109.38
408.002	99.38
408.226	86.38
408.449	88.38
408.673	94.38
408.896	103.38
409.12	100.38
409.344	95.38
409.567	92.38
409.791	91.38
410.014	100.38
410.238	87.38
410.461	99.38
410.685	101.38
410.908	103.38
411.132	91.38
411.355	94.38
411.578	98.38
411.802	96.38
412.025	104.38
412.249	91.38
412.472	126.38
412.695	148.38
412.919	113.38
413.142	90.38
413.365	101.38
413.589	103.38
413.812	85.38
414.035	99.38
414.258	99.38
414.482	96.38
414.705	98.38
414.928	77.38
415.151	89.38
415.374	72.38
415.597	82.38
415.821	97.38
416.044	100.38
416.267	98.38
416.49	76.38
416.713	81.38
416.936	96.38
417.159	91.38
417.382	110.38
417.605	95.38
417.828	107.38
418.051	105.38
418.274	97.38
418.497	82.38
418.72	87.38
418.943	88.38
419.166	99.38
419.389	98.38
419.611	96.38
419.834	91.38
420.057	102.38
420.28	104.38
420.503	90.38
420.726	83.38
420.948	84.38
421.171	98.38
421.394	96.38
421.617	99.38
421.839	97.38
422.062	84.38
422.285	97.38
422.507	104.38
422.73	104.38
422.953	93.38
423.175	98.38
423.398	80.38
423.621	100.38
423.843	80.38
424.066	91.38
424.288	92.38
424.511	85.38
424.733	100.38
424.956	127.38
425.178	119.38
425.401	114.38
425.623	107.38
425.846	103.38
426.068	112.38
426.291	95.38
426.513	91.38
426.735	92.38
426.958	114.38
427.18	126.38
427.402	191.38
427.625	284.38
427.847	270.38
428.069	237.38
428.292	125.38
428.514	99.38
428.736	94.38
428.958	76.38
429.181	107.38
429.403	87.38
429.625	87.38
429.847	92.38
430.069	97.38
430.292	91.38
430.514	79.38
430.736	81.38
430.958	75.38
431.18	79.38
431.402	91.38
431.624	91.38
431.846	81.38
432.068	94.38
432.29	84.38
432.512	85.38
432.734	88.38
432.956	92.38
433.178	98.38
433.4	99.38
433.622	109.38
433.844	95.38
434.066	87.38
434.287	81.38
434.509	88.38
434.731	80.38
434.953	90.38
435.175	87.38
435.397	100.38
435.618	89.38
435.84	109.38
436.062	151.38
436.284	121.38
436.505	122.38
436.727	102.38
436.949	102.38
437.17	92.38
437.392	90.38
437.614	87.38
437.835	121.38
438.057	161.38
438.278	146.38
438.5	129.38
438.721	152.38
438.943	107.38
439.165	104.38
439.386	99.38
439.608	95.38
439.829	119.38
440.05	163.38
440.272	204.38
440.493	122.38
440.715	104.38
440.936	92.38
441.158	95.38
441.379	90.38
441.6	97.38
441.822	110.38
442.043	114.38
442.264	129.38
442.486	116.38
442.707	92.38
442.928	125.38
443.149	179.38
443.371	176.38
443.592	134.38
443.813	143.38
444.034	129.38
444.255	107.38
444.476	109.38
444.698	91.38
444.919	106.38
445.14	157.38
445.361	140.38
445.582	148.38
445.803	181.38
446.024	177.38
446.245	174.38
446.466	131.38
446.687	87.38
446.908	91.38
447.129	91.38
447.35	94.38
447.571	101.38
447.792	92.38
448.013	110.38
448.234	119.38
448.455	116.38
448.675	136.38
448.896	135.38
449.117	83.38
449.338	102.38
449.559	142.38
449.779	150.38
450	109.38
450.221	91.38
450.442	78.38
450.662	114.38
450.883	128.38
451.104	168.38
451.324	102.38
451.545	91.38
451.766	96.38
451.986	83.38
452.207	92.38
452.428	98.38
452.648	116.38
452.869	108.38
453.089	144.38
453.31	154.38
453.53	102.38
453.751	105.38
453.971	134.38
454.192	148.38
454.412	97.38
454.633	105.38
454.853	86.38
455.073	88.38
455.294	96.38
455.514	134.38
455.734	91.38
455.955	88.38
456.175	84.38
456.395	90.38
456.616	96.38
456.836	79.38
457.056	78.38
457.276	85.38
457.497	76.38
457.717	86.38
457.937	95.38
458.157	97.38
458.377	95.38
458.598	130.38
458.818	234.38
459.038	265.38
459.258	163.38
459.478	108.38
459.698	89.38
459.918	79.38
460.138	90.38
460.358	89.38
460.578	80.38
460.798	80.38
461.018	94.38
461.238	77.38
461.458	78.38
461.678	103.38
461.898	93.38
462.118	99.38
462.338	87.38
462.558	91.38
462.777	107.38
462.997	107.38
463.217	119.38
463.437	94.38
463.657	88.38
463.876	83.38
464.096	100.38
464.316	108.38
464.536	91.38
464.755	104.38
464.975	130.38
465.195	244.38
465.414	250.38
465.634	118.38
465.854	79.38
466.073	84.38
466.293	94.38
466.512	77.38
466.732	89.38
466.951	94.38
467.171	89.38
467.391	114.38
467.61	178.38
467.829	226.38
468.049	591.38
468.268	923.38
468.488	240.38
468.707	117.38
468.927	90.38
469.146	92.38
469.365	85.38
469.585	97.38
469.804	107.38
470.023	123.38
470.243	120.38
470.462	122.38
470.681	141.38
470.901	99.38
471.12	105.38
471.339	113.38
471.558	131.38
471.777	162.38
471.997	307.38
472.216	1180.38
472.435	2754.38
472.654	637.38
472.873	169.38
473.092	108.38
473.311	106.38
473.53	114.38
473.749	93.38
473.968	90.38
474.187	126.38
474.406	104.38
474.625	80.38
474.844	105.38
475.063	75.38
475.282	97.38
475.501	104.38
475.72	104.38
475.939	98.38
476.158	105.38
476.377	78.38
476.596	97.38
476.814	94.38
477.033	99.38
477.252	88.38
477.471	88.38
477.69	91.38
477.908	99.38
478.127	83.38
478.346	106.38
478.564	103.38
478.783	113.38
479.002	113.38
479.22	103.38
479.439	130.38
479.658	145.38
479.876	127.38
480.095	113.38
480.313	129.38
480.532	175.38
480.751	291.38
480.969	1052.38
481.188	4770.38
481.406	2637.38
481.624	392.38
481.843	150.38
482.061	112.38
482.28	95.38
482.498	100.38
482.717	102.38
482.935	81.38
483.153	98.38
483.372	94.38
483.59	90.38
483.808	93.38
484.027	92.38
484.245	80.38
484.463	104.38
484.681	97.38
484.9	90.38
485.118	87.38
485.336	100.38
485.554	96.38
485.772	106.38
485.99	110.38
486.209	112.38
486.427	107.38
486.645	114.38
486.863	137.38
487.081	115.38
487.299	110.38
487.517	100.38
487.735	90.38
487.953	79.38
488.171	94.38
488.389	89.38
488.607	104.38
488.825	106.38
489.043	106.38
489.261	95.38
489.479	93.38
489.696	88.38
489.914	80.38
490.132	90.38
490.35	103.38
490.568	92.38
490.786	100.38
491.003	83.38
491.221	90.38
491.439	98.38
491.657	90.38
491.874	83.38
492.092	113.38
492.31	104.38
492.527	81.38
492.745	114.38
492.963	88.38
493.18	95.38
493.398	94.38
493.615	99.38
493.833	95.38
494.05	97.38
494.268	88.38
494.485	89.38
494.703	91.38
494.92	87.38
495.138	88.38
495.355	85.38
495.573	94.38
495.79	91.38
496.008	84.38
496.225	92.38
496.442	88.38
496.66	94.38
496.877	107.38
497.094	88.38
497.312	95.38
497.529	97.38
497.746	94.38
497.963	93.38
498.181	92.38
498.398	98.38
498.615	120.38
498.832	112.38
499.049	105.38
499.267	95.38
499.484	92.38
499.701	105.38
499.918	78.38
500.135	101.38
500.352	94.38
500.569	95.38
500.786	95.38
501.003	86.38
501.22	82.38
501.437	95.38
501.654	96.38
501.871	114.38
502.088	96.38
502.305	87.38
502.522	89.38
502.739	91.38
502.956	96.38
503.172	81.38
503.389	105.38
503.606	126.38
503.823	91.38
504.04	96.38
504.256	90.38
504.473	100.38
504.69	86.38
504.907	88.38
505.123	94.38
505.34	80.38
505.557	101.38
505.773	90.38
505.99	96.38
506.207	93.38
506.423	93.38
506.64	93.38
506.856	100.38
507.073	89.38
507.289	94.38
507.506	104.38
507.722	142.38
507.939	144.38
508.155	109.38
508.372	94.38
508.588	93.38
508.805	100.38
509.021	93.38
509.238	93.38
509.454	108.38
509.67	104.38
509.887	108.38
510.103	154.38
510.319	234.38
510.536	963.38
510.752	3410.38
510.968	894.38
511.184	176.38
511.401	136.38
511.617	115.38
511.833	91.38
512.049	106.38
512.265	97.38
512.481	94.38
512.698	105.38
