Data from Circ_1995_H10_HRD10591_00017.txt Node
Date: Wed Jan 03 11:36:50 EST 2024
User: Yrep
Spectrometer: HR+D1059
Trigger mode: 1
Integration Time (sec): 1.000000E-1
Scans to average: 1
Electric dark correction enabled: true
Nonlinearity correction enabled: false
Boxcar width: 0
XAxis mode: Wavelengths
Number of Pixels in Spectrum: 2048
>>>>>Begin Spectral Data<<<<<
223.165	-21
223.4	-21
223.635	-21
223.869	-12
224.104	-31
224.338	-31
224.573	-25
224.808	-4
225.042	-11
225.277	-1
225.511	0
225.746	1
225.98	13
226.215	27
226.449	14
226.683	17
226.918	30
227.152	34
227.387	31
227.621	43
227.856	29
228.09	51
228.324	61
228.559	47
228.793	58
229.027	57
229.262	66
229.496	65
229.73	104
229.964	100
230.199	74
230.433	82
230.667	92
230.901	75
231.136	77
231.37	82
231.604	85
231.838	85
232.072	86
232.306	84
232.541	87
232.775	80
233.009	92
233.243	91
233.477	76
233.711	79
233.945	87
234.179	66
234.413	65
234.647	73
234.881	91
235.115	84
235.349	84
235.583	81
235.817	82
236.051	84
236.285	76
236.519	82
236.753	81
236.987	85
237.221	98
237.455	114
237.689	85
237.922	84
238.156	74
238.39	88
238.624	77
238.858	84
239.091	80
239.325	93
239.559	85
239.793	96
240.027	96
240.26	90
240.494	73
240.728	78
240.961	75
241.195	91
241.429	78
241.662	82
241.896	82
242.13	83
242.363	88
242.597	89
242.83	81
243.064	96
243.298	89
243.531	81
243.765	80
243.998	80
244.232	75
244.465	86
244.699	67
244.932	87
245.166	80
245.399	69
245.633	71
245.866	79
246.099	77
246.333	88
246.566	80
246.8	84
247.033	82
247.266	73
247.5	84
247.733	88
247.966	96
248.2	96
248.433	80
248.666	82
248.899	96
249.133	87
249.366	113
249.599	115
249.832	93
250.066	90
250.299	90
250.532	84
250.765	87
250.998	85
251.231	81
251.465	88
251.698	79
251.931	82
252.164	89
252.397	84
252.63	84
252.863	79
253.096	99
253.329	83
253.562	92
253.795	80
254.028	77
254.261	80
254.494	88
254.727	81
254.96	68
255.193	83
255.426	91
255.659	83
255.892	86
256.124	87
256.357	93
256.59	93
256.823	86
257.056	95
257.289	92
257.521	89
257.754	71
257.987	86
258.22	88
258.452	98
258.685	99
258.918	82
259.151	82
259.383	84
259.616	86
259.849	76
260.081	84
260.314	76
260.547	107
260.779	102
261.012	119
261.244	115
261.477	100
261.71	110
261.942	159
262.175	159
262.407	114
262.64	107
262.872	93
263.105	94
263.337	92
263.57	91
263.802	79
264.035	89
264.267	69
264.499	86
264.732	95
264.964	89
265.197	98
265.429	87
265.661	89
265.894	86
266.126	78
266.358	75
266.591	84
266.823	83
267.055	83
267.287	98
267.52	86
267.752	77
267.984	84
268.216	93
268.448	80
268.681	88
268.913	80
269.145	89
269.377	74
269.609	78
269.841	84
270.073	81
270.306	77
270.538	85
270.77	77
271.002	72
271.234	92
271.466	106
271.698	87
271.93	98
272.162	75
272.394	88
272.626	104
272.858	84
273.09	87
273.322	96
273.553	89
273.785	90
274.017	83
274.249	107
274.481	95
274.713	87
274.945	101
275.176	87
275.408	107
275.64	132
275.872	138
276.104	129
276.335	115
276.567	121
276.799	171
277.031	211
277.262	236
277.494	161
277.726	99
277.957	84
278.189	104
278.421	93
278.652	89
278.884	111
279.115	94
279.347	104
279.579	109
279.81	170
280.042	242
280.273	332
280.505	219
280.736	109
280.968	102
281.199	97
281.431	102
281.662	87
281.894	95
282.125	117
282.356	145
282.588	197
282.819	162
283.051	109
283.282	98
283.513	99
283.745	94
283.976	90
284.207	78
284.439	100
284.67	81
284.901	94
285.132	91
285.364	73
285.595	86
285.826	98
286.057	78
286.288	97
286.52	79
286.751	88
286.982	98
287.213	94
287.444	95
287.675	77
287.906	105
288.138	98
288.369	108
288.6	111
288.831	100
289.062	92
289.293	86
289.524	86
289.755	88
289.986	85
290.217	79
290.448	90
290.679	93
290.91	82
291.141	71
291.371	82
291.602	85
291.833	77
292.064	84
292.295	96
292.526	91
292.757	93
292.987	85
293.218	78
293.449	88
293.68	85
293.91	93
294.141	104
294.372	90
294.603	91
294.833	94
295.064	104
295.295	91
295.525	98
295.756	104
295.987	151
296.217	203
296.448	167
296.679	110
296.909	90
297.14	88
297.37	80
297.601	88
297.831	93
298.062	90
298.292	93
298.523	95
298.753	87
298.984	100
299.214	96
299.445	92
299.675	104
299.905	101
300.136	99
300.366	94
300.597	98
300.827	104
301.057	115
301.288	126
301.518	106
301.748	112
301.979	126
302.209	109
302.439	98
302.669	87
302.9	100
303.13	100
303.36	115
303.59	135
303.82	186
304.051	136
304.281	100
304.511	98
304.741	90
304.971	92
305.201	102
305.431	97
305.661	103
305.891	95
306.121	106
306.352	122
306.582	133
306.812	115
307.042	121
307.272	196
307.502	207
307.731	219
307.961	147
308.191	114
308.421	90
308.651	93
308.881	84
309.111	87
309.341	110
309.571	111
309.8	109
310.03	104
310.26	121
310.49	113
310.72	120
310.949	131
311.179	121
311.409	116
311.639	127
311.868	123
312.098	110
312.328	119
312.557	126
312.787	115
313.017	118
313.246	100
313.476	96
313.706	111
313.935	111
314.165	114
314.394	119
314.624	105
314.853	123
315.083	103
315.312	89
315.542	97
315.771	87
316.001	93
316.23	108
316.46	107
316.689	92
316.919	95
317.148	102
317.377	103
317.607	110
317.836	112
318.065	97
318.295	94
318.524	90
318.753	115
318.983	102
319.212	121
319.441	134
319.67	134
319.9	109
320.129	106
320.358	107
320.587	92
320.816	107
321.046	119
321.275	112
321.504	92
321.733	104
321.962	102
322.191	127
322.42	129
322.649	124
322.878	139
323.108	145
323.337	164
323.566	189
323.795	206
324.024	285
324.253	556
324.482	1230
324.71	2539
324.939	3409
325.168	1245
325.397	343
325.626	201
325.855	173
326.084	155
326.313	171
326.542	184
326.77	293
326.999	611
327.228	1268
327.457	2380
327.686	1957
327.914	683
328.143	660
328.372	903
328.6	502
328.829	230
329.058	233
329.287	257
329.515	213
329.744	308
329.972	591
330.201	1274
330.43	1901
330.658	836
330.887	378
331.115	243
331.344	138
331.572	140
331.801	155
332.03	136
332.258	135
332.486	104
332.715	122
332.943	135
333.172	132
333.4	154
333.629	181
333.857	262
334.085	526
334.314	1100
334.542	2251
334.771	2240
334.999	543
335.227	199
335.455	135
335.684	131
335.912	119
336.14	115
336.369	112
336.597	135
336.825	117
337.053	103
337.281	105
337.51	101
337.738	91
337.966	111
338.194	119
338.422	123
338.65	102
338.878	96
339.106	94
339.334	96
339.562	91
339.79	107
340.018	105
340.246	120
340.474	118
340.702	104
340.93	100
341.158	99
341.386	113
341.614	119
341.842	111
342.07	103
342.298	98
342.526	108
342.754	92
342.981	99
343.209	105
343.437	92
343.665	84
343.893	88
344.12	101
344.348	93
344.576	84
344.804	110
345.031	105
345.259	122
345.487	107
345.714	109
345.942	93
346.17	91
346.397	82
346.625	107
346.853	101
347.08	99
347.308	121
347.535	106
347.763	119
347.99	101
348.218	123
348.445	124
348.673	119
348.9	112
349.128	122
349.355	100
349.583	98
349.81	91
350.037	104
350.265	102
350.492	87
350.72	106
350.947	118
351.174	116
351.402	143
351.629	118
351.856	109
352.083	131
352.311	152
352.538	151
352.765	136
352.992	128
353.22	130
353.447	96
353.674	103
353.901	103
354.128	95
354.355	117
354.583	106
354.81	88
355.037	101
355.264	90
355.491	99
355.718	90
355.945	85
356.172	100
356.399	93
356.626	96
356.853	84
357.08	91
357.307	96
357.534	101
357.761	104
357.988	95
358.215	97
358.441	96
358.668	86
358.895	94
359.122	100
359.349	91
359.576	103
359.802	148
360.029	177
360.256	172
360.483	132
360.709	83
360.936	100
361.163	116
361.39	120
361.616	132
361.843	107
362.07	110
362.296	122
362.523	98
362.749	98
362.976	104
363.203	94
363.429	105
363.656	111
363.882	95
364.109	88
364.335	114
364.562	95
364.788	97
365.015	115
365.241	128
365.468	144
365.694	136
365.92	113
366.147	108
366.373	88
366.599	93
366.826	81
367.052	108
367.278	99
367.505	88
367.731	105
367.957	91
368.184	85
368.41	125
368.636	151
368.862	139
369.089	139
369.315	123
369.541	111
369.767	100
369.993	100
370.219	107
370.445	94
370.672	88
370.898	84
371.124	89
371.35	84
371.576	80
371.802	84
372.028	90
372.254	91
372.48	107
372.706	80
372.932	100
373.158	94
373.384	95
373.61	112
373.835	111
374.061	102
374.287	88
374.513	100
374.739	97
374.965	88
375.191	82
375.416	95
375.642	99
375.868	106
376.094	109
376.319	98
376.545	91
376.771	92
376.997	102
377.222	92
377.448	101
377.674	105
377.899	103
378.125	96
378.35	110
378.576	93
378.802	89
379.027	98
379.253	102
379.478	89
379.704	108
379.929	103
380.155	112
380.38	106
380.606	112
380.831	97
381.057	106
381.282	115
381.507	98
381.733	115
381.958	100
382.184	106
382.409	109
382.634	109
382.86	108
383.085	114
383.31	112
383.535	116
383.761	104
383.986	105
384.211	113
384.436	108
384.662	110
384.887	114
385.112	117
385.337	117
385.562	107
385.787	118
386.013	138
386.238	160
386.463	133
386.688	114
386.913	123
387.138	119
387.363	104
387.588	100
387.813	119
388.038	125
388.263	141
388.488	124
388.713	102
388.938	92
389.163	99
389.387	106
389.612	107
389.837	100
390.062	96
390.287	93
390.512	101
390.736	80
390.961	92
391.186	91
391.411	86
391.636	80
391.86	83
392.085	79
392.31	88
392.534	83
392.759	102
392.984	90
393.208	77
393.433	87
393.658	96
393.882	81
394.107	94
394.331	79
394.556	83
394.78	84
395.005	91
395.229	87
395.454	96
395.678	85
395.903	98
396.127	107
396.352	89
396.576	83
396.801	117
397.025	92
397.249	82
397.474	105
397.698	78
397.922	91
398.147	93
398.371	80
398.595	90
398.82	83
399.044	89
399.268	92
399.492	91
399.717	73
399.941	90
400.165	89
400.389	96
400.613	79
400.837	92
401.062	103
401.286	98
401.51	112
401.734	100
401.958	106
402.182	181
402.406	244
402.63	194
402.854	101
403.078	105
403.302	96
403.526	108
403.75	93
403.974	95
404.198	100
404.422	96
404.645	96
404.869	122
405.093	146
405.317	152
405.541	159
405.765	140
405.988	164
406.212	284
406.436	440
406.66	265
406.883	139
407.107	112
407.331	115
407.555	128
407.778	120
408.002	112
408.226	97
408.449	98
408.673	102
408.896	94
409.12	96
409.344	91
409.567	98
409.791	93
410.014	95
410.238	101
410.461	88
410.685	116
410.908	80
411.132	103
411.355	110
411.578	105
411.802	108
412.025	84
412.249	111
412.472	117
412.695	149
412.919	125
413.142	89
413.365	91
413.589	95
413.812	96
414.035	113
414.258	100
414.482	104
414.705	94
414.928	96
415.151	97
415.374	97
415.597	91
415.821	93
416.044	94
416.267	84
416.49	94
416.713	80
416.936	95
417.159	95
417.382	115
417.605	113
417.828	136
418.051	116
418.274	101
418.497	85
418.72	89
418.943	92
419.166	98
419.389	105
419.611	107
419.834	93
420.057	86
420.28	91
420.503	100
420.726	93
420.948	102
421.171	108
421.394	90
421.617	99
421.839	94
422.062	88
422.285	92
422.507	106
422.73	119
422.953	100
423.175	91
423.398	99
423.621	99
423.843	96
424.066	83
424.288	102
424.511	103
424.733	124
424.956	121
425.178	128
425.401	114
425.623	103
425.846	108
426.068	98
426.291	104
426.513	104
426.735	91
426.958	101
427.18	130
427.402	204
427.625	314
427.847	295
428.069	227
428.292	135
428.514	99
428.736	101
428.958	90
429.181	89
429.403	83
429.625	96
429.847	98
430.069	107
430.292	100
430.514	76
430.736	75
430.958	92
431.18	82
431.402	80
431.624	75
431.846	85
432.068	80
432.29	69
432.512	96
432.734	89
432.956	88
433.178	116
433.4	103
433.622	95
433.844	90
434.066	104
434.287	95
434.509	94
434.731	108
434.953	97
435.175	95
435.397	99
435.618	89
435.84	122
436.062	130
436.284	123
436.505	115
436.727	106
436.949	88
437.17	99
437.392	100
437.614	112
437.835	135
438.057	185
438.278	141
438.5	127
438.721	139
438.943	112
439.165	91
439.386	80
439.608	94
439.829	124
440.05	151
440.272	209
440.493	122
440.715	95
440.936	95
441.158	88
441.379	99
441.6	109
441.822	120
442.043	101
442.264	123
442.486	119
442.707	117
442.928	141
443.149	199
443.371	223
443.592	140
443.813	148
444.034	117
444.255	101
444.476	91
444.698	92
444.919	100
445.14	140
445.361	143
445.582	142
445.803	191
446.024	192
446.245	201
446.466	155
446.687	103
446.908	96
447.129	89
447.35	97
447.571	105
447.792	109
448.013	117
448.234	142
448.455	130
448.675	145
448.896	144
449.117	111
449.338	97
449.559	159
449.779	156
450	108
450.221	103
450.442	98
450.662	112
450.883	143
451.104	159
451.324	125
451.545	97
451.766	88
451.986	100
452.207	104
452.428	104
452.648	119
452.869	148
453.089	147
453.31	174
453.53	112
453.751	111
453.971	135
454.192	177
454.412	108
454.633	99
454.853	100
455.073	93
455.294	99
455.514	115
455.734	94
455.955	81
456.175	83
456.395	100
456.616	95
456.836	89
457.056	100
457.276	89
457.497	99
457.717	110
457.937	88
458.157	99
458.377	113
458.598	145
458.818	281
459.038	314
459.258	178
459.478	104
459.698	88
459.918	106
460.138	82
460.358	83
460.578	84
460.798	94
461.018	100
461.238	93
461.458	104
461.678	97
461.898	93
462.118	101
462.338	96
462.558	91
462.777	101
462.997	99
463.217	122
463.437	98
463.657	116
463.876	94
464.096	93
464.316	101
464.536	107
464.755	119
464.975	153
465.195	286
465.414	307
465.634	137
465.854	107
466.073	96
466.293	84
466.512	105
466.732	100
466.951	94
467.171	111
467.391	105
467.61	165
467.829	257
468.049	731
468.268	1135
468.488	283
468.707	121
468.927	115
469.146	98
469.365	97
469.585	105
469.804	116
470.023	117
470.243	116
470.462	131
470.681	165
470.901	125
471.12	98
471.339	110
471.558	137
471.777	157
471.997	365
472.216	1361
472.435	3408
472.654	751
472.873	196
473.092	115
473.311	120
473.53	86
473.749	100
473.968	108
474.187	143
474.406	116
474.625	100
474.844	95
475.063	99
475.282	98
475.501	96
475.72	100
475.939	94
476.158	99
476.377	96
476.596	89
476.814	111
477.033	111
477.252	100
477.471	96
477.69	98
477.908	96
478.127	99
478.346	99
478.564	118
478.783	116
479.002	116
479.22	121
479.439	135
479.658	170
479.876	137
480.095	107
480.313	155
480.532	185
480.751	327
480.969	1214
481.188	5573
481.406	3271
481.624	457
481.843	160
482.061	112
482.28	113
482.498	110
482.717	112
482.935	91
483.153	97
483.372	87
483.59	95
483.808	91
484.027	94
484.245	105
484.463	101
484.681	107
484.9	89
485.118	112
485.336	98
485.554	107
485.772	99
485.99	116
486.209	106
486.427	121
486.645	135
486.863	135
487.081	135
487.299	103
487.517	111
487.735	95
487.953	98
488.171	100
488.389	103
488.607	109
488.825	97
489.043	94
489.261	99
489.479	96
489.696	87
489.914	87
490.132	74
490.35	94
490.568	83
490.786	94
491.003	106
491.221	91
491.439	88
491.657	106
491.874	85
492.092	88
492.31	98
492.527	99
492.745	99
492.963	99
493.18	99
493.398	94
493.615	105
493.833	105
494.05	106
494.268	97
494.485	103
494.703	89
494.92	99
495.138	92
495.355	94
495.573	111
495.79	92
496.008	105
496.225	93
496.442	96
496.66	88
496.877	99
497.094	103
497.312	113
497.529	107
497.746	111
497.963	97
498.181	120
498.398	98
498.615	135
498.832	104
499.049	99
499.267	87
499.484	94
499.701	105
499.918	87
500.135	88
500.352	84
500.569	77
500.786	107
501.003	88
501.22	92
501.437	99
501.654	129
501.871	138
502.088	97
502.305	95
502.522	93
502.739	84
502.956	85
503.172	88
503.389	114
503.606	157
503.823	126
504.04	91
504.256	108
504.473	94
504.69	93
504.907	87
505.123	95
505.34	80
505.557	95
505.773	87
505.99	87
506.207	85
506.423	99
506.64	98
506.856	92
507.073	103
507.289	113
507.506	108
507.722	155
507.939	155
508.155	99
508.372	96
508.588	104
508.805	100
509.021	98
509.238	117
509.454	111
509.67	124
509.887	119
510.103	172
510.319	269
510.536	1127
510.752	4200
510.968	1106
511.184	205
511.401	146
511.617	106
511.833	114
512.049	107
512.265	91
512.481	113
512.698	106
512.914	95
513.13	101
513.346	98
513.562	116
513.778	107
513.994	140
514.21	130
514.426	184
514.642	225
514.858	199
515.074	296
515.29	1000
515.506	3818
515.721	1295
515.937	275
516.153	157
516.369	133
516.585	118
516.801	122
517.016	99
517.232	100
517.448	111
517.664	99
517.879	116
518.095	112
518.311	118
518.527	126
518.742	113
518.958	99
519.173	109
519.389	112
519.605	100
519.82	106
520.036	138
520.251	172
520.467	162
520.682	137
520.898	139
521.113	174
521.329	243
521.544	396
521.76	1313
521.975	6303
522.19	3735
522.406	703
522.621	204
522.836	138
523.052	113
523.267	112
523.482	111
523.698	112
523.913	157
524.128	157
524.343	108
524.559	98
524.774	114
524.989	105
525.204	149
525.419	124
525.634	99
525.849	87
526.064	95
526.28	100
526.495	94
526.71	93
526.925	94
527.14	95
527.355	95
527.57	108
527.785	106
527.999	106
528.214	98
528.429	97
528.644	100
528.859	90
529.074	101
529.289	185
529.503	367
529.718	132
529.933	89
530.148	90
530.363	92
530.577	103
530.792	77
531.007	99
531.221	92
531.436	92
531.651	87
531.865	105
532.08	82
532.295	101
532.509	91
532.724	85
532.938	101
533.153	97
533.367	102
533.582	93
533.796	87
534.011	87
534.225	96
534.44	90
534.654	89
534.868	96
535.083	106
535.297	104
535.511	130
535.726	139
535.94	109
536.154	110
536.369	97
536.583	98
536.797	100
537.011	87
537.225	107
537.44	88
537.654	88
537.868	102
538.082	103
538.296	99
538.51	104
538.724	87
538.938	100
539.153	111
539.367	143
539.581	101
539.795	99
540.009	89
540.222	84
540.436	90
540.65	99
540.864	115
541.078	105
541.292	88
541.506	113
541.72	98
541.934	98
542.147	83
542.361	95
542.575	97
542.789	88
543.002	89
543.216	120
543.43	111
543.644	96
543.857	98
544.071	99
544.285	94
544.498	111
544.712	100
544.925	97
545.139	92
545.352	90
545.566	92
545.779	69
545.993	92
546.206	88
546.42	93
546.633	94
546.847	99
547.06	79
547.274	89
547.487	80
547.7	69
547.914	69
548.127	83
548.34	98
548.554	92
548.767	87
548.98	86
549.193	92
549.407	92
549.62	83
549.833	95
550.046	100
550.259	91
550.473	91
550.686	101
550.899	107
551.112	88
551.325	83
551.538	95
551.751	82
551.964	88
552.177	101
552.39	90
552.603	88
552.816	87
553.029	99
553.242	103
553.455	111
553.667	124
553.88	135
554.093	106
554.306	118
554.519	143
554.732	98
554.944	76
555.157	98
555.37	83
555.583	89
555.795	110
556.008	90
556.221	85
556.433	95
556.646	89
556.859	96
557.071	85
557.284	99
557.496	107
557.709	75
557.921	100
558.134	86
558.346	103
558.559	101
558.771	78
558.984	76
559.196	92
559.409	108
559.621	88
559.833	99
560.046	93
560.258	120
560.47	155
560.683	93
560.895	89
561.107	105
561.32	100
561.532	95
561.744	98
561.956	88
562.168	96
562.381	105
562.593	96
562.805	87
563.017	95
563.229	96
563.441	92
563.653	87
563.865	76
564.077	94
564.289	98
564.501	97
564.713	86
564.925	102
565.137	114
565.349	100
565.561	104
565.773	95
565.985	86
566.197	91
566.408	95
566.62	90
566.832	91
567.044	93
567.255	83
567.467	98
567.679	94
567.891	89
568.102	99
568.314	98
568.526	87
568.737	109
568.949	82
569.161	90
569.372	98
569.584	98
569.795	107
570.007	146
570.218	378
570.43	182
570.641	109
570.853	85
571.064	96
571.276	87
571.487	98
571.698	82
571.91	102
572.121	101
572.333	95
572.544	96
572.755	88
572.966	95
573.178	92
573.389	106
573.6	83
573.811	88
574.023	85
574.234	85
574.445	101
574.656	98
574.867	86
575.078	89
575.289	88
575.501	113
575.712	93
575.923	89
576.134	90
576.345	98
576.556	104
576.767	105
576.978	98
