Data from Circ_1995_H10_HRD10591_00065.txt Node
Date: Wed Jan 03 11:36:59 EST 2024
User: Yrep
Spectrometer: HR+D1059
Trigger mode: 1
Integration Time (sec): 1.000000E-1
Scans to average: 1
Electric dark correction enabled: true
Nonlinearity correction enabled: false
Boxcar width: 0
XAxis mode: Wavelengths
Number of Pixels in Spectrum: 2048
>>>>>Begin Spectral Data<<<<<
223.165	-21.5
223.4	-21.5
223.635	-21.5
223.869	-29.5
224.104	-26.5
224.338	-7.5
224.573	-18.5
224.808	-6.5
225.042	-10.5
225.277	-11.5
225.511	4.5
225.746	1.5
225.98	16.5
226.215	15.5
226.449	9.5
226.683	22.5
226.918	24.5
227.152	37.5
227.387	29.5
227.621	20.5
227.856	47.5
228.09	38.5
228.324	60.5
228.559	45.5
228.793	63.5
229.027	61.5
229.262	87.5
229.496	83.5
229.73	100.5
229.964	116.5
230.199	77.5
230.433	87.5
230.667	88.5
230.901	73.5
231.136	71.5
231.37	80.5
231.604	84.5
231.838	74.5
232.072	88.5
232.306	71.5
232.541	76.5
232.775	93.5
233.009	88.5
233.243	68.5
233.477	90.5
233.711	88.5
233.945	93.5
234.179	86.5
234.413	71.5
234.647	63.5
234.881	88.5
235.115	95.5
235.349	78.5
235.583	81.5
235.817	79.5
236.051	75.5
236.285	91.5
236.519	94.5
236.753	81.5
236.987	88.5
237.221	84.5
237.455	83.5
237.689	85.5
237.922	79.5
238.156	84.5
238.39	83.5
238.624	82.5
238.858	70.5
239.091	79.5
239.325	79.5
239.559	82.5
239.793	91.5
240.027	95.5
240.26	87.5
240.494	80.5
240.728	95.5
240.961	80.5
241.195	88.5
241.429	75.5
241.662	73.5
241.896	81.5
242.13	87.5
242.363	63.5
242.597	88.5
242.83	69.5
243.064	68.5
243.298	91.5
243.531	82.5
243.765	91.5
243.998	77.5
244.232	88.5
244.465	96.5
244.699	82.5
244.932	81.5
245.166	85.5
245.399	78.5
245.633	84.5
245.866	77.5
246.099	82.5
246.333	92.5
246.566	66.5
246.8	80.5
247.033	77.5
247.266	92.5
247.5	88.5
247.733	84.5
247.966	78.5
248.2	79.5
248.433	87.5
248.666	89.5
248.899	88.5
249.133	99.5
249.366	105.5
249.599	106.5
249.832	81.5
250.066	91.5
250.299	84.5
250.532	99.5
250.765	83.5
250.998	93.5
251.231	99.5
251.465	78.5
251.698	97.5
251.931	81.5
252.164	92.5
252.397	82.5
252.63	87.5
252.863	82.5
253.096	82.5
253.329	85.5
253.562	94.5
253.795	81.5
254.028	83.5
254.261	85.5
254.494	90.5
254.727	81.5
254.96	75.5
255.193	81.5
255.426	82.5
255.659	92.5
255.892	102.5
256.124	85.5
256.357	100.5
256.59	94.5
256.823	97.5
257.056	91.5
257.289	101.5
257.521	89.5
257.754	89.5
257.987	99.5
258.22	97.5
258.452	103.5
258.685	84.5
258.918	82.5
259.151	91.5
259.383	87.5
259.616	79.5
259.849	100.5
260.081	82.5
260.314	94.5
260.547	91.5
260.779	108.5
261.012	111.5
261.244	116.5
261.477	95.5
261.71	105.5
261.942	153.5
262.175	165.5
262.407	106.5
262.64	89.5
262.872	80.5
263.105	77.5
263.337	84.5
263.57	80.5
263.802	77.5
264.035	89.5
264.267	85.5
264.499	91.5
264.732	85.5
264.964	81.5
265.197	110.5
265.429	104.5
265.661	79.5
265.894	84.5
266.126	78.5
266.358	79.5
266.591	85.5
266.823	81.5
267.055	88.5
267.287	81.5
267.52	89.5
267.752	78.5
267.984	80.5
268.216	97.5
268.448	94.5
268.681	82.5
268.913	85.5
269.145	72.5
269.377	82.5
269.609	93.5
269.841	95.5
270.073	85.5
270.306	82.5
270.538	100.5
270.77	87.5
271.002	94.5
271.234	89.5
271.466	105.5
271.698	97.5
271.93	87.5
272.162	92.5
272.394	107.5
272.626	87.5
272.858	91.5
273.09	87.5
273.322	85.5
273.553	100.5
273.785	98.5
274.017	88.5
274.249	77.5
274.481	80.5
274.713	93.5
274.945	96.5
275.176	111.5
275.408	96.5
275.64	122.5
275.872	141.5
276.104	114.5
276.335	114.5
276.567	132.5
276.799	178.5
277.031	231.5
277.262	248.5
277.494	209.5
277.726	121.5
277.957	82.5
278.189	97.5
278.421	100.5
278.652	108.5
278.884	91.5
279.115	97.5
279.347	105.5
279.579	116.5
279.81	165.5
280.042	270.5
280.273	397.5
280.505	240.5
280.736	133.5
280.968	106.5
281.199	107.5
281.431	98.5
281.662	79.5
281.894	86.5
282.125	102.5
282.356	155.5
282.588	207.5
282.819	136.5
283.051	105.5
283.282	87.5
283.513	95.5
283.745	85.5
283.976	103.5
284.207	101.5
284.439	95.5
284.67	91.5
284.901	109.5
285.132	91.5
285.364	81.5
285.595	107.5
285.826	91.5
286.057	88.5
286.288	79.5
286.52	77.5
286.751	81.5
286.982	84.5
287.213	92.5
287.444	90.5
287.675	78.5
287.906	95.5
288.138	85.5
288.369	108.5
288.6	111.5
288.831	94.5
289.062	106.5
289.293	84.5
289.524	91.5
289.755	97.5
289.986	85.5
290.217	86.5
290.448	87.5
290.679	88.5
290.91	105.5
291.141	103.5
291.371	103.5
291.602	81.5
291.833	86.5
292.064	105.5
292.295	92.5
292.526	88.5
292.757	92.5
292.987	98.5
293.218	79.5
293.449	97.5
293.68	83.5
293.91	90.5
294.141	96.5
294.372	105.5
294.603	100.5
294.833	99.5
295.064	97.5
295.295	89.5
295.525	88.5
295.756	139.5
295.987	117.5
296.217	169.5
296.448	155.5
296.679	108.5
296.909	85.5
297.14	91.5
297.37	93.5
297.601	86.5
297.831	99.5
298.062	107.5
298.292	93.5
298.523	100.5
298.753	84.5
298.984	80.5
299.214	88.5
299.445	90.5
299.675	103.5
299.905	94.5
300.136	81.5
300.366	96.5
300.597	110.5
300.827	101.5
301.057	112.5
301.288	110.5
301.518	97.5
301.748	105.5
301.979	120.5
302.209	113.5
302.439	101.5
302.669	105.5
302.9	104.5
303.13	108.5
303.36	116.5
303.59	152.5
303.82	163.5
304.051	109.5
304.281	102.5
304.511	92.5
304.741	100.5
304.971	98.5
305.201	88.5
305.431	100.5
305.661	85.5
305.891	93.5
306.121	123.5
306.352	97.5
306.582	141.5
306.812	124.5
307.042	149.5
307.272	190.5
307.502	222.5
307.731	198.5
307.961	151.5
308.191	95.5
308.421	99.5
308.651	100.5
308.881	108.5
309.111	94.5
309.341	95.5
309.571	105.5
309.8	112.5
310.03	105.5
310.26	119.5
310.49	99.5
310.72	117.5
310.949	126.5
311.179	128.5
311.409	110.5
311.639	105.5
311.868	97.5
312.098	96.5
312.328	109.5
312.557	122.5
312.787	128.5
313.017	124.5
313.246	106.5
313.476	104.5
313.706	96.5
313.935	113.5
314.165	116.5
314.394	118.5
314.624	110.5
314.853	107.5
315.083	95.5
315.312	107.5
315.542	101.5
315.771	90.5
316.001	106.5
316.23	82.5
316.46	87.5
316.689	108.5
316.919	106.5
317.148	100.5
317.377	116.5
317.607	118.5
317.836	100.5
318.065	102.5
318.295	105.5
318.524	101.5
318.753	108.5
318.983	118.5
319.212	111.5
319.441	150.5
319.67	122.5
319.9	99.5
320.129	96.5
320.358	102.5
320.587	108.5
320.816	101.5
321.046	125.5
321.275	107.5
321.504	120.5
321.733	109.5
321.962	109.5
322.191	123.5
322.42	140.5
322.649	132.5
322.878	136.5
323.108	161.5
323.337	156.5
323.566	199.5
323.795	200.5
324.024	276.5
324.253	606.5
324.482	1313.5
324.71	2787.5
324.939	3750.5
325.168	1339.5
325.397	345.5
325.626	195.5
325.855	165.5
326.084	146.5
326.313	154.5
326.542	215.5
326.77	303.5
326.999	661.5
327.228	1393.5
327.457	2643.5
327.686	2149.5
327.914	739.5
328.143	764.5
328.372	1023.5
328.6	539.5
328.829	244.5
329.058	233.5
329.287	251.5
329.515	223.5
329.744	333.5
329.972	721.5
330.201	1515.5
330.43	2263.5
330.658	967.5
330.887	391.5
331.115	228.5
331.344	148.5
331.572	155.5
331.801	146.5
332.03	148.5
332.258	134.5
332.486	115.5
332.715	136.5
332.943	141.5
333.172	119.5
333.4	148.5
333.629	185.5
333.857	295.5
334.085	623.5
334.314	1332.5
334.542	2751.5
334.771	2621.5
334.999	633.5
335.227	219.5
335.455	140.5
335.684	129.5
335.912	109.5
336.14	111.5
336.369	122.5
336.597	123.5
336.825	134.5
337.053	96.5
337.281	97.5
337.51	104.5
337.738	111.5
337.966	87.5
338.194	103.5
338.422	101.5
338.65	91.5
338.878	93.5
339.106	96.5
339.334	97.5
339.562	89.5
339.79	101.5
340.018	97.5
340.246	99.5
340.474	114.5
340.702	99.5
340.93	103.5
341.158	86.5
341.386	97.5
341.614	110.5
341.842	113.5
342.07	101.5
342.298	111.5
342.526	90.5
342.754	93.5
342.981	97.5
343.209	93.5
343.437	98.5
343.665	107.5
343.893	92.5
344.12	91.5
344.348	84.5
344.576	88.5
344.804	84.5
345.031	111.5
345.259	107.5
345.487	98.5
345.714	105.5
345.942	97.5
346.17	87.5
346.397	100.5
346.625	100.5
346.853	94.5
347.08	94.5
347.308	107.5
347.535	105.5
347.763	114.5
347.99	105.5
348.218	115.5
348.445	112.5
348.673	121.5
348.9	111.5
349.128	96.5
349.355	92.5
349.583	89.5
349.81	105.5
350.037	108.5
350.265	100.5
350.492	103.5
350.72	96.5
350.947	96.5
351.174	127.5
351.402	125.5
351.629	107.5
351.856	109.5
352.083	111.5
352.311	126.5
352.538	138.5
352.765	126.5
352.992	132.5
353.22	112.5
353.447	112.5
353.674	102.5
353.901	95.5
354.128	101.5
354.355	95.5
354.583	94.5
354.81	103.5
355.037	89.5
355.264	81.5
355.491	89.5
355.718	95.5
355.945	97.5
356.172	100.5
356.399	99.5
356.626	93.5
356.853	90.5
357.08	99.5
357.307	77.5
357.534	82.5
357.761	97.5
357.988	103.5
358.215	95.5
358.441	96.5
358.668	99.5
358.895	88.5
359.122	85.5
359.349	95.5
359.576	100.5
359.802	116.5
360.029	160.5
360.256	141.5
360.483	126.5
360.709	109.5
360.936	99.5
361.163	107.5
361.39	97.5
361.616	107.5
361.843	105.5
362.07	101.5
362.296	120.5
362.523	93.5
362.749	95.5
362.976	100.5
363.203	103.5
363.429	100.5
363.656	107.5
363.882	100.5
364.109	96.5
364.335	98.5
364.562	115.5
364.788	108.5
365.015	104.5
365.241	125.5
365.468	110.5
365.694	128.5
365.92	102.5
366.147	111.5
366.373	93.5
366.599	90.5
366.826	101.5
367.052	104.5
367.278	95.5
367.505	80.5
367.731	108.5
367.957	91.5
368.184	106.5
368.41	110.5
368.636	140.5
368.862	139.5
369.089	128.5
369.315	106.5
369.541	93.5
369.767	96.5
369.993	92.5
370.219	104.5
370.445	89.5
370.672	101.5
370.898	101.5
371.124	102.5
371.35	101.5
371.576	94.5
371.802	87.5
372.028	95.5
372.254	92.5
372.48	93.5
372.706	92.5
372.932	98.5
373.158	85.5
373.384	95.5
373.61	82.5
373.835	82.5
374.061	84.5
374.287	88.5
374.513	99.5
374.739	88.5
374.965	98.5
375.191	82.5
375.416	89.5
375.642	91.5
375.868	92.5
376.094	94.5
376.319	99.5
376.545	85.5
376.771	84.5
376.997	102.5
377.222	88.5
377.448	91.5
377.674	99.5
377.899	90.5
378.125	93.5
378.35	87.5
378.576	84.5
378.802	91.5
379.027	87.5
379.253	95.5
379.478	98.5
379.704	94.5
379.929	98.5
380.155	98.5
380.38	106.5
380.606	100.5
380.831	80.5
381.057	101.5
381.282	91.5
381.507	106.5
381.733	111.5
381.958	103.5
382.184	83.5
382.409	104.5
382.634	105.5
382.86	98.5
383.085	97.5
383.31	116.5
383.535	98.5
383.761	105.5
383.986	99.5
384.211	81.5
384.436	101.5
384.662	107.5
384.887	106.5
385.112	109.5
385.337	98.5
385.562	117.5
385.787	106.5
386.013	118.5
386.238	144.5
386.463	129.5
386.688	122.5
386.913	99.5
387.138	104.5
387.363	101.5
387.588	116.5
387.813	111.5
388.038	102.5
388.263	107.5
388.488	105.5
388.713	102.5
388.938	87.5
389.163	95.5
389.387	80.5
389.612	97.5
389.837	112.5
390.062	91.5
390.287	85.5
390.512	90.5
390.736	95.5
390.961	95.5
391.186	85.5
391.411	87.5
391.636	81.5
391.86	78.5
392.085	96.5
392.31	94.5
392.534	84.5
392.759	89.5
392.984	76.5
393.208	94.5
393.433	75.5
393.658	91.5
393.882	90.5
394.107	87.5
394.331	90.5
394.556	91.5
394.78	95.5
395.005	77.5
395.229	92.5
395.454	89.5
395.678	83.5
395.903	90.5
396.127	97.5
396.352	84.5
396.576	93.5
396.801	88.5
397.025	80.5
397.249	89.5
397.474	107.5
397.698	83.5
397.922	87.5
398.147	97.5
398.371	95.5
398.595	82.5
398.82	68.5
399.044	101.5
399.268	96.5
399.492	93.5
399.717	85.5
399.941	93.5
400.165	101.5
400.389	102.5
400.613	93.5
400.837	109.5
401.062	101.5
401.286	101.5
401.51	103.5
401.734	97.5
401.958	109.5
402.182	172.5
402.406	242.5
402.63	163.5
402.854	108.5
403.078	103.5
403.302	92.5
403.526	105.5
403.75	110.5
403.974	87.5
404.198	87.5
404.422	89.5
404.645	106.5
404.869	107.5
405.093	141.5
405.317	169.5
405.541	160.5
405.765	129.5
405.988	153.5
406.212	228.5
406.436	364.5
406.66	233.5
406.883	139.5
407.107	123.5
407.331	107.5
407.555	115.5
407.778	110.5
408.002	93.5
408.226	89.5
408.449	79.5
408.673	96.5
408.896	95.5
409.12	103.5
409.344	95.5
409.567	79.5
409.791	92.5
410.014	96.5
410.238	95.5
410.461	82.5
410.685	83.5
410.908	89.5
411.132	121.5
411.355	108.5
411.578	104.5
411.802	98.5
412.025	83.5
412.249	105.5
412.472	122.5
412.695	155.5
412.919	116.5
413.142	108.5
413.365	100.5
413.589	94.5
413.812	98.5
414.035	95.5
414.258	112.5
414.482	114.5
414.705	105.5
414.928	91.5
415.151	93.5
415.374	95.5
415.597	84.5
415.821	96.5
416.044	99.5
416.267	85.5
416.49	87.5
416.713	86.5
416.936	88.5
417.159	95.5
417.382	113.5
417.605	103.5
417.828	104.5
418.051	110.5
418.274	94.5
418.497	107.5
418.72	91.5
418.943	83.5
419.166	91.5
419.389	92.5
419.611	88.5
419.834	94.5
420.057	93.5
420.28	91.5
420.503	88.5
420.726	108.5
420.948	109.5
421.171	113.5
421.394	101.5
421.617	80.5
421.839	89.5
422.062	94.5
422.285	95.5
422.507	93.5
422.73	122.5
422.953	103.5
423.175	92.5
423.398	96.5
423.621	105.5
423.843	93.5
424.066	97.5
424.288	85.5
424.511	99.5
424.733	111.5
424.956	135.5
425.178	109.5
425.401	126.5
425.623	111.5
425.846	93.5
426.068	113.5
426.291	101.5
426.513	99.5
426.735	103.5
426.958	110.5
427.18	107.5
427.402	221.5
427.625	336.5
427.847	318.5
428.069	292.5
428.292	161.5
428.514	110.5
428.736	84.5
428.958	108.5
429.181	85.5
429.403	100.5
429.625	91.5
429.847	101.5
430.069	105.5
430.292	91.5
430.514	81.5
430.736	84.5
430.958	91.5
431.18	83.5
431.402	94.5
431.624	97.5
431.846	87.5
432.068	86.5
432.29	99.5
432.512	93.5
432.734	94.5
432.956	97.5
433.178	108.5
433.4	108.5
433.622	104.5
433.844	90.5
434.066	85.5
434.287	92.5
434.509	107.5
434.731	98.5
434.953	103.5
435.175	94.5
435.397	99.5
435.618	105.5
435.84	113.5
436.062	152.5
436.284	148.5
436.505	124.5
436.727	112.5
436.949	93.5
437.17	103.5
437.392	96.5
437.614	109.5
437.835	137.5
438.057	170.5
438.278	157.5
438.5	118.5
438.721	152.5
438.943	121.5
439.165	96.5
439.386	97.5
439.608	86.5
439.829	121.5
440.05	180.5
440.272	228.5
440.493	115.5
440.715	89.5
440.936	97.5
441.158	99.5
441.379	99.5
441.6	122.5
441.822	119.5
442.043	118.5
442.264	135.5
442.486	122.5
442.707	114.5
442.928	132.5
443.149	196.5
443.371	181.5
443.592	135.5
443.813	140.5
444.034	125.5
444.255	102.5
444.476	92.5
444.698	86.5
444.919	92.5
445.14	149.5
445.361	154.5
445.582	177.5
445.803	232.5
446.024	204.5
446.245	204.5
446.466	162.5
446.687	102.5
446.908	103.5
447.129	94.5
447.35	101.5
447.571	92.5
447.792	99.5
448.013	112.5
448.234	141.5
448.455	123.5
448.675	130.5
448.896	155.5
449.117	100.5
449.338	129.5
449.559	166.5
449.779	162.5
450	100.5
450.221	105.5
450.442	99.5
450.662	110.5
450.883	151.5
451.104	157.5
451.324	105.5
451.545	100.5
451.766	85.5
451.986	92.5
452.207	94.5
452.428	94.5
452.648	101.5
452.869	136.5
453.089	149.5
453.31	162.5
453.53	116.5
453.751	112.5
453.971	124.5
454.192	163.5
454.412	102.5
454.633	93.5
454.853	94.5
455.073	96.5
455.294	96.5
455.514	107.5
455.734	97.5
455.955	81.5
456.175	89.5
456.395	95.5
456.616	84.5
456.836	89.5
457.056	100.5
457.276	94.5
457.497	84.5
457.717	78.5
457.937	88.5
458.157	91.5
458.377	107.5
458.598	144.5
458.818	245.5
459.038	281.5
459.258	177.5
459.478	104.5
459.698	88.5
459.918	93.5
460.138	99.5
460.358	97.5
460.578	93.5
460.798	87.5
461.018	102.5
461.238	99.5
461.458	93.5
461.678	94.5
461.898	106.5
462.118	92.5
462.338	93.5
462.558	83.5
462.777	81.5
462.997	107.5
463.217	129.5
463.437	108.5
463.657	109.5
463.876	108.5
464.096	97.5
464.316	107.5
464.536	108.5
464.755	92.5
464.975	133.5
465.195	281.5
465.414	291.5
465.634	112.5
465.854	101.5
466.073	85.5
466.293	98.5
466.512	97.5
466.732	98.5
466.951	103.5
467.171	97.5
467.391	110.5
467.61	172.5
467.829	290.5
468.049	841.5
468.268	1287.5
468.488	289.5
468.707	120.5
468.927	100.5
469.146	90.5
469.365	88.5
469.585	106.5
469.804	123.5
470.023	123.5
470.243	117.5
470.462	136.5
470.681	184.5
470.901	123.5
471.12	120.5
471.339	121.5
471.558	127.5
471.777	178.5
471.997	396.5
472.216	1599.5
472.435	3875.5
472.654	845.5
472.873	205.5
473.092	130.5
473.311	105.5
473.53	105.5
473.749	107.5
473.968	110.5
474.187	140.5
474.406	123.5
474.625	95.5
474.844	88.5
475.063	102.5
475.282	86.5
475.501	96.5
475.72	84.5
475.939	98.5
476.158	99.5
476.377	89.5
476.596	94.5
476.814	99.5
477.033	110.5
477.252	104.5
477.471	88.5
477.69	107.5
477.908	102.5
478.127	92.5
478.346	100.5
478.564	88.5
478.783	129.5
479.002	107.5
479.22	100.5
479.439	139.5
479.658	141.5
479.876	132.5
480.095	140.5
480.313	162.5
480.532	195.5
480.751	338.5
480.969	1441.5
481.188	6455.5
481.406	3704.5
481.624	489.5
481.843	162.5
482.061	128.5
482.28	113.5
482.498	103.5
482.717	89.5
482.935	106.5
483.153	101.5
483.372	92.5
483.59	94.5
483.808	87.5
484.027	99.5
484.245	99.5
484.463	95.5
484.681	106.5
484.9	92.5
485.118	92.5
485.336	108.5
485.554	90.5
485.772	108.5
485.99	112.5
486.209	128.5
486.427	108.5
486.645	123.5
486.863	140.5
487.081	122.5
487.299	93.5
487.517	114.5
487.735	77.5
487.953	94.5
488.171	83.5
488.389	98.5
488.607	105.5
488.825	94.5
489.043	89.5
489.261	87.5
489.479	102.5
489.696	111.5
489.914	98.5
490.132	98.5
490.35	112.5
490.568	92.5
490.786	95.5
491.003	95.5
491.221	106.5
491.439	101.5
491.657	94.5
491.874	97.5
492.092	99.5
492.31	99.5
492.527	96.5
492.745	108.5
492.963	105.5
493.18	97.5
493.398	101.5
493.615	96.5
493.833	87.5
494.05	97.5
494.268	88.5
494.485	95.5
494.703	77.5
494.92	91.5
495.138	77.5
495.355	86.5
495.573	91.5
495.79	93.5
496.008	85.5
496.225	93.5
496.442	98.5
496.66	86.5
496.877	95.5
497.094	98.5
497.312	87.5
497.529	99.5
497.746	99.5
497.963	97.5
498.181	96.5
498.398	106.5
498.615	122.5
498.832	124.5
499.049	96.5
499.267	96.5
499.484	96.5
499.701	93.5
499.918	98.5
500.135	103.5
500.352	92.5
500.569	98.5
500.786	100.5
501.003	111.5
501.22	98.5
501.437	97.5
501.654	115.5
501.871	127.5
502.088	102.5
502.305	101.5
502.522	99.5
502.739	96.5
502.956	111.5
503.172	85.5
503.389	111.5
503.606	136.5
503.823	116.5
504.04	100.5
504.256	83.5
504.473	84.5
504.69	96.5
504.907	93.5
505.123	91.5
505.34	85.5
505.557	96.5
505.773	97.5
505.99	95.5
506.207	94.5
506.423	91.5
506.64	84.5
506.856	94.5
507.073	95.5
507.289	97.5
507.506	107.5
507.722	147.5
507.939	133.5
508.155	121.5
508.372	105.5
508.588	105.5
508.805	104.5
509.021	91.5
509.238	99.5
509.454	108.5
509.67	94.5
509.887	120.5
510.103	149.5
510.319	252.5
510.536	968.5
510.752	3550.5
510.968	939.5
511.184	203.5
511.401	136.5
511.617	104.5
511.833	111.5
512.049	113.5
512.265	99.5
512.481	96.5
512.698	106.5
512.914	96.5
513.13	94.5
513.346	100.5
513.562	116.5
513.778	101.5
513.994	121.5
514.21	129.5
514.426	156.5
514.642	197.5
514.858	175.5
515.074	267.5
515.29	857.5
515.506	3161.5
515.721	1106.5
515.937	259.5
516.153	170.5
516.369	112.5
516.585	112.5
516.801	116.5
517.016	109.5
517.232	101.5
517.448	108.5
517.664	105.5
517.879	103.5
518.095	110.5
518.311	119.5
518.527	116.5
518.742	92.5
518.958	113.5
519.173	87.5
519.389	122.5
519.605	104.5
519.82	104.5
520.036	121.5
520.251	168.5
520.467	139.5
520.682	143.5
520.898	141.5
521.113	158.5
521.329	213.5
521.544	350.5
521.76	1149.5
521.975	5280.5
522.19	3116.5
522.406	587.5
522.621	203.5
522.836	124.5
523.052	121.5
523.267	102.5
523.482	99.5
523.698	128.5
523.913	157.5
524.128	124.5
524.343	100.5
524.559	99.5
524.774	88.5
524.989	116.5
525.204	130.5
525.419	115.5
525.634	87.5
525.849	82.5
526.064	87.5
526.28	95.5
526.495	77.5
526.71	104.5
526.925	108.5
527.14	96.5
527.355	87.5
527.57	74.5
527.785	100.5
527.999	106.5
528.214	100.5
528.429	91.5
528.644	102.5
528.859	96.5
529.074	99.5
529.289	189.5
529.503	333.5
529.718	146.5
529.933	111.5
