Data from Circ_1995_H10_HRD10591_00031.txt Node
Date: Wed Jan 03 11:36:52 EST 2024
User: Yrep
Spectrometer: HR+D1059
Trigger mode: 1
Integration Time (sec): 1.000000E-1
Scans to average: 1
Electric dark correction enabled: true
Nonlinearity correction enabled: false
Boxcar width: 0
XAxis mode: Wavelengths
Number of Pixels in Spectrum: 2048
>>>>>Begin Spectral Data<<<<<
223.165	-16.5
223.4	-16.5
223.635	-16.5
223.869	-15.5
224.104	-23.5
224.338	-14.5
224.573	-13.5
224.808	-13.5
225.042	-20.5
225.277	-17.5
225.511	5.5
225.746	11.5
225.98	2.5
226.215	7.5
226.449	17.5
226.683	27.5
226.918	26.5
227.152	36.5
227.387	31.5
227.621	27.5
227.856	40.5
228.09	29.5
228.324	38.5
228.559	61.5
228.793	62.5
229.027	67.5
229.262	73.5
229.496	81.5
229.73	108.5
229.964	111.5
230.199	75.5
230.433	76.5
230.667	68.5
230.901	79.5
231.136	79.5
231.37	85.5
231.604	85.5
231.838	77.5
232.072	79.5
232.306	84.5
232.541	85.5
232.775	84.5
233.009	80.5
233.243	84.5
233.477	94.5
233.711	88.5
233.945	79.5
234.179	86.5
234.413	78.5
234.647	69.5
234.881	86.5
235.115	94.5
235.349	81.5
235.583	82.5
235.817	77.5
236.051	84.5
236.285	81.5
236.519	82.5
236.753	89.5
236.987	73.5
237.221	94.5
237.455	96.5
237.689	77.5
237.922	81.5
238.156	77.5
238.39	84.5
238.624	72.5
238.858	97.5
239.091	77.5
239.325	83.5
239.559	82.5
239.793	86.5
240.027	92.5
240.26	82.5
240.494	91.5
240.728	84.5
240.961	96.5
241.195	84.5
241.429	82.5
241.662	79.5
241.896	83.5
242.13	71.5
242.363	85.5
242.597	82.5
242.83	93.5
243.064	79.5
243.298	83.5
243.531	79.5
243.765	84.5
243.998	94.5
244.232	88.5
244.465	83.5
244.699	87.5
244.932	68.5
245.166	82.5
245.399	79.5
245.633	89.5
245.866	81.5
246.099	73.5
246.333	84.5
246.566	95.5
246.8	82.5
247.033	85.5
247.266	92.5
247.5	84.5
247.733	80.5
247.966	81.5
248.2	90.5
248.433	79.5
248.666	86.5
248.899	79.5
249.133	80.5
249.366	109.5
249.599	109.5
249.832	94.5
250.066	93.5
250.299	77.5
250.532	88.5
250.765	87.5
250.998	75.5
251.231	78.5
251.465	86.5
251.698	97.5
251.931	91.5
252.164	88.5
252.397	84.5
252.63	81.5
252.863	93.5
253.096	79.5
253.329	67.5
253.562	100.5
253.795	84.5
254.028	89.5
254.261	85.5
254.494	87.5
254.727	83.5
254.96	95.5
255.193	77.5
255.426	85.5
255.659	86.5
255.892	92.5
256.124	101.5
256.357	99.5
256.59	94.5
256.823	82.5
257.056	81.5
257.289	91.5
257.521	91.5
257.754	80.5
257.987	90.5
258.22	96.5
258.452	101.5
258.685	90.5
258.918	87.5
259.151	82.5
259.383	90.5
259.616	86.5
259.849	79.5
260.081	77.5
260.314	77.5
260.547	96.5
260.779	111.5
261.012	114.5
261.244	119.5
261.477	109.5
261.71	114.5
261.942	146.5
262.175	161.5
262.407	105.5
262.64	81.5
262.872	81.5
263.105	98.5
263.337	84.5
263.57	95.5
263.802	94.5
264.035	93.5
264.267	100.5
264.499	80.5
264.732	88.5
264.964	99.5
265.197	91.5
265.429	90.5
265.661	98.5
265.894	82.5
266.126	88.5
266.358	86.5
266.591	85.5
266.823	94.5
267.055	89.5
267.287	84.5
267.52	87.5
267.752	89.5
267.984	82.5
268.216	92.5
268.448	100.5
268.681	93.5
268.913	83.5
269.145	97.5
269.377	91.5
269.609	85.5
269.841	91.5
270.073	80.5
270.306	83.5
270.538	88.5
270.77	94.5
271.002	100.5
271.234	104.5
271.466	108.5
271.698	95.5
271.93	91.5
272.162	100.5
272.394	93.5
272.626	95.5
272.858	79.5
273.09	91.5
273.322	97.5
273.553	88.5
273.785	92.5
274.017	80.5
274.249	97.5
274.481	75.5
274.713	89.5
274.945	89.5
275.176	97.5
275.408	111.5
275.64	133.5
275.872	141.5
276.104	111.5
276.335	110.5
276.567	121.5
276.799	169.5
277.031	217.5
277.262	252.5
277.494	176.5
277.726	111.5
277.957	99.5
278.189	95.5
278.421	95.5
278.652	101.5
278.884	95.5
279.115	103.5
279.347	104.5
279.579	107.5
279.81	157.5
280.042	263.5
280.273	342.5
280.505	232.5
280.736	128.5
280.968	93.5
281.199	103.5
281.431	107.5
281.662	92.5
281.894	95.5
282.125	112.5
282.356	160.5
282.588	203.5
282.819	148.5
283.051	88.5
283.282	82.5
283.513	89.5
283.745	85.5
283.976	100.5
284.207	103.5
284.439	95.5
284.67	83.5
284.901	82.5
285.132	103.5
285.364	91.5
285.595	96.5
285.826	80.5
286.057	99.5
286.288	83.5
286.52	85.5
286.751	85.5
286.982	101.5
287.213	100.5
287.444	107.5
287.675	93.5
287.906	89.5
288.138	112.5
288.369	80.5
288.6	96.5
288.831	91.5
289.062	97.5
289.293	105.5
289.524	101.5
289.755	74.5
289.986	90.5
290.217	94.5
290.448	84.5
290.679	98.5
290.91	88.5
291.141	79.5
291.371	83.5
291.602	89.5
291.833	99.5
292.064	98.5
292.295	105.5
292.526	82.5
292.757	84.5
292.987	88.5
293.218	87.5
293.449	96.5
293.68	82.5
293.91	87.5
294.141	80.5
294.372	95.5
294.603	90.5
294.833	91.5
295.064	99.5
295.295	101.5
295.525	99.5
295.756	119.5
295.987	132.5
296.217	177.5
296.448	152.5
296.679	108.5
296.909	98.5
297.14	99.5
297.37	82.5
297.601	96.5
297.831	85.5
298.062	112.5
298.292	84.5
298.523	91.5
298.753	87.5
298.984	99.5
299.214	90.5
299.445	92.5
299.675	91.5
299.905	91.5
300.136	90.5
300.366	92.5
300.597	95.5
300.827	98.5
301.057	116.5
301.288	113.5
301.518	100.5
301.748	115.5
301.979	130.5
302.209	105.5
302.439	96.5
302.669	94.5
302.9	90.5
303.13	107.5
303.36	124.5
303.59	136.5
303.82	171.5
304.051	108.5
304.281	107.5
304.511	113.5
304.741	108.5
304.971	97.5
305.201	91.5
305.431	115.5
305.661	98.5
305.891	95.5
306.121	123.5
306.352	112.5
306.582	126.5
306.812	111.5
307.042	147.5
307.272	199.5
307.502	223.5
307.731	195.5
307.961	143.5
308.191	92.5
308.421	85.5
308.651	100.5
308.881	104.5
309.111	92.5
309.341	108.5
309.571	106.5
309.8	120.5
310.03	118.5
310.26	111.5
310.49	116.5
310.72	125.5
310.949	135.5
311.179	121.5
311.409	114.5
311.639	105.5
311.868	104.5
312.098	116.5
312.328	100.5
312.557	119.5
312.787	138.5
313.017	133.5
313.246	101.5
313.476	102.5
313.706	92.5
313.935	112.5
314.165	119.5
314.394	130.5
314.624	130.5
314.853	115.5
315.083	110.5
315.312	94.5
315.542	89.5
315.771	109.5
316.001	93.5
316.23	111.5
316.46	101.5
316.689	92.5
316.919	94.5
317.148	116.5
317.377	98.5
317.607	112.5
317.836	97.5
318.065	98.5
318.295	99.5
318.524	98.5
318.753	96.5
318.983	99.5
319.212	109.5
319.441	138.5
319.67	127.5
319.9	105.5
320.129	101.5
320.358	134.5
320.587	109.5
320.816	98.5
321.046	121.5
321.275	115.5
321.504	97.5
321.733	109.5
321.962	117.5
322.191	100.5
322.42	125.5
322.649	129.5
322.878	133.5
323.108	156.5
323.337	162.5
323.566	161.5
323.795	207.5
324.024	287.5
324.253	564.5
324.482	1272.5
324.71	2679.5
324.939	3585.5
325.168	1290.5
325.397	366.5
325.626	188.5
325.855	163.5
326.084	161.5
326.313	169.5
326.542	203.5
326.77	320.5
326.999	633.5
327.228	1321.5
327.457	2501.5
327.686	1984.5
327.914	699.5
328.143	745.5
328.372	978.5
328.6	504.5
328.829	229.5
329.058	242.5
329.287	258.5
329.515	239.5
329.744	339.5
329.972	659.5
330.201	1471.5
330.43	2189.5
330.658	915.5
330.887	412.5
331.115	259.5
331.344	163.5
331.572	146.5
331.801	159.5
332.03	144.5
332.258	135.5
332.486	108.5
332.715	123.5
332.943	117.5
333.172	136.5
333.4	149.5
333.629	209.5
333.857	288.5
334.085	577.5
334.314	1323.5
334.542	2669.5
334.771	2489.5
334.999	591.5
335.227	216.5
335.455	146.5
335.684	127.5
335.912	121.5
336.14	117.5
336.369	113.5
336.597	139.5
336.825	121.5
337.053	107.5
337.281	106.5
337.51	113.5
337.738	105.5
337.966	99.5
338.194	131.5
338.422	117.5
338.65	95.5
338.878	80.5
339.106	99.5
339.334	95.5
339.562	104.5
339.79	101.5
340.018	100.5
340.246	104.5
340.474	90.5
340.702	90.5
340.93	109.5
341.158	95.5
341.386	99.5
341.614	104.5
341.842	100.5
342.07	106.5
342.298	108.5
342.526	87.5
342.754	110.5
342.981	88.5
343.209	96.5
343.437	97.5
343.665	98.5
343.893	95.5
344.12	87.5
344.348	92.5
344.576	84.5
344.804	105.5
345.031	128.5
345.259	126.5
345.487	116.5
345.714	107.5
345.942	101.5
346.17	96.5
346.397	96.5
346.625	106.5
346.853	100.5
347.08	99.5
347.308	104.5
347.535	113.5
347.763	116.5
347.99	116.5
348.218	123.5
348.445	132.5
348.673	106.5
348.9	102.5
349.128	95.5
349.355	92.5
349.583	92.5
349.81	92.5
350.037	103.5
350.265	103.5
350.492	104.5
350.72	109.5
350.947	107.5
351.174	135.5
351.402	123.5
351.629	126.5
351.856	118.5
352.083	136.5
352.311	140.5
352.538	147.5
352.765	132.5
352.992	121.5
353.22	118.5
353.447	115.5
353.674	117.5
353.901	99.5
354.128	94.5
354.355	102.5
354.583	101.5
354.81	99.5
355.037	101.5
355.264	93.5
355.491	98.5
355.718	95.5
355.945	97.5
356.172	97.5
356.399	94.5
356.626	107.5
356.853	92.5
357.08	97.5
357.307	106.5
357.534	89.5
357.761	98.5
357.988	95.5
358.215	96.5
358.441	105.5
358.668	95.5
358.895	107.5
359.122	90.5
359.349	93.5
359.576	105.5
359.802	122.5
360.029	169.5
360.256	166.5
360.483	131.5
360.709	105.5
360.936	121.5
361.163	106.5
361.39	112.5
361.616	107.5
361.843	102.5
362.07	107.5
362.296	115.5
362.523	110.5
362.749	116.5
362.976	101.5
363.203	107.5
363.429	91.5
363.656	97.5
363.882	98.5
364.109	101.5
364.335	116.5
364.562	92.5
364.788	107.5
365.015	100.5
365.241	110.5
365.468	128.5
365.694	123.5
365.92	126.5
366.147	106.5
366.373	108.5
366.599	100.5
366.826	93.5
367.052	103.5
367.278	85.5
367.505	91.5
367.731	111.5
367.957	97.5
368.184	103.5
368.41	115.5
368.636	147.5
368.862	145.5
369.089	139.5
369.315	103.5
369.541	107.5
369.767	95.5
369.993	92.5
370.219	99.5
370.445	94.5
370.672	82.5
370.898	87.5
371.124	97.5
371.35	94.5
371.576	93.5
371.802	85.5
372.028	81.5
372.254	82.5
372.48	89.5
372.706	94.5
372.932	83.5
373.158	74.5
373.384	92.5
373.61	86.5
373.835	94.5
374.061	100.5
374.287	92.5
374.513	81.5
374.739	92.5
374.965	90.5
375.191	107.5
375.416	93.5
375.642	85.5
375.868	99.5
376.094	94.5
376.319	100.5
376.545	96.5
376.771	83.5
376.997	98.5
377.222	97.5
377.448	89.5
377.674	104.5
377.899	89.5
378.125	91.5
378.35	107.5
378.576	86.5
378.802	99.5
379.027	88.5
379.253	106.5
379.478	108.5
379.704	96.5
379.929	98.5
380.155	97.5
380.38	93.5
380.606	97.5
380.831	95.5
381.057	113.5
381.282	91.5
381.507	112.5
381.733	99.5
381.958	94.5
382.184	103.5
382.409	100.5
382.634	106.5
382.86	89.5
383.085	94.5
383.31	100.5
383.535	99.5
383.761	107.5
383.986	103.5
384.211	121.5
384.436	108.5
384.662	114.5
384.887	112.5
385.112	116.5
385.337	100.5
385.562	117.5
385.787	110.5
386.013	132.5
386.238	142.5
386.463	123.5
386.688	123.5
386.913	124.5
387.138	110.5
387.363	112.5
387.588	93.5
387.813	97.5
388.038	108.5
388.263	116.5
388.488	104.5
388.713	87.5
388.938	102.5
389.163	96.5
389.387	88.5
389.612	81.5
389.837	93.5
390.062	100.5
390.287	95.5
390.512	81.5
390.736	84.5
390.961	90.5
391.186	97.5
391.411	98.5
391.636	82.5
391.86	81.5
392.085	88.5
392.31	93.5
392.534	87.5
392.759	94.5
392.984	96.5
393.208	97.5
393.433	85.5
393.658	81.5
393.882	85.5
394.107	80.5
394.331	99.5
394.556	89.5
394.78	93.5
395.005	92.5
395.229	71.5
395.454	92.5
395.678	83.5
395.903	97.5
396.127	88.5
396.352	95.5
396.576	77.5
396.801	95.5
397.025	87.5
397.249	102.5
397.474	105.5
397.698	83.5
397.922	75.5
398.147	97.5
398.371	97.5
398.595	91.5
398.82	88.5
399.044	87.5
399.268	96.5
399.492	84.5
399.717	95.5
399.941	92.5
400.165	101.5
400.389	109.5
400.613	77.5
400.837	83.5
401.062	100.5
401.286	106.5
401.51	80.5
401.734	96.5
401.958	124.5
402.182	171.5
402.406	236.5
402.63	162.5
402.854	106.5
403.078	99.5
403.302	77.5
403.526	96.5
403.75	90.5
403.974	101.5
404.198	95.5
404.422	104.5
404.645	95.5
404.869	106.5
405.093	127.5
405.317	165.5
405.541	146.5
405.765	123.5
405.988	161.5
406.212	247.5
406.436	373.5
406.66	223.5
406.883	132.5
407.107	108.5
407.331	116.5
407.555	137.5
407.778	107.5
408.002	106.5
408.226	88.5
408.449	97.5
408.673	96.5
408.896	111.5
409.12	104.5
409.344	109.5
409.567	85.5
409.791	92.5
410.014	91.5
410.238	88.5
410.461	103.5
410.685	93.5
410.908	94.5
411.132	99.5
411.355	108.5
411.578	85.5
411.802	91.5
412.025	87.5
412.249	100.5
412.472	127.5
412.695	164.5
412.919	117.5
413.142	97.5
413.365	96.5
413.589	81.5
413.812	91.5
414.035	84.5
414.258	98.5
414.482	90.5
414.705	108.5
414.928	100.5
415.151	104.5
415.374	107.5
415.597	91.5
415.821	81.5
416.044	94.5
416.267	94.5
416.49	75.5
416.713	76.5
416.936	91.5
417.159	80.5
417.382	113.5
417.605	107.5
417.828	123.5
418.051	114.5
418.274	100.5
418.497	85.5
418.72	98.5
418.943	83.5
419.166	89.5
419.389	90.5
419.611	100.5
419.834	96.5
420.057	104.5
420.28	98.5
420.503	92.5
420.726	96.5
420.948	99.5
421.171	107.5
421.394	111.5
421.617	94.5
421.839	87.5
422.062	85.5
422.285	90.5
422.507	97.5
422.73	113.5
422.953	101.5
423.175	99.5
423.398	90.5
423.621	101.5
423.843	89.5
424.066	103.5
424.288	88.5
424.511	107.5
424.733	123.5
424.956	133.5
425.178	113.5
425.401	111.5
425.623	116.5
425.846	99.5
426.068	93.5
426.291	109.5
426.513	105.5
426.735	106.5
426.958	105.5
427.18	130.5
427.402	213.5
427.625	319.5
427.847	301.5
428.069	275.5
428.292	148.5
428.514	94.5
428.736	96.5
428.958	90.5
429.181	101.5
429.403	101.5
429.625	79.5
429.847	92.5
430.069	132.5
430.292	107.5
430.514	92.5
430.736	81.5
430.958	105.5
431.18	73.5
431.402	83.5
431.624	86.5
431.846	96.5
432.068	87.5
432.29	95.5
432.512	90.5
432.734	86.5
432.956	102.5
433.178	107.5
433.4	109.5
433.622	99.5
433.844	88.5
434.066	92.5
434.287	101.5
434.509	85.5
434.731	97.5
434.953	106.5
435.175	91.5
435.397	106.5
435.618	111.5
435.84	111.5
436.062	156.5
436.284	159.5
436.505	106.5
436.727	108.5
436.949	99.5
437.17	108.5
437.392	96.5
437.614	92.5
437.835	125.5
438.057	190.5
438.278	148.5
438.5	131.5
438.721	137.5
438.943	129.5
439.165	97.5
439.386	102.5
439.608	106.5
439.829	127.5
440.05	178.5
440.272	230.5
440.493	135.5
440.715	93.5
440.936	90.5
441.158	100.5
441.379	89.5
441.6	95.5
441.822	123.5
442.043	121.5
442.264	138.5
442.486	138.5
442.707	118.5
442.928	136.5
443.149	217.5
443.371	208.5
443.592	156.5
443.813	139.5
444.034	123.5
444.255	80.5
444.476	93.5
444.698	104.5
444.919	76.5
445.14	139.5
445.361	162.5
445.582	151.5
445.803	228.5
446.024	208.5
446.245	196.5
446.466	145.5
446.687	97.5
446.908	102.5
447.129	87.5
447.35	92.5
447.571	99.5
447.792	100.5
448.013	113.5
448.234	140.5
448.455	115.5
448.675	148.5
448.896	153.5
449.117	113.5
449.338	130.5
449.559	161.5
449.779	177.5
450	117.5
450.221	95.5
450.442	99.5
450.662	96.5
450.883	142.5
451.104	164.5
451.324	108.5
451.545	104.5
451.766	98.5
451.986	85.5
452.207	83.5
452.428	100.5
452.648	118.5
452.869	140.5
453.089	151.5
453.31	151.5
453.53	91.5
453.751	112.5
453.971	140.5
454.192	159.5
454.412	115.5
454.633	103.5
454.853	91.5
455.073	97.5
455.294	96.5
455.514	115.5
455.734	105.5
455.955	96.5
456.175	99.5
456.395	91.5
456.616	96.5
456.836	90.5
457.056	89.5
457.276	83.5
457.497	98.5
457.717	79.5
457.937	96.5
458.157	97.5
458.377	108.5
458.598	149.5
458.818	279.5
459.038	287.5
459.258	160.5
459.478	106.5
459.698	97.5
459.918	89.5
460.138	88.5
460.358	84.5
460.578	93.5
460.798	97.5
461.018	95.5
461.238	87.5
461.458	97.5
461.678	89.5
461.898	94.5
462.118	88.5
462.338	93.5
462.558	86.5
462.777	82.5
462.997	115.5
463.217	121.5
463.437	108.5
463.657	87.5
463.876	102.5
464.096	89.5
464.316	109.5
464.536	112.5
464.755	93.5
464.975	151.5
465.195	275.5
465.414	304.5
465.634	131.5
465.854	101.5
466.073	101.5
466.293	87.5
466.512	97.5
466.732	106.5
466.951	97.5
467.171	98.5
467.391	115.5
467.61	203.5
467.829	281.5
468.049	789.5
468.268	1242.5
468.488	294.5
468.707	122.5
468.927	105.5
469.146	100.5
469.365	89.5
469.585	95.5
469.804	120.5
470.023	120.5
470.243	121.5
470.462	124.5
470.681	164.5
470.901	117.5
471.12	118.5
471.339	108.5
471.558	124.5
471.777	178.5
471.997	382.5
472.216	1602.5
472.435	3675.5
472.654	817.5
472.873	206.5
473.092	125.5
473.311	106.5
473.53	96.5
473.749	81.5
473.968	113.5
474.187	137.5
474.406	92.5
474.625	93.5
474.844	90.5
475.063	92.5
475.282	92.5
475.501	97.5
475.72	108.5
475.939	88.5
476.158	91.5
476.377	104.5
476.596	88.5
476.814	105.5
477.033	106.5
477.252	103.5
477.471	85.5
477.69	97.5
477.908	106.5
478.127	92.5
478.346	111.5
478.564	103.5
478.783	114.5
479.002	114.5
479.22	120.5
479.439	144.5
479.658	146.5
479.876	157.5
480.095	133.5
480.313	167.5
480.532	186.5
480.751	368.5
480.969	1402.5
481.188	6213.5
481.406	3556.5
481.624	483.5
481.843	168.5
482.061	123.5
482.28	98.5
482.498	90.5
482.717	96.5
482.935	108.5
483.153	105.5
483.372	91.5
483.59	91.5
483.808	91.5
484.027	99.5
484.245	106.5
484.463	107.5
484.681	92.5
484.9	105.5
485.118	103.5
485.336	111.5
485.554	98.5
485.772	104.5
485.99	112.5
486.209	113.5
486.427	116.5
486.645	139.5
486.863	144.5
487.081	116.5
487.299	101.5
487.517	99.5
487.735	95.5
487.953	91.5
488.171	111.5
488.389	95.5
488.607	110.5
488.825	97.5
489.043	83.5
489.261	94.5
489.479	89.5
489.696	90.5
489.914	93.5
490.132	90.5
490.35	90.5
490.568	87.5
490.786	99.5
491.003	95.5
491.221	108.5
491.439	100.5
491.657	89.5
491.874	112.5
492.092	94.5
492.31	104.5
492.527	110.5
492.745	112.5
492.963	89.5
493.18	91.5
493.398	93.5
493.615	98.5
493.833	103.5
494.05	100.5
494.268	88.5
494.485	92.5
494.703	73.5
494.92	108.5
495.138	97.5
495.355	75.5
495.573	91.5
495.79	100.5
496.008	101.5
496.225	105.5
496.442	88.5
496.66	99.5
496.877	91.5
497.094	88.5
497.312	109.5
497.529	88.5
497.746	95.5
497.963	104.5
498.181	99.5
498.398	103.5
498.615	135.5
498.832	105.5
499.049	91.5
499.267	91.5
499.484	84.5
499.701	105.5
499.918	87.5
500.135	93.5
500.352	111.5
500.569	102.5
500.786	98.5
501.003	98.5
501.22	95.5
501.437	97.5
501.654	115.5
501.871	145.5
502.088	98.5
502.305	100.5
502.522	105.5
502.739	92.5
502.956	98.5
503.172	105.5
503.389	119.5
503.606	117.5
503.823	99.5
504.04	89.5
504.256	103.5
504.473	97.5
504.69	84.5
504.907	100.5
505.123	88.5
505.34	102.5
505.557	89.5
505.773	82.5
505.99	99.5
506.207	77.5
506.423	107.5
506.64	92.5
506.856	84.5
507.073	109.5
507.289	94.5
507.506	113.5
507.722	167.5
507.939	151.5
508.155	113.5
508.372	114.5
508.588	84.5
508.805	106.5
509.021	97.5
509.238	108.5
509.454	105.5
509.67	109.5
509.887	137.5
510.103	155.5
510.319	277.5
510.536	1086.5
510.752	3856.5
510.968	1012.5
511.184	211.5
511.401	141.5
511.617	120.5
511.833	124.5
512.049	109.5
512.265	90.5
512.481	101.5
512.698	89.5
512.914	110.5
513.13	97.5
513.346	94.5
513.562	109.5
513.778	119.5
513.994	108.5
514.21	122.5
514.426	177.5
514.642	205.5
514.858	187.5
515.074	257.5
515.29	913.5
515.506	3439.5
515.721	1146.5
515.937	257.5
516.153	162.5
516.369	109.5
516.585	120.5
516.801	119.5
517.016	120.5
517.232	99.5
517.448	110.5
517.664	109.5
517.879	97.5
518.095	112.5
518.311	118.5
518.527	121.5
518.742	103.5
518.958	107.5
519.173	104.5
519.389	96.5
519.605	101.5
519.82	104.5
520.036	129.5
520.251	175.5
520.467	155.5
520.682	126.5
520.898	136.5
521.113	145.5
521.329	208.5
521.544	399.5
521.76	1233.5
521.975	5777.5
522.19	3359.5
522.406	647.5
522.621	208.5
522.836	145.5
523.052	114.5
523.267	92.5
523.482	111.5
523.698	112.5
523.913	172.5
524.128	129.5
524.343	94.5
524.559	96.5
524.774	103.5
524.989	110.5
525.204	123.5
525.419	128.5
525.634	111.5
525.849	96.5
526.064	94.5
526.28	103.5
526.495	80.5
526.71	84.5
526.925	95.5
527.14	96.5
527.355	95.5
527.57	108.5
527.785	92.5
527.999	96.5
528.214	88.5
528.429	86.5
528.644	96.5
528.859	88.5
529.074	98.5
529.289	165.5
529.503	359.5
529.718	129.5
529.933	101.5
