Data from Circ_1995_H10_HRD10591_00025.txt Node
Date: Wed Jan 03 11:36:51 EST 2024
User: Yrep
Spectrometer: HR+D1059
Trigger mode: 1
Integration Time (sec): 1.000000E-1
Scans to average: 1
Electric dark correction enabled: true
Nonlinearity correction enabled: false
Boxcar width: 0
XAxis mode: Wavelengths
Number of Pixels in Spectrum: 2048
>>>>>Begin Spectral Data<<<<<
223.165	-19.94
223.4	-19.94
223.635	-19.94
223.869	-19.94
224.104	-23.94
224.338	-24.94
224.573	-26.94
224.808	-5.94
225.042	-7.94
225.277	0.06
225.511	0.06
225.746	-9.94
225.98	23.06
226.215	10.06
226.449	16.06
226.683	44.06
226.918	20.06
227.152	26.06
227.387	33.06
227.621	44.06
227.856	47.06
228.09	43.06
228.324	44.06
228.559	59.06
228.793	54.06
229.027	61.06
229.262	62.06
229.496	76.06
229.73	88.06
229.964	82.06
230.199	85.06
230.433	74.06
230.667	80.06
230.901	73.06
231.136	73.06
231.37	64.06
231.604	82.06
231.838	83.06
232.072	86.06
232.306	77.06
232.541	84.06
232.775	84.06
233.009	63.06
233.243	85.06
233.477	72.06
233.711	92.06
233.945	75.06
234.179	81.06
234.413	80.06
234.647	86.06
234.881	81.06
235.115	82.06
235.349	73.06
235.583	76.06
235.817	73.06
236.051	82.06
236.285	79.06
236.519	62.06
236.753	80.06
236.987	73.06
237.221	81.06
237.455	82.06
237.689	66.06
237.922	73.06
238.156	65.06
238.39	89.06
238.624	73.06
238.858	85.06
239.091	72.06
239.325	80.06
239.559	93.06
239.793	76.06
240.027	82.06
240.26	80.06
240.494	73.06
240.728	88.06
240.961	70.06
241.195	75.06
241.429	98.06
241.662	76.06
241.896	76.06
242.13	76.06
242.363	77.06
242.597	70.06
242.83	70.06
243.064	70.06
243.298	73.06
243.531	81.06
243.765	94.06
243.998	78.06
244.232	82.06
244.465	84.06
244.699	86.06
244.932	75.06
245.166	84.06
245.399	82.06
245.633	66.06
245.866	65.06
246.099	79.06
246.333	65.06
246.566	77.06
246.8	104.06
247.033	81.06
247.266	77.06
247.5	79.06
247.733	76.06
247.966	88.06
248.2	77.06
248.433	81.06
248.666	84.06
248.899	88.06
249.133	81.06
249.366	97.06
249.599	111.06
249.832	94.06
250.066	83.06
250.299	84.06
250.532	85.06
250.765	84.06
250.998	78.06
251.231	61.06
251.465	80.06
251.698	78.06
251.931	93.06
252.164	80.06
252.397	88.06
252.63	84.06
252.863	87.06
253.096	82.06
253.329	86.06
253.562	88.06
253.795	82.06
254.028	78.06
254.261	90.06
254.494	83.06
254.727	89.06
254.96	88.06
255.193	88.06
255.426	84.06
255.659	76.06
255.892	87.06
256.124	77.06
256.357	86.06
256.59	87.06
256.823	74.06
257.056	94.06
257.289	80.06
257.521	77.06
257.754	84.06
257.987	87.06
258.22	86.06
258.452	102.06
258.685	95.06
258.918	90.06
259.151	86.06
259.383	85.06
259.616	87.06
259.849	81.06
260.081	91.06
260.314	70.06
260.547	82.06
260.779	103.06
261.012	105.06
261.244	104.06
261.477	106.06
261.71	101.06
261.942	127.06
262.175	157.06
262.407	95.06
262.64	94.06
262.872	100.06
263.105	97.06
263.337	100.06
263.57	83.06
263.802	91.06
264.035	65.06
264.267	77.06
264.499	86.06
264.732	92.06
264.964	92.06
265.197	80.06
265.429	78.06
265.661	84.06
265.894	80.06
266.126	81.06
266.358	86.06
266.591	84.06
266.823	83.06
267.055	87.06
267.287	94.06
267.52	88.06
267.752	77.06
267.984	90.06
268.216	79.06
268.448	84.06
268.681	85.06
268.913	92.06
269.145	75.06
269.377	88.06
269.609	79.06
269.841	78.06
270.073	82.06
270.306	90.06
270.538	80.06
270.77	85.06
271.002	80.06
271.234	85.06
271.466	79.06
271.698	91.06
271.93	85.06
272.162	78.06
272.394	85.06
272.626	85.06
272.858	74.06
273.09	87.06
273.322	88.06
273.553	77.06
273.785	88.06
274.017	75.06
274.249	78.06
274.481	71.06
274.713	69.06
274.945	86.06
275.176	93.06
275.408	98.06
275.64	121.06
275.872	124.06
276.104	123.06
276.335	113.06
276.567	124.06
276.799	146.06
277.031	177.06
277.262	215.06
277.494	150.06
277.726	113.06
277.957	84.06
278.189	88.06
278.421	92.06
278.652	101.06
278.884	96.06
279.115	89.06
279.347	93.06
279.579	102.06
279.81	138.06
280.042	202.06
280.273	298.06
280.505	193.06
280.736	106.06
280.968	102.06
281.199	94.06
281.431	90.06
281.662	88.06
281.894	85.06
282.125	98.06
282.356	125.06
282.588	196.06
282.819	138.06
283.051	86.06
283.282	81.06
283.513	89.06
283.745	71.06
283.976	87.06
284.207	92.06
284.439	94.06
284.67	92.06
284.901	73.06
285.132	88.06
285.364	79.06
285.595	95.06
285.826	76.06
286.057	78.06
286.288	80.06
286.52	82.06
286.751	90.06
286.982	74.06
287.213	84.06
287.444	82.06
287.675	92.06
287.906	80.06
288.138	93.06
288.369	101.06
288.6	97.06
288.831	93.06
289.062	90.06
289.293	88.06
289.524	85.06
289.755	86.06
289.986	107.06
290.217	76.06
290.448	88.06
290.679	85.06
290.91	91.06
291.141	83.06
291.371	84.06
291.602	81.06
291.833	82.06
292.064	100.06
292.295	77.06
292.526	83.06
292.757	90.06
292.987	93.06
293.218	99.06
293.449	89.06
293.68	74.06
293.91	98.06
294.141	87.06
294.372	89.06
294.603	82.06
294.833	84.06
295.064	83.06
295.295	100.06
295.525	92.06
295.756	111.06
295.987	117.06
296.217	163.06
296.448	150.06
296.679	103.06
296.909	81.06
297.14	72.06
297.37	80.06
297.601	93.06
297.831	95.06
298.062	93.06
298.292	84.06
298.523	66.06
298.753	96.06
298.984	89.06
299.214	82.06
299.445	81.06
299.675	98.06
299.905	98.06
300.136	81.06
300.366	85.06
300.597	96.06
300.827	97.06
301.057	103.06
301.288	112.06
301.518	101.06
301.748	96.06
301.979	114.06
302.209	101.06
302.439	85.06
302.669	102.06
302.9	98.06
303.13	94.06
303.36	93.06
303.59	132.06
303.82	134.06
304.051	103.06
304.281	89.06
304.511	90.06
304.741	103.06
304.971	95.06
305.201	90.06
305.431	96.06
305.661	91.06
305.891	87.06
306.121	109.06
306.352	101.06
306.582	128.06
306.812	96.06
307.042	108.06
307.272	175.06
307.502	185.06
307.731	186.06
307.961	134.06
308.191	87.06
308.421	94.06
308.651	100.06
308.881	101.06
309.111	79.06
309.341	106.06
309.571	101.06
309.8	97.06
310.03	102.06
310.26	100.06
310.49	96.06
310.72	106.06
310.949	111.06
311.179	110.06
311.409	86.06
311.639	112.06
311.868	97.06
312.098	100.06
312.328	102.06
312.557	111.06
312.787	129.06
313.017	116.06
313.246	102.06
313.476	88.06
313.706	101.06
313.935	114.06
314.165	109.06
314.394	103.06
314.624	101.06
314.853	117.06
315.083	94.06
315.312	98.06
315.542	104.06
315.771	112.06
316.001	95.06
316.23	89.06
316.46	91.06
316.689	85.06
316.919	93.06
317.148	102.06
317.377	108.06
317.607	96.06
317.836	102.06
318.065	100.06
318.295	87.06
318.524	100.06
318.753	104.06
318.983	108.06
319.212	103.06
319.441	114.06
319.67	127.06
319.9	102.06
320.129	82.06
320.358	96.06
320.587	82.06
320.816	104.06
321.046	106.06
321.275	107.06
321.504	92.06
321.733	99.06
321.962	103.06
322.191	109.06
322.42	108.06
322.649	98.06
322.878	127.06
323.108	129.06
323.337	126.06
323.566	160.06
323.795	196.06
324.024	250.06
324.253	476.06
324.482	1030.06
324.71	2186.06
324.939	3009.06
325.168	1099.06
325.397	320.06
325.626	175.06
325.855	142.06
326.084	156.06
326.313	137.06
326.542	176.06
326.77	256.06
326.999	542.06
327.228	1141.06
327.457	2118.06
327.686	1702.06
327.914	599.06
328.143	572.06
328.372	734.06
328.6	396.06
328.829	188.06
329.058	198.06
329.287	202.06
329.515	181.06
329.744	254.06
329.972	495.06
330.201	1080.06
330.43	1620.06
330.658	717.06
330.887	297.06
331.115	208.06
331.344	127.06
331.572	125.06
331.801	121.06
332.03	128.06
332.258	133.06
332.486	121.06
332.715	110.06
332.943	104.06
333.172	111.06
333.4	117.06
333.629	172.06
333.857	237.06
334.085	430.06
334.314	931.06
334.542	1932.06
334.771	1854.06
334.999	478.06
335.227	186.06
335.455	136.06
335.684	119.06
335.912	116.06
336.14	116.06
336.369	108.06
336.597	108.06
336.825	121.06
337.053	102.06
337.281	89.06
337.51	80.06
337.738	88.06
337.966	99.06
338.194	102.06
338.422	108.06
338.65	102.06
338.878	94.06
339.106	91.06
339.334	89.06
339.562	92.06
339.79	97.06
340.018	110.06
340.246	95.06
340.474	109.06
340.702	98.06
340.93	96.06
341.158	101.06
341.386	104.06
341.614	112.06
341.842	104.06
342.07	93.06
342.298	88.06
342.526	85.06
342.754	88.06
342.981	87.06
343.209	90.06
343.437	97.06
343.665	95.06
343.893	89.06
344.12	85.06
344.348	87.06
344.576	90.06
344.804	87.06
345.031	106.06
345.259	113.06
345.487	102.06
345.714	109.06
345.942	89.06
346.17	95.06
346.397	84.06
346.625	81.06
346.853	92.06
347.08	81.06
347.308	89.06
347.535	109.06
347.763	98.06
347.99	102.06
348.218	117.06
348.445	120.06
348.673	114.06
348.9	97.06
349.128	101.06
349.355	101.06
349.583	99.06
349.81	97.06
350.037	106.06
350.265	95.06
350.492	105.06
350.72	88.06
350.947	99.06
351.174	106.06
351.402	126.06
351.629	119.06
351.856	112.06
352.083	119.06
352.311	104.06
352.538	117.06
352.765	103.06
352.992	132.06
353.22	121.06
353.447	117.06
353.674	98.06
353.901	98.06
354.128	94.06
354.355	87.06
354.583	95.06
354.81	90.06
355.037	90.06
355.264	97.06
355.491	89.06
355.718	80.06
355.945	101.06
356.172	94.06
356.399	107.06
356.626	109.06
356.853	87.06
357.08	96.06
357.307	85.06
357.534	89.06
357.761	98.06
357.988	100.06
358.215	90.06
358.441	93.06
358.668	105.06
358.895	82.06
359.122	85.06
359.349	86.06
359.576	97.06
359.802	106.06
360.029	148.06
360.256	153.06
360.483	102.06
360.709	88.06
360.936	89.06
361.163	101.06
361.39	93.06
361.616	95.06
361.843	97.06
362.07	92.06
362.296	105.06
362.523	92.06
362.749	92.06
362.976	96.06
363.203	89.06
363.429	88.06
363.656	98.06
363.882	96.06
364.109	82.06
364.335	95.06
364.562	89.06
364.788	81.06
365.015	96.06
365.241	99.06
365.468	113.06
365.694	106.06
365.92	107.06
366.147	107.06
366.373	97.06
366.599	92.06
366.826	92.06
367.052	100.06
367.278	99.06
367.505	92.06
367.731	86.06
367.957	97.06
368.184	87.06
368.41	88.06
368.636	123.06
368.862	134.06
369.089	119.06
369.315	79.06
369.541	84.06
369.767	93.06
369.993	88.06
370.219	79.06
370.445	79.06
370.672	94.06
370.898	95.06
371.124	109.06
371.35	104.06
371.576	100.06
371.802	99.06
372.028	82.06
372.254	82.06
372.48	95.06
372.706	87.06
372.932	83.06
373.158	85.06
373.384	88.06
373.61	95.06
373.835	90.06
374.061	89.06
374.287	102.06
374.513	102.06
374.739	82.06
374.965	90.06
375.191	71.06
375.416	83.06
375.642	85.06
375.868	77.06
376.094	91.06
376.319	85.06
376.545	86.06
376.771	89.06
376.997	79.06
377.222	77.06
377.448	84.06
377.674	86.06
377.899	85.06
378.125	92.06
378.35	68.06
378.576	91.06
378.802	90.06
379.027	96.06
379.253	78.06
379.478	90.06
379.704	84.06
379.929	97.06
380.155	90.06
380.38	91.06
380.606	100.06
380.831	116.06
381.057	94.06
381.282	93.06
381.507	95.06
381.733	98.06
381.958	89.06
382.184	112.06
382.409	98.06
382.634	102.06
382.86	104.06
383.085	114.06
383.31	104.06
383.535	95.06
383.761	106.06
383.986	92.06
384.211	85.06
384.436	98.06
384.662	87.06
384.887	111.06
385.112	98.06
385.337	119.06
385.562	123.06
385.787	101.06
386.013	111.06
386.238	134.06
386.463	106.06
386.688	117.06
386.913	108.06
387.138	114.06
387.363	103.06
387.588	111.06
387.813	112.06
388.038	114.06
388.263	133.06
388.488	103.06
388.713	93.06
388.938	92.06
389.163	94.06
389.387	86.06
389.612	82.06
389.837	85.06
390.062	80.06
390.287	91.06
390.512	90.06
390.736	92.06
390.961	89.06
391.186	84.06
391.411	85.06
391.636	95.06
391.86	74.06
392.085	85.06
392.31	97.06
392.534	84.06
392.759	68.06
392.984	87.06
393.208	86.06
393.433	67.06
393.658	88.06
393.882	81.06
394.107	91.06
394.331	96.06
394.556	82.06
394.78	81.06
395.005	94.06
395.229	72.06
395.454	81.06
395.678	87.06
395.903	89.06
396.127	71.06
396.352	79.06
396.576	72.06
396.801	89.06
397.025	93.06
397.249	76.06
397.474	83.06
397.698	76.06
397.922	76.06
398.147	78.06
398.371	81.06
398.595	87.06
398.82	74.06
399.044	75.06
399.268	86.06
399.492	81.06
399.717	97.06
399.941	87.06
400.165	103.06
400.389	88.06
400.613	86.06
400.837	83.06
401.062	86.06
401.286	84.06
401.51	90.06
401.734	105.06
401.958	112.06
402.182	141.06
402.406	200.06
402.63	152.06
402.854	93.06
403.078	80.06
403.302	100.06
403.526	93.06
403.75	98.06
403.974	95.06
404.198	76.06
404.422	84.06
404.645	81.06
404.869	98.06
405.093	117.06
405.317	124.06
405.541	132.06
405.765	116.06
405.988	149.06
406.212	220.06
406.436	340.06
406.66	208.06
406.883	128.06
407.107	102.06
407.331	108.06
407.555	107.06
407.778	106.06
408.002	92.06
408.226	97.06
408.449	96.06
408.673	90.06
408.896	85.06
409.12	99.06
409.344	96.06
409.567	88.06
409.791	85.06
410.014	99.06
410.238	97.06
410.461	87.06
410.685	88.06
410.908	97.06
411.132	103.06
411.355	105.06
411.578	85.06
411.802	84.06
412.025	104.06
412.249	94.06
412.472	105.06
412.695	140.06
412.919	102.06
413.142	94.06
413.365	85.06
413.589	74.06
413.812	77.06
414.035	84.06
414.258	84.06
414.482	100.06
414.705	90.06
414.928	95.06
415.151	82.06
415.374	97.06
415.597	74.06
415.821	76.06
416.044	84.06
416.267	85.06
416.49	79.06
416.713	104.06
416.936	84.06
417.159	87.06
417.382	104.06
417.605	117.06
417.828	111.06
418.051	106.06
418.274	95.06
418.497	88.06
418.72	101.06
418.943	81.06
419.166	76.06
419.389	90.06
419.611	100.06
419.834	80.06
420.057	97.06
420.28	95.06
420.503	89.06
420.726	97.06
420.948	88.06
421.171	98.06
421.394	89.06
421.617	93.06
421.839	89.06
422.062	84.06
422.285	87.06
422.507	110.06
422.73	125.06
422.953	99.06
423.175	86.06
423.398	79.06
423.621	75.06
423.843	84.06
424.066	93.06
424.288	82.06
424.511	88.06
424.733	100.06
424.956	120.06
425.178	101.06
425.401	105.06
425.623	100.06
425.846	96.06
426.068	93.06
426.291	99.06
426.513	90.06
426.735	92.06
426.958	98.06
427.18	121.06
427.402	158.06
427.625	276.06
427.847	242.06
428.069	232.06
428.292	124.06
428.514	91.06
428.736	92.06
428.958	87.06
429.181	84.06
429.403	96.06
429.625	105.06
429.847	99.06
430.069	115.06
430.292	91.06
430.514	87.06
430.736	111.06
430.958	91.06
431.18	73.06
431.402	83.06
431.624	74.06
431.846	72.06
432.068	85.06
432.29	83.06
432.512	74.06
432.734	101.06
432.956	92.06
433.178	88.06
433.4	90.06
433.622	106.06
433.844	95.06
434.066	105.06
434.287	93.06
434.509	88.06
434.731	73.06
434.953	86.06
435.175	97.06
435.397	76.06
435.618	106.06
435.84	99.06
436.062	128.06
436.284	111.06
436.505	100.06
436.727	90.06
436.949	87.06
437.17	75.06
437.392	76.06
437.614	103.06
437.835	119.06
438.057	146.06
438.278	111.06
438.5	111.06
438.721	129.06
438.943	100.06
439.165	78.06
439.386	92.06
439.608	99.06
439.829	123.06
440.05	148.06
440.272	178.06
440.493	105.06
440.715	93.06
440.936	84.06
441.158	104.06
441.379	86.06
441.6	110.06
441.822	113.06
442.043	108.06
442.264	111.06
442.486	107.06
442.707	111.06
442.928	136.06
443.149	178.06
443.371	175.06
443.592	140.06
443.813	125.06
444.034	123.06
444.255	92.06
444.476	98.06
444.698	89.06
444.919	90.06
445.14	147.06
445.361	129.06
445.582	125.06
445.803	183.06
446.024	178.06
446.245	172.06
446.466	122.06
446.687	91.06
446.908	110.06
447.129	93.06
447.35	88.06
447.571	91.06
447.792	94.06
448.013	115.06
448.234	132.06
448.455	102.06
448.675	136.06
448.896	141.06
449.117	109.06
449.338	115.06
449.559	137.06
449.779	142.06
450	97.06
450.221	81.06
450.442	97.06
450.662	107.06
450.883	128.06
451.104	153.06
451.324	90.06
451.545	85.06
451.766	81.06
451.986	80.06
452.207	85.06
452.428	88.06
452.648	105.06
452.869	141.06
453.089	133.06
453.31	146.06
453.53	125.06
453.751	83.06
453.971	126.06
454.192	148.06
454.412	98.06
454.633	87.06
454.853	90.06
455.073	85.06
455.294	90.06
455.514	113.06
455.734	92.06
455.955	96.06
456.175	78.06
456.395	89.06
456.616	84.06
456.836	94.06
457.056	75.06
457.276	90.06
457.497	82.06
457.717	82.06
457.937	98.06
458.157	96.06
458.377	73.06
458.598	118.06
458.818	188.06
459.038	234.06
459.258	162.06
459.478	100.06
459.698	85.06
459.918	83.06
460.138	80.06
460.358	69.06
460.578	84.06
460.798	98.06
461.018	97.06
461.238	92.06
461.458	83.06
461.678	92.06
461.898	85.06
462.118	88.06
462.338	86.06
462.558	101.06
462.777	83.06
462.997	109.06
463.217	96.06
463.437	96.06
463.657	81.06
463.876	96.06
464.096	78.06
464.316	95.06
464.536	101.06
464.755	98.06
464.975	132.06
465.195	261.06
465.414	273.06
465.634	89.06
465.854	85.06
466.073	90.06
466.293	94.06
466.512	93.06
466.732	95.06
466.951	95.06
467.171	92.06
467.391	111.06
467.61	161.06
467.829	224.06
468.049	631.06
468.268	975.06
468.488	239.06
468.707	115.06
468.927	97.06
469.146	82.06
469.365	91.06
469.585	98.06
469.804	105.06
470.023	109.06
470.243	103.06
470.462	117.06
470.681	154.06
470.901	107.06
471.12	95.06
471.339	117.06
471.558	121.06
471.777	148.06
471.997	319.06
472.216	1220.06
472.435	2875.06
472.654	648.06
472.873	176.06
473.092	98.06
473.311	108.06
473.53	92.06
473.749	83.06
473.968	100.06
474.187	120.06
474.406	100.06
474.625	88.06
474.844	92.06
475.063	84.06
475.282	90.06
475.501	94.06
475.72	86.06
475.939	94.06
476.158	89.06
476.377	74.06
476.596	109.06
476.814	97.06
477.033	96.06
477.252	81.06
477.471	93.06
477.69	103.06
477.908	106.06
478.127	80.06
478.346	89.06
478.564	100.06
478.783	105.06
479.002	94.06
479.22	111.06
479.439	111.06
479.658	146.06
479.876	113.06
480.095	128.06
480.313	131.06
480.532	154.06
480.751	300.06
480.969	1076.06
481.188	4813.06
481.406	2778.06
481.624	386.06
481.843	157.06
482.061	119.06
482.28	108.06
482.498	110.06
482.717	109.06
482.935	94.06
483.153	90.06
483.372	92.06
483.59	98.06
483.808	92.06
484.027	98.06
484.245	90.06
484.463	94.06
484.681	94.06
484.9	112.06
485.118	93.06
485.336	100.06
485.554	97.06
485.772	98.06
485.99	101.06
486.209	112.06
486.427	114.06
486.645	129.06
486.863	128.06
487.081	121.06
487.299	97.06
487.517	100.06
487.735	78.06
487.953	90.06
488.171	93.06
488.389	92.06
488.607	97.06
488.825	106.06
489.043	70.06
489.261	98.06
489.479	88.06
489.696	88.06
489.914	77.06
490.132	97.06
490.35	84.06
490.568	96.06
490.786	73.06
491.003	88.06
491.221	101.06
491.439	88.06
491.657	102.06
491.874	101.06
492.092	95.06
492.31	92.06
492.527	95.06
492.745	89.06
492.963	96.06
493.18	81.06
493.398	87.06
493.615	98.06
493.833	90.06
494.05	90.06
494.268	97.06
494.485	98.06
494.703	86.06
494.92	87.06
495.138	81.06
495.355	104.06
495.573	91.06
495.79	94.06
496.008	85.06
496.225	88.06
496.442	89.06
496.66	84.06
496.877	95.06
497.094	90.06
497.312	85.06
497.529	103.06
497.746	80.06
497.963	93.06
498.181	94.06
498.398	106.06
498.615	109.06
498.832	116.06
499.049	96.06
499.267	96.06
499.484	84.06
499.701	84.06
499.918	94.06
500.135	95.06
500.352	91.06
500.569	75.06
500.786	106.06
501.003	85.06
501.22	81.06
501.437	96.06
501.654	104.06
501.871	130.06
502.088	88.06
502.305	98.06
502.522	104.06
502.739	88.06
502.956	83.06
503.172	98.06
503.389	109.06
503.606	129.06
503.823	102.06
504.04	96.06
504.256	98.06
504.473	84.06
504.69	97.06
504.907	85.06
505.123	105.06
505.34	82.06
505.557	87.06
505.773	93.06
505.99	89.06
506.207	79.06
506.423	95.06
506.64	81.06
506.856	103.06
507.073	85.06
507.289	94.06
507.506	112.06
507.722	149.06
507.939	135.06
508.155	101.06
508.372	88.06
508.588	104.06
508.805	102.06
509.021	103.06
509.238	102.06
509.454	117.06
509.67	92.06
509.887	117.06
510.103	139.06
510.319	251.06
510.536	930.06
510.752	3494.06
510.968	897.06
511.184	192.06
511.401	142.06
511.617	108.06
511.833	107.06
512.049	108.06
512.265	90.06
512.481	81.06
512.698	97.06
512.914	98.06
513.13	102.06
513.346	88.06
