Data from Circ_1995_H10_HRD10591_00084.txt Node
Date: Wed Jan 03 11:37:03 EST 2024
User: Yrep
Spectrometer: HR+D1059
Trigger mode: 1
Integration Time (sec): 1.000000E-1
Scans to average: 1
Electric dark correction enabled: true
Nonlinearity correction enabled: false
Boxcar width: 0
XAxis mode: Wavelengths
Number of Pixels in Spectrum: 2048
>>>>>Begin Spectral Data<<<<<
223.165	-13.5
223.4	-13.5
223.635	-13.5
223.869	-33.5
224.104	-9.5
224.338	-26.5
224.573	-12.5
224.808	-3.5
225.042	-6.5
225.277	5.5
225.511	4.5
225.746	-1.5
225.98	7.5
226.215	10.5
226.449	22.5
226.683	23.5
226.918	15.5
227.152	17.5
227.387	45.5
227.621	36.5
227.856	45.5
228.09	46.5
228.324	56.5
228.559	58.5
228.793	43.5
229.027	80.5
229.262	64.5
229.496	82.5
229.73	103.5
229.964	92.5
230.199	78.5
230.433	87.5
230.667	83.5
230.901	76.5
231.136	82.5
231.37	81.5
231.604	93.5
231.838	87.5
232.072	89.5
232.306	83.5
232.541	84.5
232.775	84.5
233.009	87.5
233.243	95.5
233.477	74.5
233.711	75.5
233.945	77.5
234.179	82.5
234.413	89.5
234.647	89.5
234.881	79.5
235.115	82.5
235.349	84.5
235.583	84.5
235.817	85.5
236.051	92.5
236.285	96.5
236.519	100.5
236.753	93.5
236.987	78.5
237.221	103.5
237.455	98.5
237.689	80.5
237.922	91.5
238.156	70.5
238.39	86.5
238.624	79.5
238.858	79.5
239.091	77.5
239.325	82.5
239.559	93.5
239.793	83.5
240.027	89.5
240.26	85.5
240.494	90.5
240.728	83.5
240.961	88.5
241.195	72.5
241.429	94.5
241.662	76.5
241.896	83.5
242.13	81.5
242.363	86.5
242.597	78.5
242.83	73.5
243.064	86.5
243.298	74.5
243.531	99.5
243.765	91.5
243.998	75.5
244.232	75.5
244.465	91.5
244.699	80.5
244.932	83.5
245.166	97.5
245.399	79.5
245.633	96.5
245.866	97.5
246.099	82.5
246.333	80.5
246.566	86.5
246.8	71.5
247.033	95.5
247.266	84.5
247.5	82.5
247.733	78.5
247.966	67.5
248.2	85.5
248.433	80.5
248.666	83.5
248.899	93.5
249.133	91.5
249.366	114.5
249.599	102.5
249.832	101.5
250.066	93.5
250.299	101.5
250.532	95.5
250.765	87.5
250.998	85.5
251.231	91.5
251.465	90.5
251.698	98.5
251.931	96.5
252.164	82.5
252.397	87.5
252.63	94.5
252.863	84.5
253.096	100.5
253.329	86.5
253.562	88.5
253.795	94.5
254.028	87.5
254.261	76.5
254.494	85.5
254.727	86.5
254.96	82.5
255.193	84.5
255.426	88.5
255.659	100.5
255.892	109.5
256.124	99.5
256.357	95.5
256.59	74.5
256.823	99.5
257.056	98.5
257.289	99.5
257.521	95.5
257.754	84.5
257.987	103.5
258.22	104.5
258.452	98.5
258.685	94.5
258.918	91.5
259.151	77.5
259.383	97.5
259.616	100.5
259.849	81.5
260.081	100.5
260.314	96.5
260.547	100.5
260.779	97.5
261.012	124.5
261.244	128.5
261.477	117.5
261.71	110.5
261.942	156.5
262.175	147.5
262.407	99.5
262.64	104.5
262.872	86.5
263.105	84.5
263.337	96.5
263.57	76.5
263.802	101.5
264.035	92.5
264.267	100.5
264.499	86.5
264.732	84.5
264.964	80.5
265.197	88.5
265.429	88.5
265.661	93.5
265.894	102.5
266.126	101.5
266.358	87.5
266.591	87.5
266.823	98.5
267.055	92.5
267.287	99.5
267.52	102.5
267.752	79.5
267.984	100.5
268.216	86.5
268.448	100.5
268.681	92.5
268.913	94.5
269.145	92.5
269.377	81.5
269.609	87.5
269.841	86.5
270.073	79.5
270.306	91.5
270.538	100.5
270.77	92.5
271.002	100.5
271.234	96.5
271.466	101.5
271.698	111.5
271.93	88.5
272.162	104.5
272.394	110.5
272.626	100.5
272.858	88.5
273.09	103.5
273.322	94.5
273.553	82.5
273.785	82.5
274.017	89.5
274.249	88.5
274.481	95.5
274.713	85.5
274.945	85.5
275.176	97.5
275.408	110.5
275.64	109.5
275.872	157.5
276.104	125.5
276.335	118.5
276.567	127.5
276.799	162.5
277.031	211.5
277.262	254.5
277.494	195.5
277.726	117.5
277.957	100.5
278.189	86.5
278.421	91.5
278.652	98.5
278.884	93.5
279.115	86.5
279.347	96.5
279.579	123.5
279.81	149.5
280.042	247.5
280.273	340.5
280.505	241.5
280.736	133.5
280.968	102.5
281.199	96.5
281.431	99.5
281.662	107.5
281.894	110.5
282.125	113.5
282.356	142.5
282.588	177.5
282.819	138.5
283.051	107.5
283.282	83.5
283.513	99.5
283.745	102.5
283.976	80.5
284.207	98.5
284.439	102.5
284.67	85.5
284.901	84.5
285.132	92.5
285.364	92.5
285.595	89.5
285.826	91.5
286.057	97.5
286.288	93.5
286.52	106.5
286.751	99.5
286.982	80.5
287.213	82.5
287.444	75.5
287.675	92.5
287.906	104.5
288.138	95.5
288.369	105.5
288.6	104.5
288.831	94.5
289.062	92.5
289.293	94.5
289.524	85.5
289.755	90.5
289.986	91.5
290.217	90.5
290.448	83.5
290.679	110.5
290.91	78.5
291.141	93.5
291.371	99.5
291.602	98.5
291.833	88.5
292.064	93.5
292.295	97.5
292.526	99.5
292.757	88.5
292.987	71.5
293.218	84.5
293.449	77.5
293.68	92.5
293.91	94.5
294.141	90.5
294.372	110.5
294.603	90.5
294.833	93.5
295.064	93.5
295.295	91.5
295.525	91.5
295.756	102.5
295.987	136.5
296.217	168.5
296.448	165.5
296.679	94.5
296.909	102.5
297.14	93.5
297.37	92.5
297.601	107.5
297.831	95.5
298.062	108.5
298.292	92.5
298.523	84.5
298.753	92.5
298.984	84.5
299.214	96.5
299.445	103.5
299.675	87.5
299.905	111.5
300.136	84.5
300.366	100.5
300.597	96.5
300.827	108.5
301.057	124.5
301.288	111.5
301.518	98.5
301.748	102.5
301.979	133.5
302.209	102.5
302.439	105.5
302.669	107.5
302.9	102.5
303.13	101.5
303.36	113.5
303.59	160.5
303.82	166.5
304.051	110.5
304.281	101.5
304.511	81.5
304.741	107.5
304.971	108.5
305.201	95.5
305.431	92.5
305.661	90.5
305.891	94.5
306.121	98.5
306.352	120.5
306.582	139.5
306.812	120.5
307.042	136.5
307.272	192.5
307.502	220.5
307.731	202.5
307.961	150.5
308.191	115.5
308.421	105.5
308.651	90.5
308.881	97.5
309.111	92.5
309.341	104.5
309.571	100.5
309.8	116.5
310.03	113.5
310.26	124.5
310.49	109.5
310.72	111.5
310.949	124.5
311.179	124.5
311.409	104.5
311.639	93.5
311.868	98.5
312.098	113.5
312.328	113.5
312.557	109.5
312.787	136.5
313.017	120.5
313.246	102.5
313.476	96.5
313.706	90.5
313.935	102.5
314.165	117.5
314.394	118.5
314.624	123.5
314.853	126.5
315.083	111.5
315.312	103.5
315.542	91.5
315.771	115.5
316.001	91.5
316.23	92.5
316.46	100.5
316.689	101.5
316.919	114.5
317.148	116.5
317.377	117.5
317.607	105.5
317.836	94.5
318.065	108.5
318.295	82.5
318.524	105.5
318.753	100.5
318.983	106.5
319.212	111.5
319.441	123.5
319.67	100.5
319.9	108.5
320.129	94.5
320.358	98.5
320.587	111.5
320.816	107.5
321.046	108.5
321.275	112.5
321.504	110.5
321.733	107.5
321.962	109.5
322.191	128.5
322.42	120.5
322.649	117.5
322.878	135.5
323.108	137.5
323.337	154.5
323.566	161.5
323.795	188.5
324.024	243.5
324.253	498.5
324.482	1072.5
324.71	2195.5
324.939	2949.5
325.168	1100.5
325.397	312.5
325.626	194.5
325.855	152.5
326.084	135.5
326.313	150.5
326.542	182.5
326.77	258.5
326.999	553.5
327.228	1158.5
327.457	2086.5
327.686	1698.5
327.914	650.5
328.143	699.5
328.372	917.5
328.6	490.5
328.829	240.5
329.058	239.5
329.287	247.5
329.515	211.5
329.744	326.5
329.972	643.5
330.201	1398.5
330.43	2093.5
330.658	874.5
330.887	360.5
331.115	215.5
331.344	145.5
331.572	142.5
331.801	137.5
332.03	139.5
332.258	122.5
332.486	116.5
332.715	122.5
332.943	131.5
333.172	132.5
333.4	144.5
333.629	172.5
333.857	292.5
334.085	547.5
334.314	1240.5
334.542	2537.5
334.771	2350.5
334.999	587.5
335.227	224.5
335.455	148.5
335.684	116.5
335.912	110.5
336.14	120.5
336.369	131.5
336.597	127.5
336.825	143.5
337.053	103.5
337.281	93.5
337.51	94.5
337.738	119.5
337.966	123.5
338.194	111.5
338.422	123.5
338.65	108.5
338.878	106.5
339.106	88.5
339.334	95.5
339.562	94.5
339.79	86.5
340.018	101.5
340.246	119.5
340.474	111.5
340.702	109.5
340.93	99.5
341.158	112.5
341.386	97.5
341.614	101.5
341.842	103.5
342.07	98.5
342.298	115.5
342.526	108.5
342.754	94.5
342.981	102.5
343.209	106.5
343.437	104.5
343.665	96.5
343.893	92.5
344.12	87.5
344.348	78.5
344.576	103.5
344.804	98.5
345.031	108.5
345.259	122.5
345.487	115.5
345.714	102.5
345.942	103.5
346.17	101.5
346.397	89.5
346.625	100.5
346.853	108.5
347.08	117.5
347.308	117.5
347.535	109.5
347.763	119.5
347.99	116.5
348.218	121.5
348.445	126.5
348.673	110.5
348.9	102.5
349.128	110.5
349.355	94.5
349.583	105.5
349.81	111.5
350.037	108.5
350.265	100.5
350.492	96.5
350.72	100.5
350.947	106.5
351.174	120.5
351.402	124.5
351.629	99.5
351.856	115.5
352.083	124.5
352.311	123.5
352.538	140.5
352.765	144.5
352.992	123.5
353.22	133.5
353.447	116.5
353.674	98.5
353.901	104.5
354.128	96.5
354.355	100.5
354.583	105.5
354.81	102.5
355.037	103.5
355.264	103.5
355.491	103.5
355.718	96.5
355.945	95.5
356.172	91.5
356.399	93.5
356.626	101.5
356.853	99.5
357.08	103.5
357.307	102.5
357.534	91.5
357.761	112.5
357.988	99.5
358.215	103.5
358.441	97.5
358.668	93.5
358.895	96.5
359.122	91.5
359.349	104.5
359.576	92.5
359.802	119.5
360.029	155.5
360.256	160.5
360.483	127.5
360.709	81.5
360.936	95.5
361.163	102.5
361.39	102.5
361.616	119.5
361.843	96.5
362.07	97.5
362.296	109.5
362.523	112.5
362.749	110.5
362.976	102.5
363.203	100.5
363.429	98.5
363.656	112.5
363.882	100.5
364.109	86.5
364.335	95.5
364.562	83.5
364.788	108.5
365.015	104.5
365.241	120.5
365.468	114.5
365.694	134.5
365.92	110.5
366.147	109.5
366.373	97.5
366.599	86.5
366.826	102.5
367.052	90.5
367.278	95.5
367.505	102.5
367.731	90.5
367.957	110.5
368.184	117.5
368.41	117.5
368.636	128.5
368.862	133.5
369.089	119.5
369.315	106.5
369.541	108.5
369.767	102.5
369.993	101.5
370.219	107.5
370.445	103.5
370.672	95.5
370.898	100.5
371.124	90.5
371.35	99.5
371.576	100.5
371.802	92.5
372.028	97.5
372.254	97.5
372.48	90.5
372.706	91.5
372.932	103.5
373.158	87.5
373.384	96.5
373.61	101.5
373.835	98.5
374.061	92.5
374.287	94.5
374.513	101.5
374.739	90.5
374.965	84.5
375.191	94.5
375.416	82.5
375.642	90.5
375.868	90.5
376.094	100.5
376.319	103.5
376.545	108.5
376.771	98.5
376.997	93.5
377.222	85.5
377.448	103.5
377.674	92.5
377.899	91.5
378.125	107.5
378.35	92.5
378.576	101.5
378.802	94.5
379.027	95.5
379.253	103.5
379.478	97.5
379.704	105.5
379.929	93.5
380.155	108.5
380.38	97.5
380.606	104.5
380.831	106.5
381.057	109.5
381.282	96.5
381.507	98.5
381.733	99.5
381.958	92.5
382.184	104.5
382.409	106.5
382.634	113.5
382.86	97.5
383.085	103.5
383.31	97.5
383.535	110.5
383.761	90.5
383.986	103.5
384.211	97.5
384.436	90.5
384.662	90.5
384.887	91.5
385.112	97.5
385.337	103.5
385.562	93.5
385.787	100.5
386.013	99.5
386.238	131.5
386.463	109.5
386.688	113.5
386.913	111.5
387.138	113.5
387.363	122.5
387.588	94.5
387.813	108.5
388.038	120.5
388.263	115.5
388.488	112.5
388.713	106.5
388.938	92.5
389.163	97.5
389.387	101.5
389.612	81.5
389.837	91.5
390.062	96.5
390.287	83.5
390.512	107.5
390.736	114.5
390.961	96.5
391.186	101.5
391.411	100.5
391.636	88.5
391.86	71.5
392.085	95.5
392.31	82.5
392.534	100.5
392.759	105.5
392.984	80.5
393.208	82.5
393.433	92.5
393.658	84.5
393.882	75.5
394.107	109.5
394.331	109.5
394.556	97.5
394.78	86.5
395.005	86.5
395.229	87.5
395.454	92.5
395.678	85.5
395.903	102.5
396.127	96.5
396.352	95.5
396.576	92.5
396.801	95.5
397.025	85.5
397.249	102.5
397.474	98.5
397.698	105.5
397.922	96.5
398.147	90.5
398.371	81.5
398.595	74.5
398.82	82.5
399.044	72.5
399.268	101.5
399.492	102.5
399.717	110.5
399.941	92.5
400.165	98.5
400.389	115.5
400.613	98.5
400.837	95.5
401.062	84.5
401.286	94.5
401.51	86.5
401.734	98.5
401.958	121.5
402.182	157.5
402.406	198.5
402.63	158.5
402.854	112.5
403.078	80.5
403.302	76.5
403.526	91.5
403.75	101.5
403.974	95.5
404.198	99.5
404.422	94.5
404.645	89.5
404.869	110.5
405.093	132.5
405.317	167.5
405.541	157.5
405.765	133.5
405.988	140.5
406.212	233.5
406.436	354.5
406.66	212.5
406.883	126.5
407.107	112.5
407.331	114.5
407.555	103.5
407.778	106.5
408.002	87.5
408.226	91.5
408.449	113.5
408.673	85.5
408.896	104.5
409.12	110.5
409.344	101.5
409.567	86.5
409.791	91.5
410.014	105.5
410.238	110.5
410.461	96.5
410.685	98.5
410.908	106.5
411.132	112.5
411.355	120.5
411.578	98.5
411.802	94.5
412.025	94.5
412.249	103.5
412.472	134.5
412.695	155.5
412.919	132.5
413.142	102.5
413.365	104.5
413.589	91.5
413.812	82.5
414.035	92.5
414.258	99.5
414.482	112.5
414.705	94.5
414.928	88.5
415.151	93.5
415.374	101.5
415.597	102.5
415.821	93.5
416.044	91.5
416.267	103.5
416.49	97.5
416.713	91.5
416.936	107.5
417.159	100.5
417.382	107.5
417.605	119.5
417.828	112.5
418.051	110.5
418.274	103.5
418.497	92.5
418.72	82.5
418.943	88.5
419.166	81.5
419.389	84.5
419.611	95.5
419.834	107.5
420.057	107.5
420.28	94.5
420.503	84.5
420.726	100.5
420.948	105.5
421.171	119.5
421.394	101.5
421.617	101.5
421.839	92.5
422.062	93.5
422.285	100.5
422.507	112.5
422.73	130.5
422.953	113.5
423.175	105.5
423.398	102.5
423.621	96.5
423.843	95.5
424.066	87.5
424.288	88.5
424.511	96.5
424.733	94.5
424.956	125.5
425.178	100.5
425.401	99.5
425.623	96.5
425.846	98.5
426.068	122.5
426.291	93.5
426.513	96.5
426.735	81.5
426.958	110.5
427.18	136.5
427.402	196.5
427.625	302.5
427.847	278.5
428.069	257.5
428.292	130.5
428.514	104.5
428.736	92.5
428.958	81.5
429.181	114.5
429.403	98.5
429.625	85.5
429.847	108.5
430.069	123.5
430.292	96.5
430.514	100.5
430.736	87.5
430.958	96.5
431.18	90.5
431.402	90.5
431.624	91.5
431.846	91.5
432.068	98.5
432.29	98.5
432.512	109.5
432.734	90.5
432.956	99.5
433.178	101.5
433.4	108.5
433.622	90.5
433.844	109.5
434.066	104.5
434.287	90.5
434.509	109.5
434.731	101.5
434.953	97.5
435.175	97.5
435.397	103.5
435.618	93.5
435.84	116.5
436.062	143.5
436.284	129.5
436.505	114.5
436.727	122.5
436.949	115.5
437.17	104.5
437.392	104.5
437.614	104.5
437.835	128.5
438.057	157.5
438.278	135.5
438.5	141.5
438.721	141.5
438.943	102.5
439.165	90.5
439.386	93.5
439.608	100.5
439.829	111.5
440.05	166.5
440.272	197.5
440.493	118.5
440.715	111.5
440.936	78.5
441.158	88.5
441.379	110.5
441.6	103.5
441.822	98.5
442.043	110.5
442.264	123.5
442.486	119.5
442.707	99.5
442.928	127.5
443.149	174.5
443.371	183.5
443.592	140.5
443.813	149.5
444.034	127.5
444.255	98.5
444.476	96.5
444.698	90.5
444.919	86.5
445.14	142.5
445.361	146.5
445.582	144.5
445.803	200.5
446.024	191.5
446.245	168.5
446.466	140.5
446.687	100.5
446.908	90.5
447.129	97.5
447.35	104.5
447.571	97.5
447.792	100.5
448.013	123.5
448.234	124.5
448.455	109.5
448.675	127.5
448.896	133.5
449.117	113.5
449.338	128.5
449.559	149.5
449.779	160.5
450	99.5
450.221	94.5
450.442	105.5
450.662	112.5
450.883	129.5
451.104	149.5
451.324	102.5
451.545	114.5
451.766	96.5
451.986	77.5
452.207	98.5
452.428	97.5
452.648	107.5
452.869	140.5
453.089	146.5
453.31	162.5
453.53	108.5
453.751	114.5
453.971	142.5
454.192	147.5
454.412	111.5
454.633	102.5
454.853	93.5
455.073	84.5
455.294	114.5
455.514	120.5
455.734	93.5
455.955	103.5
456.175	85.5
456.395	82.5
456.616	94.5
456.836	92.5
457.056	98.5
457.276	75.5
457.497	84.5
457.717	93.5
457.937	104.5
458.157	91.5
458.377	103.5
458.598	131.5
458.818	216.5
459.038	254.5
459.258	146.5
459.478	98.5
459.698	90.5
459.918	94.5
460.138	103.5
460.358	96.5
460.578	106.5
460.798	92.5
461.018	88.5
461.238	87.5
461.458	71.5
461.678	96.5
461.898	95.5
462.118	95.5
462.338	96.5
462.558	96.5
462.777	106.5
462.997	98.5
463.217	113.5
463.437	104.5
463.657	96.5
463.876	98.5
464.096	98.5
464.316	95.5
464.536	104.5
464.755	102.5
464.975	139.5
465.195	255.5
465.414	264.5
465.634	118.5
465.854	96.5
466.073	93.5
466.293	95.5
466.512	79.5
466.732	93.5
466.951	107.5
467.171	96.5
467.391	129.5
467.61	163.5
467.829	282.5
468.049	786.5
468.268	1254.5
468.488	297.5
468.707	126.5
468.927	99.5
469.146	87.5
469.365	99.5
469.585	103.5
469.804	115.5
470.023	137.5
470.243	116.5
470.462	127.5
470.681	154.5
470.901	115.5
471.12	111.5
471.339	112.5
471.558	144.5
471.777	187.5
471.997	413.5
472.216	1520.5
472.435	3620.5
472.654	796.5
472.873	214.5
473.092	135.5
473.311	102.5
473.53	108.5
473.749	101.5
473.968	109.5
474.187	134.5
474.406	119.5
474.625	96.5
474.844	88.5
475.063	94.5
475.282	87.5
475.501	94.5
475.72	111.5
475.939	96.5
476.158	97.5
476.377	94.5
476.596	108.5
476.814	108.5
477.033	98.5
477.252	104.5
477.471	104.5
477.69	99.5
477.908	99.5
478.127	101.5
478.346	102.5
478.564	96.5
478.783	127.5
479.002	111.5
479.22	122.5
479.439	146.5
479.658	158.5
479.876	131.5
480.095	153.5
480.313	160.5
480.532	194.5
480.751	354.5
480.969	1300.5
481.188	6020.5
481.406	3444.5
481.624	483.5
481.843	168.5
482.061	116.5
482.28	122.5
482.498	100.5
482.717	113.5
482.935	95.5
483.153	114.5
483.372	92.5
483.59	92.5
483.808	97.5
484.027	98.5
484.245	99.5
484.463	95.5
484.681	88.5
484.9	103.5
485.118	102.5
485.336	91.5
485.554	103.5
485.772	100.5
485.99	105.5
486.209	115.5
486.427	122.5
486.645	131.5
486.863	138.5
487.081	121.5
487.299	114.5
487.517	99.5
487.735	110.5
487.953	94.5
488.171	105.5
488.389	113.5
488.607	112.5
488.825	106.5
489.043	103.5
489.261	107.5
489.479	98.5
489.696	97.5
489.914	91.5
490.132	96.5
490.35	83.5
490.568	87.5
490.786	98.5
491.003	87.5
491.221	99.5
491.439	104.5
491.657	105.5
491.874	82.5
492.092	80.5
492.31	103.5
492.527	108.5
492.745	104.5
492.963	98.5
493.18	104.5
493.398	104.5
493.615	106.5
493.833	107.5
494.05	85.5
494.268	105.5
494.485	94.5
494.703	86.5
494.92	93.5
495.138	76.5
495.355	85.5
495.573	101.5
495.79	95.5
496.008	90.5
496.225	98.5
496.442	84.5
496.66	91.5
496.877	102.5
497.094	97.5
497.312	99.5
497.529	96.5
497.746	90.5
497.963	109.5
498.181	107.5
498.398	95.5
498.615	126.5
498.832	124.5
499.049	100.5
499.267	88.5
499.484	102.5
499.701	110.5
499.918	94.5
500.135	82.5
500.352	106.5
500.569	101.5
500.786	95.5
501.003	94.5
501.22	83.5
501.437	94.5
501.654	101.5
501.871	132.5
502.088	88.5
502.305	100.5
502.522	84.5
502.739	104.5
502.956	96.5
503.172	94.5
503.389	120.5
503.606	126.5
503.823	125.5
504.04	117.5
504.256	105.5
504.473	98.5
504.69	97.5
504.907	107.5
505.123	93.5
505.34	96.5
505.557	91.5
505.773	101.5
505.99	98.5
506.207	90.5
506.423	90.5
506.64	101.5
506.856	103.5
507.073	94.5
507.289	84.5
507.506	106.5
507.722	143.5
507.939	144.5
508.155	114.5
508.372	103.5
508.588	92.5
508.805	106.5
509.021	112.5
509.238	108.5
509.454	93.5
509.67	107.5
509.887	117.5
510.103	135.5
510.319	248.5
510.536	919.5
510.752	3313.5
510.968	871.5
511.184	180.5
511.401	139.5
511.617	113.5
511.833	114.5
512.049	113.5
512.265	99.5
512.481	97.5
512.698	103.5
512.914	88.5
513.13	109.5
513.346	99.5
513.562	110.5
513.778	114.5
513.994	112.5
514.21	116.5
514.426	165.5
514.642	217.5
514.858	175.5
515.074	225.5
515.29	770.5
515.506	2805.5
515.721	988.5
515.937	244.5
516.153	147.5
516.369	113.5
516.585	125.5
516.801	113.5
517.016	103.5
517.232	104.5
517.448	100.5
517.664	103.5
517.879	98.5
518.095	104.5
518.311	108.5
518.527	118.5
518.742	90.5
518.958	108.5
519.173	98.5
519.389	112.5
519.605	102.5
519.82	91.5
520.036	124.5
520.251	169.5
520.467	148.5
520.682	131.5
520.898	133.5
521.113	141.5
521.329	193.5
521.544	323.5
521.76	994.5
521.975	4771.5
522.19	2754.5
522.406	563.5
522.621	190.5
522.836	117.5
523.052	114.5
523.267	112.5
523.482	108.5
523.698	120.5
523.913	147.5
524.128	114.5
524.343	111.5
524.559	103.5
524.774	90.5
524.989	119.5
525.204	129.5
525.419	125.5
525.634	107.5
525.849	107.5
526.064	84.5
526.28	104.5
526.495	95.5
526.71	98.5
526.925	88.5
527.14	89.5
527.355	106.5
527.57	107.5
527.785	99.5
527.999	94.5
528.214	114.5
528.429	103.5
528.644	110.5
528.859	104.5
529.074	107.5
