Data from Circ_1995_H10_HRD10591_00074.txt Node
Date: Wed Jan 03 11:37:01 EST 2024
User: Yrep
Spectrometer: HR+D1059
Trigger mode: 1
Integration Time (sec): 1.000000E-1
Scans to average: 1
Electric dark correction enabled: true
Nonlinearity correction enabled: false
Boxcar width: 0
XAxis mode: Wavelengths
Number of Pixels in Spectrum: 2048
>>>>>Begin Spectral Data<<<<<
223.165	-10.31
223.4	-10.31
223.635	-10.31
223.869	-16.31
224.104	-9.31
224.338	-19.31
224.573	-29.31
224.808	-19.31
225.042	7.69
225.277	-6.31
225.511	3.69
225.746	12.69
225.98	-4.31
226.215	6.69
226.449	7.69
226.683	15.69
226.918	27.69
227.152	32.69
227.387	52.69
227.621	51.69
227.856	47.69
228.09	61.69
228.324	59.69
228.559	62.69
228.793	62.69
229.027	63.69
229.262	79.69
229.496	87.69
229.73	102.69
229.964	94.69
230.199	62.69
230.433	72.69
230.667	80.69
230.901	65.69
231.136	86.69
231.37	71.69
231.604	74.69
231.838	79.69
232.072	76.69
232.306	78.69
232.541	83.69
232.775	71.69
233.009	68.69
233.243	67.69
233.477	74.69
233.711	73.69
233.945	79.69
234.179	89.69
234.413	80.69
234.647	81.69
234.881	77.69
235.115	78.69
235.349	84.69
235.583	90.69
235.817	87.69
236.051	83.69
236.285	82.69
236.519	87.69
236.753	80.69
236.987	89.69
237.221	75.69
237.455	96.69
237.689	76.69
237.922	73.69
238.156	96.69
238.39	76.69
238.624	71.69
238.858	70.69
239.091	76.69
239.325	94.69
239.559	85.69
239.793	99.69
240.027	84.69
240.26	85.69
240.494	80.69
240.728	86.69
240.961	88.69
241.195	72.69
241.429	77.69
241.662	76.69
241.896	61.69
242.13	68.69
242.363	73.69
242.597	65.69
242.83	78.69
243.064	80.69
243.298	94.69
243.531	79.69
243.765	77.69
243.998	87.69
244.232	75.69
244.465	90.69
244.699	79.69
244.932	77.69
245.166	80.69
245.399	86.69
245.633	83.69
245.866	80.69
246.099	79.69
246.333	72.69
246.566	80.69
246.8	83.69
247.033	89.69
247.266	84.69
247.5	78.69
247.733	82.69
247.966	82.69
248.2	77.69
248.433	90.69
248.666	94.69
248.899	83.69
249.133	92.69
249.366	105.69
249.599	127.69
249.832	84.69
250.066	81.69
250.299	88.69
250.532	79.69
250.765	92.69
250.998	85.69
251.231	72.69
251.465	92.69
251.698	91.69
251.931	75.69
252.164	83.69
252.397	79.69
252.63	71.69
252.863	79.69
253.096	91.69
253.329	87.69
253.562	78.69
253.795	82.69
254.028	83.69
254.261	63.69
254.494	83.69
254.727	90.69
254.96	76.69
255.193	76.69
255.426	80.69
255.659	91.69
255.892	81.69
256.124	98.69
256.357	84.69
256.59	78.69
256.823	73.69
257.056	92.69
257.289	85.69
257.521	91.69
257.754	84.69
257.987	91.69
258.22	95.69
258.452	99.69
258.685	97.69
258.918	85.69
259.151	82.69
259.383	90.69
259.616	87.69
259.849	84.69
260.081	72.69
260.314	80.69
260.547	90.69
260.779	106.69
261.012	112.69
261.244	110.69
261.477	103.69
261.71	124.69
261.942	137.69
262.175	124.69
262.407	90.69
262.64	83.69
262.872	91.69
263.105	100.69
263.337	89.69
263.57	97.69
263.802	82.69
264.035	89.69
264.267	79.69
264.499	82.69
264.732	78.69
264.964	83.69
265.197	90.69
265.429	92.69
265.661	87.69
265.894	84.69
266.126	82.69
266.358	78.69
266.591	88.69
266.823	83.69
267.055	84.69
267.287	95.69
267.52	96.69
267.752	86.69
267.984	99.69
268.216	86.69
268.448	98.69
268.681	88.69
268.913	97.69
269.145	86.69
269.377	96.69
269.609	86.69
269.841	80.69
270.073	74.69
270.306	83.69
270.538	91.69
270.77	86.69
271.002	80.69
271.234	83.69
271.466	92.69
271.698	88.69
271.93	93.69
272.162	90.69
272.394	95.69
272.626	72.69
272.858	84.69
273.09	86.69
273.322	89.69
273.553	67.69
273.785	80.69
274.017	92.69
274.249	89.69
274.481	90.69
274.713	80.69
274.945	88.69
275.176	92.69
275.408	94.69
275.64	113.69
275.872	139.69
276.104	118.69
276.335	97.69
276.567	126.69
276.799	154.69
277.031	194.69
277.262	231.69
277.494	175.69
277.726	114.69
277.957	97.69
278.189	84.69
278.421	83.69
278.652	94.69
278.884	87.69
279.115	90.69
279.347	100.69
279.579	110.69
279.81	142.69
280.042	210.69
280.273	356.69
280.505	219.69
280.736	121.69
280.968	97.69
281.199	94.69
281.431	94.69
281.662	94.69
281.894	88.69
282.125	115.69
282.356	123.69
282.588	173.69
282.819	126.69
283.051	96.69
283.282	90.69
283.513	96.69
283.745	83.69
283.976	84.69
284.207	100.69
284.439	94.69
284.67	93.69
284.901	85.69
285.132	85.69
285.364	82.69
285.595	98.69
285.826	91.69
286.057	97.69
286.288	86.69
286.52	99.69
286.751	82.69
286.982	88.69
287.213	96.69
287.444	94.69
287.675	68.69
287.906	87.69
288.138	90.69
288.369	96.69
288.6	94.69
288.831	104.69
289.062	96.69
289.293	81.69
289.524	83.69
289.755	71.69
289.986	96.69
290.217	85.69
290.448	82.69
290.679	90.69
290.91	89.69
291.141	103.69
291.371	88.69
291.602	95.69
291.833	92.69
292.064	78.69
292.295	95.69
292.526	84.69
292.757	86.69
292.987	62.69
293.218	92.69
293.449	88.69
293.68	96.69
293.91	69.69
294.141	91.69
294.372	99.69
294.603	88.69
294.833	97.69
295.064	103.69
295.295	73.69
295.525	89.69
295.756	105.69
295.987	124.69
296.217	176.69
296.448	146.69
296.679	99.69
296.909	88.69
297.14	86.69
297.37	92.69
297.601	93.69
297.831	95.69
298.062	111.69
298.292	92.69
298.523	92.69
298.753	92.69
298.984	83.69
299.214	92.69
299.445	83.69
299.675	106.69
299.905	105.69
300.136	98.69
300.366	103.69
300.597	97.69
300.827	95.69
301.057	116.69
301.288	115.69
301.518	99.69
301.748	97.69
301.979	121.69
302.209	122.69
302.439	111.69
302.669	88.69
302.9	98.69
303.13	103.69
303.36	111.69
303.59	151.69
303.82	164.69
304.051	117.69
304.281	104.69
304.511	91.69
304.741	86.69
304.971	96.69
305.201	96.69
305.431	86.69
305.661	75.69
305.891	98.69
306.121	111.69
306.352	110.69
306.582	119.69
306.812	108.69
307.042	124.69
307.272	182.69
307.502	197.69
307.731	179.69
307.961	150.69
308.191	96.69
308.421	103.69
308.651	96.69
308.881	89.69
309.111	98.69
309.341	94.69
309.571	94.69
309.8	112.69
310.03	102.69
310.26	100.69
310.49	101.69
310.72	107.69
310.949	111.69
311.179	118.69
311.409	103.69
311.639	103.69
311.868	96.69
312.098	100.69
312.328	108.69
312.557	120.69
312.787	108.69
313.017	106.69
313.246	102.69
313.476	93.69
313.706	106.69
313.935	94.69
314.165	104.69
314.394	123.69
314.624	126.69
314.853	102.69
315.083	102.69
315.312	93.69
315.542	83.69
315.771	88.69
316.001	87.69
316.23	99.69
316.46	90.69
316.689	93.69
316.919	91.69
317.148	99.69
317.377	100.69
317.607	96.69
317.836	105.69
318.065	92.69
318.295	101.69
318.524	90.69
318.753	91.69
318.983	95.69
319.212	95.69
319.441	99.69
319.67	118.69
319.9	104.69
320.129	109.69
320.358	95.69
320.587	90.69
320.816	94.69
321.046	111.69
321.275	97.69
321.504	95.69
321.733	94.69
321.962	100.69
322.191	105.69
322.42	116.69
322.649	115.69
322.878	123.69
323.108	131.69
323.337	158.69
323.566	159.69
323.795	187.69
324.024	270.69
324.253	514.69
324.482	1123.69
324.71	2380.69
324.939	3182.69
325.168	1135.69
325.397	319.69
325.626	189.69
325.855	158.69
326.084	145.69
326.313	156.69
326.542	186.69
326.77	253.69
326.999	556.69
327.228	1194.69
327.457	2273.69
327.686	1812.69
327.914	621.69
328.143	653.69
328.372	863.69
328.6	454.69
328.829	208.69
329.058	193.69
329.287	222.69
329.515	210.69
329.744	301.69
329.972	594.69
330.201	1252.69
330.43	1896.69
330.658	818.69
330.887	347.69
331.115	200.69
331.344	139.69
331.572	124.69
331.801	141.69
332.03	141.69
332.258	130.69
332.486	120.69
332.715	109.69
332.943	126.69
333.172	126.69
333.4	140.69
333.629	182.69
333.857	264.69
334.085	519.69
334.314	1130.69
334.542	2289.69
334.771	2224.69
334.999	574.69
335.227	195.69
335.455	129.69
335.684	123.69
335.912	116.69
336.14	108.69
336.369	137.69
336.597	118.69
336.825	106.69
337.053	84.69
337.281	100.69
337.51	96.69
337.738	102.69
337.966	87.69
338.194	94.69
338.422	100.69
338.65	93.69
338.878	103.69
339.106	103.69
339.334	92.69
339.562	96.69
339.79	86.69
340.018	100.69
340.246	88.69
340.474	106.69
340.702	99.69
340.93	89.69
341.158	96.69
341.386	78.69
341.614	108.69
341.842	106.69
342.07	100.69
342.298	91.69
342.526	95.69
342.754	98.69
342.981	94.69
343.209	86.69
343.437	104.69
343.665	94.69
343.893	91.69
344.12	95.69
344.348	90.69
344.576	106.69
344.804	87.69
345.031	109.69
345.259	110.69
345.487	102.69
345.714	92.69
345.942	99.69
346.17	95.69
346.397	98.69
346.625	91.69
346.853	90.69
347.08	84.69
347.308	93.69
347.535	113.69
347.763	121.69
347.99	104.69
348.218	105.69
348.445	119.69
348.673	103.69
348.9	126.69
349.128	94.69
349.355	82.69
349.583	83.69
349.81	94.69
350.037	114.69
350.265	94.69
350.492	95.69
350.72	93.69
350.947	99.69
351.174	108.69
351.402	124.69
351.629	103.69
351.856	120.69
352.083	113.69
352.311	127.69
352.538	126.69
352.765	137.69
352.992	125.69
353.22	108.69
353.447	95.69
353.674	102.69
353.901	87.69
354.128	109.69
354.355	104.69
354.583	96.69
354.81	99.69
355.037	89.69
355.264	87.69
355.491	86.69
355.718	79.69
355.945	74.69
356.172	83.69
356.399	93.69
356.626	84.69
356.853	94.69
357.08	88.69
357.307	104.69
357.534	96.69
357.761	87.69
357.988	97.69
358.215	103.69
358.441	88.69
358.668	88.69
358.895	92.69
359.122	95.69
359.349	74.69
359.576	88.69
359.802	112.69
360.029	138.69
360.256	141.69
360.483	118.69
360.709	90.69
360.936	113.69
361.163	96.69
361.39	102.69
361.616	107.69
361.843	95.69
362.07	107.69
362.296	106.69
362.523	108.69
362.749	101.69
362.976	93.69
363.203	81.69
363.429	86.69
363.656	106.69
363.882	82.69
364.109	92.69
364.335	104.69
364.562	102.69
364.788	92.69
365.015	95.69
365.241	111.69
365.468	111.69
365.694	112.69
365.92	124.69
366.147	90.69
366.373	84.69
366.599	74.69
366.826	99.69
367.052	102.69
367.278	95.69
367.505	78.69
367.731	87.69
367.957	97.69
368.184	123.69
368.41	102.69
368.636	128.69
368.862	132.69
369.089	119.69
369.315	98.69
369.541	99.69
369.767	96.69
369.993	92.69
370.219	92.69
370.445	83.69
370.672	83.69
370.898	91.69
371.124	97.69
371.35	86.69
371.576	83.69
371.802	87.69
372.028	79.69
372.254	74.69
372.48	97.69
372.706	87.69
372.932	92.69
373.158	75.69
373.384	80.69
373.61	110.69
373.835	95.69
374.061	87.69
374.287	95.69
374.513	79.69
374.739	90.69
374.965	94.69
375.191	76.69
375.416	92.69
375.642	82.69
375.868	92.69
376.094	106.69
376.319	90.69
376.545	93.69
376.771	102.69
376.997	84.69
377.222	97.69
377.448	85.69
377.674	86.69
377.899	90.69
378.125	90.69
378.35	97.69
378.576	96.69
378.802	69.69
379.027	92.69
379.253	87.69
379.478	102.69
379.704	75.69
379.929	84.69
380.155	76.69
380.38	86.69
380.606	105.69
380.831	93.69
381.057	90.69
381.282	90.69
381.507	108.69
381.733	100.69
381.958	80.69
382.184	104.69
382.409	101.69
382.634	96.69
382.86	113.69
383.085	98.69
383.31	89.69
383.535	96.69
383.761	94.69
383.986	87.69
384.211	110.69
384.436	91.69
384.662	95.69
384.887	105.69
385.112	90.69
385.337	97.69
385.562	106.69
385.787	105.69
386.013	108.69
386.238	126.69
386.463	107.69
386.688	106.69
386.913	100.69
387.138	94.69
387.363	103.69
387.588	97.69
387.813	119.69
388.038	102.69
388.263	105.69
388.488	108.69
388.713	97.69
388.938	99.69
389.163	96.69
389.387	96.69
389.612	96.69
389.837	90.69
390.062	110.69
390.287	91.69
390.512	97.69
390.736	82.69
390.961	74.69
391.186	77.69
391.411	94.69
391.636	82.69
391.86	80.69
392.085	74.69
392.31	85.69
392.534	88.69
392.759	83.69
392.984	99.69
393.208	80.69
393.433	82.69
393.658	82.69
393.882	94.69
394.107	89.69
394.331	94.69
394.556	97.69
394.78	90.69
395.005	85.69
395.229	84.69
395.454	87.69
395.678	96.69
395.903	98.69
396.127	94.69
396.352	96.69
396.576	81.69
396.801	68.69
397.025	84.69
397.249	84.69
397.474	95.69
397.698	102.69
397.922	80.69
398.147	97.69
398.371	105.69
398.595	97.69
398.82	91.69
399.044	86.69
399.268	78.69
399.492	88.69
399.717	87.69
399.941	92.69
400.165	100.69
400.389	89.69
400.613	84.69
400.837	87.69
401.062	94.69
401.286	98.69
401.51	111.69
401.734	100.69
401.958	114.69
402.182	162.69
402.406	204.69
402.63	156.69
402.854	98.69
403.078	92.69
403.302	83.69
403.526	100.69
403.75	98.69
403.974	88.69
404.198	100.69
404.422	95.69
404.645	79.69
404.869	96.69
405.093	123.69
405.317	152.69
405.541	131.69
405.765	118.69
405.988	137.69
406.212	205.69
406.436	298.69
406.66	217.69
406.883	123.69
407.107	123.69
407.331	108.69
407.555	118.69
407.778	101.69
408.002	93.69
408.226	88.69
408.449	100.69
408.673	93.69
408.896	80.69
409.12	108.69
409.344	95.69
409.567	88.69
409.791	100.69
410.014	97.69
410.238	96.69
410.461	100.69
410.685	86.69
410.908	94.69
411.132	98.69
411.355	99.69
411.578	100.69
411.802	86.69
412.025	96.69
412.249	107.69
412.472	116.69
412.695	132.69
412.919	114.69
413.142	102.69
413.365	89.69
413.589	94.69
413.812	88.69
414.035	90.69
414.258	103.69
414.482	88.69
414.705	82.69
414.928	92.69
415.151	90.69
415.374	93.69
415.597	87.69
415.821	90.69
416.044	99.69
416.267	95.69
416.49	83.69
416.713	92.69
416.936	72.69
417.159	95.69
417.382	99.69
417.605	104.69
417.828	124.69
418.051	113.69
418.274	93.69
418.497	77.69
418.72	76.69
418.943	90.69
419.166	88.69
419.389	106.69
419.611	105.69
419.834	98.69
420.057	96.69
420.28	105.69
420.503	96.69
420.726	87.69
420.948	100.69
421.171	107.69
421.394	93.69
421.617	79.69
421.839	88.69
422.062	93.69
422.285	94.69
422.507	106.69
422.73	102.69
422.953	108.69
423.175	96.69
423.398	85.69
423.621	90.69
423.843	84.69
424.066	81.69
424.288	92.69
424.511	97.69
424.733	100.69
424.956	114.69
425.178	112.69
425.401	115.69
425.623	90.69
425.846	79.69
426.068	109.69
426.291	84.69
426.513	105.69
426.735	91.69
426.958	109.69
427.18	135.69
427.402	176.69
427.625	277.69
427.847	274.69
428.069	252.69
428.292	152.69
428.514	100.69
428.736	94.69
428.958	67.69
429.181	74.69
429.403	93.69
429.625	102.69
429.847	97.69
430.069	118.69
430.292	107.69
430.514	104.69
430.736	91.69
430.958	98.69
431.18	91.69
431.402	79.69
431.624	71.69
431.846	86.69
432.068	89.69
432.29	91.69
432.512	84.69
432.734	93.69
432.956	95.69
433.178	111.69
433.4	94.69
433.622	88.69
433.844	86.69
434.066	88.69
434.287	89.69
434.509	87.69
434.731	75.69
434.953	88.69
435.175	90.69
435.397	104.69
435.618	95.69
435.84	99.69
436.062	137.69
436.284	127.69
436.505	109.69
436.727	97.69
436.949	92.69
437.17	91.69
437.392	89.69
437.614	102.69
437.835	123.69
438.057	151.69
438.278	142.69
438.5	117.69
438.721	134.69
438.943	110.69
439.165	86.69
439.386	85.69
439.608	90.69
439.829	105.69
440.05	171.69
440.272	179.69
440.493	111.69
440.715	107.69
440.936	80.69
441.158	90.69
441.379	99.69
441.6	95.69
441.822	103.69
442.043	104.69
442.264	114.69
442.486	111.69
442.707	104.69
442.928	108.69
443.149	173.69
443.371	190.69
443.592	135.69
443.813	131.69
444.034	125.69
444.255	102.69
444.476	91.69
444.698	95.69
444.919	87.69
445.14	131.69
445.361	138.69
445.582	139.69
445.803	153.69
446.024	173.69
446.245	174.69
446.466	131.69
446.687	100.69
446.908	92.69
447.129	105.69
447.35	82.69
447.571	103.69
447.792	100.69
448.013	113.69
448.234	109.69
448.455	108.69
448.675	118.69
448.896	136.69
449.117	103.69
449.338	118.69
449.559	136.69
449.779	152.69
450	91.69
450.221	103.69
450.442	82.69
450.662	106.69
450.883	138.69
451.104	129.69
451.324	95.69
451.545	90.69
451.766	94.69
451.986	83.69
452.207	92.69
452.428	101.69
452.648	105.69
452.869	141.69
453.089	128.69
453.31	139.69
453.53	95.69
453.751	95.69
453.971	124.69
454.192	148.69
454.412	105.69
454.633	95.69
454.853	91.69
455.073	77.69
455.294	99.69
455.514	108.69
455.734	85.69
455.955	82.69
456.175	72.69
456.395	79.69
456.616	82.69
456.836	75.69
457.056	93.69
457.276	89.69
457.497	99.69
457.717	90.69
457.937	110.69
458.157	95.69
458.377	79.69
458.598	121.69
458.818	201.69
459.038	236.69
459.258	150.69
459.478	98.69
459.698	104.69
459.918	80.69
460.138	85.69
460.358	92.69
460.578	99.69
460.798	96.69
461.018	87.69
461.238	84.69
461.458	79.69
461.678	89.69
461.898	87.69
462.118	87.69
462.338	86.69
462.558	78.69
462.777	104.69
462.997	98.69
463.217	121.69
463.437	99.69
463.657	83.69
463.876	84.69
464.096	93.69
464.316	110.69
464.536	101.69
464.755	92.69
464.975	128.69
465.195	236.69
465.414	234.69
465.634	119.69
465.854	94.69
466.073	82.69
466.293	95.69
466.512	96.69
466.732	97.69
466.951	106.69
467.171	117.69
467.391	129.69
467.61	154.69
467.829	245.69
468.049	750.69
468.268	1180.69
468.488	266.69
468.707	126.69
468.927	96.69
469.146	101.69
469.365	92.69
469.585	90.69
469.804	124.69
470.023	115.69
470.243	120.69
470.462	123.69
470.681	131.69
470.901	111.69
471.12	108.69
471.339	114.69
471.558	127.69
471.777	164.69
471.997	357.69
472.216	1387.69
472.435	3396.69
472.654	729.69
472.873	194.69
473.092	116.69
473.311	99.69
473.53	115.69
473.749	116.69
473.968	105.69
474.187	120.69
474.406	100.69
474.625	93.69
474.844	90.69
475.063	102.69
475.282	88.69
475.501	88.69
475.72	94.69
475.939	82.69
476.158	74.69
476.377	89.69
476.596	99.69
476.814	103.69
477.033	99.69
477.252	72.69
477.471	79.69
477.69	101.69
477.908	106.69
478.127	94.69
478.346	90.69
478.564	114.69
478.783	111.69
479.002	100.69
479.22	110.69
479.439	134.69
479.658	144.69
479.876	114.69
480.095	129.69
480.313	151.69
480.532	176.69
480.751	345.69
480.969	1251.69
481.188	5627.69
481.406	3186.69
481.624	421.69
481.843	146.69
482.061	128.69
482.28	119.69
482.498	95.69
482.717	96.69
482.935	93.69
483.153	95.69
483.372	92.69
483.59	98.69
483.808	96.69
484.027	95.69
484.245	89.69
484.463	99.69
484.681	104.69
484.9	94.69
485.118	112.69
485.336	89.69
485.554	100.69
485.772	106.69
485.99	113.69
486.209	100.69
486.427	99.69
486.645	125.69
486.863	110.69
487.081	116.69
487.299	90.69
487.517	108.69
487.735	104.69
487.953	92.69
488.171	103.69
488.389	105.69
488.607	107.69
488.825	106.69
489.043	93.69
489.261	91.69
489.479	96.69
489.696	90.69
489.914	95.69
490.132	96.69
490.35	93.69
490.568	99.69
490.786	86.69
491.003	98.69
491.221	95.69
491.439	97.69
491.657	75.69
491.874	86.69
492.092	100.69
492.31	113.69
492.527	86.69
492.745	103.69
492.963	99.69
493.18	77.69
493.398	100.69
493.615	96.69
493.833	98.69
494.05	102.69
494.268	97.69
494.485	86.69
494.703	87.69
494.92	76.69
495.138	91.69
495.355	93.69
495.573	95.69
495.79	104.69
496.008	91.69
496.225	103.69
496.442	99.69
496.66	88.69
496.877	98.69
497.094	97.69
497.312	99.69
497.529	100.69
497.746	97.69
497.963	98.69
498.181	92.69
498.398	96.69
498.615	119.69
498.832	106.69
499.049	100.69
499.267	97.69
499.484	87.69
499.701	95.69
499.918	104.69
500.135	90.69
500.352	95.69
500.569	108.69
500.786	106.69
501.003	88.69
501.22	88.69
501.437	91.69
501.654	110.69
501.871	132.69
502.088	96.69
502.305	95.69
502.522	81.69
502.739	93.69
502.956	92.69
503.172	108.69
503.389	109.69
503.606	119.69
503.823	109.69
504.04	92.69
504.256	95.69
504.473	87.69
504.69	78.69
504.907	97.69
505.123	94.69
505.34	93.69
505.557	101.69
505.773	97.69
505.99	78.69
506.207	88.69
506.423	80.69
506.64	98.69
506.856	103.69
507.073	106.69
507.289	99.69
507.506	101.69
507.722	115.69
507.939	130.69
508.155	87.69
508.372	88.69
508.588	96.69
508.805	98.69
509.021	107.69
509.238	96.69
509.454	98.69
509.67	94.69
509.887	137.69
510.103	151.69
510.319	254.69
510.536	940.69
510.752	3283.69
510.968	880.69
511.184	184.69
511.401	122.69
511.617	105.69
511.833	105.69
512.049	100.69
512.265	84.69
512.481	93.69
512.698	89.69
512.914	94.69
