Data from Circ_1995_H10_HRD10591_00039.txt Node
Date: Wed Jan 03 11:36:54 EST 2024
User: Yrep
Spectrometer: HR+D1059
Trigger mode: 1
Integration Time (sec): 1.000000E-1
Scans to average: 1
Electric dark correction enabled: true
Nonlinearity correction enabled: false
Boxcar width: 0
XAxis mode: Wavelengths
Number of Pixels in Spectrum: 2048
>>>>>Begin Spectral Data<<<<<
223.165	-21
223.4	-21
223.635	-21
223.869	-29
224.104	-30
224.338	-26
224.573	-14
224.808	-5
225.042	0
225.277	9
225.511	-13
225.746	15
225.98	12
226.215	5
226.449	16
226.683	15
226.918	15
227.152	51
227.387	45
227.621	48
227.856	55
228.09	63
228.324	44
228.559	56
228.793	60
229.027	71
229.262	79
229.496	90
229.73	120
229.964	103
230.199	83
230.433	94
230.667	78
230.901	68
231.136	87
231.37	74
231.604	91
231.838	75
232.072	80
232.306	85
232.541	69
232.775	83
233.009	80
233.243	84
233.477	79
233.711	84
233.945	77
234.179	79
234.413	71
234.647	92
234.881	90
235.115	81
235.349	89
235.583	80
235.817	81
236.051	76
236.285	69
236.519	78
236.753	77
236.987	78
237.221	99
237.455	122
237.689	72
237.922	82
238.156	86
238.39	70
238.624	69
238.858	74
239.091	70
239.325	75
239.559	86
239.793	78
240.027	94
240.26	89
240.494	74
240.728	88
240.961	92
241.195	78
241.429	88
241.662	76
241.896	85
242.13	87
242.363	77
242.597	74
242.83	74
243.064	81
243.298	82
243.531	91
243.765	82
243.998	72
244.232	94
244.465	102
244.699	78
244.932	83
245.166	97
245.399	81
245.633	99
245.866	78
246.099	79
246.333	78
246.566	91
246.8	78
247.033	88
247.266	72
247.5	79
247.733	82
247.966	89
248.2	92
248.433	96
248.666	92
248.899	80
249.133	97
249.366	114
249.599	124
249.832	95
250.066	93
250.299	78
250.532	87
250.765	94
250.998	78
251.231	75
251.465	93
251.698	90
251.931	96
252.164	91
252.397	100
252.63	96
252.863	95
253.096	84
253.329	74
253.562	88
253.795	100
254.028	77
254.261	82
254.494	86
254.727	86
254.96	87
255.193	79
255.426	94
255.659	101
255.892	105
256.124	98
256.357	109
256.59	100
256.823	83
257.056	96
257.289	95
257.521	103
257.754	97
257.987	95
258.22	98
258.452	113
258.685	107
258.918	96
259.151	83
259.383	102
259.616	81
259.849	79
260.081	83
260.314	100
260.547	103
260.779	108
261.012	123
261.244	131
261.477	113
261.71	119
261.942	151
262.175	160
262.407	115
262.64	80
262.872	83
263.105	88
263.337	95
263.57	89
263.802	94
264.035	93
264.267	94
264.499	94
264.732	76
264.964	88
265.197	76
265.429	84
265.661	85
265.894	79
266.126	97
266.358	89
266.591	78
266.823	94
267.055	79
267.287	96
267.52	93
267.752	88
267.984	74
268.216	85
268.448	93
268.681	89
268.913	97
269.145	90
269.377	89
269.609	81
269.841	87
270.073	88
270.306	98
270.538	87
270.77	88
271.002	94
271.234	101
271.466	110
271.698	94
271.93	107
272.162	90
272.394	97
272.626	100
272.858	101
273.09	85
273.322	91
273.553	84
273.785	75
274.017	103
274.249	95
274.481	92
274.713	91
274.945	101
275.176	108
275.408	100
275.64	109
275.872	140
276.104	122
276.335	120
276.567	138
276.799	175
277.031	226
277.262	276
277.494	192
277.726	131
277.957	87
278.189	94
278.421	108
278.652	88
278.884	97
279.115	94
279.347	89
279.579	116
279.81	150
280.042	253
280.273	352
280.505	249
280.736	122
280.968	103
281.199	91
281.431	96
281.662	99
281.894	112
282.125	110
282.356	142
282.588	195
282.819	163
283.051	99
283.282	95
283.513	81
283.745	72
283.976	101
284.207	104
284.439	111
284.67	95
284.901	82
285.132	86
285.364	86
285.595	90
285.826	95
286.057	107
286.288	90
286.52	71
286.751	84
286.982	88
287.213	80
287.444	101
287.675	94
287.906	87
288.138	105
288.369	90
288.6	109
288.831	103
289.062	93
289.293	88
289.524	93
289.755	93
289.986	94
290.217	92
290.448	90
290.679	85
290.91	98
291.141	98
291.371	95
291.602	96
291.833	94
292.064	90
292.295	115
292.526	100
292.757	108
292.987	106
293.218	85
293.449	87
293.68	81
293.91	89
294.141	90
294.372	88
294.603	98
294.833	87
295.064	100
295.295	95
295.525	90
295.756	120
295.987	149
296.217	178
296.448	175
296.679	93
296.909	98
297.14	94
297.37	103
297.601	101
297.831	107
298.062	99
298.292	112
298.523	91
298.753	101
298.984	86
299.214	97
299.445	96
299.675	116
299.905	112
300.136	92
300.366	91
300.597	88
300.827	90
301.057	129
301.288	127
301.518	119
301.748	106
301.979	125
302.209	117
302.439	106
302.669	103
302.9	114
303.13	107
303.36	111
303.59	163
303.82	182
304.051	118
304.281	104
304.511	89
304.741	87
304.971	95
305.201	103
305.431	103
305.661	98
305.891	113
306.121	112
306.352	115
306.582	126
306.812	111
307.042	152
307.272	200
307.502	215
307.731	216
307.961	144
308.191	115
308.421	108
308.651	95
308.881	89
309.111	95
309.341	100
309.571	119
309.8	101
310.03	110
310.26	121
310.49	101
310.72	121
310.949	124
311.179	130
311.409	110
311.639	103
311.868	106
312.098	95
312.328	107
312.557	124
312.787	145
313.017	132
313.246	122
313.476	114
313.706	109
313.935	99
314.165	119
314.394	120
314.624	131
314.853	119
315.083	121
315.312	96
315.542	89
315.771	89
316.001	94
316.23	85
316.46	96
316.689	102
316.919	115
317.148	107
317.377	110
317.607	109
317.836	92
318.065	91
318.295	108
318.524	120
318.753	93
318.983	106
319.212	112
319.441	127
319.67	134
319.9	101
320.129	94
320.358	97
320.587	117
320.816	122
321.046	125
321.275	102
321.504	87
321.733	103
321.962	111
322.191	114
322.42	116
322.649	135
322.878	147
323.108	164
323.337	159
323.566	182
323.795	220
324.024	283
324.253	576
324.482	1253
324.71	2627
324.939	3457
325.168	1276
325.397	364
325.626	190
325.855	170
326.084	174
326.313	171
326.542	190
326.77	302
326.999	623
327.228	1298
327.457	2414
327.686	1975
327.914	730
328.143	728
328.372	999
328.6	525
328.829	225
329.058	250
329.287	257
329.515	238
329.744	337
329.972	663
330.201	1402
330.43	2183
330.658	944
330.887	400
331.115	248
331.344	156
331.572	139
331.801	155
332.03	161
332.258	129
332.486	108
332.715	129
332.943	120
333.172	142
333.4	164
333.629	212
333.857	299
334.085	558
334.314	1234
334.542	2638
334.771	2508
334.999	622
335.227	223
335.455	168
335.684	140
335.912	114
336.14	106
336.369	124
336.597	144
336.825	123
337.053	110
337.281	98
337.51	104
337.738	107
337.966	94
338.194	118
338.422	114
338.65	112
338.878	97
339.106	90
339.334	94
339.562	97
339.79	107
340.018	99
340.246	95
340.474	111
340.702	98
340.93	91
341.158	117
341.386	113
341.614	122
341.842	112
342.07	113
342.298	108
342.526	109
342.754	102
342.981	98
343.209	99
343.437	94
343.665	74
343.893	101
344.12	92
344.348	94
344.576	99
344.804	105
345.031	113
345.259	123
345.487	120
345.714	115
345.942	112
346.17	105
346.397	96
346.625	112
346.853	114
347.08	106
347.308	114
347.535	111
347.763	104
347.99	113
348.218	118
348.445	131
348.673	128
348.9	126
349.128	103
349.355	85
349.583	101
349.81	111
350.037	99
350.265	117
350.492	95
350.72	97
350.947	117
351.174	140
351.402	136
351.629	124
351.856	116
352.083	133
352.311	134
352.538	146
352.765	139
352.992	138
353.22	136
353.447	98
353.674	99
353.901	105
354.128	103
354.355	108
354.583	111
354.81	94
355.037	92
355.264	89
355.491	96
355.718	92
355.945	89
356.172	93
356.399	111
356.626	101
356.853	109
357.08	104
357.307	100
357.534	102
357.761	87
357.988	103
358.215	102
358.441	103
358.668	108
358.895	78
359.122	96
359.349	101
359.576	117
359.802	123
360.029	168
360.256	156
360.483	124
360.709	93
360.936	105
361.163	114
361.39	99
361.616	110
361.843	114
362.07	96
362.296	120
362.523	110
362.749	103
362.976	104
363.203	92
363.429	101
363.656	103
363.882	96
364.109	114
364.335	107
364.562	99
364.788	115
365.015	111
365.241	119
365.468	122
365.694	126
365.92	135
366.147	123
366.373	98
366.599	101
366.826	99
367.052	97
367.278	96
367.505	102
367.731	103
367.957	104
368.184	101
368.41	127
368.636	144
368.862	147
369.089	131
369.315	98
369.541	99
369.767	104
369.993	110
370.219	123
370.445	108
370.672	101
370.898	106
371.124	87
371.35	110
371.576	97
371.802	96
372.028	90
372.254	100
372.48	93
372.706	92
372.932	92
373.158	97
373.384	91
373.61	90
373.835	98
374.061	103
374.287	111
374.513	115
374.739	101
374.965	88
375.191	89
375.416	85
375.642	101
375.868	94
376.094	80
376.319	88
376.545	101
376.771	102
376.997	95
377.222	108
377.448	90
377.674	104
377.899	93
378.125	92
378.35	101
378.576	87
378.802	107
379.027	95
379.253	103
379.478	92
379.704	101
379.929	108
380.155	94
380.38	110
380.606	108
380.831	97
381.057	100
381.282	104
381.507	98
381.733	106
381.958	96
382.184	104
382.409	115
382.634	120
382.86	113
383.085	105
383.31	109
383.535	92
383.761	119
383.986	114
384.211	94
384.436	99
384.662	120
384.887	122
385.112	120
385.337	104
385.562	115
385.787	106
386.013	125
386.238	140
386.463	135
386.688	125
386.913	105
387.138	109
387.363	127
387.588	108
387.813	120
388.038	120
388.263	116
388.488	112
388.713	104
388.938	96
389.163	86
389.387	96
389.612	98
389.837	97
390.062	97
390.287	97
390.512	93
390.736	96
390.961	97
391.186	88
391.411	100
391.636	90
391.86	87
392.085	98
392.31	99
392.534	100
392.759	95
392.984	89
393.208	90
393.433	91
393.658	93
393.882	93
394.107	87
394.331	92
394.556	80
394.78	82
395.005	83
395.229	92
395.454	96
395.678	96
395.903	100
396.127	87
396.352	98
396.576	88
396.801	85
397.025	87
397.249	94
397.474	87
397.698	86
397.922	108
398.147	93
398.371	105
398.595	80
398.82	81
399.044	96
399.268	77
399.492	86
399.717	82
399.941	104
400.165	85
400.389	105
400.613	100
400.837	103
401.062	86
401.286	97
401.51	92
401.734	106
401.958	122
402.182	191
402.406	244
402.63	171
402.854	125
403.078	106
403.302	101
403.526	97
403.75	114
403.974	105
404.198	98
404.422	91
404.645	100
404.869	117
405.093	139
405.317	158
405.541	166
405.765	142
405.988	160
406.212	250
406.436	404
406.66	266
406.883	140
407.107	136
407.331	103
407.555	117
407.778	124
408.002	98
408.226	102
408.449	99
408.673	101
408.896	101
409.12	110
409.344	106
409.567	86
409.791	99
410.014	96
410.238	102
410.461	88
410.685	96
410.908	120
411.132	126
411.355	109
411.578	90
411.802	91
412.025	109
412.249	116
412.472	126
412.695	151
412.919	110
413.142	103
413.365	93
413.589	99
413.812	87
414.035	91
414.258	95
414.482	105
414.705	100
414.928	103
415.151	98
415.374	103
415.597	102
415.821	90
416.044	96
416.267	95
416.49	89
416.713	101
416.936	109
417.159	80
417.382	111
417.605	108
417.828	129
418.051	119
418.274	107
418.497	94
418.72	93
418.943	100
419.166	96
419.389	103
419.611	110
419.834	115
420.057	102
420.28	89
420.503	108
420.726	90
420.948	89
421.171	119
421.394	112
421.617	114
421.839	103
422.062	102
422.285	101
422.507	109
422.73	105
422.953	101
423.175	93
423.398	102
423.621	95
423.843	94
424.066	112
424.288	103
424.511	91
424.733	118
424.956	146
425.178	112
425.401	131
425.623	112
425.846	103
426.068	113
426.291	119
426.513	91
426.735	110
426.958	103
427.18	128
427.402	208
427.625	339
427.847	303
428.069	263
428.292	161
428.514	112
428.736	110
428.958	98
429.181	98
429.403	98
429.625	115
429.847	111
430.069	136
430.292	110
430.514	94
430.736	91
430.958	81
431.18	86
431.402	90
431.624	87
431.846	96
432.068	90
432.29	88
432.512	102
432.734	93
432.956	90
433.178	102
433.4	106
433.622	99
433.844	106
434.066	108
434.287	95
434.509	88
434.731	91
434.953	101
435.175	82
435.397	101
435.618	111
435.84	119
436.062	165
436.284	144
436.505	130
436.727	112
436.949	98
437.17	87
437.392	86
437.614	95
437.835	146
438.057	177
438.278	135
438.5	111
438.721	143
438.943	118
439.165	98
439.386	106
439.608	92
439.829	130
440.05	172
440.272	210
440.493	125
440.715	100
440.936	84
441.158	91
441.379	113
441.6	103
441.822	118
442.043	113
442.264	126
442.486	114
442.707	111
442.928	146
443.149	224
443.371	205
443.592	155
443.813	153
444.034	144
444.255	99
444.476	91
444.698	95
444.919	99
445.14	156
445.361	152
445.582	161
445.803	224
446.024	210
446.245	184
446.466	139
446.687	96
446.908	104
447.129	97
447.35	93
447.571	101
447.792	119
448.013	144
448.234	142
448.455	113
448.675	150
448.896	160
449.117	128
449.338	123
449.559	142
449.779	165
450	116
450.221	90
450.442	102
450.662	123
450.883	128
451.104	171
451.324	129
451.545	103
451.766	85
451.986	86
452.207	98
452.428	115
452.648	119
452.869	145
453.089	149
453.31	191
453.53	117
453.751	104
453.971	144
454.192	180
454.412	123
454.633	98
454.853	91
455.073	92
455.294	87
455.514	102
455.734	97
455.955	98
456.175	105
456.395	97
456.616	102
456.836	88
457.056	91
457.276	82
457.497	77
457.717	91
457.937	98
458.157	99
458.377	100
458.598	154
458.818	270
459.038	298
459.258	183
459.478	112
459.698	100
459.918	103
460.138	92
460.358	90
460.578	96
460.798	95
461.018	87
461.238	93
461.458	92
461.678	96
461.898	108
462.118	88
462.338	88
462.558	101
462.777	97
462.997	98
463.217	127
463.437	111
463.657	111
463.876	104
464.096	104
464.316	107
464.536	116
464.755	118
464.975	145
465.195	298
465.414	297
465.634	113
465.854	96
466.073	115
466.293	100
466.512	106
466.732	103
466.951	112
467.171	115
467.391	120
467.61	184
467.829	268
468.049	820
468.268	1267
468.488	310
468.707	127
468.927	101
469.146	105
469.365	91
469.585	93
469.804	139
470.023	142
470.243	112
470.462	139
470.681	177
470.901	123
471.12	119
471.339	120
471.558	147
471.777	189
471.997	380
472.216	1557
472.435	3712
472.654	846
472.873	220
473.092	116
473.311	112
473.53	100
473.749	113
473.968	104
474.187	134
474.406	122
474.625	92
474.844	96
475.063	83
475.282	100
475.501	87
475.72	99
475.939	99
476.158	93
476.377	102
476.596	102
476.814	115
477.033	110
477.252	108
477.471	101
477.69	101
477.908	116
478.127	102
478.346	100
478.564	106
478.783	118
479.002	119
479.22	125
479.439	136
479.658	161
479.876	146
480.095	149
480.313	172
480.532	202
480.751	373
480.969	1333
481.188	6180
481.406	3610
481.624	488
481.843	172
482.061	124
482.28	120
482.498	105
482.717	87
482.935	95
483.153	101
483.372	106
483.59	94
483.808	94
484.027	89
484.245	82
484.463	108
484.681	98
484.9	96
485.118	101
485.336	109
485.554	107
485.772	103
485.99	118
486.209	123
486.427	123
486.645	143
486.863	147
487.081	129
487.299	110
487.517	94
487.735	114
487.953	101
488.171	82
488.389	120
488.607	118
488.825	107
489.043	105
489.261	112
489.479	114
489.696	97
489.914	93
490.132	98
490.35	110
490.568	103
490.786	94
491.003	93
491.221	103
491.439	94
491.657	88
491.874	98
492.092	109
492.31	94
492.527	115
492.745	120
492.963	102
493.18	98
493.398	119
493.615	100
493.833	100
494.05	93
494.268	98
494.485	86
494.703	94
494.92	120
495.138	95
495.355	92
495.573	107
495.79	110
496.008	93
496.225	87
496.442	94
496.66	94
496.877	88
497.094	107
497.312	103
497.529	95
497.746	92
497.963	108
498.181	111
498.398	104
498.615	138
498.832	122
499.049	97
499.267	112
499.484	83
499.701	91
499.918	88
500.135	99
500.352	91
500.569	102
500.786	102
501.003	84
501.22	94
501.437	110
501.654	111
501.871	141
502.088	112
502.305	112
502.522	95
502.739	104
502.956	87
503.172	107
503.389	122
503.606	144
503.823	112
504.04	90
504.256	100
504.473	96
504.69	93
504.907	104
505.123	98
505.34	93
505.557	98
505.773	104
505.99	93
506.207	107
506.423	111
506.64	103
506.856	109
507.073	108
507.289	100
507.506	108
507.722	168
507.939	159
508.155	103
508.372	104
508.588	111
508.805	111
509.021	109
509.238	114
509.454	104
509.67	117
509.887	126
510.103	156
510.319	268
510.536	1057
510.752	3917
510.968	1044
511.184	218
511.401	154
511.617	119
511.833	118
512.049	100
512.265	90
512.481	111
512.698	88
512.914	95
513.13	109
513.346	112
513.562	117
513.778	118
513.994	113
514.21	133
514.426	170
514.642	208
514.858	191
515.074	296
515.29	938
515.506	3618
515.721	1242
515.937	279
516.153	179
516.369	122
516.585	114
516.801	125
517.016	111
517.232	102
517.448	105
517.664	109
517.879	94
518.095	104
518.311	137
518.527	112
518.742	102
518.958	99
519.173	96
519.389	99
519.605	104
519.82	118
520.036	147
520.251	190
520.467	162
520.682	135
520.898	142
521.113	173
521.329	249
521.544	388
521.76	1276
521.975	5992
522.19	3568
522.406	660
522.621	208
522.836	136
523.052	124
523.267	103
523.482	107
523.698	126
523.913	176
524.128	131
524.343	99
524.559	108
524.774	107
524.989	110
525.204	131
525.419	123
525.634	109
525.849	103
526.064	85
526.28	90
526.495	101
526.71	91
526.925	88
527.14	97
527.355	104
527.57	100
527.785	101
527.999	82
528.214	105
528.429	98
528.644	98
528.859	92
529.074	109
529.289	182
529.503	359
529.718	151
529.933	108
530.148	98
530.363	111
530.577	110
530.792	97
531.007	109
531.221	99
531.436	98
531.651	94
531.865	94
532.08	100
532.295	108
532.509	90
532.724	94
532.938	93
533.153	105
533.367	97
533.582	84
533.796	95
534.011	87
534.225	101
534.44	94
534.654	90
534.868	91
535.083	97
535.297	101
535.511	127
535.726	128
535.94	124
536.154	95
536.369	99
536.583	102
536.797	109
537.011	98
537.225	94
537.44	97
537.654	91
537.868	94
538.082	83
538.296	99
538.51	94
538.724	105
538.938	103
539.153	117
539.367	136
539.581	118
539.795	98
540.009	101
540.222	100
540.436	105
540.65	101
540.864	111
541.078	108
541.292	97
541.506	100
541.72	100
541.934	101
542.147	93
542.361	90
542.575	98
542.789	103
543.002	97
543.216	93
543.43	117
543.644	98
543.857	101
544.071	90
544.285	99
544.498	96
544.712	106
544.925	94
545.139	104
545.352	99
545.566	98
545.779	106
545.993	95
546.206	97
546.42	88
546.633	98
546.847	97
547.06	89
547.274	88
547.487	97
547.7	88
547.914	91
548.127	81
548.34	83
548.554	94
548.767	92
548.98	103
549.193	106
549.407	103
549.62	101
549.833	103
550.046	102
550.259	111
550.473	96
550.686	96
550.899	94
551.112	102
551.325	91
551.538	110
551.751	108
551.964	102
552.177	111
552.39	97
552.603	90
552.816	89
553.029	95
553.242	97
553.455	126
553.667	146
553.88	151
554.093	109
554.306	119
554.519	153
554.732	103
554.944	104
555.157	97
555.37	86
555.583	100
555.795	107
556.008	91
556.221	101
556.433	97
556.646	105
556.859	107
557.071	90
557.284	102
557.496	107
557.709	87
557.921	95
558.134	94
558.346	103
558.559	94
558.771	82
558.984	86
559.196	93
559.409	88
559.621	103
559.833	82
560.046	109
560.258	132
560.47	159
560.683	115
560.895	99
561.107	90
561.32	102
561.532	77
561.744	86
561.956	93
562.168	97
562.381	85
562.593	91
562.805	90
563.017	106
563.229	98
563.441	98
563.653	90
563.865	93
564.077	84
564.289	95
564.501	87
564.713	90
564.925	94
565.137	122
565.349	98
565.561	96
565.773	84
565.985	105
566.197	98
566.408	106
566.62	100
566.832	87
567.044	84
567.255	106
567.467	92
567.679	90
567.891	88
568.102	94
568.314	95
568.526	83
568.737	85
568.949	90
569.161	96
569.372	88
569.584	101
569.795	108
570.007	128
570.218	364
570.43	163
570.641	93
570.853	91
571.064	94
571.276	91
571.487	90
571.698	96
571.91	94
572.121	91
572.333	86
572.544	90
572.755	84
572.966	96
573.178	99
573.389	90
573.6	99
573.811	99
574.023	86
574.234	87
574.445	85
574.656	90
574.867	94
575.078	85
575.289	96
