Data from Circ_1995_H10_HRD10591_00012.txt Node
Date: Wed Jan 03 11:36:49 EST 2024
User: Yrep
Spectrometer: HR+D1059
Trigger mode: 1
Integration Time (sec): 1.000000E-1
Scans to average: 1
Electric dark correction enabled: true
Nonlinearity correction enabled: false
Boxcar width: 0
XAxis mode: Wavelengths
Number of Pixels in Spectrum: 2048
>>>>>Begin Spectral Data<<<<<
223.165	-28.25
223.4	-28.25
223.635	-28.25
223.869	-18.25
224.104	-19.25
224.338	-8.25
224.573	-16.25
224.808	-21.25
225.042	-1.25
225.277	-0.25
225.511	-2.25
225.746	6.75
225.98	5.75
226.215	5.75
226.449	17.75
226.683	33.75
226.918	22.75
227.152	22.75
227.387	33.75
227.621	49.75
227.856	51.75
228.09	55.75
228.324	50.75
228.559	68.75
228.793	61.75
229.027	65.75
229.262	70.75
229.496	79.75
229.73	119.75
229.964	109.75
230.199	69.75
230.433	89.75
230.667	85.75
230.901	81.75
231.136	90.75
231.37	71.75
231.604	88.75
231.838	84.75
232.072	83.75
232.306	77.75
232.541	76.75
232.775	80.75
233.009	93.75
233.243	72.75
233.477	86.75
233.711	85.75
233.945	81.75
234.179	84.75
234.413	82.75
234.647	68.75
234.881	86.75
235.115	74.75
235.349	81.75
235.583	87.75
235.817	87.75
236.051	77.75
236.285	70.75
236.519	96.75
236.753	93.75
236.987	90.75
237.221	102.75
237.455	101.75
237.689	79.75
237.922	80.75
238.156	76.75
238.39	71.75
238.624	90.75
238.858	78.75
239.091	88.75
239.325	89.75
239.559	86.75
239.793	81.75
240.027	84.75
240.26	85.75
240.494	90.75
240.728	77.75
240.961	86.75
241.195	81.75
241.429	71.75
241.662	87.75
241.896	83.75
242.13	79.75
242.363	93.75
242.597	77.75
242.83	91.75
243.064	76.75
243.298	79.75
243.531	85.75
243.765	82.75
243.998	93.75
244.232	92.75
244.465	96.75
244.699	93.75
244.932	80.75
245.166	85.75
245.399	77.75
245.633	89.75
245.866	78.75
246.099	77.75
246.333	96.75
246.566	81.75
246.8	85.75
247.033	78.75
247.266	81.75
247.5	66.75
247.733	85.75
247.966	93.75
248.2	88.75
248.433	79.75
248.666	82.75
248.899	90.75
249.133	101.75
249.366	118.75
249.599	114.75
249.832	87.75
250.066	83.75
250.299	84.75
250.532	66.75
250.765	97.75
250.998	86.75
251.231	84.75
251.465	89.75
251.698	81.75
251.931	92.75
252.164	89.75
252.397	75.75
252.63	89.75
252.863	87.75
253.096	83.75
253.329	73.75
253.562	85.75
253.795	87.75
254.028	84.75
254.261	92.75
254.494	84.75
254.727	84.75
254.96	94.75
255.193	65.75
255.426	83.75
255.659	87.75
255.892	102.75
256.124	94.75
256.357	89.75
256.59	93.75
256.823	99.75
257.056	81.75
257.289	92.75
257.521	83.75
257.754	89.75
257.987	91.75
258.22	83.75
258.452	115.75
258.685	88.75
258.918	93.75
259.151	90.75
259.383	84.75
259.616	91.75
259.849	89.75
260.081	94.75
260.314	90.75
260.547	86.75
260.779	105.75
261.012	118.75
261.244	117.75
261.477	101.75
261.71	108.75
261.942	132.75
262.175	161.75
262.407	97.75
262.64	92.75
262.872	92.75
263.105	91.75
263.337	96.75
263.57	84.75
263.802	84.75
264.035	86.75
264.267	81.75
264.499	94.75
264.732	79.75
264.964	74.75
265.197	70.75
265.429	79.75
265.661	97.75
265.894	71.75
266.126	83.75
266.358	93.75
266.591	77.75
266.823	85.75
267.055	98.75
267.287	93.75
267.52	83.75
267.752	100.75
267.984	96.75
268.216	91.75
268.448	90.75
268.681	102.75
268.913	90.75
269.145	82.75
269.377	80.75
269.609	92.75
269.841	84.75
270.073	83.75
270.306	87.75
270.538	95.75
270.77	93.75
271.002	102.75
271.234	91.75
271.466	101.75
271.698	98.75
271.93	98.75
272.162	98.75
272.394	89.75
272.626	83.75
272.858	88.75
273.09	76.75
273.322	91.75
273.553	88.75
273.785	91.75
274.017	85.75
274.249	87.75
274.481	97.75
274.713	94.75
274.945	93.75
275.176	93.75
275.408	127.75
275.64	106.75
275.872	132.75
276.104	125.75
276.335	108.75
276.567	130.75
276.799	148.75
277.031	190.75
277.262	223.75
277.494	166.75
277.726	102.75
277.957	101.75
278.189	98.75
278.421	100.75
278.652	100.75
278.884	102.75
279.115	107.75
279.347	90.75
279.579	119.75
279.81	148.75
280.042	209.75
280.273	281.75
280.505	198.75
280.736	122.75
280.968	110.75
281.199	86.75
281.431	100.75
281.662	95.75
281.894	109.75
282.125	107.75
282.356	144.75
282.588	182.75
282.819	162.75
283.051	103.75
283.282	98.75
283.513	91.75
283.745	99.75
283.976	98.75
284.207	108.75
284.439	92.75
284.67	77.75
284.901	95.75
285.132	94.75
285.364	98.75
285.595	85.75
285.826	85.75
286.057	90.75
286.288	93.75
286.52	92.75
286.751	98.75
286.982	95.75
287.213	100.75
287.444	101.75
287.675	99.75
287.906	98.75
288.138	98.75
288.369	87.75
288.6	91.75
288.831	84.75
289.062	108.75
289.293	107.75
289.524	103.75
289.755	81.75
289.986	77.75
290.217	95.75
290.448	105.75
290.679	92.75
290.91	97.75
291.141	102.75
291.371	91.75
291.602	93.75
291.833	95.75
292.064	95.75
292.295	94.75
292.526	100.75
292.757	92.75
292.987	92.75
293.218	103.75
293.449	83.75
293.68	89.75
293.91	91.75
294.141	107.75
294.372	103.75
294.603	88.75
294.833	93.75
295.064	99.75
295.295	92.75
295.525	99.75
295.756	115.75
295.987	128.75
296.217	164.75
296.448	162.75
296.679	104.75
296.909	87.75
297.14	94.75
297.37	95.75
297.601	94.75
297.831	102.75
298.062	87.75
298.292	100.75
298.523	98.75
298.753	97.75
298.984	99.75
299.214	96.75
299.445	103.75
299.675	98.75
299.905	106.75
300.136	101.75
300.366	89.75
300.597	92.75
300.827	101.75
301.057	116.75
301.288	114.75
301.518	99.75
301.748	99.75
301.979	128.75
302.209	130.75
302.439	105.75
302.669	98.75
302.9	79.75
303.13	103.75
303.36	130.75
303.59	127.75
303.82	142.75
304.051	102.75
304.281	117.75
304.511	86.75
304.741	97.75
304.971	109.75
305.201	99.75
305.431	93.75
305.661	86.75
305.891	84.75
306.121	101.75
306.352	124.75
306.582	113.75
306.812	124.75
307.042	138.75
307.272	177.75
307.502	209.75
307.731	182.75
307.961	141.75
308.191	84.75
308.421	87.75
308.651	77.75
308.881	107.75
309.111	113.75
309.341	116.75
309.571	110.75
309.8	107.75
310.03	99.75
310.26	107.75
310.49	109.75
310.72	118.75
310.949	117.75
311.179	114.75
311.409	107.75
311.639	103.75
311.868	116.75
312.098	103.75
312.328	102.75
312.557	121.75
312.787	141.75
313.017	121.75
313.246	113.75
313.476	101.75
313.706	103.75
313.935	114.75
314.165	118.75
314.394	118.75
314.624	110.75
314.853	116.75
315.083	104.75
315.312	99.75
315.542	109.75
315.771	89.75
316.001	102.75
316.23	90.75
316.46	99.75
316.689	110.75
316.919	102.75
317.148	109.75
317.377	116.75
317.607	97.75
317.836	102.75
318.065	93.75
318.295	91.75
318.524	93.75
318.753	94.75
318.983	99.75
319.212	112.75
319.441	126.75
319.67	127.75
319.9	105.75
320.129	101.75
320.358	99.75
320.587	116.75
320.816	104.75
321.046	123.75
321.275	110.75
321.504	117.75
321.733	111.75
321.962	103.75
322.191	100.75
322.42	111.75
322.649	130.75
322.878	128.75
323.108	138.75
323.337	151.75
323.566	174.75
323.795	202.75
324.024	293.75
324.253	605.75
324.482	1378.75
324.71	2886.75
324.939	3806.75
325.168	1331.75
325.397	371.75
325.626	205.75
325.855	160.75
326.084	171.75
326.313	161.75
326.542	205.75
326.77	324.75
326.999	684.75
327.228	1485.75
327.457	2800.75
327.686	2278.75
327.914	719.75
328.143	650.75
328.372	802.75
328.6	433.75
328.829	222.75
329.058	221.75
329.287	230.75
329.515	197.75
329.744	293.75
329.972	574.75
330.201	1232.75
330.43	1781.75
330.658	769.75
330.887	348.75
331.115	207.75
331.344	146.75
331.572	135.75
331.801	137.75
332.03	137.75
332.258	123.75
332.486	115.75
332.715	120.75
332.943	134.75
333.172	137.75
333.4	132.75
333.629	179.75
333.857	273.75
334.085	532.75
334.314	1130.75
334.542	2296.75
334.771	2052.75
334.999	524.75
335.227	192.75
335.455	137.75
335.684	129.75
335.912	114.75
336.14	111.75
336.369	109.75
336.597	108.75
336.825	127.75
337.053	93.75
337.281	106.75
337.51	98.75
337.738	111.75
337.966	108.75
338.194	128.75
338.422	117.75
338.65	92.75
338.878	106.75
339.106	94.75
339.334	108.75
339.562	102.75
339.79	100.75
340.018	104.75
340.246	97.75
340.474	113.75
340.702	101.75
340.93	94.75
341.158	104.75
341.386	107.75
341.614	106.75
341.842	103.75
342.07	102.75
342.298	103.75
342.526	109.75
342.754	85.75
342.981	87.75
343.209	102.75
343.437	94.75
343.665	97.75
343.893	98.75
344.12	99.75
344.348	80.75
344.576	106.75
344.804	92.75
345.031	117.75
345.259	115.75
345.487	116.75
345.714	92.75
345.942	91.75
346.17	107.75
346.397	93.75
346.625	93.75
346.853	118.75
347.08	95.75
347.308	101.75
347.535	116.75
347.763	116.75
347.99	113.75
348.218	127.75
348.445	122.75
348.673	109.75
348.9	105.75
349.128	110.75
349.355	98.75
349.583	108.75
349.81	105.75
350.037	95.75
350.265	98.75
350.492	92.75
350.72	109.75
350.947	107.75
351.174	122.75
351.402	119.75
351.629	130.75
351.856	103.75
352.083	118.75
352.311	120.75
352.538	141.75
352.765	129.75
352.992	138.75
353.22	116.75
353.447	121.75
353.674	100.75
353.901	103.75
354.128	92.75
354.355	87.75
354.583	106.75
354.81	101.75
355.037	109.75
355.264	109.75
355.491	97.75
355.718	98.75
355.945	102.75
356.172	100.75
356.399	96.75
356.626	93.75
356.853	94.75
357.08	97.75
357.307	97.75
357.534	109.75
357.761	103.75
357.988	102.75
358.215	98.75
358.441	114.75
358.668	103.75
358.895	100.75
359.122	84.75
359.349	99.75
359.576	110.75
359.802	127.75
360.029	157.75
360.256	155.75
360.483	108.75
360.709	95.75
360.936	97.75
361.163	101.75
361.39	106.75
361.616	109.75
361.843	88.75
362.07	110.75
362.296	110.75
362.523	115.75
362.749	114.75
362.976	116.75
363.203	104.75
363.429	96.75
363.656	92.75
363.882	102.75
364.109	109.75
364.335	106.75
364.562	95.75
364.788	108.75
365.015	106.75
365.241	107.75
365.468	127.75
365.694	115.75
365.92	111.75
366.147	97.75
366.373	98.75
366.599	101.75
366.826	107.75
367.052	88.75
367.278	97.75
367.505	112.75
367.731	102.75
367.957	103.75
368.184	103.75
368.41	103.75
368.636	125.75
368.862	137.75
369.089	129.75
369.315	106.75
369.541	109.75
369.767	90.75
369.993	93.75
370.219	102.75
370.445	91.75
370.672	92.75
370.898	98.75
371.124	80.75
371.35	98.75
371.576	87.75
371.802	108.75
372.028	117.75
372.254	85.75
372.48	87.75
372.706	81.75
372.932	91.75
373.158	102.75
373.384	96.75
373.61	103.75
373.835	106.75
374.061	100.75
374.287	108.75
374.513	91.75
374.739	91.75
374.965	99.75
375.191	101.75
375.416	88.75
375.642	84.75
375.868	90.75
376.094	90.75
376.319	85.75
376.545	100.75
376.771	91.75
376.997	96.75
377.222	109.75
377.448	103.75
377.674	97.75
377.899	99.75
378.125	100.75
378.35	100.75
378.576	103.75
378.802	89.75
379.027	101.75
379.253	118.75
379.478	101.75
379.704	85.75
379.929	91.75
380.155	101.75
380.38	100.75
380.606	91.75
380.831	110.75
381.057	103.75
381.282	115.75
381.507	115.75
381.733	117.75
381.958	105.75
382.184	110.75
382.409	112.75
382.634	117.75
382.86	110.75
383.085	90.75
383.31	117.75
383.535	113.75
383.761	107.75
383.986	114.75
384.211	119.75
384.436	105.75
384.662	105.75
384.887	124.75
385.112	110.75
385.337	122.75
385.562	122.75
385.787	113.75
386.013	156.75
386.238	141.75
386.463	124.75
386.688	111.75
386.913	111.75
387.138	132.75
387.363	123.75
387.588	116.75
387.813	108.75
388.038	119.75
388.263	103.75
388.488	136.75
388.713	100.75
388.938	96.75
389.163	90.75
389.387	95.75
389.612	83.75
389.837	89.75
390.062	96.75
390.287	85.75
390.512	93.75
390.736	83.75
390.961	83.75
391.186	83.75
391.411	87.75
391.636	98.75
391.86	75.75
392.085	84.75
392.31	83.75
392.534	89.75
392.759	86.75
392.984	89.75
393.208	93.75
393.433	80.75
393.658	96.75
393.882	91.75
394.107	86.75
394.331	97.75
394.556	88.75
394.78	85.75
395.005	99.75
395.229	79.75
395.454	111.75
395.678	94.75
395.903	89.75
396.127	93.75
396.352	88.75
396.576	90.75
396.801	90.75
397.025	96.75
397.249	97.75
397.474	91.75
397.698	91.75
397.922	96.75
398.147	92.75
398.371	82.75
398.595	90.75
398.82	84.75
399.044	89.75
399.268	96.75
399.492	73.75
399.717	95.75
399.941	82.75
400.165	90.75
400.389	101.75
400.613	98.75
400.837	94.75
401.062	99.75
401.286	98.75
401.51	107.75
401.734	104.75
401.958	136.75
402.182	151.75
402.406	210.75
402.63	141.75
402.854	122.75
403.078	107.75
403.302	81.75
403.526	104.75
403.75	109.75
403.974	89.75
404.198	101.75
404.422	94.75
404.645	102.75
404.869	100.75
405.093	140.75
405.317	179.75
405.541	156.75
405.765	134.75
405.988	151.75
406.212	229.75
406.436	339.75
406.66	229.75
406.883	137.75
407.107	125.75
407.331	112.75
407.555	123.75
407.778	116.75
408.002	99.75
408.226	98.75
408.449	99.75
408.673	94.75
408.896	112.75
409.12	111.75
409.344	98.75
409.567	100.75
409.791	94.75
410.014	96.75
410.238	101.75
410.461	85.75
410.685	102.75
410.908	99.75
411.132	108.75
411.355	111.75
411.578	88.75
411.802	101.75
412.025	99.75
412.249	110.75
412.472	132.75
412.695	155.75
412.919	105.75
413.142	108.75
413.365	86.75
413.589	97.75
413.812	97.75
414.035	93.75
414.258	100.75
414.482	99.75
414.705	94.75
414.928	93.75
415.151	98.75
415.374	94.75
415.597	84.75
415.821	87.75
416.044	104.75
416.267	92.75
416.49	99.75
416.713	104.75
416.936	102.75
417.159	102.75
417.382	105.75
417.605	107.75
417.828	116.75
418.051	124.75
418.274	99.75
418.497	90.75
418.72	98.75
418.943	103.75
419.166	82.75
419.389	110.75
419.611	95.75
419.834	103.75
420.057	97.75
420.28	112.75
420.503	99.75
420.726	97.75
420.948	103.75
421.171	99.75
421.394	102.75
421.617	101.75
421.839	100.75
422.062	87.75
422.285	103.75
422.507	120.75
422.73	131.75
422.953	121.75
423.175	91.75
423.398	99.75
423.621	88.75
423.843	88.75
424.066	97.75
424.288	101.75
424.511	102.75
424.733	128.75
424.956	141.75
425.178	122.75
425.401	118.75
425.623	107.75
425.846	94.75
426.068	108.75
426.291	100.75
426.513	81.75
426.735	95.75
426.958	112.75
427.18	138.75
427.402	203.75
427.625	323.75
427.847	294.75
428.069	274.75
428.292	128.75
428.514	115.75
428.736	93.75
428.958	102.75
429.181	94.75
429.403	74.75
429.625	95.75
429.847	106.75
430.069	122.75
430.292	116.75
430.514	90.75
430.736	85.75
430.958	89.75
431.18	94.75
431.402	95.75
431.624	92.75
431.846	90.75
432.068	108.75
432.29	83.75
432.512	85.75
432.734	78.75
432.956	112.75
433.178	117.75
433.4	122.75
433.622	114.75
433.844	95.75
434.066	98.75
434.287	103.75
434.509	87.75
434.731	83.75
434.953	87.75
435.175	89.75
435.397	102.75
435.618	120.75
435.84	130.75
436.062	176.75
436.284	162.75
436.505	126.75
436.727	113.75
436.949	109.75
437.17	99.75
437.392	88.75
437.614	100.75
437.835	148.75
438.057	179.75
438.278	153.75
438.5	123.75
438.721	179.75
438.943	113.75
439.165	93.75
439.386	97.75
439.608	108.75
439.829	124.75
440.05	180.75
440.272	242.75
440.493	126.75
440.715	85.75
440.936	95.75
441.158	92.75
441.379	107.75
441.6	109.75
441.822	113.75
442.043	122.75
442.264	125.75
442.486	122.75
442.707	110.75
442.928	126.75
443.149	220.75
443.371	187.75
443.592	140.75
443.813	144.75
444.034	125.75
444.255	109.75
444.476	106.75
444.698	94.75
444.919	89.75
445.14	131.75
445.361	161.75
445.582	164.75
445.803	231.75
446.024	220.75
446.245	196.75
446.466	172.75
446.687	111.75
446.908	92.75
447.129	107.75
447.35	99.75
447.571	110.75
447.792	112.75
448.013	114.75
448.234	119.75
448.455	125.75
448.675	137.75
448.896	151.75
449.117	125.75
449.338	130.75
449.559	172.75
449.779	179.75
450	107.75
450.221	92.75
450.442	103.75
450.662	112.75
450.883	122.75
451.104	157.75
451.324	115.75
451.545	99.75
451.766	91.75
451.986	90.75
452.207	91.75
452.428	103.75
452.648	121.75
452.869	143.75
453.089	155.75
453.31	154.75
453.53	98.75
453.751	102.75
453.971	130.75
454.192	156.75
454.412	123.75
454.633	84.75
454.853	97.75
455.073	86.75
455.294	107.75
455.514	117.75
455.734	86.75
455.955	95.75
456.175	91.75
456.395	104.75
456.616	95.75
456.836	96.75
457.056	102.75
457.276	102.75
457.497	79.75
457.717	99.75
457.937	91.75
458.157	91.75
458.377	92.75
458.598	142.75
458.818	235.75
459.038	281.75
459.258	176.75
459.478	104.75
459.698	93.75
459.918	97.75
460.138	77.75
460.358	82.75
460.578	86.75
460.798	102.75
461.018	102.75
461.238	100.75
461.458	88.75
461.678	72.75
461.898	91.75
462.118	112.75
462.338	105.75
462.558	103.75
462.777	97.75
462.997	108.75
463.217	131.75
463.437	105.75
463.657	102.75
463.876	105.75
464.096	97.75
464.316	99.75
464.536	107.75
464.755	108.75
464.975	142.75
465.195	267.75
465.414	275.75
465.634	115.75
465.854	91.75
466.073	90.75
466.293	98.75
466.512	79.75
466.732	99.75
466.951	89.75
467.171	103.75
467.391	117.75
467.61	171.75
467.829	229.75
468.049	634.75
468.268	959.75
468.488	221.75
468.707	102.75
468.927	105.75
469.146	93.75
469.365	105.75
469.585	83.75
469.804	122.75
470.023	122.75
470.243	112.75
470.462	132.75
470.681	149.75
470.901	110.75
471.12	109.75
471.339	114.75
471.558	111.75
471.777	172.75
471.997	341.75
472.216	1254.75
472.435	2908.75
472.654	662.75
472.873	185.75
473.092	120.75
473.311	94.75
473.53	96.75
473.749	106.75
473.968	100.75
474.187	145.75
474.406	112.75
474.625	98.75
474.844	100.75
475.063	92.75
475.282	95.75
475.501	84.75
475.72	111.75
475.939	108.75
476.158	96.75
476.377	79.75
476.596	99.75
476.814	114.75
477.033	102.75
477.252	97.75
477.471	89.75
477.69	112.75
477.908	103.75
478.127	102.75
478.346	94.75
478.564	87.75
478.783	122.75
479.002	116.75
479.22	117.75
479.439	129.75
479.658	147.75
479.876	132.75
480.095	130.75
480.313	143.75
480.532	179.75
480.751	314.75
480.969	1170.75
481.188	5084.75
481.406	2920.75
481.624	416.75
481.843	149.75
482.061	97.75
482.28	90.75
482.498	97.75
482.717	106.75
482.935	90.75
483.153	91.75
483.372	89.75
483.59	91.75
483.808	93.75
484.027	90.75
484.245	86.75
484.463	97.75
484.681	104.75
484.9	99.75
485.118	88.75
485.336	98.75
485.554	108.75
485.772	106.75
485.99	105.75
486.209	107.75
486.427	118.75
486.645	125.75
486.863	141.75
487.081	114.75
487.299	99.75
487.517	98.75
487.735	103.75
487.953	92.75
488.171	107.75
488.389	103.75
488.607	101.75
488.825	98.75
489.043	111.75
489.261	97.75
489.479	81.75
489.696	84.75
489.914	90.75
490.132	105.75
490.35	92.75
490.568	97.75
490.786	99.75
491.003	93.75
491.221	100.75
491.439	93.75
491.657	96.75
491.874	101.75
492.092	99.75
492.31	117.75
492.527	103.75
492.745	91.75
492.963	93.75
493.18	78.75
493.398	93.75
493.615	103.75
493.833	95.75
494.05	101.75
494.268	88.75
494.485	109.75
494.703	114.75
494.92	83.75
495.138	103.75
495.355	107.75
495.573	97.75
495.79	93.75
496.008	107.75
496.225	84.75
496.442	92.75
496.66	96.75
496.877	98.75
497.094	107.75
497.312	92.75
497.529	92.75
497.746	94.75
497.963	89.75
498.181	100.75
498.398	104.75
498.615	148.75
498.832	126.75
499.049	100.75
499.267	89.75
499.484	103.75
499.701	93.75
499.918	96.75
500.135	93.75
500.352	91.75
500.569	98.75
500.786	105.75
501.003	108.75
501.22	95.75
501.437	97.75
501.654	116.75
501.871	141.75
502.088	100.75
502.305	97.75
502.522	103.75
502.739	100.75
502.956	100.75
503.172	100.75
503.389	106.75
503.606	157.75
503.823	122.75
504.04	94.75
504.256	80.75
504.473	86.75
504.69	100.75
504.907	101.75
505.123	92.75
505.34	81.75
505.557	87.75
505.773	95.75
505.99	93.75
506.207	86.75
506.423	90.75
506.64	99.75
506.856	90.75
507.073	99.75
507.289	107.75
507.506	121.75
507.722	156.75
507.939	157.75
508.155	105.75
508.372	126.75
508.588	110.75
508.805	94.75
509.021	110.75
509.238	112.75
509.454	104.75
509.67	113.75
509.887	116.75
510.103	146.75
510.319	237.75
510.536	969.75
