Data from Circ_1995_H10_HRD10591_00045.txt Node
Date: Wed Jan 03 11:36:55 EST 2024
User: Yrep
Spectrometer: HR+D1059
Trigger mode: 1
Integration Time (sec): 1.000000E-1
Scans to average: 1
Electric dark correction enabled: true
Nonlinearity correction enabled: false
Boxcar width: 0
XAxis mode: Wavelengths
Number of Pixels in Spectrum: 2048
>>>>>Begin Spectral Data<<<<<
223.165	-26
223.4	-26
223.635	-26
223.869	-12
224.104	-21
224.338	-5
224.573	-24
224.808	-24
225.042	1
225.277	-1
225.511	-5
225.746	15
225.98	0
226.215	21
226.449	22
226.683	23
226.918	22
227.152	14
227.387	47
227.621	60
227.856	49
228.09	48
228.324	40
228.559	62
228.793	80
229.027	66
229.262	79
229.496	89
229.73	117
229.964	96
230.199	74
230.433	83
230.667	77
230.901	96
231.136	76
231.37	88
231.604	85
231.838	103
232.072	79
232.306	87
232.541	89
232.775	90
233.009	77
233.243	93
233.477	83
233.711	80
233.945	104
234.179	89
234.413	81
234.647	79
234.881	85
235.115	81
235.349	87
235.583	88
235.817	81
236.051	88
236.285	63
236.519	83
236.753	78
236.987	81
237.221	90
237.455	98
237.689	86
237.922	81
238.156	89
238.39	86
238.624	79
238.858	85
239.091	96
239.325	79
239.559	94
239.793	91
240.027	83
240.26	75
240.494	79
240.728	97
240.961	89
241.195	82
241.429	78
241.662	89
241.896	77
242.13	79
242.363	77
242.597	82
242.83	95
243.064	91
243.298	85
243.531	78
243.765	81
243.998	69
244.232	84
244.465	112
244.699	95
244.932	74
245.166	81
245.399	103
245.633	83
245.866	79
246.099	86
246.333	82
246.566	85
246.8	89
247.033	82
247.266	81
247.5	83
247.733	84
247.966	90
248.2	91
248.433	85
248.666	81
248.899	97
249.133	97
249.366	126
249.599	126
249.832	98
250.066	103
250.299	89
250.532	94
250.765	92
250.998	85
251.231	90
251.465	85
251.698	97
251.931	101
252.164	93
252.397	92
252.63	88
252.863	86
253.096	82
253.329	81
253.562	83
253.795	94
254.028	84
254.261	86
254.494	88
254.727	86
254.96	87
255.193	92
255.426	95
255.659	96
255.892	101
256.124	96
256.357	97
256.59	101
256.823	89
257.056	83
257.289	104
257.521	87
257.754	89
257.987	78
258.22	114
258.452	103
258.685	105
258.918	105
259.151	91
259.383	95
259.616	68
259.849	89
260.081	108
260.314	103
260.547	89
260.779	103
261.012	118
261.244	137
261.477	118
261.71	112
261.942	140
262.175	185
262.407	114
262.64	99
262.872	91
263.105	88
263.337	90
263.57	82
263.802	96
264.035	101
264.267	101
264.499	79
264.732	98
264.964	110
265.197	97
265.429	90
265.661	79
265.894	98
266.126	90
266.358	89
266.591	79
266.823	95
267.055	94
267.287	92
267.52	98
267.752	95
267.984	97
268.216	103
268.448	111
268.681	107
268.913	98
269.145	97
269.377	107
269.609	86
269.841	95
270.073	93
270.306	99
270.538	101
270.77	91
271.002	91
271.234	91
271.466	103
271.698	107
271.93	98
272.162	93
272.394	105
272.626	99
272.858	98
273.09	96
273.322	110
273.553	110
273.785	108
274.017	95
274.249	83
274.481	90
274.713	105
274.945	102
275.176	96
275.408	118
275.64	127
275.872	156
276.104	117
276.335	129
276.567	133
276.799	171
277.031	217
277.262	254
277.494	191
277.726	106
277.957	109
278.189	107
278.421	102
278.652	111
278.884	74
279.115	121
279.347	98
279.579	116
279.81	172
280.042	244
280.273	359
280.505	239
280.736	126
280.968	104
281.199	90
281.431	99
281.662	97
281.894	119
282.125	112
282.356	154
282.588	192
282.819	141
283.051	96
283.282	102
283.513	103
283.745	95
283.976	103
284.207	125
284.439	100
284.67	95
284.901	104
285.132	95
285.364	103
285.595	96
285.826	105
286.057	99
286.288	98
286.52	91
286.751	98
286.982	94
287.213	99
287.444	101
287.675	110
287.906	95
288.138	109
288.369	101
288.6	107
288.831	86
289.062	95
289.293	75
289.524	82
289.755	87
289.986	109
290.217	101
290.448	94
290.679	94
290.91	92
291.141	91
291.371	103
291.602	102
291.833	103
292.064	107
292.295	100
292.526	102
292.757	107
292.987	91
293.218	103
293.449	96
293.68	81
293.91	113
294.141	117
294.372	96
294.603	101
294.833	96
295.064	104
295.295	93
295.525	99
295.756	123
295.987	160
296.217	196
296.448	168
296.679	106
296.909	105
297.14	86
297.37	90
297.601	102
297.831	102
298.062	101
298.292	93
298.523	107
298.753	98
298.984	96
299.214	96
299.445	110
299.675	108
299.905	122
300.136	96
300.366	96
300.597	104
300.827	104
301.057	107
301.288	142
301.518	101
301.748	99
301.979	126
302.209	119
302.439	119
302.669	102
302.9	98
303.13	99
303.36	117
303.59	155
303.82	181
304.051	126
304.281	101
304.511	107
304.741	93
304.971	98
305.201	112
305.431	101
305.661	96
305.891	99
306.121	105
306.352	113
306.582	130
306.812	111
307.042	144
307.272	193
307.502	219
307.731	206
307.961	147
308.191	115
308.421	101
308.651	103
308.881	100
309.111	113
309.341	122
309.571	111
309.8	97
310.03	111
310.26	122
310.49	111
310.72	111
310.949	135
311.179	128
311.409	116
311.639	112
311.868	127
312.098	112
312.328	118
312.557	120
312.787	155
313.017	113
313.246	108
313.476	102
313.706	106
313.935	99
314.165	115
314.394	112
314.624	117
314.853	122
315.083	127
315.312	97
315.542	108
315.771	107
316.001	113
316.23	91
316.46	87
316.689	100
316.919	115
317.148	114
317.377	107
317.607	102
317.836	104
318.065	118
318.295	97
318.524	105
318.753	87
318.983	113
319.212	127
319.441	138
319.67	139
319.9	116
320.129	115
320.358	116
320.587	115
320.816	125
321.046	115
321.275	114
321.504	96
321.733	111
321.962	97
322.191	121
322.42	121
322.649	138
322.878	137
323.108	156
323.337	158
323.566	168
323.795	218
324.024	262
324.253	533
324.482	1235
324.71	2493
324.939	3295
325.168	1189
325.397	335
325.626	213
325.855	153
326.084	145
326.313	167
326.542	189
326.77	294
326.999	614
327.228	1238
327.457	2280
327.686	1885
327.914	673
328.143	723
328.372	926
328.6	503
328.829	225
329.058	243
329.287	246
329.515	231
329.744	327
329.972	653
330.201	1393
330.43	2079
330.658	885
330.887	389
331.115	249
331.344	143
331.572	152
331.801	160
332.03	157
332.258	125
332.486	113
332.715	135
332.943	116
333.172	127
333.4	158
333.629	201
333.857	292
334.085	583
334.314	1246
334.542	2523
334.771	2337
334.999	582
335.227	211
335.455	143
335.684	133
335.912	133
336.14	125
336.369	119
336.597	133
336.825	117
337.053	111
337.281	114
337.51	114
337.738	103
337.966	113
338.194	124
338.422	120
338.65	111
338.878	125
339.106	88
339.334	93
339.562	110
339.79	116
340.018	103
340.246	107
340.474	116
340.702	108
340.93	97
341.158	108
341.386	101
341.614	120
341.842	111
342.07	110
342.298	116
342.526	106
342.754	98
342.981	94
343.209	75
343.437	108
343.665	93
343.893	99
344.12	104
344.348	110
344.576	94
344.804	110
345.031	122
345.259	122
345.487	120
345.714	106
345.942	110
346.17	106
346.397	109
346.625	102
346.853	110
347.08	98
347.308	111
347.535	125
347.763	111
347.99	107
348.218	128
348.445	140
348.673	130
348.9	113
349.128	100
349.355	99
349.583	100
349.81	104
350.037	120
350.265	103
350.492	120
350.72	103
350.947	125
351.174	140
351.402	138
351.629	117
351.856	100
352.083	126
352.311	131
352.538	143
352.765	134
352.992	128
353.22	140
353.447	126
353.674	102
353.901	87
354.128	115
354.355	104
354.583	107
354.81	106
355.037	96
355.264	107
355.491	108
355.718	92
355.945	121
356.172	94
356.399	109
356.626	94
356.853	106
357.08	107
357.307	83
357.534	100
357.761	96
357.988	102
358.215	101
358.441	84
358.668	101
358.895	99
359.122	87
359.349	93
359.576	103
359.802	124
360.029	162
360.256	169
360.483	137
360.709	107
360.936	104
361.163	102
361.39	118
361.616	112
361.843	104
362.07	113
362.296	112
362.523	103
362.749	105
362.976	94
363.203	107
363.429	106
363.656	103
363.882	101
364.109	108
364.335	111
364.562	111
364.788	115
365.015	107
365.241	117
365.468	125
365.694	136
365.92	131
366.147	100
366.373	95
366.599	107
366.826	98
367.052	98
367.278	97
367.505	95
367.731	122
367.957	108
368.184	105
368.41	119
368.636	142
368.862	155
369.089	134
369.315	122
369.541	104
369.767	105
369.993	111
370.219	111
370.445	102
370.672	101
370.898	96
371.124	104
371.35	103
371.576	90
371.802	91
372.028	97
372.254	104
372.48	111
372.706	105
372.932	92
373.158	85
373.384	96
373.61	106
373.835	110
374.061	93
374.287	101
374.513	103
374.739	85
374.965	104
375.191	107
375.416	89
375.642	91
375.868	102
376.094	91
376.319	84
376.545	92
376.771	89
376.997	100
377.222	110
377.448	110
377.674	115
377.899	92
378.125	94
378.35	118
378.576	92
378.802	89
379.027	105
379.253	85
379.478	81
379.704	98
379.929	107
380.155	109
380.38	92
380.606	94
380.831	105
381.057	114
381.282	107
381.507	100
381.733	104
381.958	109
382.184	111
382.409	91
382.634	89
382.86	112
383.085	118
383.31	112
383.535	111
383.761	113
383.986	93
384.211	99
384.436	111
384.662	96
384.887	117
385.112	110
385.337	101
385.562	112
385.787	128
386.013	118
386.238	140
386.463	115
386.688	120
386.913	108
387.138	129
387.363	103
387.588	102
387.813	118
388.038	118
388.263	120
388.488	102
388.713	101
388.938	105
389.163	103
389.387	88
389.612	94
389.837	87
390.062	95
390.287	91
390.512	83
390.736	97
390.961	84
391.186	106
391.411	94
391.636	102
391.86	93
392.085	99
392.31	107
392.534	102
392.759	107
392.984	95
393.208	97
393.433	86
393.658	104
393.882	97
394.107	100
394.331	99
394.556	82
394.78	91
395.005	94
395.229	106
395.454	89
395.678	86
395.903	98
396.127	102
396.352	96
396.576	90
396.801	99
397.025	77
397.249	104
397.474	94
397.698	100
397.922	112
398.147	107
398.371	91
398.595	97
398.82	81
399.044	91
399.268	87
399.492	98
399.717	112
399.941	107
400.165	101
400.389	90
400.613	110
400.837	110
401.062	109
401.286	119
401.51	107
401.734	99
401.958	120
402.182	179
402.406	239
402.63	173
402.854	113
403.078	100
403.302	98
403.526	100
403.75	87
403.974	95
404.198	99
404.422	105
404.645	111
404.869	116
405.093	134
405.317	158
405.541	161
405.765	141
405.988	164
406.212	258
406.436	372
406.66	255
406.883	151
407.107	115
407.331	136
407.555	121
407.778	118
408.002	117
408.226	91
408.449	91
408.673	112
408.896	107
409.12	106
409.344	98
409.567	102
409.791	95
410.014	103
410.238	101
410.461	101
410.685	102
410.908	116
411.132	121
411.355	123
411.578	105
411.802	95
412.025	112
412.249	122
412.472	128
412.695	159
412.919	127
413.142	105
413.365	91
413.589	112
413.812	101
414.035	102
414.258	96
414.482	93
414.705	97
414.928	96
415.151	94
415.374	107
415.597	112
415.821	81
416.044	96
416.267	103
416.49	92
416.713	92
416.936	104
417.159	110
417.382	101
417.605	116
417.828	137
418.051	118
418.274	104
418.497	102
418.72	93
418.943	96
419.166	97
419.389	97
419.611	102
419.834	99
420.057	102
420.28	94
420.503	98
420.726	92
420.948	103
421.171	116
421.394	106
421.617	90
421.839	94
422.062	93
422.285	88
422.507	111
422.73	116
422.953	114
423.175	112
423.398	95
423.621	81
423.843	107
424.066	94
424.288	91
424.511	105
424.733	103
424.956	114
425.178	113
425.401	110
425.623	111
425.846	90
426.068	113
426.291	103
426.513	95
426.735	118
426.958	112
427.18	128
427.402	194
427.625	318
427.847	301
428.069	277
428.292	151
428.514	105
428.736	107
428.958	102
429.181	100
429.403	89
429.625	102
429.847	97
430.069	102
430.292	107
430.514	109
430.736	93
430.958	83
431.18	103
431.402	92
431.624	97
431.846	105
432.068	96
432.29	98
432.512	103
432.734	84
432.956	104
433.178	105
433.4	123
433.622	97
433.844	94
434.066	97
434.287	105
434.509	97
434.731	99
434.953	98
435.175	104
435.397	96
435.618	103
435.84	114
436.062	137
436.284	136
436.505	122
436.727	113
436.949	112
437.17	101
437.392	95
437.614	104
437.835	133
438.057	165
438.278	147
438.5	119
438.721	162
438.943	127
439.165	103
439.386	107
439.608	110
439.829	113
440.05	159
440.272	223
440.493	117
440.715	104
440.936	106
441.158	111
441.379	113
441.6	122
441.822	120
442.043	98
442.264	146
442.486	117
442.707	120
442.928	142
443.149	205
443.371	193
443.592	165
443.813	138
444.034	148
444.255	111
444.476	111
444.698	107
444.919	114
445.14	139
445.361	150
445.582	147
445.803	217
446.024	194
446.245	194
446.466	134
446.687	118
446.908	109
447.129	106
447.35	102
447.571	112
447.792	110
448.013	116
448.234	122
448.455	122
448.675	144
448.896	159
449.117	113
449.338	128
449.559	152
449.779	151
450	103
450.221	95
450.442	107
450.662	126
450.883	142
451.104	166
451.324	120
451.545	89
451.766	100
451.986	91
452.207	107
452.428	103
452.648	117
452.869	128
453.089	157
453.31	178
453.53	117
453.751	96
453.971	126
454.192	163
454.412	115
454.633	101
454.853	97
455.073	92
455.294	100
455.514	113
455.734	107
455.955	89
456.175	108
456.395	94
456.616	90
456.836	102
457.056	92
457.276	82
457.497	75
457.717	93
457.937	92
458.157	98
458.377	99
458.598	146
458.818	259
459.038	247
459.258	159
459.478	97
459.698	98
459.918	100
460.138	103
460.358	112
460.578	98
460.798	119
461.018	106
461.238	93
461.458	89
461.678	87
461.898	105
462.118	97
462.338	89
462.558	79
462.777	102
462.997	112
463.217	122
463.437	132
463.657	100
463.876	114
464.096	98
464.316	122
464.536	106
464.755	107
464.975	134
465.195	301
465.414	291
465.634	123
465.854	99
466.073	92
466.293	86
466.512	98
466.732	103
466.951	96
467.171	113
467.391	139
467.61	177
467.829	264
468.049	789
468.268	1227
468.488	290
468.707	135
468.927	113
469.146	107
469.365	106
469.585	110
469.804	113
470.023	132
470.243	113
470.462	150
470.681	151
470.901	121
471.12	123
471.339	121
471.558	145
471.777	195
471.997	392
472.216	1514
472.435	3551
472.654	764
472.873	209
473.092	134
473.311	115
473.53	126
473.749	119
473.968	115
474.187	134
474.406	126
474.625	106
474.844	95
475.063	88
475.282	95
475.501	103
475.72	99
475.939	89
476.158	87
476.377	111
476.596	106
476.814	132
477.033	107
477.252	112
477.471	103
477.69	102
477.908	101
478.127	118
478.346	104
478.564	109
478.783	132
479.002	113
479.22	126
479.439	161
479.658	170
479.876	145
480.095	138
480.313	165
480.532	195
480.751	388
480.969	1341
481.188	5952
481.406	3395
481.624	475
481.843	145
482.061	112
482.28	100
482.498	108
482.717	105
482.935	112
483.153	93
483.372	111
483.59	93
483.808	97
484.027	109
484.245	111
484.463	100
484.681	125
484.9	98
485.118	114
485.336	110
485.554	106
485.772	111
485.99	111
486.209	111
486.427	107
486.645	141
486.863	175
487.081	122
487.299	98
487.517	116
487.735	105
487.953	96
488.171	106
488.389	95
488.607	111
488.825	96
489.043	107
489.261	100
489.479	111
489.696	113
489.914	104
490.132	94
490.35	100
490.568	102
490.786	97
491.003	104
491.221	110
491.439	108
491.657	114
491.874	110
492.092	98
492.31	105
492.527	111
492.745	99
492.963	103
493.18	103
493.398	99
493.615	108
493.833	108
494.05	86
494.268	100
494.485	96
494.703	91
494.92	104
495.138	99
495.355	122
495.573	109
495.79	122
496.008	104
496.225	104
496.442	109
496.66	100
496.877	99
497.094	105
497.312	88
497.529	103
497.746	101
497.963	101
498.181	102
498.398	104
498.615	136
498.832	120
499.049	94
499.267	103
499.484	97
499.701	95
499.918	88
500.135	109
500.352	97
500.569	93
500.786	118
501.003	102
501.22	102
501.437	94
501.654	106
501.871	135
502.088	105
502.305	113
502.522	103
502.739	90
502.956	119
503.172	102
503.389	117
503.606	147
503.823	115
504.04	110
504.256	107
504.473	98
504.69	91
504.907	92
505.123	98
505.34	111
505.557	107
505.773	92
505.99	103
506.207	101
506.423	83
506.64	104
506.856	90
507.073	106
507.289	106
507.506	113
507.722	168
507.939	163
508.155	113
508.372	99
508.588	89
508.805	106
509.021	104
509.238	114
509.454	129
509.67	101
509.887	150
510.103	152
510.319	281
510.536	1049
510.752	3860
510.968	1025
511.184	211
511.401	161
511.617	122
511.833	135
512.049	129
512.265	90
512.481	95
512.698	107
512.914	117
513.13	119
513.346	112
513.562	101
513.778	112
513.994	108
514.21	134
514.426	179
514.642	218
514.858	191
515.074	277
515.29	896
515.506	3346
515.721	1135
515.937	259
516.153	144
516.369	127
516.585	109
516.801	129
517.016	119
517.232	107
517.448	119
517.664	113
517.879	106
518.095	127
518.311	128
518.527	125
518.742	122
518.958	104
519.173	103
519.389	101
519.605	99
519.82	119
520.036	128
520.251	174
520.467	152
520.682	128
520.898	151
521.113	167
521.329	211
521.544	369
521.76	1182
521.975	5608
522.19	3297
522.406	657
522.621	199
522.836	134
523.052	129
523.267	121
523.482	109
523.698	123
523.913	178
524.128	131
524.343	113
524.559	102
524.774	111
524.989	112
525.204	131
525.419	118
525.634	105
525.849	97
526.064	90
526.28	95
526.495	102
526.71	96
526.925	98
527.14	88
527.355	103
527.57	113
527.785	87
527.999	105
528.214	98
528.429	105
528.644	100
528.859	98
529.074	99
529.289	174
529.503	345
529.718	143
529.933	99
530.148	99
530.363	99
530.577	99
530.792	99
531.007	97
531.221	103
531.436	105
531.651	95
531.865	104
532.08	94
532.295	95
532.509	104
532.724	109
532.938	96
533.153	104
533.367	97
533.582	86
533.796	109
534.011	102
534.225	104
534.44	96
534.654	103
534.868	95
535.083	94
535.297	110
535.511	121
535.726	118
535.94	124
536.154	104
536.369	112
536.583	89
536.797	117
537.011	93
537.225	106
537.44	106
537.654	92
537.868	105
538.082	99
538.296	101
538.51	93
538.724	90
538.938	99
539.153	99
539.367	127
539.581	114
539.795	90
540.009	95
540.222	101
540.436	88
540.65	108
540.864	120
541.078	120
541.292	102
541.506	103
541.72	96
541.934	109
542.147	107
542.361	97
542.575	104
542.789	94
543.002	106
543.216	107
543.43	113
543.644	101
543.857	100
544.071	94
544.285	102
544.498	93
544.712	97
544.925	91
545.139	111
545.352	121
545.566	88
545.779	86
545.993	103
546.206	105
546.42	97
546.633	101
546.847	95
547.06	94
547.274	111
547.487	95
547.7	83
547.914	98
548.127	93
548.34	98
548.554	88
548.767	74
548.98	95
549.193	101
549.407	94
549.62	94
549.833	101
550.046	94
550.259	96
550.473	82
550.686	100
550.899	90
551.112	109
551.325	116
551.538	102
551.751	109
551.964	106
552.177	106
552.39	99
552.603	109
552.816	106
553.029	109
553.242	103
553.455	119
553.667	124
553.88	133
554.093	113
554.306	141
554.519	154
554.732	108
554.944	107
555.157	112
555.37	98
555.583	110
555.795	101
556.008	96
556.221	97
556.433	94
556.646	101
556.859	114
557.071	112
557.284	104
557.496	99
557.709	98
557.921	90
558.134	80
558.346	97
558.559	89
558.771	87
558.984	111
559.196	86
559.409	94
559.621	100
559.833	110
560.046	112
560.258	124
560.47	150
560.683	133
560.895	98
561.107	99
561.32	107
561.532	105
561.744	105
561.956	96
562.168	83
562.381	104
562.593	97
562.805	77
563.017	108
563.229	105
563.441	86
563.653	101
563.865	98
564.077	102
564.289	92
564.501	111
564.713	95
564.925	110
565.137	145
565.349	104
565.561	87
565.773	88
565.985	111
566.197	117
566.408	104
566.62	102
566.832	88
567.044	93
567.255	99
567.467	97
567.679	100
567.891	98
568.102	91
568.314	101
568.526	99
568.737	101
568.949	88
569.161	98
569.372	95
569.584	94
569.795	103
570.007	150
570.218	356
570.43	175
570.641	91
570.853	84
571.064	102
571.276	107
571.487	87
571.698	97
571.91	95
572.121	90
572.333	91
572.544	97
572.755	111
572.966	105
