Data from Circ_1995_H10_HRD10591_00096.txt Node
Date: Wed Jan 03 11:37:05 EST 2024
User: Yrep
Spectrometer: HR+D1059
Trigger mode: 1
Integration Time (sec): 1.000000E-1
Scans to average: 1
Electric dark correction enabled: true
Nonlinearity correction enabled: false
Boxcar width: 0
XAxis mode: Wavelengths
Number of Pixels in Spectrum: 2048
>>>>>Begin Spectral Data<<<<<
223.165	-18.25
223.4	-18.25
223.635	-18.25
223.869	-17.25
224.104	-22.25
224.338	-28.25
224.573	-5.25
224.808	-9.25
225.042	-5.25
225.277	-12.25
225.511	-0.25
225.746	0.75
225.98	1.75
226.215	14.75
226.449	14.75
226.683	16.75
226.918	30.75
227.152	38.75
227.387	36.75
227.621	35.75
227.856	46.75
228.09	56.75
228.324	45.75
228.559	60.75
228.793	58.75
229.027	74.75
229.262	72.75
229.496	90.75
229.73	99.75
229.964	105.75
230.199	85.75
230.433	86.75
230.667	75.75
230.901	79.75
231.136	78.75
231.37	77.75
231.604	75.75
231.838	80.75
232.072	83.75
232.306	84.75
232.541	92.75
232.775	86.75
233.009	74.75
233.243	91.75
233.477	81.75
233.711	92.75
233.945	80.75
234.179	79.75
234.413	80.75
234.647	83.75
234.881	93.75
235.115	80.75
235.349	76.75
235.583	94.75
235.817	70.75
236.051	85.75
236.285	83.75
236.519	93.75
236.753	85.75
236.987	93.75
237.221	106.75
237.455	109.75
237.689	97.75
237.922	93.75
238.156	78.75
238.39	66.75
238.624	88.75
238.858	80.75
239.091	84.75
239.325	92.75
239.559	82.75
239.793	102.75
240.027	88.75
240.26	83.75
240.494	83.75
240.728	81.75
240.961	103.75
241.195	99.75
241.429	83.75
241.662	88.75
241.896	88.75
242.13	78.75
242.363	85.75
242.597	73.75
242.83	84.75
243.064	77.75
243.298	91.75
243.531	82.75
243.765	80.75
243.998	86.75
244.232	103.75
244.465	95.75
244.699	81.75
244.932	103.75
245.166	71.75
245.399	92.75
245.633	93.75
245.866	88.75
246.099	92.75
246.333	94.75
246.566	79.75
246.8	67.75
247.033	91.75
247.266	79.75
247.5	86.75
247.733	103.75
247.966	85.75
248.2	85.75
248.433	76.75
248.666	94.75
248.899	95.75
249.133	93.75
249.366	123.75
249.599	115.75
249.832	90.75
250.066	102.75
250.299	82.75
250.532	100.75
250.765	91.75
250.998	80.75
251.231	90.75
251.465	98.75
251.698	92.75
251.931	101.75
252.164	88.75
252.397	97.75
252.63	93.75
252.863	77.75
253.096	81.75
253.329	74.75
253.562	88.75
253.795	93.75
254.028	92.75
254.261	76.75
254.494	97.75
254.727	90.75
254.96	82.75
255.193	88.75
255.426	85.75
255.659	85.75
255.892	93.75
256.124	107.75
256.357	95.75
256.59	88.75
256.823	98.75
257.056	104.75
257.289	105.75
257.521	89.75
257.754	87.75
257.987	102.75
258.22	101.75
258.452	127.75
258.685	112.75
258.918	96.75
259.151	92.75
259.383	88.75
259.616	95.75
259.849	83.75
260.081	93.75
260.314	108.75
260.547	113.75
260.779	110.75
261.012	126.75
261.244	118.75
261.477	104.75
261.71	127.75
261.942	157.75
262.175	164.75
262.407	98.75
262.64	88.75
262.872	94.75
263.105	101.75
263.337	96.75
263.57	93.75
263.802	94.75
264.035	95.75
264.267	77.75
264.499	84.75
264.732	87.75
264.964	86.75
265.197	68.75
265.429	92.75
265.661	85.75
265.894	84.75
266.126	87.75
266.358	74.75
266.591	82.75
266.823	96.75
267.055	100.75
267.287	98.75
267.52	74.75
267.752	91.75
267.984	89.75
268.216	99.75
268.448	100.75
268.681	85.75
268.913	100.75
269.145	94.75
269.377	77.75
269.609	90.75
269.841	85.75
270.073	97.75
270.306	95.75
270.538	93.75
270.77	89.75
271.002	83.75
271.234	110.75
271.466	96.75
271.698	110.75
271.93	100.75
272.162	102.75
272.394	87.75
272.626	101.75
272.858	83.75
273.09	90.75
273.322	96.75
273.553	101.75
273.785	85.75
274.017	97.75
274.249	90.75
274.481	80.75
274.713	90.75
274.945	110.75
275.176	104.75
275.408	100.75
275.64	149.75
275.872	147.75
276.104	131.75
276.335	112.75
276.567	147.75
276.799	187.75
277.031	243.75
277.262	278.75
277.494	203.75
277.726	110.75
277.957	105.75
278.189	103.75
278.421	91.75
278.652	98.75
278.884	107.75
279.115	98.75
279.347	95.75
279.579	122.75
279.81	167.75
280.042	288.75
280.273	424.75
280.505	262.75
280.736	124.75
280.968	115.75
281.199	109.75
281.431	94.75
281.662	95.75
281.894	103.75
282.125	117.75
282.356	153.75
282.588	202.75
282.819	138.75
283.051	108.75
283.282	99.75
283.513	90.75
283.745	95.75
283.976	95.75
284.207	99.75
284.439	109.75
284.67	92.75
284.901	98.75
285.132	93.75
285.364	98.75
285.595	82.75
285.826	91.75
286.057	98.75
286.288	84.75
286.52	82.75
286.751	95.75
286.982	91.75
287.213	98.75
287.444	91.75
287.675	94.75
287.906	106.75
288.138	101.75
288.369	115.75
288.6	86.75
288.831	90.75
289.062	91.75
289.293	92.75
289.524	95.75
289.755	113.75
289.986	101.75
290.217	100.75
290.448	85.75
290.679	96.75
290.91	102.75
291.141	89.75
291.371	104.75
291.602	94.75
291.833	83.75
292.064	101.75
292.295	111.75
292.526	108.75
292.757	109.75
292.987	99.75
293.218	103.75
293.449	85.75
293.68	87.75
293.91	100.75
294.141	98.75
294.372	95.75
294.603	93.75
294.833	95.75
295.064	99.75
295.295	95.75
295.525	90.75
295.756	116.75
295.987	146.75
296.217	196.75
296.448	159.75
296.679	115.75
296.909	99.75
297.14	86.75
297.37	90.75
297.601	81.75
297.831	100.75
298.062	94.75
298.292	88.75
298.523	100.75
298.753	96.75
298.984	104.75
299.214	102.75
299.445	114.75
299.675	104.75
299.905	114.75
300.136	109.75
300.366	110.75
300.597	93.75
300.827	109.75
301.057	127.75
301.288	128.75
301.518	123.75
301.748	96.75
301.979	121.75
302.209	116.75
302.439	100.75
302.669	101.75
302.9	106.75
303.13	114.75
303.36	119.75
303.59	175.75
303.82	189.75
304.051	141.75
304.281	104.75
304.511	104.75
304.741	107.75
304.971	103.75
305.201	87.75
305.431	84.75
305.661	103.75
305.891	90.75
306.121	103.75
306.352	127.75
306.582	124.75
306.812	125.75
307.042	158.75
307.272	224.75
307.502	241.75
307.731	213.75
307.961	155.75
308.191	104.75
308.421	116.75
308.651	108.75
308.881	98.75
309.111	86.75
309.341	109.75
309.571	108.75
309.8	117.75
310.03	125.75
310.26	131.75
310.49	116.75
310.72	112.75
310.949	121.75
311.179	116.75
311.409	116.75
311.639	98.75
311.868	103.75
312.098	102.75
312.328	104.75
312.557	129.75
312.787	133.75
313.017	132.75
313.246	111.75
313.476	114.75
313.706	98.75
313.935	117.75
314.165	118.75
314.394	126.75
314.624	129.75
314.853	133.75
315.083	108.75
315.312	105.75
315.542	114.75
315.771	110.75
316.001	111.75
316.23	110.75
316.46	94.75
316.689	104.75
316.919	115.75
317.148	115.75
317.377	115.75
317.607	101.75
317.836	98.75
318.065	93.75
318.295	116.75
318.524	103.75
318.753	99.75
318.983	107.75
319.212	122.75
319.441	142.75
319.67	138.75
319.9	110.75
320.129	110.75
320.358	112.75
320.587	104.75
320.816	109.75
321.046	130.75
321.275	106.75
321.504	118.75
321.733	103.75
321.962	126.75
322.191	123.75
322.42	134.75
322.649	136.75
322.878	133.75
323.108	139.75
323.337	164.75
323.566	179.75
323.795	191.75
324.024	272.75
324.253	518.75
324.482	1087.75
324.71	2202.75
324.939	3007.75
325.168	1123.75
325.397	323.75
325.626	182.75
325.855	168.75
326.084	133.75
326.313	163.75
326.542	208.75
326.77	304.75
326.999	530.75
327.228	1145.75
327.457	2087.75
327.686	1734.75
327.914	708.75
328.143	821.75
328.372	1061.75
328.6	573.75
328.829	254.75
329.058	259.75
329.287	250.75
329.515	238.75
329.744	366.75
329.972	773.75
330.201	1635.75
330.43	2382.75
330.658	997.75
330.887	412.75
331.115	247.75
331.344	164.75
331.572	155.75
331.801	149.75
332.03	158.75
332.258	119.75
332.486	110.75
332.715	119.75
332.943	132.75
333.172	148.75
333.4	164.75
333.629	219.75
333.857	314.75
334.085	650.75
334.314	1435.75
334.542	2945.75
334.771	2739.75
334.999	672.75
335.227	235.75
335.455	144.75
335.684	135.75
335.912	125.75
336.14	111.75
336.369	117.75
336.597	133.75
336.825	121.75
337.053	109.75
337.281	109.75
337.51	107.75
337.738	105.75
337.966	106.75
338.194	116.75
338.422	119.75
338.65	92.75
338.878	106.75
339.106	100.75
339.334	109.75
339.562	100.75
339.79	99.75
340.018	101.75
340.246	108.75
340.474	120.75
340.702	98.75
340.93	101.75
341.158	120.75
341.386	116.75
341.614	120.75
341.842	123.75
342.07	93.75
342.298	111.75
342.526	96.75
342.754	96.75
342.981	95.75
343.209	93.75
343.437	107.75
343.665	86.75
343.893	84.75
344.12	111.75
344.348	94.75
344.576	110.75
344.804	103.75
345.031	110.75
345.259	130.75
345.487	118.75
345.714	106.75
345.942	110.75
346.17	100.75
346.397	100.75
346.625	112.75
346.853	106.75
347.08	122.75
347.308	112.75
347.535	109.75
347.763	112.75
347.99	105.75
348.218	121.75
348.445	120.75
348.673	114.75
348.9	102.75
349.128	112.75
349.355	82.75
349.583	93.75
349.81	92.75
350.037	114.75
350.265	101.75
350.492	108.75
350.72	106.75
350.947	112.75
351.174	139.75
351.402	154.75
351.629	120.75
351.856	120.75
352.083	124.75
352.311	136.75
352.538	132.75
352.765	134.75
352.992	131.75
353.22	135.75
353.447	133.75
353.674	99.75
353.901	109.75
354.128	97.75
354.355	106.75
354.583	103.75
354.81	111.75
355.037	107.75
355.264	99.75
355.491	98.75
355.718	108.75
355.945	96.75
356.172	95.75
356.399	109.75
356.626	102.75
356.853	104.75
357.08	102.75
357.307	75.75
357.534	88.75
357.761	102.75
357.988	97.75
358.215	96.75
358.441	100.75
358.668	95.75
358.895	88.75
359.122	87.75
359.349	108.75
359.576	106.75
359.802	130.75
360.029	166.75
360.256	167.75
360.483	133.75
360.709	113.75
360.936	116.75
361.163	117.75
361.39	115.75
361.616	110.75
361.843	108.75
362.07	117.75
362.296	126.75
362.523	105.75
362.749	122.75
362.976	126.75
363.203	111.75
363.429	96.75
363.656	92.75
363.882	107.75
364.109	103.75
364.335	100.75
364.562	91.75
364.788	96.75
365.015	119.75
365.241	108.75
365.468	135.75
365.694	136.75
365.92	129.75
366.147	110.75
366.373	108.75
366.599	99.75
366.826	108.75
367.052	94.75
367.278	94.75
367.505	98.75
367.731	111.75
367.957	104.75
368.184	121.75
368.41	116.75
368.636	133.75
368.862	158.75
369.089	142.75
369.315	106.75
369.541	111.75
369.767	105.75
369.993	101.75
370.219	103.75
370.445	96.75
370.672	100.75
370.898	100.75
371.124	97.75
371.35	98.75
371.576	103.75
371.802	93.75
372.028	93.75
372.254	97.75
372.48	106.75
372.706	86.75
372.932	100.75
373.158	88.75
373.384	93.75
373.61	104.75
373.835	105.75
374.061	89.75
374.287	98.75
374.513	95.75
374.739	93.75
374.965	92.75
375.191	85.75
375.416	101.75
375.642	109.75
375.868	87.75
376.094	88.75
376.319	95.75
376.545	102.75
376.771	100.75
376.997	107.75
377.222	102.75
377.448	103.75
377.674	104.75
377.899	93.75
378.125	88.75
378.35	101.75
378.576	93.75
378.802	96.75
379.027	101.75
379.253	85.75
379.478	103.75
379.704	94.75
379.929	98.75
380.155	114.75
380.38	108.75
380.606	100.75
380.831	82.75
381.057	95.75
381.282	95.75
381.507	99.75
381.733	107.75
381.958	111.75
382.184	114.75
382.409	96.75
382.634	108.75
382.86	109.75
383.085	109.75
383.31	99.75
383.535	94.75
383.761	107.75
383.986	102.75
384.211	95.75
384.436	108.75
384.662	107.75
384.887	111.75
385.112	85.75
385.337	115.75
385.562	112.75
385.787	106.75
386.013	108.75
386.238	135.75
386.463	118.75
386.688	105.75
386.913	111.75
387.138	101.75
387.363	107.75
387.588	110.75
387.813	100.75
388.038	100.75
388.263	99.75
388.488	105.75
388.713	90.75
388.938	107.75
389.163	91.75
389.387	97.75
389.612	90.75
389.837	95.75
390.062	107.75
390.287	103.75
390.512	96.75
390.736	104.75
390.961	98.75
391.186	85.75
391.411	94.75
391.636	86.75
391.86	97.75
392.085	97.75
392.31	92.75
392.534	97.75
392.759	94.75
392.984	92.75
393.208	93.75
393.433	86.75
393.658	101.75
393.882	95.75
394.107	91.75
394.331	107.75
394.556	92.75
394.78	98.75
395.005	98.75
395.229	86.75
395.454	88.75
395.678	94.75
395.903	92.75
396.127	94.75
396.352	100.75
396.576	97.75
396.801	86.75
397.025	84.75
397.249	101.75
397.474	92.75
397.698	106.75
397.922	99.75
398.147	91.75
398.371	99.75
398.595	103.75
398.82	98.75
399.044	101.75
399.268	95.75
399.492	86.75
399.717	96.75
399.941	99.75
400.165	93.75
400.389	82.75
400.613	104.75
400.837	94.75
401.062	107.75
401.286	108.75
401.51	100.75
401.734	121.75
401.958	117.75
402.182	177.75
402.406	247.75
402.63	181.75
402.854	106.75
403.078	102.75
403.302	95.75
403.526	107.75
403.75	96.75
403.974	102.75
404.198	102.75
404.422	102.75
404.645	117.75
404.869	108.75
405.093	121.75
405.317	163.75
405.541	151.75
405.765	158.75
405.988	156.75
406.212	273.75
406.436	394.75
406.66	253.75
406.883	136.75
407.107	103.75
407.331	123.75
407.555	110.75
407.778	122.75
408.002	100.75
408.226	111.75
408.449	97.75
408.673	90.75
408.896	96.75
409.12	109.75
409.344	88.75
409.567	102.75
409.791	93.75
410.014	115.75
410.238	100.75
410.461	90.75
410.685	95.75
410.908	102.75
411.132	121.75
411.355	123.75
411.578	97.75
411.802	103.75
412.025	87.75
412.249	112.75
412.472	144.75
412.695	154.75
412.919	118.75
413.142	97.75
413.365	111.75
413.589	104.75
413.812	91.75
414.035	114.75
414.258	108.75
414.482	94.75
414.705	86.75
414.928	86.75
415.151	102.75
415.374	103.75
415.597	83.75
415.821	98.75
416.044	105.75
416.267	102.75
416.49	92.75
416.713	96.75
416.936	91.75
417.159	98.75
417.382	98.75
417.605	109.75
417.828	139.75
418.051	114.75
418.274	102.75
418.497	91.75
418.72	96.75
418.943	87.75
419.166	99.75
419.389	93.75
419.611	88.75
419.834	100.75
420.057	108.75
420.28	113.75
420.503	94.75
420.726	99.75
420.948	117.75
421.171	119.75
421.394	111.75
421.617	95.75
421.839	93.75
422.062	91.75
422.285	94.75
422.507	94.75
422.73	111.75
422.953	116.75
423.175	104.75
423.398	100.75
423.621	92.75
423.843	99.75
424.066	94.75
424.288	98.75
424.511	87.75
424.733	108.75
424.956	120.75
425.178	108.75
425.401	125.75
425.623	125.75
425.846	95.75
426.068	112.75
426.291	111.75
426.513	94.75
426.735	108.75
426.958	108.75
427.18	142.75
427.402	200.75
427.625	321.75
427.847	296.75
428.069	261.75
428.292	145.75
428.514	114.75
428.736	103.75
428.958	101.75
429.181	102.75
429.403	99.75
429.625	108.75
429.847	109.75
430.069	120.75
430.292	100.75
430.514	90.75
430.736	92.75
430.958	92.75
431.18	99.75
431.402	90.75
431.624	99.75
431.846	91.75
432.068	98.75
432.29	97.75
432.512	88.75
432.734	102.75
432.956	90.75
433.178	105.75
433.4	116.75
433.622	113.75
433.844	99.75
434.066	97.75
434.287	104.75
434.509	94.75
434.731	90.75
434.953	103.75
435.175	105.75
435.397	91.75
435.618	113.75
435.84	128.75
436.062	133.75
436.284	154.75
436.505	119.75
436.727	102.75
436.949	101.75
437.17	97.75
437.392	94.75
437.614	120.75
437.835	133.75
438.057	172.75
438.278	149.75
438.5	118.75
438.721	138.75
438.943	100.75
439.165	84.75
439.386	101.75
439.608	98.75
439.829	117.75
440.05	174.75
440.272	200.75
440.493	130.75
440.715	91.75
440.936	108.75
441.158	104.75
441.379	103.75
441.6	111.75
441.822	118.75
442.043	107.75
442.264	121.75
442.486	120.75
442.707	114.75
442.928	142.75
443.149	198.75
443.371	190.75
443.592	142.75
443.813	135.75
444.034	133.75
444.255	110.75
444.476	101.75
444.698	101.75
444.919	110.75
445.14	166.75
445.361	150.75
445.582	144.75
445.803	205.75
446.024	186.75
446.245	178.75
446.466	133.75
446.687	103.75
446.908	112.75
447.129	104.75
447.35	104.75
447.571	97.75
447.792	95.75
448.013	116.75
448.234	139.75
448.455	127.75
448.675	145.75
448.896	144.75
449.117	123.75
449.338	115.75
449.559	139.75
449.779	155.75
450	95.75
450.221	89.75
450.442	110.75
450.662	114.75
450.883	148.75
451.104	158.75
451.324	122.75
451.545	101.75
451.766	103.75
451.986	99.75
452.207	93.75
452.428	98.75
452.648	136.75
452.869	147.75
453.089	159.75
453.31	166.75
453.53	105.75
453.751	118.75
453.971	146.75
454.192	162.75
454.412	131.75
454.633	102.75
454.853	102.75
455.073	98.75
455.294	102.75
455.514	97.75
455.734	106.75
455.955	119.75
456.175	94.75
456.395	87.75
456.616	91.75
456.836	91.75
457.056	95.75
457.276	85.75
457.497	95.75
457.717	105.75
457.937	98.75
458.157	96.75
458.377	118.75
458.598	150.75
458.818	254.75
459.038	267.75
459.258	162.75
459.478	107.75
459.698	91.75
459.918	85.75
460.138	101.75
460.358	91.75
460.578	98.75
460.798	95.75
461.018	104.75
461.238	102.75
461.458	95.75
461.678	94.75
461.898	96.75
462.118	89.75
462.338	82.75
462.558	95.75
462.777	90.75
462.997	111.75
463.217	129.75
463.437	110.75
463.657	96.75
463.876	97.75
464.096	100.75
464.316	114.75
464.536	120.75
464.755	100.75
464.975	131.75
465.195	291.75
465.414	294.75
465.634	142.75
465.854	94.75
466.073	90.75
466.293	91.75
466.512	90.75
466.732	94.75
466.951	101.75
467.171	122.75
467.391	117.75
467.61	200.75
467.829	301.75
468.049	951.75
468.268	1458.75
468.488	334.75
468.707	133.75
468.927	96.75
469.146	97.75
469.365	117.75
469.585	102.75
469.804	116.75
470.023	133.75
470.243	107.75
470.462	141.75
470.681	172.75
470.901	123.75
471.12	112.75
471.339	136.75
471.558	141.75
471.777	189.75
471.997	454.75
472.216	1814.75
472.435	4222.75
472.654	928.75
472.873	222.75
473.092	132.75
473.311	122.75
473.53	112.75
473.749	103.75
473.968	110.75
474.187	117.75
474.406	122.75
474.625	94.75
474.844	103.75
475.063	100.75
475.282	102.75
475.501	80.75
475.72	103.75
475.939	101.75
476.158	109.75
476.377	99.75
476.596	116.75
476.814	108.75
477.033	117.75
477.252	100.75
477.471	97.75
477.69	102.75
477.908	107.75
478.127	103.75
478.346	112.75
478.564	123.75
478.783	121.75
479.002	138.75
479.22	116.75
479.439	142.75
479.658	160.75
479.876	146.75
480.095	151.75
480.313	186.75
480.532	236.75
480.751	402.75
480.969	1584.75
481.188	7072.75
481.406	3966.75
481.624	533.75
481.843	174.75
482.061	134.75
482.28	120.75
482.498	112.75
482.717	112.75
482.935	111.75
483.153	96.75
483.372	114.75
483.59	90.75
483.808	112.75
484.027	108.75
484.245	94.75
484.463	104.75
484.681	101.75
484.9	93.75
485.118	96.75
485.336	110.75
485.554	96.75
485.772	121.75
485.99	116.75
486.209	113.75
486.427	108.75
486.645	138.75
486.863	135.75
487.081	109.75
487.299	117.75
487.517	105.75
487.735	104.75
487.953	96.75
488.171	106.75
488.389	117.75
488.607	118.75
488.825	95.75
489.043	94.75
489.261	110.75
489.479	102.75
489.696	96.75
489.914	101.75
490.132	101.75
490.35	105.75
490.568	87.75
490.786	92.75
491.003	99.75
491.221	117.75
491.439	111.75
491.657	83.75
491.874	96.75
492.092	94.75
492.31	100.75
492.527	109.75
492.745	110.75
492.963	110.75
493.18	106.75
493.398	96.75
493.615	103.75
493.833	99.75
494.05	112.75
494.268	90.75
494.485	99.75
494.703	96.75
494.92	94.75
495.138	100.75
495.355	96.75
495.573	99.75
495.79	108.75
496.008	104.75
496.225	111.75
496.442	99.75
496.66	108.75
496.877	93.75
497.094	106.75
497.312	103.75
497.529	86.75
497.746	95.75
497.963	105.75
498.181	98.75
498.398	111.75
498.615	142.75
498.832	109.75
499.049	102.75
499.267	79.75
499.484	90.75
499.701	101.75
499.918	91.75
500.135	103.75
500.352	100.75
500.569	104.75
500.786	101.75
501.003	87.75
501.22	93.75
501.437	97.75
501.654	110.75
501.871	129.75
502.088	97.75
502.305	113.75
502.522	88.75
502.739	94.75
502.956	103.75
503.172	113.75
503.389	107.75
503.606	145.75
503.823	113.75
504.04	103.75
504.256	88.75
504.473	92.75
504.69	89.75
504.907	109.75
505.123	102.75
505.34	92.75
505.557	99.75
505.773	101.75
505.99	96.75
506.207	91.75
506.423	122.75
506.64	93.75
506.856	101.75
507.073	101.75
507.289	101.75
507.506	118.75
507.722	160.75
507.939	162.75
508.155	118.75
508.372	102.75
508.588	103.75
508.805	95.75
509.021	102.75
