Data from Circ_1995_H10_HRD10591_00068.txt Node
Date: Wed Jan 03 11:37:00 EST 2024
User: Yrep
Spectrometer: HR+D1059
Trigger mode: 1
Integration Time (sec): 1.000000E-1
Scans to average: 1
Electric dark correction enabled: true
Nonlinearity correction enabled: false
Boxcar width: 0
XAxis mode: Wavelengths
Number of Pixels in Spectrum: 2048
>>>>>Begin Spectral Data<<<<<
223.165	-11.06
223.4	-11.06
223.635	-11.06
223.869	-21.06
224.104	-16.06
224.338	-23.06
224.573	-32.06
224.808	-5.06
225.042	-4.06
225.277	-2.06
225.511	1.94
225.746	-9.06
225.98	5.94
226.215	25.94
226.449	10.94
226.683	10.94
226.918	41.94
227.152	25.94
227.387	40.94
227.621	41.94
227.856	35.94
228.09	41.94
228.324	56.94
228.559	45.94
228.793	50.94
229.027	56.94
229.262	78.94
229.496	71.94
229.73	108.94
229.964	106.94
230.199	83.94
230.433	73.94
230.667	102.94
230.901	73.94
231.136	81.94
231.37	72.94
231.604	80.94
231.838	78.94
232.072	82.94
232.306	73.94
232.541	72.94
232.775	83.94
233.009	88.94
233.243	81.94
233.477	73.94
233.711	81.94
233.945	86.94
234.179	74.94
234.413	85.94
234.647	75.94
234.881	82.94
235.115	76.94
235.349	89.94
235.583	80.94
235.817	73.94
236.051	66.94
236.285	81.94
236.519	80.94
236.753	87.94
236.987	87.94
237.221	84.94
237.455	92.94
237.689	71.94
237.922	74.94
238.156	67.94
238.39	88.94
238.624	79.94
238.858	65.94
239.091	77.94
239.325	61.94
239.559	84.94
239.793	97.94
240.027	79.94
240.26	83.94
240.494	95.94
240.728	82.94
240.961	87.94
241.195	78.94
241.429	85.94
241.662	75.94
241.896	80.94
242.13	78.94
242.363	62.94
242.597	79.94
242.83	78.94
243.064	78.94
243.298	81.94
243.531	81.94
243.765	72.94
243.998	83.94
244.232	83.94
244.465	99.94
244.699	96.94
244.932	74.94
245.166	77.94
245.399	82.94
245.633	73.94
245.866	73.94
246.099	74.94
246.333	79.94
246.566	71.94
246.8	68.94
247.033	85.94
247.266	73.94
247.5	82.94
247.733	80.94
247.966	77.94
248.2	79.94
248.433	91.94
248.666	66.94
248.899	77.94
249.133	91.94
249.366	113.94
249.599	93.94
249.832	95.94
250.066	95.94
250.299	98.94
250.532	92.94
250.765	78.94
250.998	84.94
251.231	64.94
251.465	90.94
251.698	98.94
251.931	88.94
252.164	82.94
252.397	80.94
252.63	89.94
252.863	87.94
253.096	80.94
253.329	63.94
253.562	74.94
253.795	82.94
254.028	87.94
254.261	79.94
254.494	69.94
254.727	89.94
254.96	74.94
255.193	75.94
255.426	92.94
255.659	94.94
255.892	90.94
256.124	108.94
256.357	87.94
256.59	82.94
256.823	82.94
257.056	87.94
257.289	104.94
257.521	79.94
257.754	91.94
257.987	82.94
258.22	105.94
258.452	108.94
258.685	112.94
258.918	86.94
259.151	80.94
259.383	98.94
259.616	80.94
259.849	89.94
260.081	101.94
260.314	77.94
260.547	83.94
260.779	109.94
261.012	130.94
261.244	123.94
261.477	119.94
261.71	123.94
261.942	163.94
262.175	172.94
262.407	99.94
262.64	88.94
262.872	88.94
263.105	86.94
263.337	90.94
263.57	92.94
263.802	79.94
264.035	82.94
264.267	88.94
264.499	94.94
264.732	86.94
264.964	99.94
265.197	74.94
265.429	86.94
265.661	82.94
265.894	86.94
266.126	82.94
266.358	88.94
266.591	75.94
266.823	97.94
267.055	84.94
267.287	85.94
267.52	89.94
267.752	88.94
267.984	89.94
268.216	96.94
268.448	105.94
268.681	87.94
268.913	90.94
269.145	94.94
269.377	85.94
269.609	85.94
269.841	84.94
270.073	96.94
270.306	82.94
270.538	95.94
270.77	75.94
271.002	87.94
271.234	99.94
271.466	94.94
271.698	86.94
271.93	85.94
272.162	85.94
272.394	85.94
272.626	91.94
272.858	84.94
273.09	80.94
273.322	85.94
273.553	79.94
273.785	85.94
274.017	80.94
274.249	92.94
274.481	91.94
274.713	90.94
274.945	80.94
275.176	88.94
275.408	106.94
275.64	132.94
275.872	163.94
276.104	124.94
276.335	110.94
276.567	133.94
276.799	194.94
277.031	237.94
277.262	302.94
277.494	208.94
277.726	129.94
277.957	102.94
278.189	98.94
278.421	96.94
278.652	96.94
278.884	91.94
279.115	78.94
279.347	100.94
279.579	111.94
279.81	156.94
280.042	276.94
280.273	427.94
280.505	270.94
280.736	127.94
280.968	110.94
281.199	92.94
281.431	96.94
281.662	95.94
281.894	88.94
282.125	107.94
282.356	147.94
282.588	213.94
282.819	161.94
283.051	100.94
283.282	106.94
283.513	92.94
283.745	87.94
283.976	97.94
284.207	86.94
284.439	87.94
284.67	78.94
284.901	88.94
285.132	91.94
285.364	77.94
285.595	97.94
285.826	87.94
286.057	91.94
286.288	79.94
286.52	91.94
286.751	101.94
286.982	87.94
287.213	92.94
287.444	93.94
287.675	90.94
287.906	95.94
288.138	83.94
288.369	97.94
288.6	103.94
288.831	86.94
289.062	92.94
289.293	89.94
289.524	78.94
289.755	93.94
289.986	91.94
290.217	96.94
290.448	88.94
290.679	74.94
290.91	99.94
291.141	84.94
291.371	86.94
291.602	88.94
291.833	80.94
292.064	86.94
292.295	104.94
292.526	101.94
292.757	73.94
292.987	78.94
293.218	81.94
293.449	85.94
293.68	90.94
293.91	103.94
294.141	87.94
294.372	103.94
294.603	95.94
294.833	96.94
295.064	94.94
295.295	97.94
295.525	90.94
295.756	110.94
295.987	139.94
296.217	189.94
296.448	177.94
296.679	111.94
296.909	91.94
297.14	98.94
297.37	93.94
297.601	71.94
297.831	90.94
298.062	98.94
298.292	85.94
298.523	94.94
298.753	82.94
298.984	87.94
299.214	93.94
299.445	98.94
299.675	89.94
299.905	90.94
300.136	113.94
300.366	99.94
300.597	102.94
300.827	110.94
301.057	109.94
301.288	115.94
301.518	107.94
301.748	106.94
301.979	117.94
302.209	109.94
302.439	112.94
302.669	90.94
302.9	93.94
303.13	99.94
303.36	128.94
303.59	148.94
303.82	187.94
304.051	129.94
304.281	108.94
304.511	97.94
304.741	92.94
304.971	104.94
305.201	88.94
305.431	102.94
305.661	90.94
305.891	93.94
306.121	106.94
306.352	116.94
306.582	132.94
306.812	119.94
307.042	145.94
307.272	206.94
307.502	243.94
307.731	223.94
307.961	157.94
308.191	108.94
308.421	103.94
308.651	101.94
308.881	103.94
309.111	106.94
309.341	98.94
309.571	118.94
309.8	90.94
310.03	108.94
310.26	120.94
310.49	100.94
310.72	116.94
310.949	129.94
311.179	144.94
311.409	100.94
311.639	111.94
311.868	107.94
312.098	114.94
312.328	97.94
312.557	119.94
312.787	137.94
313.017	114.94
313.246	111.94
313.476	104.94
313.706	96.94
313.935	105.94
314.165	113.94
314.394	124.94
314.624	130.94
314.853	118.94
315.083	104.94
315.312	99.94
315.542	101.94
315.771	104.94
316.001	102.94
316.23	82.94
316.46	90.94
316.689	94.94
316.919	95.94
317.148	95.94
317.377	90.94
317.607	97.94
317.836	107.94
318.065	102.94
318.295	82.94
318.524	86.94
318.753	105.94
318.983	98.94
319.212	124.94
319.441	110.94
319.67	131.94
319.9	100.94
320.129	99.94
320.358	115.94
320.587	97.94
320.816	111.94
321.046	110.94
321.275	102.94
321.504	83.94
321.733	88.94
321.962	102.94
322.191	125.94
322.42	111.94
322.649	133.94
322.878	137.94
323.108	150.94
323.337	167.94
323.566	167.94
323.795	194.94
324.024	274.94
324.253	561.94
324.482	1215.94
324.71	2585.94
324.939	3483.94
325.168	1237.94
325.397	335.94
325.626	182.94
325.855	156.94
326.084	163.94
326.313	166.94
326.542	201.94
326.77	293.94
326.999	611.94
327.228	1285.94
327.457	2373.94
327.686	1954.94
327.914	733.94
328.143	782.94
328.372	1099.94
328.6	583.94
328.829	251.94
329.058	252.94
329.287	235.94
329.515	232.94
329.744	352.94
329.972	723.94
330.201	1579.94
330.43	2429.94
330.658	1043.94
330.887	414.94
331.115	245.94
331.344	145.94
331.572	133.94
331.801	159.94
332.03	144.94
332.258	136.94
332.486	109.94
332.715	118.94
332.943	128.94
333.172	149.94
333.4	149.94
333.629	200.94
333.857	319.94
334.085	611.94
334.314	1352.94
334.542	2850.94
334.771	2750.94
334.999	669.94
335.227	238.94
335.455	163.94
335.684	133.94
335.912	118.94
336.14	115.94
336.369	119.94
336.597	120.94
336.825	130.94
337.053	99.94
337.281	99.94
337.51	101.94
337.738	105.94
337.966	106.94
338.194	134.94
338.422	108.94
338.65	105.94
338.878	106.94
339.106	99.94
339.334	95.94
339.562	102.94
339.79	81.94
340.018	105.94
340.246	108.94
340.474	117.94
340.702	105.94
340.93	112.94
341.158	79.94
341.386	110.94
341.614	111.94
341.842	96.94
342.07	110.94
342.298	100.94
342.526	105.94
342.754	98.94
342.981	98.94
343.209	91.94
343.437	102.94
343.665	94.94
343.893	98.94
344.12	89.94
344.348	97.94
344.576	85.94
344.804	95.94
345.031	113.94
345.259	118.94
345.487	95.94
345.714	106.94
345.942	107.94
346.17	98.94
346.397	98.94
346.625	103.94
346.853	109.94
347.08	101.94
347.308	105.94
347.535	105.94
347.763	111.94
347.99	104.94
348.218	119.94
348.445	121.94
348.673	118.94
348.9	101.94
349.128	95.94
349.355	97.94
349.583	96.94
349.81	90.94
350.037	95.94
350.265	94.94
350.492	93.94
350.72	93.94
350.947	121.94
351.174	130.94
351.402	130.94
351.629	116.94
351.856	113.94
352.083	118.94
352.311	113.94
352.538	141.94
352.765	126.94
352.992	128.94
353.22	134.94
353.447	122.94
353.674	108.94
353.901	86.94
354.128	102.94
354.355	105.94
354.583	95.94
354.81	97.94
355.037	90.94
355.264	96.94
355.491	81.94
355.718	87.94
355.945	104.94
356.172	79.94
356.399	91.94
356.626	92.94
356.853	81.94
357.08	96.94
357.307	82.94
357.534	97.94
357.761	85.94
357.988	107.94
358.215	85.94
358.441	91.94
358.668	85.94
358.895	89.94
359.122	105.94
359.349	89.94
359.576	99.94
359.802	122.94
360.029	163.94
360.256	159.94
360.483	136.94
360.709	106.94
360.936	93.94
361.163	107.94
361.39	107.94
361.616	109.94
361.843	85.94
362.07	102.94
362.296	134.94
362.523	125.94
362.749	109.94
362.976	105.94
363.203	90.94
363.429	99.94
363.656	82.94
363.882	98.94
364.109	93.94
364.335	109.94
364.562	94.94
364.788	98.94
365.015	96.94
365.241	112.94
365.468	117.94
365.694	127.94
365.92	117.94
366.147	90.94
366.373	86.94
366.599	88.94
366.826	94.94
367.052	99.94
367.278	104.94
367.505	106.94
367.731	99.94
367.957	91.94
368.184	98.94
368.41	109.94
368.636	137.94
368.862	143.94
369.089	128.94
369.315	110.94
369.541	112.94
369.767	106.94
369.993	97.94
370.219	96.94
370.445	88.94
370.672	84.94
370.898	79.94
371.124	96.94
371.35	89.94
371.576	73.94
371.802	78.94
372.028	91.94
372.254	89.94
372.48	82.94
372.706	83.94
372.932	89.94
373.158	88.94
373.384	95.94
373.61	84.94
373.835	99.94
374.061	96.94
374.287	105.94
374.513	87.94
374.739	101.94
374.965	81.94
375.191	69.94
375.416	90.94
375.642	75.94
375.868	90.94
376.094	101.94
376.319	96.94
376.545	101.94
376.771	87.94
376.997	78.94
377.222	91.94
377.448	103.94
377.674	94.94
377.899	79.94
378.125	90.94
378.35	89.94
378.576	85.94
378.802	86.94
379.027	102.94
379.253	90.94
379.478	86.94
379.704	87.94
379.929	100.94
380.155	82.94
380.38	77.94
380.606	94.94
380.831	81.94
381.057	93.94
381.282	97.94
381.507	90.94
381.733	87.94
381.958	105.94
382.184	102.94
382.409	97.94
382.634	105.94
382.86	99.94
383.085	89.94
383.31	114.94
383.535	99.94
383.761	89.94
383.986	98.94
384.211	89.94
384.436	107.94
384.662	95.94
384.887	90.94
385.112	105.94
385.337	99.94
385.562	106.94
385.787	110.94
386.013	117.94
386.238	148.94
386.463	121.94
386.688	114.94
386.913	110.94
387.138	105.94
387.363	113.94
387.588	107.94
387.813	106.94
388.038	101.94
388.263	103.94
388.488	95.94
388.713	89.94
388.938	86.94
389.163	103.94
389.387	89.94
389.612	96.94
389.837	85.94
390.062	112.94
390.287	96.94
390.512	81.94
390.736	85.94
390.961	105.94
391.186	90.94
391.411	92.94
391.636	99.94
391.86	96.94
392.085	94.94
392.31	82.94
392.534	73.94
392.759	95.94
392.984	98.94
393.208	97.94
393.433	86.94
393.658	89.94
393.882	86.94
394.107	87.94
394.331	87.94
394.556	77.94
394.78	76.94
395.005	79.94
395.229	77.94
395.454	92.94
395.678	95.94
395.903	87.94
396.127	89.94
396.352	90.94
396.576	89.94
396.801	91.94
397.025	95.94
397.249	98.94
397.474	91.94
397.698	90.94
397.922	87.94
398.147	99.94
398.371	84.94
398.595	85.94
398.82	97.94
399.044	89.94
399.268	75.94
399.492	84.94
399.717	79.94
399.941	97.94
400.165	90.94
400.389	98.94
400.613	72.94
400.837	84.94
401.062	102.94
401.286	90.94
401.51	93.94
401.734	105.94
401.958	124.94
402.182	178.94
402.406	240.94
402.63	177.94
402.854	125.94
403.078	96.94
403.302	87.94
403.526	89.94
403.75	72.94
403.974	71.94
404.198	85.94
404.422	97.94
404.645	83.94
404.869	109.94
405.093	133.94
405.317	160.94
405.541	143.94
405.765	135.94
405.988	160.94
406.212	258.94
406.436	389.94
406.66	252.94
406.883	147.94
407.107	119.94
407.331	112.94
407.555	113.94
407.778	105.94
408.002	86.94
408.226	85.94
408.449	104.94
408.673	103.94
408.896	105.94
409.12	103.94
409.344	88.94
409.567	80.94
409.791	98.94
410.014	96.94
410.238	117.94
410.461	93.94
410.685	94.94
410.908	98.94
411.132	101.94
411.355	108.94
411.578	93.94
411.802	86.94
412.025	101.94
412.249	93.94
412.472	104.94
412.695	152.94
412.919	122.94
413.142	85.94
413.365	85.94
413.589	92.94
413.812	93.94
414.035	102.94
414.258	104.94
414.482	109.94
414.705	82.94
414.928	77.94
415.151	106.94
415.374	102.94
415.597	105.94
415.821	85.94
416.044	95.94
416.267	89.94
416.49	81.94
416.713	94.94
416.936	99.94
417.159	95.94
417.382	98.94
417.605	105.94
417.828	140.94
418.051	119.94
418.274	103.94
418.497	78.94
418.72	83.94
418.943	101.94
419.166	93.94
419.389	92.94
419.611	97.94
419.834	102.94
420.057	90.94
420.28	90.94
420.503	85.94
420.726	85.94
420.948	101.94
421.171	115.94
421.394	99.94
421.617	82.94
421.839	82.94
422.062	94.94
422.285	97.94
422.507	122.94
422.73	116.94
422.953	103.94
423.175	81.94
423.398	85.94
423.621	90.94
423.843	83.94
424.066	93.94
424.288	99.94
424.511	94.94
424.733	102.94
424.956	141.94
425.178	121.94
425.401	117.94
425.623	104.94
425.846	98.94
426.068	105.94
426.291	119.94
426.513	98.94
426.735	109.94
426.958	102.94
427.18	124.94
427.402	186.94
427.625	334.94
427.847	308.94
428.069	265.94
428.292	169.94
428.514	107.94
428.736	86.94
428.958	106.94
429.181	96.94
429.403	97.94
429.625	79.94
429.847	102.94
430.069	121.94
430.292	110.94
430.514	87.94
430.736	91.94
430.958	100.94
431.18	82.94
431.402	78.94
431.624	94.94
431.846	86.94
432.068	87.94
432.29	81.94
432.512	95.94
432.734	86.94
432.956	89.94
433.178	118.94
433.4	104.94
433.622	92.94
433.844	99.94
434.066	88.94
434.287	102.94
434.509	99.94
434.731	93.94
434.953	97.94
435.175	93.94
435.397	103.94
435.618	103.94
435.84	103.94
436.062	125.94
436.284	121.94
436.505	114.94
436.727	96.94
436.949	91.94
437.17	85.94
437.392	95.94
437.614	87.94
437.835	148.94
438.057	174.94
438.278	145.94
438.5	120.94
438.721	144.94
438.943	129.94
439.165	93.94
439.386	93.94
439.608	95.94
439.829	130.94
440.05	157.94
440.272	200.94
440.493	115.94
440.715	89.94
440.936	101.94
441.158	92.94
441.379	103.94
441.6	103.94
441.822	105.94
442.043	112.94
442.264	123.94
442.486	124.94
442.707	101.94
442.928	145.94
443.149	203.94
443.371	206.94
443.592	147.94
443.813	120.94
444.034	133.94
444.255	96.94
444.476	99.94
444.698	94.94
444.919	90.94
445.14	152.94
445.361	141.94
445.582	155.94
445.803	210.94
446.024	189.94
446.245	187.94
446.466	141.94
446.687	95.94
446.908	94.94
447.129	84.94
447.35	71.94
447.571	106.94
447.792	103.94
448.013	109.94
448.234	119.94
448.455	113.94
448.675	121.94
448.896	141.94
449.117	130.94
449.338	120.94
449.559	161.94
449.779	166.94
450	98.94
450.221	95.94
450.442	87.94
450.662	105.94
450.883	144.94
451.104	159.94
451.324	112.94
451.545	103.94
451.766	81.94
451.986	92.94
452.207	93.94
452.428	120.94
452.648	110.94
452.869	137.94
453.089	143.94
453.31	154.94
453.53	124.94
453.751	109.94
453.971	121.94
454.192	164.94
454.412	114.94
454.633	86.94
454.853	105.94
455.073	87.94
455.294	93.94
455.514	113.94
455.734	108.94
455.955	82.94
456.175	83.94
456.395	87.94
456.616	91.94
456.836	91.94
457.056	89.94
457.276	65.94
457.497	89.94
457.717	93.94
457.937	86.94
458.157	83.94
458.377	102.94
458.598	132.94
458.818	268.94
459.038	302.94
459.258	165.94
459.478	99.94
459.698	88.94
459.918	80.94
460.138	105.94
460.358	90.94
460.578	97.94
460.798	96.94
461.018	104.94
461.238	87.94
461.458	93.94
461.678	89.94
461.898	74.94
462.118	98.94
462.338	90.94
462.558	85.94
462.777	92.94
462.997	111.94
463.217	117.94
463.437	103.94
463.657	103.94
463.876	98.94
464.096	91.94
464.316	88.94
464.536	106.94
464.755	89.94
464.975	136.94
465.195	296.94
465.414	312.94
465.634	131.94
465.854	87.94
466.073	92.94
466.293	65.94
466.512	85.94
466.732	82.94
466.951	104.94
467.171	98.94
467.391	126.94
467.61	199.94
467.829	315.94
468.049	919.94
468.268	1469.94
468.488	345.94
468.707	151.94
468.927	120.94
469.146	90.94
469.365	105.94
469.585	105.94
469.804	122.94
470.023	128.94
470.243	124.94
470.462	126.94
470.681	157.94
470.901	110.94
471.12	105.94
471.339	105.94
471.558	131.94
471.777	204.94
471.997	437.94
472.216	1754.94
472.435	4204.94
472.654	936.94
472.873	209.94
473.092	130.94
473.311	101.94
473.53	88.94
473.749	97.94
473.968	117.94
474.187	122.94
474.406	111.94
474.625	91.94
474.844	94.94
475.063	106.94
475.282	96.94
475.501	81.94
475.72	82.94
475.939	77.94
476.158	93.94
476.377	103.94
476.596	101.94
476.814	109.94
477.033	131.94
477.252	115.94
477.471	82.94
477.69	89.94
477.908	101.94
478.127	88.94
478.346	104.94
478.564	114.94
478.783	124.94
479.002	118.94
479.22	122.94
479.439	139.94
479.658	174.94
479.876	139.94
480.095	161.94
480.313	162.94
480.532	206.94
480.751	380.94
480.969	1466.94
481.188	6884.94
481.406	4002.94
481.624	516.94
481.843	167.94
482.061	115.94
482.28	102.94
482.498	109.94
482.717	106.94
482.935	98.94
483.153	102.94
483.372	87.94
483.59	107.94
483.808	82.94
484.027	97.94
484.245	111.94
484.463	96.94
484.681	107.94
484.9	88.94
485.118	107.94
485.336	88.94
485.554	102.94
485.772	105.94
485.99	117.94
486.209	105.94
486.427	114.94
486.645	114.94
486.863	153.94
487.081	127.94
487.299	124.94
487.517	93.94
487.735	99.94
487.953	88.94
488.171	97.94
488.389	108.94
488.607	117.94
488.825	93.94
489.043	92.94
489.261	85.94
489.479	111.94
489.696	88.94
489.914	95.94
490.132	98.94
490.35	97.94
490.568	97.94
490.786	102.94
491.003	92.94
491.221	99.94
491.439	106.94
491.657	102.94
491.874	98.94
492.092	88.94
492.31	89.94
492.527	114.94
492.745	78.94
492.963	92.94
493.18	92.94
493.398	98.94
493.615	93.94
493.833	101.94
494.05	102.94
494.268	97.94
494.485	99.94
494.703	96.94
494.92	99.94
495.138	94.94
495.355	75.94
495.573	100.94
495.79	90.94
496.008	97.94
496.225	85.94
496.442	92.94
496.66	86.94
496.877	83.94
497.094	102.94
497.312	88.94
497.529	102.94
497.746	86.94
497.963	88.94
498.181	97.94
498.398	101.94
498.615	130.94
498.832	112.94
499.049	92.94
499.267	86.94
499.484	85.94
499.701	71.94
499.918	94.94
500.135	84.94
500.352	95.94
500.569	101.94
500.786	93.94
501.003	84.94
501.22	86.94
501.437	95.94
501.654	114.94
501.871	151.94
502.088	106.94
502.305	92.94
502.522	93.94
502.739	99.94
502.956	102.94
503.172	99.94
503.389	106.94
503.606	160.94
503.823	119.94
504.04	101.94
504.256	93.94
504.473	88.94
504.69	94.94
504.907	96.94
505.123	82.94
505.34	82.94
505.557	87.94
505.773	88.94
505.99	104.94
506.207	104.94
506.423	102.94
506.64	94.94
506.856	82.94
507.073	97.94
507.289	113.94
507.506	98.94
507.722	169.94
507.939	158.94
508.155	123.94
508.372	98.94
508.588	84.94
508.805	96.94
509.021	108.94
509.238	106.94
509.454	118.94
509.67	104.94
509.887	118.94
510.103	151.94
510.319	285.94
510.536	1085.94
510.752	4038.94
510.968	1060.94
511.184	187.94
511.401	142.94
511.617	108.94
