Data from Circ_1995_H10_HRD10591_00050.txt Node
Date: Wed Jan 03 11:36:56 EST 2024
User: Yrep
Spectrometer: HR+D1059
Trigger mode: 1
Integration Time (sec): 1.000000E-1
Scans to average: 1
Electric dark correction enabled: true
Nonlinearity correction enabled: false
Boxcar width: 0
XAxis mode: Wavelengths
Number of Pixels in Spectrum: 2048
>>>>>Begin Spectral Data<<<<<
223.165	-25.25
223.4	-25.25
223.635	-25.25
223.869	-14.25
224.104	-19.25
224.338	-9.25
224.573	-20.25
224.808	-19.25
225.042	-20.25
225.277	-4.25
225.511	-8.25
225.746	7.75
225.98	16.75
226.215	11.75
226.449	19.75
226.683	18.75
226.918	27.75
227.152	37.75
227.387	24.75
227.621	22.75
227.856	48.75
228.09	37.75
228.324	51.75
228.559	53.75
228.793	58.75
229.027	58.75
229.262	86.75
229.496	88.75
229.73	101.75
229.964	108.75
230.199	84.75
230.433	78.75
230.667	80.75
230.901	79.75
231.136	77.75
231.37	75.75
231.604	96.75
231.838	76.75
232.072	98.75
232.306	88.75
232.541	76.75
232.775	73.75
233.009	89.75
233.243	88.75
233.477	80.75
233.711	83.75
233.945	90.75
234.179	93.75
234.413	74.75
234.647	82.75
234.881	80.75
235.115	62.75
235.349	65.75
235.583	92.75
235.817	86.75
236.051	75.75
236.285	75.75
236.519	77.75
236.753	90.75
236.987	88.75
237.221	97.75
237.455	90.75
237.689	84.75
237.922	87.75
238.156	88.75
238.39	89.75
238.624	75.75
238.858	80.75
239.091	74.75
239.325	81.75
239.559	80.75
239.793	87.75
240.027	83.75
240.26	88.75
240.494	84.75
240.728	82.75
240.961	78.75
241.195	78.75
241.429	64.75
241.662	87.75
241.896	76.75
242.13	79.75
242.363	77.75
242.597	86.75
242.83	87.75
243.064	79.75
243.298	83.75
243.531	81.75
243.765	83.75
243.998	92.75
244.232	79.75
244.465	82.75
244.699	85.75
244.932	82.75
245.166	83.75
245.399	80.75
245.633	79.75
245.866	75.75
246.099	74.75
246.333	74.75
246.566	81.75
246.8	87.75
247.033	82.75
247.266	83.75
247.5	83.75
247.733	86.75
247.966	89.75
248.2	76.75
248.433	78.75
248.666	80.75
248.899	94.75
249.133	83.75
249.366	112.75
249.599	117.75
249.832	96.75
250.066	84.75
250.299	88.75
250.532	83.75
250.765	98.75
250.998	83.75
251.231	71.75
251.465	84.75
251.698	89.75
251.931	79.75
252.164	91.75
252.397	77.75
252.63	97.75
252.863	75.75
253.096	76.75
253.329	75.75
253.562	81.75
253.795	80.75
254.028	87.75
254.261	85.75
254.494	92.75
254.727	79.75
254.96	72.75
255.193	88.75
255.426	76.75
255.659	78.75
255.892	114.75
256.124	108.75
256.357	97.75
256.59	93.75
256.823	116.75
257.056	90.75
257.289	91.75
257.521	92.75
257.754	80.75
257.987	84.75
258.22	101.75
258.452	126.75
258.685	121.75
258.918	84.75
259.151	72.75
259.383	103.75
259.616	90.75
259.849	78.75
260.081	88.75
260.314	82.75
260.547	96.75
260.779	118.75
261.012	132.75
261.244	125.75
261.477	101.75
261.71	119.75
261.942	169.75
262.175	173.75
262.407	116.75
262.64	99.75
262.872	88.75
263.105	89.75
263.337	93.75
263.57	90.75
263.802	78.75
264.035	102.75
264.267	78.75
264.499	87.75
264.732	84.75
264.964	82.75
265.197	86.75
265.429	91.75
265.661	85.75
265.894	86.75
266.126	72.75
266.358	81.75
266.591	86.75
266.823	78.75
267.055	93.75
267.287	87.75
267.52	98.75
267.752	80.75
267.984	98.75
268.216	96.75
268.448	88.75
268.681	87.75
268.913	85.75
269.145	89.75
269.377	100.75
269.609	86.75
269.841	88.75
270.073	86.75
270.306	98.75
270.538	95.75
270.77	77.75
271.002	89.75
271.234	92.75
271.466	98.75
271.698	95.75
271.93	89.75
272.162	90.75
272.394	104.75
272.626	98.75
272.858	80.75
273.09	96.75
273.322	81.75
273.553	98.75
273.785	92.75
274.017	105.75
274.249	84.75
274.481	81.75
274.713	90.75
274.945	89.75
275.176	102.75
275.408	115.75
275.64	131.75
275.872	159.75
276.104	114.75
276.335	113.75
276.567	133.75
276.799	194.75
277.031	227.75
277.262	290.75
277.494	203.75
277.726	103.75
277.957	115.75
278.189	93.75
278.421	104.75
278.652	102.75
278.884	93.75
279.115	92.75
279.347	100.75
279.579	130.75
279.81	161.75
280.042	265.75
280.273	367.75
280.505	248.75
280.736	134.75
280.968	101.75
281.199	97.75
281.431	92.75
281.662	88.75
281.894	96.75
282.125	96.75
282.356	153.75
282.588	194.75
282.819	163.75
283.051	100.75
283.282	108.75
283.513	94.75
283.745	92.75
283.976	103.75
284.207	87.75
284.439	88.75
284.67	86.75
284.901	81.75
285.132	84.75
285.364	93.75
285.595	89.75
285.826	76.75
286.057	99.75
286.288	79.75
286.52	83.75
286.751	81.75
286.982	96.75
287.213	79.75
287.444	92.75
287.675	94.75
287.906	101.75
288.138	96.75
288.369	103.75
288.6	97.75
288.831	86.75
289.062	100.75
289.293	96.75
289.524	98.75
289.755	90.75
289.986	88.75
290.217	101.75
290.448	90.75
290.679	91.75
290.91	81.75
291.141	114.75
291.371	84.75
291.602	97.75
291.833	106.75
292.064	78.75
292.295	94.75
292.526	89.75
292.757	96.75
292.987	107.75
293.218	98.75
293.449	93.75
293.68	93.75
293.91	90.75
294.141	100.75
294.372	86.75
294.603	105.75
294.833	101.75
295.064	84.75
295.295	89.75
295.525	106.75
295.756	116.75
295.987	139.75
296.217	196.75
296.448	173.75
296.679	113.75
296.909	93.75
297.14	90.75
297.37	99.75
297.601	84.75
297.831	97.75
298.062	109.75
298.292	89.75
298.523	108.75
298.753	104.75
298.984	91.75
299.214	99.75
299.445	106.75
299.675	92.75
299.905	96.75
300.136	97.75
300.366	108.75
300.597	96.75
300.827	104.75
301.057	124.75
301.288	133.75
301.518	109.75
301.748	103.75
301.979	125.75
302.209	101.75
302.439	122.75
302.669	105.75
302.9	93.75
303.13	106.75
303.36	123.75
303.59	160.75
303.82	192.75
304.051	109.75
304.281	80.75
304.511	115.75
304.741	106.75
304.971	98.75
305.201	113.75
305.431	91.75
305.661	99.75
305.891	101.75
306.121	92.75
306.352	112.75
306.582	125.75
306.812	113.75
307.042	141.75
307.272	221.75
307.502	233.75
307.731	227.75
307.961	144.75
308.191	105.75
308.421	116.75
308.651	97.75
308.881	100.75
309.111	104.75
309.341	105.75
309.571	108.75
309.8	105.75
310.03	132.75
310.26	117.75
310.49	101.75
310.72	130.75
310.949	151.75
311.179	122.75
311.409	94.75
311.639	108.75
311.868	103.75
312.098	109.75
312.328	111.75
312.557	129.75
312.787	137.75
313.017	128.75
313.246	124.75
313.476	103.75
313.706	103.75
313.935	120.75
314.165	119.75
314.394	127.75
314.624	122.75
314.853	109.75
315.083	101.75
315.312	91.75
315.542	91.75
315.771	103.75
316.001	99.75
316.23	103.75
316.46	105.75
316.689	103.75
316.919	98.75
317.148	124.75
317.377	122.75
317.607	107.75
317.836	111.75
318.065	85.75
318.295	98.75
318.524	99.75
318.753	112.75
318.983	105.75
319.212	115.75
319.441	121.75
319.67	137.75
319.9	105.75
320.129	99.75
320.358	113.75
320.587	97.75
320.816	115.75
321.046	116.75
321.275	112.75
321.504	101.75
321.733	115.75
321.962	99.75
322.191	119.75
322.42	124.75
322.649	142.75
322.878	142.75
323.108	161.75
323.337	172.75
323.566	176.75
323.795	204.75
324.024	305.75
324.253	606.75
324.482	1303.75
324.71	2751.75
324.939	3695.75
325.168	1307.75
325.397	355.75
325.626	190.75
325.855	156.75
326.084	154.75
326.313	162.75
326.542	227.75
326.77	321.75
326.999	658.75
327.228	1357.75
327.457	2583.75
327.686	2039.75
327.914	722.75
328.143	811.75
328.372	1023.75
328.6	568.75
328.829	260.75
329.058	255.75
329.287	279.75
329.515	230.75
329.744	355.75
329.972	726.75
330.201	1584.75
330.43	2391.75
330.658	1020.75
330.887	427.75
331.115	257.75
331.344	146.75
331.572	148.75
331.801	155.75
332.03	147.75
332.258	128.75
332.486	124.75
332.715	125.75
332.943	134.75
333.172	151.75
333.4	146.75
333.629	201.75
333.857	320.75
334.085	636.75
334.314	1427.75
334.542	2872.75
334.771	2740.75
334.999	669.75
335.227	236.75
335.455	161.75
335.684	133.75
335.912	121.75
336.14	130.75
336.369	130.75
336.597	133.75
336.825	125.75
337.053	108.75
337.281	106.75
337.51	110.75
337.738	101.75
337.966	115.75
338.194	127.75
338.422	109.75
338.65	111.75
338.878	105.75
339.106	85.75
339.334	109.75
339.562	111.75
339.79	104.75
340.018	112.75
340.246	118.75
340.474	121.75
340.702	101.75
340.93	99.75
341.158	93.75
341.386	99.75
341.614	111.75
341.842	120.75
342.07	91.75
342.298	106.75
342.526	92.75
342.754	93.75
342.981	80.75
343.209	92.75
343.437	97.75
343.665	85.75
343.893	99.75
344.12	102.75
344.348	89.75
344.576	107.75
344.804	100.75
345.031	117.75
345.259	132.75
345.487	114.75
345.714	120.75
345.942	96.75
346.17	104.75
346.397	103.75
346.625	91.75
346.853	98.75
347.08	90.75
347.308	112.75
347.535	100.75
347.763	135.75
347.99	129.75
348.218	127.75
348.445	137.75
348.673	119.75
348.9	115.75
349.128	96.75
349.355	98.75
349.583	99.75
349.81	92.75
350.037	100.75
350.265	107.75
350.492	111.75
350.72	119.75
350.947	100.75
351.174	132.75
351.402	147.75
351.629	97.75
351.856	115.75
352.083	116.75
352.311	155.75
352.538	157.75
352.765	139.75
352.992	138.75
353.22	134.75
353.447	129.75
353.674	115.75
353.901	106.75
354.128	92.75
354.355	93.75
354.583	91.75
354.81	101.75
355.037	92.75
355.264	97.75
355.491	83.75
355.718	101.75
355.945	100.75
356.172	88.75
356.399	96.75
356.626	99.75
356.853	93.75
357.08	98.75
357.307	93.75
357.534	89.75
357.761	108.75
357.988	100.75
358.215	92.75
358.441	120.75
358.668	95.75
358.895	98.75
359.122	96.75
359.349	97.75
359.576	106.75
359.802	139.75
360.029	175.75
360.256	167.75
360.483	141.75
360.709	102.75
360.936	104.75
361.163	103.75
361.39	122.75
361.616	116.75
361.843	111.75
362.07	110.75
362.296	115.75
362.523	111.75
362.749	122.75
362.976	105.75
363.203	119.75
363.429	88.75
363.656	98.75
363.882	90.75
364.109	96.75
364.335	99.75
364.562	96.75
364.788	94.75
365.015	112.75
365.241	119.75
365.468	126.75
365.694	131.75
365.92	112.75
366.147	107.75
366.373	106.75
366.599	99.75
366.826	89.75
367.052	95.75
367.278	108.75
367.505	91.75
367.731	97.75
367.957	104.75
368.184	114.75
368.41	130.75
368.636	138.75
368.862	148.75
369.089	136.75
369.315	99.75
369.541	113.75
369.767	107.75
369.993	106.75
370.219	106.75
370.445	95.75
370.672	87.75
370.898	88.75
371.124	84.75
371.35	102.75
371.576	96.75
371.802	85.75
372.028	85.75
372.254	83.75
372.48	84.75
372.706	91.75
372.932	99.75
373.158	105.75
373.384	91.75
373.61	104.75
373.835	93.75
374.061	92.75
374.287	108.75
374.513	105.75
374.739	83.75
374.965	98.75
375.191	99.75
375.416	87.75
375.642	89.75
375.868	100.75
376.094	95.75
376.319	109.75
376.545	86.75
376.771	95.75
376.997	90.75
377.222	84.75
377.448	86.75
377.674	98.75
377.899	108.75
378.125	91.75
378.35	96.75
378.576	104.75
378.802	73.75
379.027	90.75
379.253	102.75
379.478	90.75
379.704	87.75
379.929	110.75
380.155	111.75
380.38	98.75
380.606	99.75
380.831	102.75
381.057	95.75
381.282	105.75
381.507	107.75
381.733	76.75
381.958	100.75
382.184	108.75
382.409	109.75
382.634	92.75
382.86	95.75
383.085	93.75
383.31	107.75
383.535	108.75
383.761	90.75
383.986	109.75
384.211	102.75
384.436	88.75
384.662	98.75
384.887	91.75
385.112	98.75
385.337	114.75
385.562	97.75
385.787	111.75
386.013	111.75
386.238	136.75
386.463	108.75
386.688	114.75
386.913	107.75
387.138	99.75
387.363	101.75
387.588	92.75
387.813	112.75
388.038	104.75
388.263	112.75
388.488	121.75
388.713	94.75
388.938	96.75
389.163	98.75
389.387	91.75
389.612	96.75
389.837	79.75
390.062	84.75
390.287	84.75
390.512	92.75
390.736	94.75
390.961	88.75
391.186	100.75
391.411	88.75
391.636	92.75
391.86	87.75
392.085	80.75
392.31	97.75
392.534	81.75
392.759	91.75
392.984	96.75
393.208	100.75
393.433	90.75
393.658	82.75
393.882	78.75
394.107	97.75
394.331	116.75
394.556	88.75
394.78	96.75
395.005	85.75
395.229	89.75
395.454	95.75
395.678	95.75
395.903	91.75
396.127	88.75
396.352	96.75
396.576	93.75
396.801	83.75
397.025	88.75
397.249	104.75
397.474	95.75
397.698	90.75
397.922	82.75
398.147	109.75
398.371	102.75
398.595	94.75
398.82	101.75
399.044	90.75
399.268	82.75
399.492	77.75
399.717	86.75
399.941	91.75
400.165	101.75
400.389	96.75
400.613	93.75
400.837	90.75
401.062	103.75
401.286	107.75
401.51	95.75
401.734	111.75
401.958	122.75
402.182	173.75
402.406	228.75
402.63	180.75
402.854	114.75
403.078	101.75
403.302	85.75
403.526	73.75
403.75	88.75
403.974	83.75
404.198	91.75
404.422	96.75
404.645	105.75
404.869	112.75
405.093	117.75
405.317	156.75
405.541	179.75
405.765	140.75
405.988	161.75
406.212	276.75
406.436	402.75
406.66	270.75
406.883	141.75
407.107	120.75
407.331	121.75
407.555	111.75
407.778	105.75
408.002	97.75
408.226	117.75
408.449	95.75
408.673	86.75
408.896	100.75
409.12	103.75
409.344	91.75
409.567	88.75
409.791	90.75
410.014	91.75
410.238	91.75
410.461	94.75
410.685	98.75
410.908	94.75
411.132	107.75
411.355	126.75
411.578	93.75
411.802	104.75
412.025	109.75
412.249	104.75
412.472	127.75
412.695	162.75
412.919	112.75
413.142	76.75
413.365	93.75
413.589	82.75
413.812	87.75
414.035	95.75
414.258	98.75
414.482	108.75
414.705	93.75
414.928	90.75
415.151	91.75
415.374	93.75
415.597	97.75
415.821	93.75
416.044	94.75
416.267	93.75
416.49	90.75
416.713	80.75
416.936	94.75
417.159	97.75
417.382	106.75
417.605	121.75
417.828	115.75
418.051	113.75
418.274	106.75
418.497	86.75
418.72	98.75
418.943	90.75
419.166	94.75
419.389	80.75
419.611	107.75
419.834	92.75
420.057	105.75
420.28	99.75
420.503	91.75
420.726	99.75
420.948	101.75
421.171	116.75
421.394	106.75
421.617	90.75
421.839	87.75
422.062	84.75
422.285	106.75
422.507	95.75
422.73	120.75
422.953	98.75
423.175	91.75
423.398	99.75
423.621	99.75
423.843	89.75
424.066	85.75
424.288	88.75
424.511	93.75
424.733	120.75
424.956	126.75
425.178	113.75
425.401	121.75
425.623	110.75
425.846	98.75
426.068	104.75
426.291	97.75
426.513	94.75
426.735	111.75
426.958	120.75
427.18	130.75
427.402	227.75
427.625	336.75
427.847	319.75
428.069	260.75
428.292	144.75
428.514	98.75
428.736	103.75
428.958	85.75
429.181	93.75
429.403	96.75
429.625	106.75
429.847	111.75
430.069	117.75
430.292	110.75
430.514	89.75
430.736	67.75
430.958	83.75
431.18	83.75
431.402	85.75
431.624	91.75
431.846	81.75
432.068	84.75
432.29	93.75
432.512	89.75
432.734	89.75
432.956	108.75
433.178	91.75
433.4	101.75
433.622	93.75
433.844	109.75
434.066	83.75
434.287	106.75
434.509	97.75
434.731	100.75
434.953	101.75
435.175	78.75
435.397	95.75
435.618	94.75
435.84	128.75
436.062	160.75
436.284	147.75
436.505	121.75
436.727	105.75
436.949	96.75
437.17	90.75
437.392	94.75
437.614	109.75
437.835	135.75
438.057	172.75
438.278	136.75
438.5	122.75
438.721	146.75
438.943	120.75
439.165	95.75
439.386	102.75
439.608	96.75
439.829	119.75
440.05	184.75
440.272	233.75
440.493	134.75
440.715	79.75
440.936	79.75
441.158	102.75
441.379	90.75
441.6	93.75
441.822	118.75
442.043	108.75
442.264	121.75
442.486	124.75
442.707	121.75
442.928	142.75
443.149	223.75
443.371	211.75
443.592	163.75
443.813	127.75
444.034	127.75
444.255	96.75
444.476	90.75
444.698	100.75
444.919	96.75
445.14	137.75
445.361	161.75
445.582	169.75
445.803	227.75
446.024	212.75
446.245	207.75
446.466	145.75
446.687	102.75
446.908	93.75
447.129	91.75
447.35	104.75
447.571	105.75
447.792	86.75
448.013	110.75
448.234	139.75
448.455	132.75
448.675	145.75
448.896	144.75
449.117	135.75
449.338	134.75
449.559	152.75
449.779	175.75
450	123.75
450.221	93.75
450.442	95.75
450.662	104.75
450.883	152.75
451.104	171.75
451.324	113.75
451.545	107.75
451.766	94.75
451.986	98.75
452.207	92.75
452.428	105.75
452.648	104.75
452.869	137.75
453.089	171.75
453.31	168.75
453.53	112.75
453.751	101.75
453.971	124.75
454.192	175.75
454.412	113.75
454.633	100.75
454.853	114.75
455.073	96.75
455.294	96.75
455.514	122.75
455.734	100.75
455.955	92.75
456.175	87.75
456.395	98.75
456.616	97.75
456.836	93.75
457.056	80.75
457.276	84.75
457.497	83.75
457.717	80.75
457.937	81.75
458.157	76.75
458.377	95.75
458.598	155.75
458.818	278.75
459.038	303.75
459.258	177.75
459.478	106.75
459.698	87.75
459.918	87.75
460.138	87.75
460.358	87.75
460.578	90.75
460.798	96.75
461.018	99.75
461.238	85.75
461.458	82.75
461.678	87.75
461.898	110.75
462.118	76.75
462.338	85.75
462.558	90.75
462.777	77.75
462.997	103.75
463.217	141.75
463.437	100.75
463.657	89.75
463.876	88.75
464.096	116.75
464.316	123.75
464.536	108.75
464.755	109.75
464.975	150.75
465.195	327.75
465.414	314.75
465.634	122.75
465.854	104.75
466.073	97.75
466.293	100.75
466.512	100.75
466.732	94.75
466.951	99.75
467.171	99.75
467.391	132.75
467.61	179.75
467.829	289.75
468.049	900.75
468.268	1372.75
468.488	303.75
468.707	118.75
468.927	105.75
469.146	89.75
469.365	99.75
469.585	98.75
469.804	117.75
470.023	133.75
470.243	113.75
470.462	143.75
470.681	176.75
470.901	106.75
471.12	103.75
471.339	110.75
471.558	122.75
471.777	196.75
471.997	428.75
472.216	1667.75
472.435	3975.75
472.654	887.75
472.873	201.75
473.092	128.75
473.311	119.75
473.53	102.75
473.749	96.75
473.968	119.75
474.187	126.75
474.406	118.75
474.625	101.75
474.844	84.75
475.063	81.75
475.282	100.75
475.501	82.75
475.72	103.75
475.939	92.75
476.158	91.75
476.377	92.75
476.596	115.75
476.814	113.75
477.033	114.75
477.252	109.75
477.471	99.75
477.69	112.75
477.908	114.75
478.127	100.75
478.346	111.75
478.564	106.75
478.783	123.75
479.002	109.75
479.22	132.75
479.439	157.75
479.658	164.75
479.876	147.75
480.095	151.75
480.313	149.75
480.532	201.75
480.751	364.75
480.969	1508.75
481.188	6721.75
481.406	3829.75
481.624	537.75
481.843	175.75
482.061	125.75
482.28	121.75
482.498	111.75
482.717	99.75
482.935	86.75
483.153	100.75
483.372	104.75
483.59	98.75
483.808	92.75
484.027	93.75
484.245	97.75
484.463	91.75
484.681	103.75
484.9	107.75
485.118	94.75
485.336	96.75
485.554	105.75
485.772	107.75
485.99	110.75
486.209	100.75
486.427	113.75
486.645	133.75
486.863	144.75
487.081	128.75
487.299	114.75
487.517	104.75
487.735	85.75
487.953	97.75
488.171	91.75
488.389	82.75
488.607	113.75
488.825	87.75
489.043	89.75
489.261	99.75
489.479	92.75
489.696	102.75
489.914	100.75
490.132	99.75
490.35	91.75
490.568	97.75
490.786	87.75
491.003	109.75
491.221	114.75
491.439	117.75
491.657	92.75
491.874	93.75
492.092	95.75
492.31	89.75
492.527	104.75
492.745	99.75
492.963	109.75
493.18	90.75
493.398	109.75
493.615	99.75
493.833	96.75
494.05	99.75
494.268	81.75
494.485	99.75
494.703	91.75
494.92	85.75
495.138	98.75
495.355	110.75
495.573	98.75
495.79	90.75
496.008	94.75
496.225	95.75
496.442	96.75
496.66	91.75
496.877	77.75
497.094	110.75
497.312	99.75
497.529	83.75
497.746	98.75
497.963	94.75
498.181	112.75
498.398	105.75
498.615	122.75
498.832	121.75
499.049	104.75
499.267	101.75
499.484	93.75
499.701	84.75
499.918	105.75
500.135	88.75
500.352	98.75
500.569	96.75
500.786	95.75
501.003	96.75
501.22	101.75
501.437	100.75
501.654	121.75
501.871	151.75
502.088	113.75
502.305	80.75
502.522	87.75
502.739	104.75
502.956	93.75
503.172	100.75
503.389	112.75
503.606	135.75
503.823	120.75
504.04	92.75
504.256	110.75
504.473	106.75
504.69	82.75
504.907	91.75
505.123	95.75
505.34	96.75
505.557	102.75
505.773	90.75
505.99	89.75
506.207	101.75
506.423	95.75
506.64	101.75
506.856	93.75
507.073	92.75
507.289	99.75
507.506	115.75
507.722	170.75
507.939	159.75
508.155	110.75
508.372	82.75
508.588	104.75
508.805	113.75
509.021	98.75
509.238	103.75
509.454	110.75
509.67	112.75
509.887	119.75
510.103	167.75
510.319	278.75
510.536	1133.75
510.752	4114.75
