Data from Circ_1995_H10_HRD10591_00098.txt Node
Date: Wed Jan 03 11:37:06 EST 2024
User: Yrep
Spectrometer: HR+D1059
Trigger mode: 1
Integration Time (sec): 1.000000E-1
Scans to average: 1
Electric dark correction enabled: true
Nonlinearity correction enabled: false
Boxcar width: 0
XAxis mode: Wavelengths
Number of Pixels in Spectrum: 2048
>>>>>Begin Spectral Data<<<<<
223.165	-30.25
223.4	-30.25
223.635	-30.25
223.869	-11.25
224.104	-26.25
224.338	-23.25
224.573	-21.25
224.808	-6.25
225.042	-9.25
225.277	-11.25
225.511	5.75
225.746	-1.25
225.98	16.75
226.215	7.75
226.449	18.75
226.683	26.75
226.918	33.75
227.152	30.75
227.387	41.75
227.621	42.75
227.856	30.75
228.09	55.75
228.324	60.75
228.559	61.75
228.793	66.75
229.027	60.75
229.262	79.75
229.496	74.75
229.73	99.75
229.964	95.75
230.199	79.75
230.433	73.75
230.667	85.75
230.901	75.75
231.136	71.75
231.37	88.75
231.604	75.75
231.838	79.75
232.072	75.75
232.306	92.75
232.541	77.75
232.775	91.75
233.009	78.75
233.243	83.75
233.477	63.75
233.711	70.75
233.945	83.75
234.179	85.75
234.413	95.75
234.647	108.75
234.881	75.75
235.115	68.75
235.349	79.75
235.583	77.75
235.817	76.75
236.051	75.75
236.285	93.75
236.519	79.75
236.753	94.75
236.987	86.75
237.221	96.75
237.455	98.75
237.689	76.75
237.922	73.75
238.156	85.75
238.39	72.75
238.624	74.75
238.858	89.75
239.091	78.75
239.325	84.75
239.559	87.75
239.793	71.75
240.027	90.75
240.26	72.75
240.494	79.75
240.728	78.75
240.961	76.75
241.195	91.75
241.429	74.75
241.662	78.75
241.896	81.75
242.13	72.75
242.363	69.75
242.597	66.75
242.83	82.75
243.064	71.75
243.298	71.75
243.531	80.75
243.765	89.75
243.998	94.75
244.232	83.75
244.465	73.75
244.699	77.75
244.932	84.75
245.166	68.75
245.399	83.75
245.633	78.75
245.866	71.75
246.099	87.75
246.333	75.75
246.566	87.75
246.8	89.75
247.033	94.75
247.266	71.75
247.5	75.75
247.733	80.75
247.966	77.75
248.2	82.75
248.433	80.75
248.666	77.75
248.899	82.75
249.133	105.75
249.366	105.75
249.599	111.75
249.832	84.75
250.066	86.75
250.299	96.75
250.532	81.75
250.765	82.75
250.998	81.75
251.231	84.75
251.465	88.75
251.698	94.75
251.931	87.75
252.164	87.75
252.397	82.75
252.63	79.75
252.863	80.75
253.096	86.75
253.329	82.75
253.562	88.75
253.795	85.75
254.028	92.75
254.261	85.75
254.494	73.75
254.727	88.75
254.96	75.75
255.193	78.75
255.426	90.75
255.659	95.75
255.892	94.75
256.124	112.75
256.357	81.75
256.59	80.75
256.823	77.75
257.056	90.75
257.289	95.75
257.521	93.75
257.754	91.75
257.987	85.75
258.22	92.75
258.452	110.75
258.685	87.75
258.918	90.75
259.151	101.75
259.383	84.75
259.616	85.75
259.849	107.75
260.081	95.75
260.314	74.75
260.547	91.75
260.779	96.75
261.012	133.75
261.244	140.75
261.477	101.75
261.71	108.75
261.942	144.75
262.175	158.75
262.407	107.75
262.64	86.75
262.872	85.75
263.105	102.75
263.337	83.75
263.57	75.75
263.802	90.75
264.035	84.75
264.267	91.75
264.499	98.75
264.732	98.75
264.964	80.75
265.197	73.75
265.429	88.75
265.661	91.75
265.894	88.75
266.126	86.75
266.358	87.75
266.591	85.75
266.823	73.75
267.055	78.75
267.287	83.75
267.52	88.75
267.752	83.75
267.984	86.75
268.216	79.75
268.448	101.75
268.681	88.75
268.913	87.75
269.145	64.75
269.377	88.75
269.609	93.75
269.841	89.75
270.073	85.75
270.306	84.75
270.538	93.75
270.77	85.75
271.002	91.75
271.234	100.75
271.466	108.75
271.698	88.75
271.93	92.75
272.162	93.75
272.394	89.75
272.626	93.75
272.858	79.75
273.09	84.75
273.322	80.75
273.553	84.75
273.785	76.75
274.017	79.75
274.249	90.75
274.481	84.75
274.713	73.75
274.945	86.75
275.176	111.75
275.408	111.75
275.64	138.75
275.872	145.75
276.104	123.75
276.335	101.75
276.567	127.75
276.799	172.75
277.031	237.75
277.262	281.75
277.494	200.75
277.726	107.75
277.957	108.75
278.189	96.75
278.421	109.75
278.652	101.75
278.884	92.75
279.115	82.75
279.347	108.75
279.579	117.75
279.81	179.75
280.042	282.75
280.273	393.75
280.505	269.75
280.736	120.75
280.968	116.75
281.199	96.75
281.431	101.75
281.662	89.75
281.894	88.75
282.125	109.75
282.356	145.75
282.588	181.75
282.819	155.75
283.051	112.75
283.282	90.75
283.513	94.75
283.745	84.75
283.976	87.75
284.207	77.75
284.439	97.75
284.67	79.75
284.901	97.75
285.132	65.75
285.364	79.75
285.595	97.75
285.826	89.75
286.057	93.75
286.288	84.75
286.52	97.75
286.751	93.75
286.982	85.75
287.213	75.75
287.444	84.75
287.675	90.75
287.906	98.75
288.138	104.75
288.369	111.75
288.6	74.75
288.831	77.75
289.062	88.75
289.293	98.75
289.524	92.75
289.755	78.75
289.986	87.75
290.217	77.75
290.448	86.75
290.679	89.75
290.91	95.75
291.141	80.75
291.371	92.75
291.602	96.75
291.833	111.75
292.064	82.75
292.295	106.75
292.526	83.75
292.757	88.75
292.987	83.75
293.218	80.75
293.449	87.75
293.68	77.75
293.91	94.75
294.141	94.75
294.372	85.75
294.603	81.75
294.833	90.75
295.064	93.75
295.295	90.75
295.525	112.75
295.756	115.75
295.987	137.75
296.217	165.75
296.448	173.75
296.679	104.75
296.909	68.75
297.14	89.75
297.37	84.75
297.601	91.75
297.831	90.75
298.062	98.75
298.292	91.75
298.523	84.75
298.753	101.75
298.984	90.75
299.214	84.75
299.445	108.75
299.675	87.75
299.905	103.75
300.136	101.75
300.366	90.75
300.597	95.75
300.827	108.75
301.057	111.75
301.288	109.75
301.518	117.75
301.748	116.75
301.979	127.75
302.209	105.75
302.439	108.75
302.669	97.75
302.9	80.75
303.13	96.75
303.36	113.75
303.59	165.75
303.82	180.75
304.051	129.75
304.281	108.75
304.511	90.75
304.741	87.75
304.971	84.75
305.201	98.75
305.431	109.75
305.661	92.75
305.891	91.75
306.121	111.75
306.352	118.75
306.582	134.75
306.812	116.75
307.042	139.75
307.272	192.75
307.502	253.75
307.731	216.75
307.961	141.75
308.191	114.75
308.421	97.75
308.651	95.75
308.881	105.75
309.111	104.75
309.341	122.75
309.571	116.75
309.8	112.75
310.03	115.75
310.26	118.75
310.49	99.75
310.72	109.75
310.949	134.75
311.179	122.75
311.409	105.75
311.639	102.75
311.868	105.75
312.098	104.75
312.328	108.75
312.557	107.75
312.787	138.75
313.017	128.75
313.246	100.75
313.476	109.75
313.706	105.75
313.935	101.75
314.165	116.75
314.394	135.75
314.624	120.75
314.853	112.75
315.083	99.75
315.312	99.75
315.542	96.75
315.771	85.75
316.001	100.75
316.23	98.75
316.46	93.75
316.689	107.75
316.919	91.75
317.148	108.75
317.377	112.75
317.607	98.75
317.836	100.75
318.065	94.75
318.295	86.75
318.524	90.75
318.753	111.75
318.983	96.75
319.212	96.75
319.441	129.75
319.67	121.75
319.9	113.75
320.129	116.75
320.358	123.75
320.587	109.75
320.816	110.75
321.046	113.75
321.275	104.75
321.504	110.75
321.733	103.75
321.962	117.75
322.191	114.75
322.42	130.75
322.649	122.75
322.878	124.75
323.108	141.75
323.337	169.75
323.566	183.75
323.795	193.75
324.024	291.75
324.253	601.75
324.482	1290.75
324.71	2675.75
324.939	3555.75
325.168	1297.75
325.397	358.75
325.626	208.75
325.855	158.75
326.084	156.75
326.313	163.75
326.542	209.75
326.77	309.75
326.999	647.75
327.228	1375.75
327.457	2548.75
327.686	2039.75
327.914	745.75
328.143	795.75
328.372	1070.75
328.6	579.75
328.829	251.75
329.058	228.75
329.287	251.75
329.515	241.75
329.744	358.75
329.972	772.75
330.201	1634.75
330.43	2516.75
330.658	1018.75
330.887	393.75
331.115	246.75
331.344	135.75
331.572	152.75
331.801	153.75
332.03	150.75
332.258	128.75
332.486	119.75
332.715	114.75
332.943	131.75
333.172	131.75
333.4	158.75
333.629	220.75
333.857	317.75
334.085	657.75
334.314	1487.75
334.542	3022.75
334.771	2826.75
334.999	695.75
335.227	237.75
335.455	162.75
335.684	126.75
335.912	131.75
336.14	105.75
336.369	110.75
336.597	120.75
336.825	125.75
337.053	116.75
337.281	101.75
337.51	107.75
337.738	111.75
337.966	111.75
338.194	109.75
338.422	123.75
338.65	116.75
338.878	101.75
339.106	107.75
339.334	89.75
339.562	96.75
339.79	87.75
340.018	92.75
340.246	88.75
340.474	95.75
340.702	106.75
340.93	91.75
341.158	91.75
341.386	123.75
341.614	105.75
341.842	113.75
342.07	103.75
342.298	107.75
342.526	98.75
342.754	91.75
342.981	88.75
343.209	92.75
343.437	95.75
343.665	84.75
343.893	107.75
344.12	95.75
344.348	90.75
344.576	89.75
344.804	96.75
345.031	109.75
345.259	113.75
345.487	108.75
345.714	104.75
345.942	96.75
346.17	98.75
346.397	95.75
346.625	99.75
346.853	110.75
347.08	119.75
347.308	115.75
347.535	103.75
347.763	119.75
347.99	114.75
348.218	119.75
348.445	133.75
348.673	127.75
348.9	100.75
349.128	97.75
349.355	98.75
349.583	91.75
349.81	109.75
350.037	94.75
350.265	111.75
350.492	94.75
350.72	112.75
350.947	120.75
351.174	136.75
351.402	143.75
351.629	124.75
351.856	115.75
352.083	130.75
352.311	129.75
352.538	133.75
352.765	143.75
352.992	151.75
353.22	128.75
353.447	120.75
353.674	106.75
353.901	105.75
354.128	97.75
354.355	114.75
354.583	102.75
354.81	99.75
355.037	87.75
355.264	98.75
355.491	90.75
355.718	93.75
355.945	88.75
356.172	93.75
356.399	99.75
356.626	90.75
356.853	96.75
357.08	80.75
357.307	90.75
357.534	92.75
357.761	91.75
357.988	101.75
358.215	92.75
358.441	94.75
358.668	98.75
358.895	99.75
359.122	115.75
359.349	95.75
359.576	101.75
359.802	120.75
360.029	143.75
360.256	153.75
360.483	128.75
360.709	104.75
360.936	102.75
361.163	98.75
361.39	111.75
361.616	107.75
361.843	98.75
362.07	101.75
362.296	116.75
362.523	99.75
362.749	91.75
362.976	98.75
363.203	92.75
363.429	89.75
363.656	101.75
363.882	103.75
364.109	91.75
364.335	104.75
364.562	85.75
364.788	97.75
365.015	116.75
365.241	127.75
365.468	130.75
365.694	139.75
365.92	120.75
366.147	98.75
366.373	107.75
366.599	88.75
366.826	95.75
367.052	102.75
367.278	104.75
367.505	98.75
367.731	103.75
367.957	106.75
368.184	103.75
368.41	104.75
368.636	125.75
368.862	134.75
369.089	130.75
369.315	98.75
369.541	98.75
369.767	111.75
369.993	100.75
370.219	109.75
370.445	98.75
370.672	87.75
370.898	75.75
371.124	98.75
371.35	89.75
371.576	87.75
371.802	75.75
372.028	95.75
372.254	84.75
372.48	88.75
372.706	93.75
372.932	84.75
373.158	107.75
373.384	99.75
373.61	97.75
373.835	90.75
374.061	90.75
374.287	92.75
374.513	97.75
374.739	93.75
374.965	88.75
375.191	85.75
375.416	99.75
375.642	101.75
375.868	104.75
376.094	105.75
376.319	96.75
376.545	95.75
376.771	99.75
376.997	93.75
377.222	92.75
377.448	111.75
377.674	97.75
377.899	91.75
378.125	94.75
378.35	87.75
378.576	83.75
378.802	87.75
379.027	97.75
379.253	99.75
379.478	93.75
379.704	93.75
379.929	109.75
380.155	105.75
380.38	112.75
380.606	99.75
380.831	105.75
381.057	114.75
381.282	105.75
381.507	102.75
381.733	102.75
381.958	83.75
382.184	96.75
382.409	97.75
382.634	110.75
382.86	92.75
383.085	107.75
383.31	105.75
383.535	93.75
383.761	104.75
383.986	97.75
384.211	99.75
384.436	105.75
384.662	82.75
384.887	100.75
385.112	101.75
385.337	98.75
385.562	100.75
385.787	114.75
386.013	107.75
386.238	127.75
386.463	111.75
386.688	101.75
386.913	108.75
387.138	101.75
387.363	104.75
387.588	105.75
387.813	92.75
388.038	98.75
388.263	111.75
388.488	116.75
388.713	107.75
388.938	92.75
389.163	104.75
389.387	84.75
389.612	91.75
389.837	94.75
390.062	95.75
390.287	93.75
390.512	92.75
390.736	86.75
390.961	103.75
391.186	89.75
391.411	94.75
391.636	81.75
391.86	92.75
392.085	91.75
392.31	104.75
392.534	100.75
392.759	90.75
392.984	88.75
393.208	76.75
393.433	91.75
393.658	79.75
393.882	81.75
394.107	82.75
394.331	99.75
394.556	90.75
394.78	93.75
395.005	94.75
395.229	79.75
395.454	84.75
395.678	76.75
395.903	92.75
396.127	100.75
396.352	85.75
396.576	99.75
396.801	83.75
397.025	76.75
397.249	89.75
397.474	89.75
397.698	99.75
397.922	90.75
398.147	98.75
398.371	98.75
398.595	88.75
398.82	88.75
399.044	96.75
399.268	87.75
399.492	101.75
399.717	97.75
399.941	97.75
400.165	111.75
400.389	92.75
400.613	93.75
400.837	97.75
401.062	99.75
401.286	94.75
401.51	104.75
401.734	120.75
401.958	105.75
402.182	159.75
402.406	226.75
402.63	172.75
402.854	123.75
403.078	103.75
403.302	88.75
403.526	91.75
403.75	87.75
403.974	88.75
404.198	101.75
404.422	96.75
404.645	97.75
404.869	118.75
405.093	129.75
405.317	178.75
405.541	165.75
405.765	126.75
405.988	151.75
406.212	252.75
406.436	358.75
406.66	241.75
406.883	151.75
407.107	104.75
407.331	101.75
407.555	125.75
407.778	106.75
408.002	100.75
408.226	85.75
408.449	93.75
408.673	94.75
408.896	115.75
409.12	130.75
409.344	104.75
409.567	85.75
409.791	95.75
410.014	101.75
410.238	100.75
410.461	87.75
410.685	97.75
410.908	95.75
411.132	105.75
411.355	129.75
411.578	113.75
411.802	97.75
412.025	94.75
412.249	110.75
412.472	124.75
412.695	163.75
412.919	128.75
413.142	102.75
413.365	85.75
413.589	108.75
413.812	95.75
414.035	97.75
414.258	90.75
414.482	96.75
414.705	92.75
414.928	98.75
415.151	81.75
415.374	114.75
415.597	93.75
415.821	93.75
416.044	80.75
416.267	97.75
416.49	85.75
416.713	85.75
416.936	97.75
417.159	92.75
417.382	106.75
417.605	113.75
417.828	113.75
418.051	113.75
418.274	80.75
418.497	95.75
418.72	96.75
418.943	87.75
419.166	101.75
419.389	110.75
419.611	97.75
419.834	89.75
420.057	94.75
420.28	112.75
420.503	95.75
420.726	84.75
420.948	106.75
421.171	110.75
421.394	90.75
421.617	100.75
421.839	101.75
422.062	98.75
422.285	99.75
422.507	121.75
422.73	100.75
422.953	108.75
423.175	98.75
423.398	93.75
423.621	101.75
423.843	87.75
424.066	83.75
424.288	112.75
424.511	109.75
424.733	114.75
424.956	138.75
425.178	119.75
425.401	121.75
425.623	120.75
425.846	91.75
426.068	104.75
426.291	104.75
426.513	101.75
426.735	93.75
426.958	104.75
427.18	131.75
427.402	208.75
427.625	315.75
427.847	311.75
428.069	279.75
428.292	156.75
428.514	111.75
428.736	112.75
428.958	99.75
429.181	107.75
429.403	96.75
429.625	98.75
429.847	111.75
430.069	114.75
430.292	111.75
430.514	82.75
430.736	87.75
430.958	83.75
431.18	87.75
431.402	95.75
431.624	89.75
431.846	77.75
432.068	79.75
432.29	89.75
432.512	90.75
432.734	99.75
432.956	98.75
433.178	117.75
433.4	111.75
433.622	86.75
433.844	89.75
434.066	101.75
434.287	101.75
434.509	99.75
434.731	108.75
434.953	69.75
435.175	97.75
435.397	95.75
435.618	82.75
435.84	121.75
436.062	151.75
436.284	136.75
436.505	104.75
436.727	128.75
436.949	112.75
437.17	102.75
437.392	97.75
437.614	105.75
437.835	138.75
438.057	163.75
438.278	151.75
438.5	122.75
438.721	167.75
438.943	124.75
439.165	95.75
439.386	98.75
439.608	113.75
439.829	123.75
440.05	173.75
440.272	212.75
440.493	108.75
440.715	94.75
440.936	77.75
441.158	98.75
441.379	79.75
441.6	107.75
441.822	118.75
442.043	101.75
442.264	122.75
442.486	106.75
442.707	112.75
442.928	131.75
443.149	203.75
443.371	203.75
443.592	135.75
443.813	148.75
444.034	131.75
444.255	103.75
444.476	98.75
444.698	111.75
444.919	98.75
445.14	140.75
445.361	158.75
445.582	155.75
445.803	218.75
446.024	206.75
446.245	186.75
446.466	160.75
446.687	104.75
446.908	104.75
447.129	89.75
447.35	101.75
447.571	114.75
447.792	99.75
448.013	104.75
448.234	134.75
448.455	126.75
448.675	140.75
448.896	160.75
449.117	108.75
449.338	114.75
449.559	159.75
449.779	169.75
450	107.75
450.221	101.75
450.442	91.75
450.662	112.75
450.883	141.75
451.104	167.75
451.324	118.75
451.545	106.75
451.766	96.75
451.986	102.75
452.207	98.75
452.428	107.75
452.648	122.75
452.869	129.75
453.089	167.75
453.31	167.75
453.53	120.75
453.751	110.75
453.971	149.75
454.192	159.75
454.412	106.75
454.633	104.75
454.853	94.75
455.073	100.75
455.294	87.75
455.514	121.75
455.734	94.75
455.955	86.75
456.175	97.75
456.395	84.75
456.616	98.75
456.836	96.75
457.056	79.75
457.276	93.75
457.497	89.75
457.717	97.75
457.937	98.75
458.157	96.75
458.377	114.75
458.598	142.75
458.818	254.75
459.038	278.75
459.258	166.75
459.478	121.75
459.698	89.75
459.918	87.75
460.138	93.75
460.358	89.75
460.578	74.75
460.798	103.75
461.018	98.75
461.238	84.75
461.458	105.75
461.678	85.75
461.898	81.75
462.118	108.75
462.338	67.75
462.558	96.75
462.777	79.75
462.997	91.75
463.217	127.75
463.437	120.75
463.657	103.75
463.876	90.75
464.096	89.75
464.316	117.75
464.536	94.75
464.755	107.75
464.975	134.75
465.195	285.75
465.414	285.75
465.634	114.75
465.854	100.75
466.073	95.75
466.293	85.75
466.512	92.75
466.732	94.75
466.951	98.75
467.171	106.75
467.391	122.75
467.61	187.75
467.829	304.75
468.049	943.75
468.268	1436.75
468.488	343.75
468.707	140.75
468.927	103.75
469.146	101.75
469.365	108.75
469.585	103.75
469.804	118.75
470.023	120.75
470.243	90.75
470.462	144.75
470.681	174.75
470.901	106.75
471.12	116.75
471.339	110.75
471.558	149.75
471.777	187.75
471.997	445.75
472.216	1822.75
472.435	4346.75
472.654	958.75
472.873	221.75
473.092	139.75
473.311	107.75
473.53	104.75
473.749	90.75
473.968	99.75
474.187	131.75
474.406	121.75
474.625	87.75
474.844	105.75
475.063	104.75
475.282	93.75
475.501	90.75
475.72	84.75
475.939	100.75
476.158	111.75
476.377	105.75
476.596	88.75
476.814	124.75
477.033	109.75
477.252	91.75
477.471	95.75
477.69	108.75
477.908	102.75
478.127	101.75
478.346	83.75
478.564	107.75
478.783	119.75
479.002	117.75
479.22	119.75
479.439	130.75
479.658	171.75
479.876	146.75
480.095	144.75
480.313	175.75
480.532	225.75
480.751	401.75
480.969	1587.75
481.188	7133.75
481.406	4123.75
481.624	535.75
481.843	163.75
482.061	111.75
482.28	106.75
482.498	98.75
482.717	91.75
482.935	97.75
483.153	105.75
483.372	100.75
483.59	90.75
483.808	89.75
484.027	96.75
484.245	100.75
484.463	105.75
484.681	103.75
484.9	91.75
485.118	90.75
485.336	96.75
485.554	104.75
485.772	118.75
485.99	119.75
486.209	115.75
486.427	120.75
486.645	126.75
486.863	138.75
487.081	103.75
487.299	93.75
487.517	95.75
487.735	98.75
487.953	111.75
488.171	115.75
488.389	105.75
488.607	100.75
488.825	106.75
489.043	95.75
489.261	94.75
489.479	90.75
489.696	76.75
489.914	87.75
490.132	101.75
490.35	93.75
490.568	99.75
490.786	100.75
491.003	96.75
491.221	94.75
491.439	83.75
491.657	78.75
491.874	98.75
492.092	97.75
492.31	100.75
492.527	118.75
492.745	111.75
492.963	94.75
493.18	99.75
493.398	114.75
493.615	98.75
493.833	102.75
494.05	86.75
494.268	89.75
494.485	97.75
494.703	101.75
494.92	94.75
495.138	87.75
495.355	98.75
495.573	80.75
495.79	92.75
496.008	90.75
496.225	97.75
496.442	87.75
496.66	97.75
496.877	99.75
497.094	95.75
497.312	104.75
497.529	93.75
497.746	93.75
497.963	92.75
498.181	106.75
498.398	112.75
498.615	121.75
498.832	133.75
499.049	90.75
499.267	102.75
499.484	98.75
499.701	96.75
499.918	99.75
500.135	84.75
500.352	97.75
500.569	105.75
500.786	105.75
501.003	90.75
501.22	104.75
501.437	107.75
501.654	92.75
501.871	135.75
502.088	90.75
502.305	101.75
502.522	78.75
502.739	97.75
502.956	97.75
503.172	104.75
503.389	119.75
503.606	147.75
503.823	111.75
504.04	96.75
504.256	87.75
504.473	95.75
504.69	82.75
504.907	97.75
505.123	94.75
505.34	90.75
505.557	93.75
505.773	96.75
505.99	103.75
506.207	86.75
506.423	76.75
506.64	100.75
506.856	98.75
507.073	95.75
507.289	103.75
507.506	99.75
507.722	156.75
507.939	152.75
508.155	104.75
508.372	97.75
508.588	107.75
508.805	101.75
509.021	99.75
509.238	113.75
509.454	107.75
509.67	102.75
509.887	117.75
510.103	174.75
510.319	279.75
510.536	1077.75
510.752	3835.75
510.968	1001.75
