Data from Circ_1995_H10_HRD10591_00051.txt Node
Date: Wed Jan 03 11:36:56 EST 2024
User: Yrep
Spectrometer: HR+D1059
Trigger mode: 1
Integration Time (sec): 1.000000E-1
Scans to average: 1
Electric dark correction enabled: true
Nonlinearity correction enabled: false
Boxcar width: 0
XAxis mode: Wavelengths
Number of Pixels in Spectrum: 2048
>>>>>Begin Spectral Data<<<<<
223.165	-19.06
223.4	-19.06
223.635	-19.06
223.869	-21.06
224.104	-4.06
224.338	-29.06
224.573	-2.06
224.808	-5.06
225.042	-13.06
225.277	-8.06
225.511	-4.06
225.746	-3.06
225.98	-7.06
226.215	12.94
226.449	24.94
226.683	25.94
226.918	15.94
227.152	35.94
227.387	43.94
227.621	40.94
227.856	43.94
228.09	47.94
228.324	45.94
228.559	52.94
228.793	54.94
229.027	67.94
229.262	76.94
229.496	72.94
229.73	92.94
229.964	100.94
230.199	98.94
230.433	71.94
230.667	91.94
230.901	94.94
231.136	93.94
231.37	86.94
231.604	91.94
231.838	80.94
232.072	85.94
232.306	85.94
232.541	88.94
232.775	79.94
233.009	81.94
233.243	85.94
233.477	91.94
233.711	89.94
233.945	82.94
234.179	101.94
234.413	87.94
234.647	68.94
234.881	93.94
235.115	78.94
235.349	80.94
235.583	64.94
235.817	58.94
236.051	80.94
236.285	88.94
236.519	84.94
236.753	77.94
236.987	94.94
237.221	81.94
237.455	83.94
237.689	87.94
237.922	95.94
238.156	88.94
238.39	63.94
238.624	71.94
238.858	77.94
239.091	80.94
239.325	75.94
239.559	91.94
239.793	75.94
240.027	87.94
240.26	67.94
240.494	83.94
240.728	96.94
240.961	60.94
241.195	73.94
241.429	68.94
241.662	71.94
241.896	71.94
242.13	73.94
242.363	88.94
242.597	69.94
242.83	89.94
243.064	82.94
243.298	71.94
243.531	76.94
243.765	84.94
243.998	91.94
244.232	94.94
244.465	89.94
244.699	105.94
244.932	79.94
245.166	82.94
245.399	85.94
245.633	93.94
245.866	77.94
246.099	81.94
246.333	84.94
246.566	84.94
246.8	82.94
247.033	80.94
247.266	76.94
247.5	79.94
247.733	75.94
247.966	78.94
248.2	86.94
248.433	81.94
248.666	78.94
248.899	88.94
249.133	93.94
249.366	105.94
249.599	121.94
249.832	80.94
250.066	95.94
250.299	96.94
250.532	92.94
250.765	80.94
250.998	93.94
251.231	79.94
251.465	93.94
251.698	87.94
251.931	89.94
252.164	85.94
252.397	84.94
252.63	77.94
252.863	82.94
253.096	78.94
253.329	81.94
253.562	84.94
253.795	82.94
254.028	77.94
254.261	87.94
254.494	77.94
254.727	74.94
254.96	83.94
255.193	87.94
255.426	89.94
255.659	72.94
255.892	91.94
256.124	98.94
256.357	80.94
256.59	84.94
256.823	80.94
257.056	95.94
257.289	89.94
257.521	96.94
257.754	88.94
257.987	85.94
258.22	89.94
258.452	100.94
258.685	91.94
258.918	89.94
259.151	85.94
259.383	83.94
259.616	79.94
259.849	77.94
260.081	75.94
260.314	85.94
260.547	83.94
260.779	100.94
261.012	113.94
261.244	112.94
261.477	93.94
261.71	112.94
261.942	110.94
262.175	133.94
262.407	96.94
262.64	82.94
262.872	100.94
263.105	90.94
263.337	92.94
263.57	92.94
263.802	87.94
264.035	100.94
264.267	89.94
264.499	87.94
264.732	77.94
264.964	84.94
265.197	93.94
265.429	89.94
265.661	76.94
265.894	81.94
266.126	90.94
266.358	85.94
266.591	85.94
266.823	92.94
267.055	88.94
267.287	89.94
267.52	96.94
267.752	99.94
267.984	76.94
268.216	74.94
268.448	76.94
268.681	85.94
268.913	88.94
269.145	93.94
269.377	94.94
269.609	65.94
269.841	84.94
270.073	81.94
270.306	92.94
270.538	90.94
270.77	101.94
271.002	84.94
271.234	92.94
271.466	96.94
271.698	84.94
271.93	88.94
272.162	93.94
272.394	92.94
272.626	99.94
272.858	92.94
273.09	88.94
273.322	88.94
273.553	83.94
273.785	91.94
274.017	74.94
274.249	96.94
274.481	90.94
274.713	69.94
274.945	91.94
275.176	98.94
275.408	112.94
275.64	106.94
275.872	132.94
276.104	107.94
276.335	99.94
276.567	115.94
276.799	146.94
277.031	173.94
277.262	215.94
277.494	168.94
277.726	111.94
277.957	81.94
278.189	89.94
278.421	92.94
278.652	98.94
278.884	91.94
279.115	96.94
279.347	102.94
279.579	104.94
279.81	135.94
280.042	195.94
280.273	281.94
280.505	188.94
280.736	101.94
280.968	111.94
281.199	99.94
281.431	83.94
281.662	102.94
281.894	101.94
282.125	92.94
282.356	116.94
282.588	174.94
282.819	130.94
283.051	95.94
283.282	90.94
283.513	78.94
283.745	100.94
283.976	85.94
284.207	84.94
284.439	99.94
284.67	82.94
284.901	104.94
285.132	105.94
285.364	99.94
285.595	93.94
285.826	93.94
286.057	90.94
286.288	88.94
286.52	78.94
286.751	100.94
286.982	101.94
287.213	101.94
287.444	78.94
287.675	106.94
287.906	106.94
288.138	85.94
288.369	81.94
288.6	87.94
288.831	104.94
289.062	87.94
289.293	92.94
289.524	83.94
289.755	98.94
289.986	97.94
290.217	97.94
290.448	92.94
290.679	76.94
290.91	87.94
291.141	90.94
291.371	95.94
291.602	92.94
291.833	91.94
292.064	90.94
292.295	94.94
292.526	92.94
292.757	82.94
292.987	87.94
293.218	94.94
293.449	83.94
293.68	89.94
293.91	90.94
294.141	101.94
294.372	89.94
294.603	81.94
294.833	89.94
295.064	93.94
295.295	83.94
295.525	89.94
295.756	124.94
295.987	133.94
296.217	158.94
296.448	142.94
296.679	96.94
296.909	87.94
297.14	94.94
297.37	89.94
297.601	86.94
297.831	92.94
298.062	94.94
298.292	96.94
298.523	94.94
298.753	96.94
298.984	91.94
299.214	95.94
299.445	83.94
299.675	85.94
299.905	101.94
300.136	100.94
300.366	93.94
300.597	88.94
300.827	88.94
301.057	104.94
301.288	101.94
301.518	97.94
301.748	96.94
301.979	102.94
302.209	118.94
302.439	92.94
302.669	100.94
302.9	94.94
303.13	96.94
303.36	94.94
303.59	129.94
303.82	154.94
304.051	101.94
304.281	100.94
304.511	88.94
304.741	86.94
304.971	78.94
305.201	103.94
305.431	84.94
305.661	85.94
305.891	107.94
306.121	100.94
306.352	107.94
306.582	137.94
306.812	97.94
307.042	123.94
307.272	181.94
307.502	190.94
307.731	184.94
307.961	133.94
308.191	93.94
308.421	82.94
308.651	97.94
308.881	100.94
309.111	106.94
309.341	98.94
309.571	112.94
309.8	97.94
310.03	115.94
310.26	107.94
310.49	92.94
310.72	105.94
310.949	120.94
311.179	116.94
311.409	112.94
311.639	103.94
311.868	102.94
312.098	92.94
312.328	104.94
312.557	105.94
312.787	121.94
313.017	108.94
313.246	94.94
313.476	99.94
313.706	95.94
313.935	91.94
314.165	93.94
314.394	104.94
314.624	107.94
314.853	105.94
315.083	103.94
315.312	95.94
315.542	84.94
315.771	108.94
316.001	82.94
316.23	102.94
316.46	94.94
316.689	92.94
316.919	92.94
317.148	95.94
317.377	97.94
317.607	90.94
317.836	100.94
318.065	104.94
318.295	84.94
318.524	91.94
318.753	100.94
318.983	97.94
319.212	107.94
319.441	107.94
319.67	112.94
319.9	101.94
320.129	79.94
320.358	94.94
320.587	96.94
320.816	99.94
321.046	109.94
321.275	103.94
321.504	108.94
321.733	104.94
321.962	99.94
322.191	118.94
322.42	118.94
322.649	110.94
322.878	112.94
323.108	132.94
323.337	153.94
323.566	162.94
323.795	169.94
324.024	236.94
324.253	459.94
324.482	982.94
324.71	2082.94
324.939	2662.94
325.168	1004.94
325.397	285.94
325.626	174.94
325.855	137.94
326.084	148.94
326.313	156.94
326.542	172.94
326.77	277.94
326.999	512.94
327.228	1071.94
327.457	1936.94
327.686	1621.94
327.914	585.94
328.143	547.94
328.372	757.94
328.6	415.94
328.829	191.94
329.058	179.94
329.287	217.94
329.515	178.94
329.744	257.94
329.972	541.94
330.201	1073.94
330.43	1644.94
330.658	719.94
330.887	298.94
331.115	207.94
331.344	118.94
331.572	105.94
331.801	131.94
332.03	113.94
332.258	109.94
332.486	111.94
332.715	107.94
332.943	108.94
333.172	127.94
333.4	140.94
333.629	169.94
333.857	233.94
334.085	464.94
334.314	987.94
334.542	1975.94
334.771	1858.94
334.999	478.94
335.227	191.94
335.455	127.94
335.684	114.94
335.912	103.94
336.14	99.94
336.369	108.94
336.597	121.94
336.825	102.94
337.053	99.94
337.281	95.94
337.51	101.94
337.738	106.94
337.966	115.94
338.194	97.94
338.422	95.94
338.65	107.94
338.878	100.94
339.106	109.94
339.334	96.94
339.562	85.94
339.79	99.94
340.018	97.94
340.246	88.94
340.474	88.94
340.702	92.94
340.93	95.94
341.158	93.94
341.386	109.94
341.614	104.94
341.842	114.94
342.07	92.94
342.298	79.94
342.526	88.94
342.754	89.94
342.981	99.94
343.209	72.94
343.437	95.94
343.665	91.94
343.893	70.94
344.12	94.94
344.348	107.94
344.576	87.94
344.804	92.94
345.031	106.94
345.259	113.94
345.487	115.94
345.714	95.94
345.942	89.94
346.17	87.94
346.397	98.94
346.625	82.94
346.853	80.94
347.08	104.94
347.308	89.94
347.535	104.94
347.763	115.94
347.99	108.94
348.218	100.94
348.445	119.94
348.673	108.94
348.9	101.94
349.128	103.94
349.355	80.94
349.583	98.94
349.81	97.94
350.037	102.94
350.265	85.94
350.492	97.94
350.72	101.94
350.947	100.94
351.174	105.94
351.402	128.94
351.629	107.94
351.856	102.94
352.083	103.94
352.311	116.94
352.538	119.94
352.765	120.94
352.992	115.94
353.22	124.94
353.447	103.94
353.674	107.94
353.901	92.94
354.128	109.94
354.355	110.94
354.583	97.94
354.81	98.94
355.037	92.94
355.264	89.94
355.491	91.94
355.718	110.94
355.945	82.94
356.172	92.94
356.399	86.94
356.626	99.94
356.853	96.94
357.08	86.94
357.307	79.94
357.534	84.94
357.761	92.94
357.988	95.94
358.215	104.94
358.441	78.94
358.668	99.94
358.895	87.94
359.122	92.94
359.349	107.94
359.576	97.94
359.802	117.94
360.029	149.94
360.256	131.94
360.483	99.94
360.709	95.94
360.936	97.94
361.163	82.94
361.39	107.94
361.616	109.94
361.843	99.94
362.07	110.94
362.296	104.94
362.523	103.94
362.749	96.94
362.976	89.94
363.203	96.94
363.429	99.94
363.656	99.94
363.882	103.94
364.109	92.94
364.335	99.94
364.562	76.94
364.788	96.94
365.015	93.94
365.241	113.94
365.468	112.94
365.694	118.94
365.92	107.94
366.147	87.94
366.373	103.94
366.599	73.94
366.826	94.94
367.052	95.94
367.278	87.94
367.505	107.94
367.731	93.94
367.957	89.94
368.184	90.94
368.41	105.94
368.636	128.94
368.862	124.94
369.089	120.94
369.315	108.94
369.541	98.94
369.767	101.94
369.993	102.94
370.219	91.94
370.445	92.94
370.672	85.94
370.898	94.94
371.124	96.94
371.35	90.94
371.576	88.94
371.802	87.94
372.028	82.94
372.254	90.94
372.48	97.94
372.706	91.94
372.932	92.94
373.158	84.94
373.384	91.94
373.61	90.94
373.835	100.94
374.061	98.94
374.287	98.94
374.513	107.94
374.739	79.94
374.965	79.94
375.191	96.94
375.416	93.94
375.642	99.94
375.868	96.94
376.094	80.94
376.319	85.94
376.545	88.94
376.771	98.94
376.997	92.94
377.222	100.94
377.448	98.94
377.674	98.94
377.899	93.94
378.125	88.94
378.35	112.94
378.576	86.94
378.802	98.94
379.027	93.94
379.253	94.94
379.478	94.94
379.704	91.94
379.929	94.94
380.155	91.94
380.38	97.94
380.606	113.94
380.831	105.94
381.057	82.94
381.282	92.94
381.507	102.94
381.733	98.94
381.958	75.94
382.184	105.94
382.409	98.94
382.634	112.94
382.86	98.94
383.085	105.94
383.31	115.94
383.535	107.94
383.761	105.94
383.986	104.94
384.211	101.94
384.436	105.94
384.662	98.94
384.887	101.94
385.112	112.94
385.337	102.94
385.562	112.94
385.787	90.94
386.013	113.94
386.238	112.94
386.463	102.94
386.688	105.94
386.913	111.94
387.138	108.94
387.363	104.94
387.588	116.94
387.813	100.94
388.038	107.94
388.263	113.94
388.488	116.94
388.713	94.94
388.938	85.94
389.163	114.94
389.387	89.94
389.612	98.94
389.837	95.94
390.062	89.94
390.287	97.94
390.512	89.94
390.736	91.94
390.961	106.94
391.186	96.94
391.411	105.94
391.636	78.94
391.86	82.94
392.085	79.94
392.31	89.94
392.534	97.94
392.759	98.94
392.984	78.94
393.208	94.94
393.433	85.94
393.658	100.94
393.882	91.94
394.107	93.94
394.331	86.94
394.556	88.94
394.78	77.94
395.005	101.94
395.229	82.94
395.454	76.94
395.678	68.94
395.903	73.94
396.127	86.94
396.352	88.94
396.576	77.94
396.801	80.94
397.025	99.94
397.249	90.94
397.474	83.94
397.698	91.94
397.922	103.94
398.147	88.94
398.371	82.94
398.595	98.94
398.82	84.94
399.044	87.94
399.268	87.94
399.492	74.94
399.717	86.94
399.941	93.94
400.165	79.94
400.389	90.94
400.613	83.94
400.837	96.94
401.062	97.94
401.286	91.94
401.51	83.94
401.734	98.94
401.958	107.94
402.182	135.94
402.406	192.94
402.63	181.94
402.854	103.94
403.078	96.94
403.302	93.94
403.526	88.94
403.75	76.94
403.974	83.94
404.198	96.94
404.422	97.94
404.645	84.94
404.869	96.94
405.093	98.94
405.317	137.94
405.541	139.94
405.765	119.94
405.988	147.94
406.212	213.94
406.436	305.94
406.66	224.94
406.883	122.94
407.107	117.94
407.331	109.94
407.555	106.94
407.778	109.94
408.002	107.94
408.226	104.94
408.449	84.94
408.673	95.94
408.896	99.94
409.12	103.94
409.344	91.94
409.567	97.94
409.791	92.94
410.014	92.94
410.238	93.94
410.461	84.94
410.685	107.94
410.908	103.94
411.132	117.94
411.355	99.94
411.578	109.94
411.802	88.94
412.025	87.94
412.249	87.94
412.472	131.94
412.695	152.94
412.919	110.94
413.142	98.94
413.365	92.94
413.589	102.94
413.812	79.94
414.035	95.94
414.258	104.94
414.482	80.94
414.705	92.94
414.928	88.94
415.151	89.94
415.374	93.94
415.597	78.94
415.821	98.94
416.044	101.94
416.267	95.94
416.49	84.94
416.713	102.94
416.936	98.94
417.159	99.94
417.382	101.94
417.605	102.94
417.828	127.94
418.051	101.94
418.274	86.94
418.497	88.94
418.72	89.94
418.943	83.94
419.166	81.94
419.389	82.94
419.611	101.94
419.834	74.94
420.057	98.94
420.28	92.94
420.503	100.94
420.726	85.94
420.948	107.94
421.171	114.94
421.394	105.94
421.617	110.94
421.839	96.94
422.062	96.94
422.285	93.94
422.507	96.94
422.73	121.94
422.953	108.94
423.175	85.94
423.398	84.94
423.621	104.94
423.843	91.94
424.066	88.94
424.288	88.94
424.511	96.94
424.733	113.94
424.956	121.94
425.178	111.94
425.401	96.94
425.623	108.94
425.846	100.94
426.068	95.94
426.291	100.94
426.513	105.94
426.735	96.94
426.958	102.94
427.18	113.94
427.402	175.94
427.625	249.94
427.847	245.94
428.069	235.94
428.292	132.94
428.514	87.94
428.736	95.94
428.958	98.94
429.181	87.94
429.403	82.94
429.625	95.94
429.847	97.94
430.069	108.94
430.292	102.94
430.514	100.94
430.736	67.94
430.958	89.94
431.18	92.94
431.402	83.94
431.624	90.94
431.846	82.94
432.068	86.94
432.29	90.94
432.512	95.94
432.734	93.94
432.956	90.94
433.178	106.94
433.4	93.94
433.622	93.94
433.844	105.94
434.066	95.94
434.287	108.94
434.509	107.94
434.731	91.94
434.953	83.94
435.175	87.94
435.397	80.94
435.618	97.94
435.84	113.94
436.062	141.94
436.284	115.94
436.505	89.94
436.727	108.94
436.949	80.94
437.17	78.94
437.392	83.94
437.614	85.94
437.835	115.94
438.057	135.94
438.278	139.94
438.5	118.94
438.721	139.94
438.943	104.94
439.165	97.94
439.386	93.94
439.608	101.94
439.829	117.94
440.05	160.94
440.272	173.94
440.493	108.94
440.715	90.94
440.936	78.94
441.158	83.94
441.379	86.94
441.6	98.94
441.822	121.94
442.043	99.94
442.264	109.94
442.486	107.94
442.707	99.94
442.928	123.94
443.149	183.94
443.371	190.94
443.592	135.94
443.813	126.94
444.034	106.94
444.255	98.94
444.476	100.94
444.698	95.94
444.919	92.94
445.14	125.94
445.361	122.94
445.582	133.94
445.803	172.94
446.024	176.94
446.245	162.94
446.466	119.94
446.687	93.94
446.908	100.94
447.129	73.94
447.35	92.94
447.571	91.94
447.792	80.94
448.013	119.94
448.234	124.94
448.455	111.94
448.675	131.94
448.896	140.94
449.117	108.94
449.338	114.94
449.559	136.94
449.779	155.94
450	103.94
450.221	91.94
450.442	83.94
450.662	82.94
450.883	128.94
451.104	146.94
451.324	110.94
451.545	97.94
451.766	89.94
451.986	95.94
452.207	86.94
452.428	106.94
452.648	110.94
452.869	137.94
453.089	135.94
453.31	138.94
453.53	109.94
453.751	93.94
453.971	130.94
454.192	129.94
454.412	110.94
454.633	94.94
454.853	74.94
455.073	93.94
455.294	104.94
455.514	99.94
455.734	100.94
455.955	88.94
456.175	98.94
456.395	91.94
456.616	90.94
456.836	83.94
457.056	78.94
457.276	88.94
457.497	90.94
457.717	83.94
457.937	77.94
458.157	87.94
458.377	90.94
458.598	126.94
458.818	196.94
459.038	229.94
459.258	156.94
459.478	93.94
459.698	84.94
459.918	89.94
460.138	86.94
460.358	91.94
460.578	85.94
460.798	99.94
461.018	91.94
461.238	96.94
461.458	80.94
461.678	88.94
461.898	71.94
462.118	95.94
462.338	98.94
462.558	91.94
462.777	83.94
462.997	101.94
463.217	112.94
463.437	99.94
463.657	94.94
463.876	99.94
464.096	102.94
464.316	97.94
464.536	99.94
464.755	100.94
464.975	132.94
465.195	222.94
465.414	237.94
465.634	118.94
465.854	90.94
466.073	99.94
466.293	76.94
466.512	87.94
466.732	95.94
466.951	116.94
467.171	109.94
467.391	127.94
467.61	148.94
467.829	226.94
468.049	680.94
468.268	1005.94
468.488	260.94
468.707	117.94
468.927	107.94
469.146	90.94
469.365	82.94
469.585	96.94
469.804	117.94
470.023	109.94
470.243	111.94
470.462	127.94
470.681	143.94
470.901	105.94
471.12	108.94
471.339	114.94
471.558	132.94
471.777	141.94
471.997	351.94
472.216	1249.94
472.435	2909.94
472.654	665.94
472.873	171.94
473.092	109.94
473.311	100.94
473.53	97.94
473.749	95.94
473.968	116.94
474.187	129.94
474.406	100.94
474.625	101.94
474.844	90.94
475.063	103.94
475.282	81.94
475.501	98.94
475.72	91.94
475.939	101.94
476.158	85.94
476.377	80.94
476.596	99.94
476.814	99.94
477.033	100.94
477.252	87.94
477.471	103.94
477.69	97.94
477.908	95.94
478.127	91.94
478.346	89.94
478.564	116.94
478.783	116.94
479.002	127.94
479.22	107.94
479.439	138.94
479.658	138.94
479.876	116.94
480.095	120.94
480.313	140.94
480.532	204.94
480.751	308.94
480.969	1102.94
481.188	4932.94
481.406	2780.94
481.624	389.94
481.843	160.94
482.061	111.94
482.28	101.94
482.498	96.94
482.717	100.94
482.935	95.94
483.153	103.94
483.372	103.94
483.59	108.94
483.808	95.94
484.027	79.94
484.245	104.94
484.463	98.94
484.681	95.94
484.9	90.94
485.118	92.94
485.336	92.94
485.554	95.94
485.772	96.94
485.99	96.94
486.209	107.94
486.427	119.94
486.645	114.94
486.863	142.94
487.081	125.94
487.299	112.94
487.517	99.94
487.735	94.94
487.953	112.94
488.171	93.94
488.389	101.94
488.607	117.94
488.825	100.94
489.043	87.94
489.261	86.94
489.479	71.94
489.696	93.94
489.914	99.94
490.132	104.94
490.35	93.94
490.568	86.94
490.786	95.94
491.003	93.94
491.221	101.94
491.439	98.94
491.657	86.94
491.874	85.94
492.092	97.94
492.31	104.94
492.527	109.94
492.745	93.94
492.963	90.94
493.18	84.94
493.398	93.94
493.615	99.94
493.833	93.94
494.05	100.94
494.268	82.94
494.485	94.94
494.703	96.94
494.92	101.94
495.138	98.94
495.355	86.94
495.573	94.94
495.79	86.94
496.008	89.94
496.225	91.94
496.442	96.94
496.66	109.94
496.877	97.94
497.094	102.94
497.312	100.94
497.529	95.94
497.746	90.94
497.963	98.94
498.181	85.94
498.398	95.94
498.615	112.94
498.832	109.94
499.049	97.94
499.267	106.94
499.484	87.94
499.701	92.94
499.918	98.94
500.135	96.94
500.352	88.94
500.569	89.94
500.786	116.94
501.003	96.94
501.22	87.94
501.437	95.94
501.654	105.94
501.871	127.94
502.088	95.94
502.305	89.94
502.522	85.94
502.739	84.94
502.956	100.94
503.172	103.94
503.389	104.94
503.606	122.94
503.823	109.94
504.04	95.94
504.256	95.94
504.473	91.94
504.69	93.94
504.907	93.94
505.123	97.94
505.34	87.94
505.557	97.94
505.773	103.94
505.99	88.94
506.207	92.94
506.423	106.94
506.64	88.94
506.856	97.94
507.073	103.94
507.289	91.94
507.506	100.94
507.722	127.94
507.939	136.94
508.155	108.94
508.372	104.94
508.588	98.94
508.805	96.94
509.021	96.94
509.238	120.94
509.454	105.94
509.67	115.94
509.887	120.94
510.103	166.94
510.319	240.94
510.536	895.94
510.752	3229.94
510.968	841.94
511.184	181.94
511.401	131.94
511.617	116.94
511.833	108.94
512.049	84.94
512.265	98.94
512.481	99.94
