Data from Circ_1995_H10_HRD10591_00052.txt Node
Date: Wed Jan 03 11:36:57 EST 2024
User: Yrep
Spectrometer: HR+D1059
Trigger mode: 1
Integration Time (sec): 1.000000E-1
Scans to average: 1
Electric dark correction enabled: true
Nonlinearity correction enabled: false
Boxcar width: 0
XAxis mode: Wavelengths
Number of Pixels in Spectrum: 2048
>>>>>Begin Spectral Data<<<<<
223.165	-21.88
223.4	-21.88
223.635	-21.88
223.869	-6.88
224.104	-9.88
224.338	-29.88
224.573	-1.88
224.808	-12.88
225.042	-10.88
225.277	-12.88
225.511	-5.88
225.746	-7.88
225.98	7.12
226.215	13.12
226.449	25.12
226.683	19.12
226.918	22.12
227.152	34.12
227.387	29.12
227.621	25.12
227.856	61.12
228.09	30.12
228.324	40.12
228.559	70.12
228.793	67.12
229.027	61.12
229.262	63.12
229.496	93.12
229.73	92.12
229.964	108.12
230.199	76.12
230.433	86.12
230.667	74.12
230.901	76.12
231.136	66.12
231.37	72.12
231.604	91.12
231.838	86.12
232.072	104.12
232.306	83.12
232.541	98.12
232.775	89.12
233.009	80.12
233.243	83.12
233.477	96.12
233.711	78.12
233.945	84.12
234.179	84.12
234.413	85.12
234.647	83.12
234.881	96.12
235.115	91.12
235.349	70.12
235.583	87.12
235.817	79.12
236.051	80.12
236.285	84.12
236.519	83.12
236.753	74.12
236.987	79.12
237.221	106.12
237.455	99.12
237.689	93.12
237.922	63.12
238.156	76.12
238.39	75.12
238.624	74.12
238.858	79.12
239.091	60.12
239.325	80.12
239.559	95.12
239.793	83.12
240.027	80.12
240.26	64.12
240.494	84.12
240.728	92.12
240.961	66.12
241.195	88.12
241.429	78.12
241.662	81.12
241.896	76.12
242.13	87.12
242.363	68.12
242.597	71.12
242.83	70.12
243.064	71.12
243.298	82.12
243.531	87.12
243.765	84.12
243.998	90.12
244.232	78.12
244.465	94.12
244.699	80.12
244.932	82.12
245.166	87.12
245.399	72.12
245.633	70.12
245.866	75.12
246.099	67.12
246.333	71.12
246.566	76.12
246.8	76.12
247.033	95.12
247.266	89.12
247.5	74.12
247.733	78.12
247.966	85.12
248.2	99.12
248.433	77.12
248.666	87.12
248.899	77.12
249.133	91.12
249.366	111.12
249.599	107.12
249.832	96.12
250.066	72.12
250.299	92.12
250.532	95.12
250.765	94.12
250.998	107.12
251.231	90.12
251.465	82.12
251.698	86.12
251.931	80.12
252.164	95.12
252.397	88.12
252.63	80.12
252.863	73.12
253.096	79.12
253.329	82.12
253.562	88.12
253.795	77.12
254.028	73.12
254.261	78.12
254.494	89.12
254.727	87.12
254.96	77.12
255.193	83.12
255.426	88.12
255.659	93.12
255.892	109.12
256.124	108.12
256.357	86.12
256.59	86.12
256.823	82.12
257.056	76.12
257.289	105.12
257.521	87.12
257.754	88.12
257.987	87.12
258.22	96.12
258.452	117.12
258.685	84.12
258.918	96.12
259.151	81.12
259.383	83.12
259.616	93.12
259.849	79.12
260.081	98.12
260.314	93.12
260.547	97.12
260.779	96.12
261.012	126.12
261.244	125.12
261.477	108.12
261.71	123.12
261.942	151.12
262.175	182.12
262.407	100.12
262.64	81.12
262.872	102.12
263.105	96.12
263.337	90.12
263.57	84.12
263.802	105.12
264.035	76.12
264.267	84.12
264.499	94.12
264.732	97.12
264.964	91.12
265.197	83.12
265.429	74.12
265.661	78.12
265.894	73.12
266.126	79.12
266.358	77.12
266.591	82.12
266.823	73.12
267.055	86.12
267.287	74.12
267.52	85.12
267.752	86.12
267.984	96.12
268.216	77.12
268.448	97.12
268.681	87.12
268.913	80.12
269.145	95.12
269.377	84.12
269.609	78.12
269.841	84.12
270.073	91.12
270.306	82.12
270.538	92.12
270.77	79.12
271.002	86.12
271.234	103.12
271.466	108.12
271.698	92.12
271.93	95.12
272.162	103.12
272.394	85.12
272.626	102.12
272.858	82.12
273.09	95.12
273.322	91.12
273.553	86.12
273.785	92.12
274.017	87.12
274.249	90.12
274.481	77.12
274.713	98.12
274.945	102.12
275.176	105.12
275.408	108.12
275.64	143.12
275.872	144.12
276.104	115.12
276.335	112.12
276.567	145.12
276.799	200.12
277.031	238.12
277.262	281.12
277.494	194.12
277.726	113.12
277.957	94.12
278.189	100.12
278.421	101.12
278.652	95.12
278.884	83.12
279.115	87.12
279.347	104.12
279.579	116.12
279.81	163.12
280.042	292.12
280.273	395.12
280.505	256.12
280.736	123.12
280.968	103.12
281.199	90.12
281.431	90.12
281.662	110.12
281.894	105.12
282.125	115.12
282.356	156.12
282.588	194.12
282.819	138.12
283.051	102.12
283.282	77.12
283.513	98.12
283.745	91.12
283.976	82.12
284.207	85.12
284.439	90.12
284.67	84.12
284.901	95.12
285.132	93.12
285.364	91.12
285.595	86.12
285.826	84.12
286.057	91.12
286.288	81.12
286.52	90.12
286.751	91.12
286.982	80.12
287.213	95.12
287.444	87.12
287.675	99.12
287.906	87.12
288.138	102.12
288.369	102.12
288.6	91.12
288.831	88.12
289.062	86.12
289.293	99.12
289.524	96.12
289.755	96.12
289.986	79.12
290.217	97.12
290.448	90.12
290.679	98.12
290.91	102.12
291.141	84.12
291.371	88.12
291.602	85.12
291.833	101.12
292.064	95.12
292.295	100.12
292.526	95.12
292.757	90.12
292.987	94.12
293.218	78.12
293.449	83.12
293.68	89.12
293.91	91.12
294.141	93.12
294.372	91.12
294.603	90.12
294.833	86.12
295.064	98.12
295.295	99.12
295.525	96.12
295.756	104.12
295.987	160.12
296.217	210.12
296.448	174.12
296.679	107.12
296.909	92.12
297.14	93.12
297.37	95.12
297.601	92.12
297.831	104.12
298.062	105.12
298.292	96.12
298.523	92.12
298.753	86.12
298.984	101.12
299.214	94.12
299.445	99.12
299.675	106.12
299.905	104.12
300.136	94.12
300.366	96.12
300.597	96.12
300.827	110.12
301.057	121.12
301.288	119.12
301.518	110.12
301.748	133.12
301.979	137.12
302.209	110.12
302.439	120.12
302.669	91.12
302.9	101.12
303.13	118.12
303.36	117.12
303.59	171.12
303.82	192.12
304.051	127.12
304.281	98.12
304.511	90.12
304.741	96.12
304.971	103.12
305.201	93.12
305.431	84.12
305.661	98.12
305.891	104.12
306.121	87.12
306.352	141.12
306.582	134.12
306.812	136.12
307.042	148.12
307.272	205.12
307.502	241.12
307.731	232.12
307.961	158.12
308.191	112.12
308.421	94.12
308.651	96.12
308.881	94.12
309.111	97.12
309.341	126.12
309.571	109.12
309.8	113.12
310.03	101.12
310.26	124.12
310.49	97.12
310.72	117.12
310.949	140.12
311.179	146.12
311.409	108.12
311.639	117.12
311.868	104.12
312.098	117.12
312.328	117.12
312.557	128.12
312.787	163.12
313.017	126.12
313.246	116.12
313.476	87.12
313.706	105.12
313.935	107.12
314.165	121.12
314.394	141.12
314.624	106.12
314.853	106.12
315.083	100.12
315.312	102.12
315.542	98.12
315.771	107.12
316.001	85.12
316.23	109.12
316.46	102.12
316.689	95.12
316.919	93.12
317.148	102.12
317.377	116.12
317.607	100.12
317.836	111.12
318.065	93.12
318.295	103.12
318.524	106.12
318.753	92.12
318.983	100.12
319.212	116.12
319.441	120.12
319.67	136.12
319.9	120.12
320.129	92.12
320.358	96.12
320.587	99.12
320.816	119.12
321.046	126.12
321.275	117.12
321.504	95.12
321.733	104.12
321.962	126.12
322.191	117.12
322.42	127.12
322.649	138.12
322.878	142.12
323.108	155.12
323.337	147.12
323.566	192.12
323.795	210.12
324.024	285.12
324.253	610.12
324.482	1232.12
324.71	2553.12
324.939	3414.12
325.168	1253.12
325.397	362.12
325.626	211.12
325.855	181.12
326.084	167.12
326.313	167.12
326.542	204.12
326.77	314.12
326.999	603.12
327.228	1246.12
327.457	2358.12
327.686	1966.12
327.914	735.12
328.143	819.12
328.372	1056.12
328.6	577.12
328.829	267.12
329.058	235.12
329.287	270.12
329.515	252.12
329.744	346.12
329.972	739.12
330.201	1544.12
330.43	2381.12
330.658	1020.12
330.887	441.12
331.115	251.12
331.344	158.12
331.572	138.12
331.801	166.12
332.03	155.12
332.258	134.12
332.486	128.12
332.715	113.12
332.943	128.12
333.172	137.12
333.4	154.12
333.629	205.12
333.857	342.12
334.085	653.12
334.314	1406.12
334.542	2858.12
334.771	2681.12
334.999	644.12
335.227	235.12
335.455	151.12
335.684	123.12
335.912	124.12
336.14	122.12
336.369	119.12
336.597	112.12
336.825	123.12
337.053	98.12
337.281	99.12
337.51	108.12
337.738	104.12
337.966	130.12
338.194	120.12
338.422	121.12
338.65	106.12
338.878	106.12
339.106	108.12
339.334	106.12
339.562	90.12
339.79	108.12
340.018	97.12
340.246	106.12
340.474	115.12
340.702	109.12
340.93	98.12
341.158	104.12
341.386	104.12
341.614	111.12
341.842	113.12
342.07	92.12
342.298	92.12
342.526	86.12
342.754	93.12
342.981	84.12
343.209	90.12
343.437	99.12
343.665	99.12
343.893	87.12
344.12	103.12
344.348	99.12
344.576	95.12
344.804	108.12
345.031	122.12
345.259	119.12
345.487	112.12
345.714	100.12
345.942	97.12
346.17	93.12
346.397	111.12
346.625	89.12
346.853	97.12
347.08	96.12
347.308	105.12
347.535	106.12
347.763	119.12
347.99	122.12
348.218	114.12
348.445	122.12
348.673	133.12
348.9	93.12
349.128	95.12
349.355	94.12
349.583	94.12
349.81	97.12
350.037	97.12
350.265	101.12
350.492	110.12
350.72	91.12
350.947	110.12
351.174	134.12
351.402	146.12
351.629	119.12
351.856	130.12
352.083	133.12
352.311	129.12
352.538	143.12
352.765	139.12
352.992	143.12
353.22	127.12
353.447	132.12
353.674	126.12
353.901	95.12
354.128	105.12
354.355	90.12
354.583	107.12
354.81	91.12
355.037	97.12
355.264	90.12
355.491	95.12
355.718	100.12
355.945	96.12
356.172	97.12
356.399	82.12
356.626	87.12
356.853	98.12
357.08	99.12
357.307	96.12
357.534	98.12
357.761	93.12
357.988	96.12
358.215	96.12
358.441	97.12
358.668	96.12
358.895	113.12
359.122	107.12
359.349	101.12
359.576	106.12
359.802	143.12
360.029	184.12
360.256	179.12
360.483	126.12
360.709	100.12
360.936	112.12
361.163	123.12
361.39	118.12
361.616	120.12
361.843	95.12
362.07	107.12
362.296	111.12
362.523	109.12
362.749	104.12
362.976	105.12
363.203	104.12
363.429	105.12
363.656	103.12
363.882	93.12
364.109	104.12
364.335	95.12
364.562	92.12
364.788	104.12
365.015	102.12
365.241	108.12
365.468	141.12
365.694	162.12
365.92	112.12
366.147	100.12
366.373	96.12
366.599	94.12
366.826	92.12
367.052	92.12
367.278	100.12
367.505	88.12
367.731	104.12
367.957	107.12
368.184	108.12
368.41	134.12
368.636	122.12
368.862	165.12
369.089	146.12
369.315	109.12
369.541	109.12
369.767	94.12
369.993	103.12
370.219	91.12
370.445	95.12
370.672	95.12
370.898	83.12
371.124	92.12
371.35	93.12
371.576	93.12
371.802	100.12
372.028	82.12
372.254	84.12
372.48	91.12
372.706	80.12
372.932	87.12
373.158	99.12
373.384	94.12
373.61	98.12
373.835	86.12
374.061	88.12
374.287	83.12
374.513	100.12
374.739	80.12
374.965	97.12
375.191	95.12
375.416	94.12
375.642	89.12
375.868	90.12
376.094	95.12
376.319	96.12
376.545	90.12
376.771	96.12
376.997	91.12
377.222	116.12
377.448	92.12
377.674	95.12
377.899	101.12
378.125	105.12
378.35	88.12
378.576	84.12
378.802	85.12
379.027	105.12
379.253	99.12
379.478	89.12
379.704	81.12
379.929	94.12
380.155	87.12
380.38	90.12
380.606	104.12
380.831	112.12
381.057	98.12
381.282	95.12
381.507	102.12
381.733	93.12
381.958	100.12
382.184	100.12
382.409	93.12
382.634	103.12
382.86	102.12
383.085	98.12
383.31	106.12
383.535	99.12
383.761	107.12
383.986	98.12
384.211	98.12
384.436	98.12
384.662	98.12
384.887	112.12
385.112	109.12
385.337	90.12
385.562	118.12
385.787	106.12
386.013	115.12
386.238	121.12
386.463	116.12
386.688	113.12
386.913	100.12
387.138	106.12
387.363	106.12
387.588	107.12
387.813	96.12
388.038	95.12
388.263	113.12
388.488	99.12
388.713	104.12
388.938	98.12
389.163	78.12
389.387	81.12
389.612	107.12
389.837	89.12
390.062	88.12
390.287	99.12
390.512	84.12
390.736	93.12
390.961	99.12
391.186	95.12
391.411	95.12
391.636	95.12
391.86	87.12
392.085	67.12
392.31	90.12
392.534	90.12
392.759	99.12
392.984	78.12
393.208	99.12
393.433	79.12
393.658	75.12
393.882	91.12
394.107	94.12
394.331	88.12
394.556	93.12
394.78	91.12
395.005	85.12
395.229	89.12
395.454	87.12
395.678	71.12
395.903	89.12
396.127	76.12
396.352	77.12
396.576	83.12
396.801	84.12
397.025	106.12
397.249	90.12
397.474	94.12
397.698	76.12
397.922	89.12
398.147	88.12
398.371	99.12
398.595	98.12
398.82	80.12
399.044	90.12
399.268	98.12
399.492	92.12
399.717	86.12
399.941	91.12
400.165	95.12
400.389	95.12
400.613	83.12
400.837	83.12
401.062	88.12
401.286	99.12
401.51	98.12
401.734	106.12
401.958	115.12
402.182	192.12
402.406	263.12
402.63	216.12
402.854	116.12
403.078	102.12
403.302	90.12
403.526	91.12
403.75	109.12
403.974	90.12
404.198	82.12
404.422	79.12
404.645	95.12
404.869	103.12
405.093	122.12
405.317	158.12
405.541	162.12
405.765	143.12
405.988	157.12
406.212	283.12
406.436	462.12
406.66	282.12
406.883	158.12
407.107	120.12
407.331	130.12
407.555	131.12
407.778	112.12
408.002	91.12
408.226	89.12
408.449	80.12
408.673	90.12
408.896	111.12
409.12	108.12
409.344	100.12
409.567	107.12
409.791	83.12
410.014	96.12
410.238	84.12
410.461	88.12
410.685	113.12
410.908	106.12
411.132	106.12
411.355	119.12
411.578	100.12
411.802	93.12
412.025	100.12
412.249	110.12
412.472	120.12
412.695	149.12
412.919	107.12
413.142	91.12
413.365	100.12
413.589	81.12
413.812	92.12
414.035	94.12
414.258	91.12
414.482	90.12
414.705	91.12
414.928	84.12
415.151	92.12
415.374	79.12
415.597	91.12
415.821	84.12
416.044	89.12
416.267	96.12
416.49	103.12
416.713	87.12
416.936	100.12
417.159	106.12
417.382	106.12
417.605	120.12
417.828	135.12
418.051	99.12
418.274	88.12
418.497	84.12
418.72	92.12
418.943	90.12
419.166	92.12
419.389	87.12
419.611	107.12
419.834	79.12
420.057	102.12
420.28	97.12
420.503	96.12
420.726	98.12
420.948	104.12
421.171	112.12
421.394	102.12
421.617	106.12
421.839	88.12
422.062	95.12
422.285	94.12
422.507	82.12
422.73	105.12
422.953	97.12
423.175	100.12
423.398	99.12
423.621	94.12
423.843	102.12
424.066	87.12
424.288	92.12
424.511	110.12
424.733	101.12
424.956	125.12
425.178	112.12
425.401	111.12
425.623	123.12
425.846	103.12
426.068	112.12
426.291	109.12
426.513	98.12
426.735	102.12
426.958	109.12
427.18	123.12
427.402	200.12
427.625	344.12
427.847	296.12
428.069	255.12
428.292	143.12
428.514	118.12
428.736	88.12
428.958	82.12
429.181	86.12
429.403	74.12
429.625	94.12
429.847	93.12
430.069	125.12
430.292	103.12
430.514	113.12
430.736	99.12
430.958	102.12
431.18	95.12
431.402	99.12
431.624	95.12
431.846	86.12
432.068	81.12
432.29	91.12
432.512	91.12
432.734	93.12
432.956	92.12
433.178	103.12
433.4	94.12
433.622	94.12
433.844	98.12
434.066	90.12
434.287	92.12
434.509	86.12
434.731	94.12
434.953	105.12
435.175	94.12
435.397	98.12
435.618	103.12
435.84	114.12
436.062	144.12
436.284	156.12
436.505	114.12
436.727	97.12
436.949	99.12
437.17	92.12
437.392	92.12
437.614	104.12
437.835	159.12
438.057	183.12
438.278	146.12
438.5	130.12
438.721	151.12
438.943	114.12
439.165	102.12
439.386	93.12
439.608	93.12
439.829	120.12
440.05	169.12
440.272	219.12
440.493	125.12
440.715	88.12
440.936	86.12
441.158	90.12
441.379	111.12
441.6	112.12
441.822	126.12
442.043	122.12
442.264	134.12
442.486	113.12
442.707	114.12
442.928	147.12
443.149	216.12
443.371	213.12
443.592	159.12
443.813	137.12
444.034	151.12
444.255	99.12
444.476	94.12
444.698	96.12
444.919	90.12
445.14	130.12
445.361	122.12
445.582	137.12
445.803	217.12
446.024	202.12
446.245	202.12
446.466	155.12
446.687	106.12
446.908	97.12
447.129	99.12
447.35	104.12
447.571	115.12
447.792	109.12
448.013	116.12
448.234	126.12
448.455	105.12
448.675	138.12
448.896	150.12
449.117	123.12
449.338	129.12
449.559	174.12
449.779	161.12
450	104.12
450.221	95.12
450.442	106.12
450.662	117.12
450.883	157.12
451.104	172.12
451.324	127.12
451.545	104.12
451.766	95.12
451.986	101.12
452.207	107.12
452.428	104.12
452.648	117.12
452.869	162.12
453.089	165.12
453.31	185.12
453.53	128.12
453.751	128.12
453.971	137.12
454.192	173.12
454.412	125.12
454.633	104.12
454.853	92.12
455.073	85.12
455.294	98.12
455.514	136.12
455.734	112.12
455.955	87.12
456.175	94.12
456.395	92.12
456.616	90.12
456.836	102.12
457.056	82.12
457.276	74.12
457.497	87.12
457.717	89.12
457.937	99.12
458.157	113.12
458.377	110.12
458.598	171.12
458.818	288.12
459.038	293.12
459.258	181.12
459.478	124.12
459.698	94.12
459.918	82.12
460.138	92.12
460.358	75.12
460.578	104.12
460.798	102.12
461.018	97.12
461.238	95.12
461.458	97.12
461.678	103.12
461.898	93.12
462.118	90.12
462.338	79.12
462.558	93.12
462.777	83.12
462.997	108.12
463.217	124.12
463.437	115.12
463.657	95.12
463.876	96.12
464.096	99.12
464.316	108.12
464.536	101.12
464.755	111.12
464.975	168.12
465.195	323.12
465.414	323.12
465.634	127.12
465.854	100.12
466.073	101.12
466.293	86.12
466.512	94.12
466.732	105.12
466.951	120.12
467.171	115.12
467.391	138.12
467.61	195.12
467.829	304.12
468.049	945.12
468.268	1437.12
468.488	330.12
468.707	136.12
468.927	97.12
469.146	108.12
469.365	99.12
469.585	98.12
469.804	130.12
470.023	129.12
470.243	105.12
470.462	140.12
470.681	188.12
470.901	112.12
471.12	116.12
471.339	115.12
471.558	139.12
471.777	181.12
471.997	416.12
472.216	1757.12
472.435	4231.12
472.654	904.12
472.873	212.12
473.092	124.12
473.311	98.12
473.53	104.12
473.749	116.12
473.968	115.12
474.187	136.12
474.406	119.12
474.625	91.12
474.844	89.12
475.063	98.12
475.282	93.12
475.501	81.12
475.72	96.12
475.939	95.12
476.158	96.12
476.377	94.12
476.596	107.12
476.814	106.12
477.033	117.12
477.252	108.12
477.471	102.12
477.69	92.12
477.908	93.12
478.127	107.12
478.346	95.12
478.564	106.12
478.783	123.12
479.002	122.12
479.22	131.12
479.439	157.12
479.658	181.12
479.876	140.12
480.095	132.12
480.313	172.12
480.532	224.12
480.751	401.12
480.969	1542.12
481.188	7011.12
481.406	3940.12
481.624	520.12
481.843	178.12
482.061	152.12
482.28	117.12
482.498	90.12
482.717	94.12
482.935	87.12
483.153	95.12
483.372	100.12
483.59	89.12
483.808	100.12
484.027	106.12
484.245	89.12
484.463	91.12
484.681	101.12
484.9	99.12
485.118	111.12
485.336	113.12
485.554	102.12
485.772	115.12
485.99	100.12
486.209	108.12
486.427	120.12
486.645	150.12
486.863	152.12
487.081	129.12
487.299	116.12
487.517	109.12
487.735	111.12
487.953	90.12
488.171	96.12
488.389	100.12
488.607	119.12
488.825	112.12
489.043	92.12
489.261	90.12
489.479	93.12
489.696	90.12
489.914	95.12
490.132	99.12
490.35	89.12
490.568	89.12
490.786	100.12
491.003	99.12
491.221	107.12
491.439	114.12
491.657	112.12
491.874	88.12
492.092	88.12
492.31	87.12
492.527	95.12
492.745	107.12
492.963	100.12
493.18	99.12
493.398	104.12
493.615	100.12
493.833	97.12
494.05	86.12
494.268	89.12
494.485	105.12
494.703	85.12
494.92	90.12
495.138	100.12
495.355	88.12
495.573	107.12
495.79	96.12
496.008	98.12
496.225	91.12
496.442	76.12
496.66	98.12
496.877	94.12
497.094	101.12
497.312	97.12
497.529	98.12
497.746	94.12
497.963	102.12
498.181	98.12
498.398	95.12
498.615	135.12
498.832	119.12
499.049	99.12
499.267	92.12
499.484	96.12
499.701	86.12
499.918	82.12
500.135	94.12
500.352	85.12
500.569	79.12
500.786	113.12
501.003	103.12
501.22	90.12
501.437	91.12
501.654	94.12
501.871	147.12
502.088	119.12
502.305	83.12
502.522	83.12
502.739	104.12
502.956	111.12
503.172	92.12
503.389	117.12
503.606	156.12
503.823	111.12
504.04	90.12
504.256	95.12
504.473	95.12
504.69	93.12
504.907	85.12
505.123	97.12
505.34	87.12
505.557	96.12
505.773	99.12
505.99	93.12
506.207	99.12
506.423	79.12
506.64	78.12
506.856	83.12
507.073	98.12
507.289	86.12
507.506	112.12
507.722	154.12
507.939	178.12
508.155	109.12
508.372	104.12
508.588	106.12
508.805	97.12
509.021	107.12
509.238	105.12
509.454	111.12
509.67	113.12
509.887	114.12
510.103	144.12
510.319	290.12
510.536	1270.12
510.752	4577.12
510.968	1151.12
