Data from Circ_1995_H10_HRD10591_00010.txt Node
Date: Wed Jan 03 11:36:48 EST 2024
User: Yrep
Spectrometer: HR+D1059
Trigger mode: 1
Integration Time (sec): 1.000000E-1
Scans to average: 1
Electric dark correction enabled: true
Nonlinearity correction enabled: false
Boxcar width: 0
XAxis mode: Wavelengths
Number of Pixels in Spectrum: 2048
>>>>>Begin Spectral Data<<<<<
223.165	-16.5
223.4	-16.5
223.635	-16.5
223.869	-24.5
224.104	-27.5
224.338	-27.5
224.573	-9.5
224.808	-16.5
225.042	-16.5
225.277	-5.5
225.511	-10.5
225.746	10.5
225.98	11.5
226.215	12.5
226.449	25.5
226.683	26.5
226.918	34.5
227.152	33.5
227.387	43.5
227.621	43.5
227.856	47.5
228.09	48.5
228.324	47.5
228.559	50.5
228.793	179.5
229.027	489.5
229.262	552.5
229.496	663.5
229.73	887.5
229.964	917.5
230.199	607.5
230.433	538.5
230.667	528.5
230.901	501.5
231.136	473.5
231.37	493.5
231.604	488.5
231.838	500.5
232.072	496.5
232.306	504.5
232.541	520.5
232.775	505.5
233.009	520.5
233.243	529.5
233.477	523.5
233.711	512.5
233.945	542.5
234.179	551.5
234.413	550.5
234.647	548.5
234.881	567.5
235.115	585.5
235.349	588.5
235.583	596.5
235.817	665.5
236.051	702.5
236.285	682.5
236.519	669.5
236.753	750.5
236.987	1005.5
237.221	1518.5
237.455	1602.5
237.689	981.5
237.922	799.5
238.156	789.5
238.39	736.5
238.624	735.5
238.858	708.5
239.091	728.5
239.325	738.5
239.559	763.5
239.793	795.5
240.027	880.5
240.26	1031.5
240.494	1079.5
240.728	1012.5
240.961	965.5
241.195	896.5
241.429	865.5
241.662	833.5
241.896	862.5
242.13	880.5
242.363	875.5
242.597	921.5
242.83	962.5
243.064	918.5
243.298	942.5
243.531	995.5
243.765	949.5
243.998	975.5
244.232	1007.5
244.465	1025.5
244.699	1025.5
244.932	987.5
245.166	1021.5
245.399	1039.5
245.633	1049.5
245.866	1059.5
246.099	1046.5
246.333	1089.5
246.566	1085.5
246.8	1127.5
247.033	1174.5
247.266	1180.5
247.5	1249.5
247.733	1323.5
247.966	1309.5
248.2	1302.5
248.433	1332.5
248.666	1392.5
248.899	1584.5
249.133	1700.5
249.366	1767.5
249.599	1653.5
249.832	1631.5
250.066	1886.5
250.299	2545.5
250.532	3297.5
250.765	3101.5
250.998	2599.5
251.231	2133.5
251.465	1866.5
251.698	1736.5
251.931	1715.5
252.164	1678.5
252.397	1666.5
252.63	1701.5
252.863	1810.5
253.096	1900.5
253.329	1934.5
253.562	1839.5
253.795	1755.5
254.028	1766.5
254.261	1889.5
254.494	2151.5
254.727	2511.5
254.96	2553.5
255.193	2381.5
255.426	2467.5
255.659	3074.5
255.892	4529.5
256.124	5940.5
256.357	4824.5
256.59	3366.5
256.823	2689.5
257.056	2396.5
257.289	2229.5
257.521	2112.5
257.754	2037.5
257.987	1964.5
258.22	1927.5
258.452	1916.5
258.685	1927.5
258.918	1902.5
259.151	1957.5
259.383	2034.5
259.616	2002.5
259.849	2075.5
260.081	2214.5
260.314	2373.5
260.547	2235.5
260.779	2091.5
261.012	2063.5
261.244	2043.5
261.477	1962.5
261.71	1970.5
261.942	2035.5
262.175	2142.5
262.407	1997.5
262.64	1891.5
262.872	1925.5
263.105	1877.5
263.337	1928.5
263.57	1895.5
263.802	1968.5
264.035	1926.5
264.267	1889.5
264.499	1888.5
264.732	1955.5
264.964	1944.5
265.197	1947.5
265.429	1951.5
265.661	1944.5
265.894	1966.5
266.126	2019.5
266.358	2005.5
266.591	2110.5
266.823	2144.5
267.055	2105.5
267.287	2116.5
267.52	2128.5
267.752	2072.5
267.984	2109.5
268.216	2160.5
268.448	2200.5
268.681	2238.5
268.913	2320.5
269.145	2555.5
269.377	2580.5
269.609	2479.5
269.841	2515.5
270.073	2579.5
270.306	2877.5
270.538	3020.5
270.77	2832.5
271.002	2719.5
271.234	2647.5
271.466	2814.5
271.698	3019.5
271.93	2969.5
272.162	2941.5
272.394	2864.5
272.626	2790.5
272.858	2629.5
273.09	2578.5
273.322	2608.5
273.553	2545.5
273.785	2563.5
274.017	2587.5
274.249	2616.5
274.481	2642.5
274.713	2691.5
274.945	2748.5
275.176	2723.5
275.408	2745.5
275.64	2843.5
275.872	2854.5
276.104	2911.5
276.335	2878.5
276.567	3054.5
276.799	3283.5
277.031	3746.5
277.262	3996.5
277.494	3667.5
277.726	3267.5
277.957	3117.5
278.189	3030.5
278.421	2941.5
278.652	2943.5
278.884	2933.5
279.115	2923.5
279.347	2947.5
279.579	2997.5
279.81	3203.5
280.042	3470.5
280.273	3815.5
280.505	3594.5
280.736	3252.5
280.968	3125.5
281.199	2993.5
281.431	3002.5
281.662	2961.5
281.894	2975.5
282.125	2974.5
282.356	3177.5
282.588	3417.5
282.819	3147.5
283.051	2938.5
283.282	2926.5
283.513	2985.5
283.745	3009.5
283.976	3015.5
284.207	2976.5
284.439	3013.5
284.67	3029.5
284.901	2970.5
285.132	2963.5
285.364	2961.5
285.595	3004.5
285.826	3031.5
286.057	3082.5
286.288	3065.5
286.52	3052.5
286.751	3063.5
286.982	3099.5
287.213	3074.5
287.444	3118.5
287.675	3175.5
287.906	3241.5
288.138	3301.5
288.369	3259.5
288.6	3204.5
288.831	3222.5
289.062	3172.5
289.293	3198.5
289.524	3142.5
289.755	3153.5
289.986	3143.5
290.217	3154.5
290.448	3185.5
290.679	3116.5
290.91	3134.5
291.141	3133.5
291.371	3105.5
291.602	3120.5
291.833	3129.5
292.064	3171.5
292.295	3142.5
292.526	3176.5
292.757	3034.5
292.987	3106.5
293.218	3079.5
293.449	3127.5
293.68	3113.5
293.91	3111.5
294.141	3063.5
294.372	3061.5
294.603	3186.5
294.833	3196.5
295.064	3160.5
295.295	3155.5
295.525	3142.5
295.756	3288.5
295.987	3362.5
296.217	3619.5
296.448	3421.5
296.679	3226.5
296.909	3256.5
297.14	3226.5
297.37	3272.5
297.601	3358.5
297.831	3318.5
298.062	3351.5
298.292	3405.5
298.523	3424.5
298.753	3408.5
298.984	3346.5
299.214	3400.5
299.445	3404.5
299.675	3439.5
299.905	3510.5
300.136	3438.5
300.366	3437.5
300.597	3504.5
300.827	3617.5
301.057	3677.5
301.288	3761.5
301.518	3646.5
301.748	3682.5
301.979	3854.5
302.209	3851.5
302.439	3797.5
302.669	3676.5
302.9	3661.5
303.13	3669.5
303.36	3783.5
303.59	3949.5
303.82	4025.5
304.051	3901.5
304.281	3789.5
304.511	3670.5
304.741	3609.5
304.971	3617.5
305.201	3597.5
305.431	3598.5
305.661	3606.5
305.891	3556.5
306.121	3581.5
306.352	3766.5
306.582	3745.5
306.812	3623.5
307.042	3775.5
307.272	4041.5
307.502	4156.5
307.731	4032.5
307.961	3814.5
308.191	3769.5
308.421	3602.5
308.651	3716.5
308.881	3694.5
309.111	3726.5
309.341	3787.5
309.571	3870.5
309.8	3957.5
310.03	4069.5
310.26	4071.5
310.49	4058.5
310.72	4227.5
310.949	4346.5
311.179	4291.5
311.409	4122.5
311.639	4130.5
311.868	4141.5
312.098	4141.5
312.328	4265.5
312.557	4440.5
312.787	4553.5
313.017	4369.5
313.246	4216.5
313.476	4120.5
313.706	4257.5
313.935	4344.5
314.165	4423.5
314.394	4495.5
314.624	4361.5
314.853	4318.5
315.083	4238.5
315.312	4179.5
315.542	4152.5
315.771	4025.5
316.001	4081.5
316.23	4111.5
316.46	4039.5
316.689	4136.5
316.919	4207.5
317.148	4257.5
317.377	4316.5
317.607	4230.5
317.836	4207.5
318.065	4113.5
318.295	4113.5
318.524	4095.5
318.753	4086.5
318.983	4213.5
319.212	4139.5
319.441	4278.5
319.67	4310.5
319.9	4187.5
320.129	4154.5
320.358	4161.5
320.587	4246.5
320.816	4395.5
321.046	4464.5
321.275	4424.5
321.504	4316.5
321.733	4445.5
321.962	4525.5
322.191	4655.5
322.42	4826.5
322.649	4922.5
322.878	4991.5
323.108	5197.5
323.337	5414.5
323.566	5729.5
323.795	6090.5
324.024	6893.5
324.253	9197.5
324.482	13555.5
324.71	15619.5
324.939	15619.5
325.168	14593.5
325.397	7794.5
325.626	6370.5
325.855	5963.5
326.084	5852.5
326.313	5950.5
326.542	6211.5
326.77	7111.5
326.999	9057.5
327.228	13173.5
327.457	15619.5
327.686	15619.5
327.914	11305.5
328.143	11296.5
328.372	12144.5
328.6	9614.5
328.829	8157.5
329.058	8278.5
329.287	8570.5
329.515	8574.5
329.744	9813.5
329.972	12718.5
330.201	15339.5
330.43	15619.5
330.658	13533.5
330.887	10375.5
331.115	8494.5
331.344	7301.5
331.572	7021.5
331.801	7015.5
332.03	6938.5
332.258	6759.5
332.486	6803.5
332.715	7004.5
332.943	7378.5
333.172	7761.5
333.4	8469.5
333.629	9367.5
333.857	11070.5
334.085	13671.5
334.314	15619.5
334.542	15619.5
334.771	15619.5
334.999	13601.5
335.227	9353.5
335.455	7951.5
335.684	7336.5
335.912	6793.5
336.14	6493.5
336.369	6366.5
336.597	6429.5
336.825	6249.5
337.053	5906.5
337.281	5645.5
337.51	5610.5
337.738	5675.5
337.966	5591.5
338.194	5541.5
338.422	5388.5
338.65	5298.5
338.878	5207.5
339.106	5223.5
339.334	5102.5
339.562	5080.5
339.79	5000.5
340.018	5007.5
340.246	4983.5
340.474	5054.5
340.702	4974.5
340.93	4974.5
341.158	4936.5
341.386	4973.5
341.614	4967.5
341.842	4884.5
342.07	4789.5
342.298	4806.5
342.526	4801.5
342.754	4718.5
342.981	4760.5
343.209	4761.5
343.437	5106.5
343.665	5295.5
343.893	5557.5
344.12	5493.5
344.348	5358.5
344.576	5191.5
344.804	5255.5
345.031	5161.5
345.259	5089.5
345.487	4937.5
345.714	4835.5
345.942	4659.5
346.17	4697.5
346.397	4646.5
346.625	4703.5
346.853	4648.5
347.08	4627.5
347.308	4607.5
347.535	4779.5
347.763	4813.5
347.99	4780.5
348.218	4895.5
348.445	4911.5
348.673	4742.5
348.9	4636.5
349.128	4510.5
349.355	4465.5
349.583	4513.5
349.81	4514.5
350.037	4480.5
350.265	4456.5
350.492	4470.5
350.72	4501.5
350.947	4549.5
351.174	4747.5
351.402	4765.5
351.629	4620.5
351.856	4704.5
352.083	4729.5
352.311	4834.5
352.538	4826.5
352.765	4685.5
352.992	4697.5
353.22	4565.5
353.447	4561.5
353.674	4455.5
353.901	4373.5
354.128	4352.5
354.355	4357.5
354.583	4348.5
354.81	4346.5
355.037	4382.5
355.264	4335.5
355.491	4240.5
355.718	4293.5
355.945	4329.5
356.172	4309.5
356.399	4339.5
356.626	4301.5
356.853	4316.5
357.08	4217.5
357.307	4297.5
357.534	4261.5
357.761	4381.5
357.988	4348.5
358.215	4309.5
358.441	4346.5
358.668	4305.5
358.895	4383.5
359.122	4464.5
359.349	4540.5
359.576	4729.5
359.802	5046.5
360.029	5335.5
360.256	5271.5
360.483	4950.5
360.709	4608.5
360.936	4615.5
361.163	4588.5
361.39	4669.5
361.616	4682.5
361.843	4561.5
362.07	4641.5
362.296	4693.5
362.523	4560.5
362.749	4581.5
362.976	4524.5
363.203	4469.5
363.429	4466.5
363.656	4569.5
363.882	4513.5
364.109	4397.5
364.335	4429.5
364.562	4416.5
364.788	4485.5
365.015	4438.5
365.241	4524.5
365.468	4465.5
365.694	4589.5
365.92	4546.5
366.147	4432.5
366.373	4413.5
366.599	4389.5
366.826	4365.5
367.052	4342.5
367.278	4432.5
367.505	4432.5
367.731	4443.5
367.957	4472.5
368.184	4475.5
368.41	4606.5
368.636	4673.5
368.862	4608.5
369.089	4565.5
369.315	4456.5
369.541	4487.5
369.767	4576.5
369.993	4589.5
370.219	4663.5
370.445	4510.5
370.672	4551.5
370.898	4586.5
371.124	4682.5
371.35	4666.5
371.576	4616.5
371.802	4594.5
372.028	4565.5
372.254	4583.5
372.48	4649.5
372.706	4706.5
372.932	4767.5
373.158	4704.5
373.384	4649.5
373.61	4656.5
373.835	4649.5
374.061	4654.5
374.287	4777.5
374.513	4845.5
374.739	4974.5
374.965	5025.5
375.191	5063.5
375.416	4952.5
375.642	4815.5
375.868	4820.5
376.094	4716.5
376.319	4641.5
376.545	4664.5
376.771	4655.5
376.997	4649.5
377.222	4622.5
377.448	4615.5
377.674	4594.5
377.899	4516.5
378.125	4525.5
378.35	4513.5
378.576	4512.5
378.802	4488.5
379.027	4515.5
379.253	4596.5
379.478	4467.5
379.704	4594.5
379.929	4565.5
380.155	4581.5
380.38	4620.5
380.606	4627.5
380.831	4599.5
381.057	4666.5
381.282	4637.5
381.507	4604.5
381.733	4699.5
381.958	4714.5
382.184	4752.5
382.409	4845.5
382.634	4851.5
382.86	4852.5
383.085	4914.5
383.31	5001.5
383.535	5045.5
383.761	5064.5
383.986	5148.5
384.211	5262.5
384.436	5354.5
384.662	5349.5
384.887	5465.5
385.112	5423.5
385.337	5429.5
385.562	5516.5
385.787	5590.5
386.013	5687.5
386.238	5669.5
386.463	5577.5
386.688	5639.5
386.913	5474.5
387.138	5486.5
387.363	5472.5
387.588	5420.5
387.813	5482.5
388.038	5431.5
388.263	5455.5
388.488	5535.5
388.713	5456.5
388.938	5417.5
389.163	5349.5
389.387	5447.5
389.612	5269.5
389.837	5303.5
390.062	5320.5
390.287	5367.5
390.512	5311.5
390.736	5351.5
390.961	5540.5
391.186	5619.5
391.411	5731.5
391.636	5862.5
391.86	5975.5
392.085	6049.5
392.31	5952.5
392.534	5846.5
392.759	5733.5
392.984	5630.5
393.208	5641.5
393.433	5633.5
393.658	5633.5
393.882	5628.5
394.107	5680.5
394.331	5655.5
394.556	5676.5
394.78	5747.5
395.005	5802.5
395.229	5881.5
395.454	6001.5
395.678	6138.5
395.903	6136.5
396.127	6111.5
396.352	6060.5
396.576	5862.5
396.801	5777.5
397.025	5920.5
397.249	5905.5
397.474	6142.5
397.698	6128.5
397.922	6213.5
398.147	6410.5
398.371	6487.5
398.595	6695.5
398.82	6921.5
399.044	7455.5
399.268	8148.5
399.492	9185.5
399.717	9801.5
399.941	9711.5
400.165	9137.5
400.389	8413.5
400.613	7626.5
400.837	7170.5
401.062	7086.5
401.286	6875.5
401.51	6920.5
401.734	6855.5
401.958	6989.5
402.182	7126.5
402.406	7266.5
402.63	7395.5
402.854	7341.5
403.078	7401.5
403.302	7566.5
403.526	7778.5
403.75	7867.5
403.974	7962.5
404.198	7959.5
404.422	8105.5
404.645	8298.5
404.869	8532.5
405.093	9309.5
405.317	9877.5
405.541	9827.5
405.765	8701.5
405.988	8346.5
406.212	8343.5
406.436	8497.5
406.66	8456.5
406.883	8282.5
407.107	8831.5
407.331	9317.5
407.555	9829.5
407.778	9545.5
408.002	8664.5
408.226	8266.5
408.449	8291.5
408.673	8074.5
408.896	8270.5
409.12	8349.5
409.344	7890.5
409.567	7596.5
409.791	7472.5
410.014	7439.5
410.238	7446.5
410.461	7447.5
410.685	7494.5
410.908	7617.5
411.132	7870.5
411.355	7861.5
411.578	7543.5
411.802	7542.5
412.025	7751.5
412.249	8269.5
412.472	9095.5
412.695	9773.5
412.919	9007.5
413.142	8389.5
413.365	7940.5
413.589	7587.5
413.812	7341.5
414.035	7151.5
414.258	7157.5
414.482	7193.5
414.705	7075.5
414.928	6911.5
415.151	6988.5
415.374	6839.5
415.597	6849.5
415.821	6736.5
416.044	6863.5
416.267	6830.5
416.49	6738.5
416.713	6726.5
416.936	6762.5
417.159	6804.5
417.382	7046.5
417.605	7305.5
417.828	7382.5
418.051	7287.5
418.274	7009.5
418.497	6868.5
418.72	6999.5
418.943	6940.5
419.166	7477.5
419.389	7899.5
419.611	7847.5
419.834	7882.5
420.057	8185.5
420.28	8629.5
420.503	8313.5
420.726	7914.5
420.948	7785.5
421.171	8006.5
421.394	7713.5
421.617	7105.5
421.839	7050.5
422.062	7154.5
422.285	7331.5
422.507	7963.5
422.73	8512.5
422.953	7716.5
423.175	7378.5
423.398	7381.5
423.621	7371.5
423.843	7650.5
424.066	7537.5
424.288	7451.5
424.511	7671.5
424.733	8297.5
424.956	8791.5
425.178	8259.5
425.401	8353.5
425.623	8140.5
425.846	7207.5
426.068	7011.5
426.291	6938.5
426.513	7023.5
426.735	7124.5
426.958	7635.5
427.18	8675.5
427.402	10050.5
427.625	10663.5
427.847	10073.5
428.069	9721.5
428.292	7986.5
428.514	6981.5
428.736	6590.5
428.958	6502.5
429.181	6224.5
429.403	6286.5
429.625	6375.5
429.847	6840.5
430.069	7363.5
430.292	6813.5
430.514	6197.5
430.736	6183.5
430.958	6175.5
431.18	6032.5
431.402	5990.5
431.624	6051.5
431.846	6034.5
432.068	6043.5
432.29	6147.5
432.512	6063.5
432.734	6124.5
432.956	6091.5
433.178	6257.5
433.4	6261.5
433.622	6061.5
433.844	6089.5
434.066	6014.5
434.287	6221.5
434.509	6463.5
434.731	6632.5
434.953	6813.5
435.175	6959.5
435.397	7073.5
435.618	6975.5
435.84	7448.5
436.062	8459.5
436.284	8254.5
436.505	6847.5
436.727	6625.5
436.949	6259.5
437.17	6096.5
437.392	6049.5
437.614	6312.5
437.835	6895.5
438.057	7923.5
438.278	8581.5
438.5	8293.5
438.721	9286.5
438.943	7949.5
439.165	6685.5
439.386	6583.5
439.608	6631.5
439.829	6816.5
440.05	7331.5
440.272	7851.5
440.493	6908.5
440.715	6503.5
440.936	6494.5
441.158	6459.5
441.379	6594.5
441.6	6950.5
441.822	7147.5
442.043	7658.5
442.264	8589.5
442.486	8198.5
442.707	7217.5
442.928	7140.5
443.149	7505.5
443.371	7693.5
443.592	8210.5
443.813	9279.5
444.034	9137.5
444.255	7834.5
444.476	7583.5
444.698	7674.5
444.919	7824.5
445.14	7746.5
445.361	7713.5
445.582	8037.5
445.803	8987.5
446.024	9668.5
446.245	9109.5
446.466	8027.5
446.687	6780.5
446.908	6490.5
447.129	6139.5
447.35	6029.5
447.571	5920.5
447.792	5882.5
448.013	5989.5
448.234	6249.5
448.455	6925.5
448.675	8361.5
448.896	8641.5
449.117	7126.5
449.338	7440.5
449.559	8942.5
449.779	9067.5
450	6726.5
450.221	6069.5
450.442	5905.5
450.662	5907.5
450.883	6035.5
451.104	6205.5
451.324	5890.5
451.545	5704.5
451.766	5543.5
451.986	5435.5
452.207	5377.5
452.428	5343.5
452.648	5418.5
452.869	5537.5
453.089	5562.5
453.31	5628.5
453.53	5441.5
453.751	5330.5
453.971	5550.5
454.192	5678.5
454.412	5370.5
454.633	5284.5
454.853	5238.5
455.073	5257.5
455.294	5679.5
455.514	6340.5
455.734	5774.5
455.955	5151.5
456.175	4976.5
456.395	4989.5
456.616	4973.5
456.836	5058.5
457.056	4969.5
457.276	4959.5
457.497	5115.5
457.717	5068.5
457.937	5170.5
458.157	5321.5
458.377	5362.5
458.598	5765.5
458.818	6786.5
459.038	7719.5
459.258	7309.5
459.478	6334.5
459.698	6175.5
459.918	6218.5
460.138	6470.5
460.358	6617.5
460.578	6601.5
460.798	6709.5
461.018	6710.5
461.238	6568.5
461.458	6566.5
461.678	6569.5
461.898	6657.5
462.118	6709.5
462.338	7051.5
462.558	7207.5
462.777	7415.5
462.997	8114.5
463.217	8466.5
463.437	8214.5
463.657	7689.5
463.876	7525.5
464.096	7616.5
464.316	7567.5
464.536	7613.5
464.755	7385.5
464.975	7403.5
465.195	7941.5
465.414	8225.5
465.634	6873.5
465.854	6453.5
466.073	6071.5
466.293	5997.5
466.512	5826.5
466.732	5697.5
466.951	5696.5
467.171	5735.5
467.391	6006.5
467.61	6158.5
467.829	6561.5
468.049	8131.5
468.268	10017.5
468.488	7413.5
468.707	6333.5
468.927	5973.5
469.146	5815.5
469.365	5833.5
469.585	5763.5
469.804	5987.5
470.023	6163.5
470.243	6127.5
470.462	6281.5
470.681	6448.5
470.901	6243.5
471.12	6070.5
471.339	6165.5
471.558	6206.5
471.777	6488.5
471.997	7346.5
472.216	11247.5
472.435	15619.5
472.654	12315.5
472.873	8525.5
473.092	7454.5
473.311	6784.5
473.53	6549.5
473.749	6442.5
473.968	6875.5
474.187	7966.5
474.406	7257.5
474.625	6142.5
474.844	5893.5
475.063	5762.5
475.282	5849.5
475.501	5819.5
475.72	5894.5
475.939	5831.5
476.158	5901.5
476.377	5833.5
476.596	5905.5
476.814	6095.5
477.033	6095.5
477.252	6179.5
477.471	6200.5
477.69	6415.5
477.908	6423.5
478.127	6626.5
478.346	6640.5
478.564	6788.5
478.783	6957.5
479.002	7082.5
479.22	7136.5
479.439	7390.5
479.658	7649.5
479.876	7645.5
480.095	8016.5
480.313	8560.5
480.532	8817.5
480.751	9665.5
480.969	13218.5
481.188	15619.5
481.406	15619.5
481.624	14568.5
481.843	11086.5
482.061	9684.5
482.28	8843.5
482.498	8194.5
482.717	7871.5
482.935	7634.5
483.153	7552.5
483.372	7289.5
483.59	7276.5
483.808	7082.5
484.027	7162.5
484.245	7069.5
484.463	7143.5
484.681	7192.5
484.9	7137.5
485.118	7135.5
485.336	7172.5
485.554	7226.5
485.772	7320.5
485.99	7356.5
486.209	7238.5
486.427	7329.5
486.645	7420.5
486.863	7747.5
487.081	7511.5
487.299	7431.5
487.517	7442.5
487.735	7416.5
487.953	7335.5
488.171	7413.5
488.389	7437.5
488.607	7469.5
488.825	7448.5
489.043	7585.5
489.261	7680.5
489.479	7777.5
489.696	7870.5
489.914	7999.5
490.132	8125.5
490.35	8326.5
490.568	8520.5
490.786	8779.5
491.003	9236.5
491.221	9722.5
491.439	10391.5
491.657	10493.5
491.874	10552.5
492.092	10725.5
492.31	10762.5
492.527	11303.5
492.745	11591.5
492.963	11466.5
493.18	11058.5
493.398	10975.5
493.615	10721.5
493.833	10491.5
494.05	10212.5
494.268	10073.5
494.485	9870.5
494.703	9720.5
494.92	9479.5
495.138	9405.5
495.355	9301.5
495.573	9329.5
495.79	9270.5
496.008	9137.5
496.225	9109.5
496.442	9053.5
496.66	8977.5
496.877	8921.5
497.094	8992.5
497.312	9079.5
497.529	9362.5
497.746	9341.5
497.963	9602.5
498.181	9915.5
498.398	10149.5
498.615	10575.5
498.832	11000.5
499.049	11465.5
499.267	11960.5
499.484	12585.5
499.701	13366.5
499.918	13912.5
500.135	14661.5
500.352	15223.5
500.569	15536.5
500.786	15565.5
501.003	15085.5
501.22	14458.5
501.437	13762.5
501.654	13049.5
501.871	12420.5
502.088	11601.5
502.305	10949.5
502.522	10391.5
502.739	10131.5
