Data from Circ_1995_H10_HRD10591_00006.txt Node
Date: Wed Jan 03 11:36:47 EST 2024
User: Yrep
Spectrometer: HR+D1059
Trigger mode: 1
Integration Time (sec): 1.000000E-1
Scans to average: 1
Electric dark correction enabled: true
Nonlinearity correction enabled: false
Boxcar width: 0
XAxis mode: Wavelengths
Number of Pixels in Spectrum: 2048
>>>>>Begin Spectral Data<<<<<
223.165	4.5
223.4	4.5
223.635	4.5
223.869	-19.5
224.104	-11.5
224.338	-36.5
224.573	-15.5
224.808	-24.5
225.042	-14.5
225.277	10.5
225.511	7.5
225.746	5.5
225.98	-17.5
226.215	14.5
226.449	13.5
226.683	26.5
226.918	38.5
227.152	18.5
227.387	26.5
227.621	38.5
227.856	41.5
228.09	46.5
228.324	49.5
228.559	45.5
228.793	56.5
229.027	61.5
229.262	64.5
229.496	84.5
229.73	98.5
229.964	82.5
230.199	74.5
230.433	74.5
230.667	76.5
230.901	72.5
231.136	74.5
231.37	73.5
231.604	75.5
231.838	76.5
232.072	90.5
232.306	80.5
232.541	72.5
232.775	81.5
233.009	82.5
233.243	94.5
233.477	87.5
233.711	83.5
233.945	82.5
234.179	80.5
234.413	87.5
234.647	86.5
234.881	77.5
235.115	93.5
235.349	79.5
235.583	74.5
235.817	61.5
236.051	78.5
236.285	75.5
236.519	88.5
236.753	81.5
236.987	81.5
237.221	85.5
237.455	96.5
237.689	81.5
237.922	59.5
238.156	64.5
238.39	78.5
238.624	72.5
238.858	80.5
239.091	89.5
239.325	68.5
239.559	78.5
239.793	81.5
240.027	75.5
240.26	78.5
240.494	72.5
240.728	72.5
240.961	81.5
241.195	73.5
241.429	71.5
241.662	68.5
241.896	77.5
242.13	65.5
242.363	71.5
242.597	67.5
242.83	74.5
243.064	65.5
243.298	79.5
243.531	89.5
243.765	82.5
243.998	86.5
244.232	64.5
244.465	87.5
244.699	90.5
244.932	74.5
245.166	60.5
245.399	54.5
245.633	73.5
245.866	77.5
246.099	70.5
246.333	80.5
246.566	81.5
246.8	79.5
247.033	69.5
247.266	73.5
247.5	88.5
247.733	92.5
247.966	59.5
248.2	81.5
248.433	70.5
248.666	75.5
248.899	88.5
249.133	83.5
249.366	97.5
249.599	106.5
249.832	84.5
250.066	80.5
250.299	94.5
250.532	81.5
250.765	62.5
250.998	76.5
251.231	88.5
251.465	101.5
251.698	88.5
251.931	80.5
252.164	79.5
252.397	73.5
252.63	87.5
252.863	81.5
253.096	91.5
253.329	83.5
253.562	82.5
253.795	84.5
254.028	75.5
254.261	59.5
254.494	84.5
254.727	81.5
254.96	83.5
255.193	73.5
255.426	74.5
255.659	84.5
255.892	94.5
256.124	86.5
256.357	82.5
256.59	80.5
256.823	95.5
257.056	77.5
257.289	73.5
257.521	86.5
257.754	87.5
257.987	66.5
258.22	70.5
258.452	75.5
258.685	84.5
258.918	70.5
259.151	81.5
259.383	69.5
259.616	86.5
259.849	86.5
260.081	88.5
260.314	86.5
260.547	100.5
260.779	88.5
261.012	86.5
261.244	91.5
261.477	105.5
261.71	108.5
261.942	129.5
262.175	140.5
262.407	100.5
262.64	64.5
262.872	85.5
263.105	74.5
263.337	93.5
263.57	86.5
263.802	80.5
264.035	69.5
264.267	77.5
264.499	79.5
264.732	54.5
264.964	80.5
265.197	80.5
265.429	76.5
265.661	81.5
265.894	75.5
266.126	68.5
266.358	78.5
266.591	87.5
266.823	86.5
267.055	75.5
267.287	91.5
267.52	81.5
267.752	73.5
267.984	75.5
268.216	84.5
268.448	76.5
268.681	79.5
268.913	67.5
269.145	88.5
269.377	92.5
269.609	85.5
269.841	89.5
270.073	72.5
270.306	88.5
270.538	82.5
270.77	77.5
271.002	84.5
271.234	93.5
271.466	93.5
271.698	88.5
271.93	87.5
272.162	80.5
272.394	81.5
272.626	67.5
272.858	85.5
273.09	93.5
273.322	88.5
273.553	81.5
273.785	92.5
274.017	82.5
274.249	82.5
274.481	83.5
274.713	64.5
274.945	86.5
275.176	88.5
275.408	101.5
275.64	98.5
275.872	114.5
276.104	96.5
276.335	97.5
276.567	97.5
276.799	122.5
277.031	152.5
277.262	165.5
277.494	118.5
277.726	93.5
277.957	97.5
278.189	93.5
278.421	88.5
278.652	93.5
278.884	88.5
279.115	91.5
279.347	90.5
279.579	96.5
279.81	129.5
280.042	150.5
280.273	198.5
280.505	157.5
280.736	104.5
280.968	82.5
281.199	85.5
281.431	87.5
281.662	93.5
281.894	87.5
282.125	104.5
282.356	122.5
282.588	156.5
282.819	110.5
283.051	94.5
283.282	87.5
283.513	93.5
283.745	89.5
283.976	77.5
284.207	81.5
284.439	98.5
284.67	81.5
284.901	89.5
285.132	86.5
285.364	87.5
285.595	86.5
285.826	80.5
286.057	65.5
286.288	73.5
286.52	83.5
286.751	87.5
286.982	93.5
287.213	83.5
287.444	79.5
287.675	85.5
287.906	77.5
288.138	78.5
288.369	93.5
288.6	96.5
288.831	80.5
289.062	94.5
289.293	76.5
289.524	84.5
289.755	79.5
289.986	72.5
290.217	93.5
290.448	72.5
290.679	78.5
290.91	93.5
291.141	86.5
291.371	94.5
291.602	88.5
291.833	75.5
292.064	75.5
292.295	83.5
292.526	84.5
292.757	95.5
292.987	71.5
293.218	87.5
293.449	99.5
293.68	84.5
293.91	82.5
294.141	73.5
294.372	82.5
294.603	85.5
294.833	81.5
295.064	87.5
295.295	74.5
295.525	91.5
295.756	108.5
295.987	116.5
296.217	151.5
296.448	136.5
296.679	89.5
296.909	87.5
297.14	78.5
297.37	84.5
297.601	94.5
297.831	83.5
298.062	78.5
298.292	96.5
298.523	83.5
298.753	80.5
298.984	88.5
299.214	90.5
299.445	90.5
299.675	100.5
299.905	105.5
300.136	90.5
300.366	94.5
300.597	101.5
300.827	100.5
301.057	104.5
301.288	104.5
301.518	101.5
301.748	104.5
301.979	105.5
302.209	99.5
302.439	98.5
302.669	91.5
302.9	92.5
303.13	84.5
303.36	103.5
303.59	118.5
303.82	119.5
304.051	119.5
304.281	104.5
304.511	88.5
304.741	99.5
304.971	91.5
305.201	91.5
305.431	93.5
305.661	102.5
305.891	98.5
306.121	96.5
306.352	100.5
306.582	106.5
306.812	101.5
307.042	104.5
307.272	143.5
307.502	149.5
307.731	160.5
307.961	110.5
308.191	88.5
308.421	86.5
308.651	80.5
308.881	88.5
309.111	87.5
309.341	108.5
309.571	103.5
309.8	88.5
310.03	89.5
310.26	119.5
310.49	84.5
310.72	93.5
310.949	100.5
311.179	112.5
311.409	101.5
311.639	93.5
311.868	93.5
312.098	93.5
312.328	87.5
312.557	114.5
312.787	115.5
313.017	117.5
313.246	106.5
313.476	95.5
313.706	95.5
313.935	94.5
314.165	90.5
314.394	102.5
314.624	103.5
314.853	104.5
315.083	93.5
315.312	102.5
315.542	88.5
315.771	95.5
316.001	93.5
316.23	83.5
316.46	105.5
316.689	101.5
316.919	97.5
317.148	103.5
317.377	89.5
317.607	93.5
317.836	95.5
318.065	99.5
318.295	70.5
318.524	91.5
318.753	82.5
318.983	78.5
319.212	105.5
319.441	97.5
319.67	118.5
319.9	104.5
320.129	93.5
320.358	98.5
320.587	86.5
320.816	96.5
321.046	84.5
321.275	78.5
321.504	95.5
321.733	104.5
321.962	105.5
322.191	111.5
322.42	109.5
322.649	112.5
322.878	119.5
323.108	119.5
323.337	124.5
323.566	145.5
323.795	166.5
324.024	237.5
324.253	436.5
324.482	928.5
324.71	1944.5
324.939	2590.5
325.168	924.5
325.397	267.5
325.626	167.5
325.855	137.5
326.084	129.5
326.313	145.5
326.542	159.5
326.77	247.5
326.999	512.5
327.228	1034.5
327.457	1885.5
327.686	1515.5
327.914	490.5
328.143	442.5
328.372	542.5
328.6	311.5
328.829	153.5
329.058	168.5
329.287	184.5
329.515	149.5
329.744	209.5
329.972	384.5
330.201	768.5
330.43	1113.5
330.658	520.5
330.887	252.5
331.115	174.5
331.344	121.5
331.572	125.5
331.801	114.5
332.03	125.5
332.258	89.5
332.486	91.5
332.715	90.5
332.943	115.5
333.172	113.5
333.4	108.5
333.629	150.5
333.857	212.5
334.085	361.5
334.314	726.5
334.542	1395.5
334.771	1304.5
334.999	350.5
335.227	138.5
335.455	109.5
335.684	116.5
335.912	98.5
336.14	104.5
336.369	114.5
336.597	102.5
336.825	106.5
337.053	77.5
337.281	92.5
337.51	88.5
337.738	108.5
337.966	92.5
338.194	105.5
338.422	98.5
338.65	104.5
338.878	86.5
339.106	80.5
339.334	85.5
339.562	91.5
339.79	91.5
340.018	73.5
340.246	95.5
340.474	98.5
340.702	103.5
340.93	92.5
341.158	74.5
341.386	92.5
341.614	102.5
341.842	99.5
342.07	87.5
342.298	88.5
342.526	94.5
342.754	100.5
342.981	85.5
343.209	82.5
343.437	111.5
343.665	94.5
343.893	84.5
344.12	87.5
344.348	100.5
344.576	83.5
344.804	88.5
345.031	104.5
345.259	107.5
345.487	95.5
345.714	103.5
345.942	108.5
346.17	87.5
346.397	98.5
346.625	94.5
346.853	89.5
347.08	85.5
347.308	99.5
347.535	106.5
347.763	100.5
347.99	109.5
348.218	102.5
348.445	109.5
348.673	90.5
348.9	110.5
349.128	104.5
349.355	88.5
349.583	89.5
349.81	92.5
350.037	88.5
350.265	87.5
350.492	84.5
350.72	93.5
350.947	96.5
351.174	115.5
351.402	114.5
351.629	106.5
351.856	100.5
352.083	108.5
352.311	100.5
352.538	114.5
352.765	113.5
352.992	100.5
353.22	102.5
353.447	118.5
353.674	110.5
353.901	92.5
354.128	90.5
354.355	101.5
354.583	102.5
354.81	85.5
355.037	88.5
355.264	97.5
355.491	76.5
355.718	81.5
355.945	96.5
356.172	98.5
356.399	98.5
356.626	93.5
356.853	85.5
357.08	79.5
357.307	100.5
357.534	82.5
357.761	84.5
357.988	93.5
358.215	97.5
358.441	96.5
358.668	100.5
358.895	92.5
359.122	92.5
359.349	67.5
359.576	102.5
359.802	99.5
360.029	134.5
360.256	129.5
360.483	98.5
360.709	92.5
360.936	106.5
361.163	98.5
361.39	106.5
361.616	91.5
361.843	100.5
362.07	116.5
362.296	98.5
362.523	98.5
362.749	81.5
362.976	94.5
363.203	86.5
363.429	106.5
363.656	101.5
363.882	89.5
364.109	93.5
364.335	104.5
364.562	70.5
364.788	73.5
365.015	96.5
365.241	96.5
365.468	111.5
365.694	120.5
365.92	109.5
366.147	90.5
366.373	89.5
366.599	80.5
366.826	91.5
367.052	92.5
367.278	95.5
367.505	96.5
367.731	99.5
367.957	85.5
368.184	87.5
368.41	100.5
368.636	126.5
368.862	132.5
369.089	112.5
369.315	100.5
369.541	95.5
369.767	94.5
369.993	93.5
370.219	112.5
370.445	88.5
370.672	80.5
370.898	79.5
371.124	79.5
371.35	87.5
371.576	94.5
371.802	86.5
372.028	86.5
372.254	96.5
372.48	87.5
372.706	82.5
372.932	73.5
373.158	101.5
373.384	84.5
373.61	105.5
373.835	88.5
374.061	100.5
374.287	99.5
374.513	73.5
374.739	84.5
374.965	77.5
375.191	83.5
375.416	88.5
375.642	97.5
375.868	92.5
376.094	98.5
376.319	92.5
376.545	83.5
376.771	98.5
376.997	99.5
377.222	104.5
377.448	105.5
377.674	82.5
377.899	91.5
378.125	95.5
378.35	91.5
378.576	90.5
378.802	102.5
379.027	92.5
379.253	82.5
379.478	98.5
379.704	86.5
379.929	99.5
380.155	100.5
380.38	97.5
380.606	105.5
380.831	96.5
381.057	115.5
381.282	88.5
381.507	107.5
381.733	108.5
381.958	101.5
382.184	119.5
382.409	105.5
382.634	103.5
382.86	103.5
383.085	118.5
383.31	120.5
383.535	112.5
383.761	111.5
383.986	104.5
384.211	116.5
384.436	102.5
384.662	105.5
384.887	122.5
385.112	135.5
385.337	120.5
385.562	140.5
385.787	134.5
386.013	123.5
386.238	138.5
386.463	124.5
386.688	125.5
386.913	121.5
387.138	110.5
387.363	125.5
387.588	114.5
387.813	125.5
388.038	123.5
388.263	126.5
388.488	126.5
388.713	92.5
388.938	85.5
389.163	98.5
389.387	96.5
389.612	97.5
389.837	92.5
390.062	105.5
390.287	87.5
390.512	84.5
390.736	87.5
390.961	69.5
391.186	95.5
391.411	85.5
391.636	86.5
391.86	90.5
392.085	84.5
392.31	79.5
392.534	93.5
392.759	81.5
392.984	76.5
393.208	92.5
393.433	86.5
393.658	88.5
393.882	90.5
394.107	81.5
394.331	84.5
394.556	84.5
394.78	89.5
395.005	91.5
395.229	88.5
395.454	82.5
395.678	75.5
395.903	97.5
396.127	98.5
396.352	72.5
396.576	77.5
396.801	84.5
397.025	87.5
397.249	90.5
397.474	87.5
397.698	77.5
397.922	101.5
398.147	84.5
398.371	75.5
398.595	94.5
398.82	79.5
399.044	92.5
399.268	78.5
399.492	82.5
399.717	85.5
399.941	75.5
400.165	81.5
400.389	92.5
400.613	77.5
400.837	89.5
401.062	79.5
401.286	100.5
401.51	88.5
401.734	72.5
401.958	99.5
402.182	112.5
402.406	183.5
402.63	138.5
402.854	91.5
403.078	91.5
403.302	78.5
403.526	91.5
403.75	80.5
403.974	93.5
404.198	99.5
404.422	89.5
404.645	79.5
404.869	93.5
405.093	126.5
405.317	131.5
405.541	135.5
405.765	124.5
405.988	118.5
406.212	186.5
406.436	283.5
406.66	182.5
406.883	126.5
407.107	97.5
407.331	90.5
407.555	110.5
407.778	96.5
408.002	88.5
408.226	88.5
408.449	84.5
408.673	101.5
408.896	104.5
409.12	112.5
409.344	90.5
409.567	107.5
409.791	90.5
410.014	80.5
410.238	74.5
410.461	105.5
410.685	78.5
410.908	90.5
411.132	95.5
411.355	102.5
411.578	90.5
411.802	76.5
412.025	68.5
412.249	90.5
412.472	120.5
412.695	127.5
412.919	107.5
413.142	98.5
413.365	96.5
413.589	86.5
413.812	87.5
414.035	90.5
414.258	102.5
414.482	92.5
414.705	76.5
414.928	80.5
415.151	103.5
415.374	93.5
415.597	101.5
415.821	84.5
416.044	87.5
416.267	90.5
416.49	94.5
416.713	95.5
416.936	92.5
417.159	100.5
417.382	104.5
417.605	107.5
417.828	103.5
418.051	102.5
418.274	79.5
418.497	73.5
418.72	88.5
418.943	94.5
419.166	91.5
419.389	102.5
419.611	85.5
419.834	93.5
420.057	80.5
420.28	89.5
420.503	96.5
420.726	94.5
420.948	94.5
421.171	91.5
421.394	111.5
421.617	79.5
421.839	92.5
422.062	86.5
422.285	96.5
422.507	106.5
422.73	111.5
422.953	85.5
423.175	91.5
423.398	89.5
423.621	92.5
423.843	84.5
424.066	71.5
424.288	87.5
424.511	89.5
424.733	76.5
424.956	104.5
425.178	102.5
425.401	107.5
425.623	107.5
425.846	90.5
426.068	104.5
426.291	90.5
426.513	97.5
426.735	88.5
426.958	88.5
427.18	97.5
427.402	162.5
427.625	222.5
427.847	215.5
428.069	198.5
428.292	116.5
428.514	100.5
428.736	87.5
428.958	83.5
429.181	85.5
429.403	75.5
429.625	80.5
429.847	99.5
430.069	100.5
430.292	79.5
430.514	92.5
430.736	99.5
430.958	64.5
431.18	83.5
431.402	83.5
431.624	76.5
431.846	88.5
432.068	81.5
432.29	80.5
432.512	83.5
432.734	86.5
432.956	87.5
433.178	86.5
433.4	96.5
433.622	94.5
433.844	89.5
434.066	98.5
434.287	90.5
434.509	81.5
434.731	71.5
434.953	86.5
435.175	92.5
435.397	85.5
435.618	103.5
435.84	94.5
436.062	137.5
436.284	115.5
436.505	105.5
436.727	107.5
436.949	96.5
437.17	85.5
437.392	102.5
437.614	98.5
437.835	114.5
438.057	149.5
438.278	127.5
438.5	114.5
438.721	134.5
438.943	92.5
439.165	105.5
439.386	84.5
439.608	96.5
439.829	100.5
440.05	135.5
440.272	182.5
440.493	105.5
440.715	93.5
440.936	88.5
441.158	66.5
441.379	76.5
441.6	110.5
441.822	102.5
442.043	104.5
442.264	120.5
442.486	106.5
442.707	98.5
442.928	124.5
443.149	168.5
443.371	166.5
443.592	126.5
443.813	117.5
444.034	121.5
444.255	95.5
444.476	81.5
444.698	81.5
444.919	101.5
445.14	154.5
445.361	125.5
445.582	129.5
445.803	171.5
446.024	173.5
446.245	166.5
446.466	131.5
446.687	85.5
446.908	73.5
447.129	86.5
447.35	85.5
447.571	96.5
447.792	93.5
448.013	115.5
448.234	99.5
448.455	95.5
448.675	122.5
448.896	127.5
449.117	106.5
449.338	97.5
449.559	135.5
449.779	164.5
450	87.5
450.221	83.5
450.442	92.5
450.662	92.5
450.883	129.5
451.104	128.5
451.324	94.5
451.545	92.5
451.766	90.5
451.986	82.5
452.207	87.5
452.428	84.5
452.648	97.5
452.869	121.5
453.089	140.5
453.31	141.5
453.53	93.5
453.751	84.5
453.971	120.5
454.192	125.5
454.412	96.5
454.633	87.5
454.853	85.5
455.073	76.5
455.294	88.5
455.514	94.5
455.734	104.5
455.955	71.5
456.175	84.5
456.395	94.5
456.616	84.5
456.836	81.5
457.056	82.5
457.276	89.5
457.497	83.5
457.717	82.5
457.937	82.5
458.157	85.5
458.377	91.5
458.598	112.5
458.818	197.5
459.038	193.5
459.258	141.5
459.478	92.5
459.698	90.5
459.918	82.5
460.138	94.5
460.358	86.5
460.578	84.5
460.798	89.5
461.018	93.5
461.238	80.5
461.458	86.5
461.678	89.5
461.898	88.5
462.118	83.5
462.338	97.5
462.558	91.5
462.777	92.5
462.997	88.5
463.217	101.5
463.437	94.5
463.657	92.5
463.876	98.5
464.096	88.5
464.316	95.5
464.536	87.5
464.755	91.5
464.975	113.5
465.195	209.5
465.414	223.5
465.634	101.5
465.854	78.5
466.073	88.5
466.293	85.5
466.512	82.5
466.732	87.5
466.951	104.5
467.171	97.5
467.391	111.5
467.61	127.5
467.829	186.5
468.049	458.5
468.268	660.5
468.488	180.5
468.707	122.5
468.927	95.5
469.146	105.5
469.365	88.5
469.585	110.5
469.804	109.5
470.023	104.5
470.243	102.5
470.462	108.5
470.681	121.5
470.901	101.5
471.12	101.5
471.339	105.5
471.558	110.5
471.777	132.5
471.997	229.5
472.216	850.5
472.435	2004.5
472.654	476.5
472.873	132.5
473.092	99.5
473.311	93.5
473.53	86.5
473.749	85.5
473.968	76.5
474.187	109.5
474.406	105.5
474.625	104.5
474.844	96.5
475.063	90.5
475.282	100.5
475.501	78.5
475.72	87.5
475.939	85.5
476.158	88.5
476.377	85.5
476.596	91.5
476.814	97.5
477.033	97.5
477.252	92.5
477.471	83.5
477.69	80.5
477.908	100.5
478.127	92.5
478.346	100.5
478.564	92.5
478.783	113.5
479.002	109.5
479.22	106.5
479.439	107.5
479.658	125.5
479.876	105.5
480.095	111.5
480.313	117.5
480.532	139.5
480.751	232.5
480.969	826.5
481.188	3393.5
481.406	1881.5
481.624	283.5
481.843	120.5
482.061	108.5
482.28	104.5
482.498	84.5
482.717	88.5
482.935	97.5
483.153	82.5
483.372	82.5
483.59	95.5
483.808	92.5
484.027	81.5
484.245	92.5
484.463	95.5
484.681	109.5
484.9	90.5
485.118	82.5
485.336	96.5
485.554	112.5
485.772	97.5
485.99	116.5
486.209	105.5
486.427	125.5
486.645	111.5
486.863	116.5
487.081	103.5
487.299	104.5
487.517	108.5
487.735	99.5
487.953	84.5
488.171	103.5
488.389	92.5
488.607	98.5
488.825	83.5
489.043	87.5
489.261	97.5
489.479	94.5
489.696	78.5
489.914	64.5
490.132	91.5
490.35	93.5
490.568	93.5
490.786	93.5
491.003	74.5
491.221	93.5
491.439	91.5
491.657	101.5
491.874	92.5
492.092	88.5
492.31	105.5
492.527	87.5
492.745	93.5
492.963	91.5
493.18	87.5
493.398	84.5
493.615	88.5
493.833	86.5
494.05	96.5
494.268	84.5
494.485	83.5
494.703	91.5
494.92	90.5
495.138	89.5
495.355	88.5
495.573	94.5
495.79	90.5
496.008	90.5
496.225	92.5
496.442	86.5
496.66	94.5
496.877	90.5
497.094	101.5
497.312	87.5
497.529	92.5
497.746	91.5
497.963	110.5
498.181	106.5
498.398	97.5
498.615	113.5
498.832	110.5
499.049	95.5
499.267	82.5
499.484	90.5
499.701	104.5
499.918	97.5
500.135	91.5
500.352	98.5
500.569	99.5
500.786	90.5
501.003	99.5
501.22	104.5
501.437	92.5
501.654	110.5
501.871	108.5
502.088	94.5
502.305	95.5
502.522	87.5
502.739	83.5
502.956	101.5
503.172	87.5
503.389	98.5
503.606	123.5
503.823	105.5
504.04	91.5
504.256	76.5
504.473	76.5
504.69	84.5
504.907	81.5
505.123	81.5
505.34	81.5
505.557	85.5
505.773	95.5
505.99	88.5
506.207	87.5
506.423	76.5
506.64	77.5
506.856	72.5
507.073	84.5
507.289	83.5
507.506	103.5
507.722	109.5
507.939	115.5
508.155	94.5
508.372	82.5
508.588	92.5
508.805	89.5
509.021	95.5
509.238	97.5
509.454	98.5
509.67	102.5
509.887	93.5
510.103	136.5
510.319	225.5
510.536	809.5
510.752	2799.5
510.968	764.5
511.184	168.5
511.401	134.5
511.617	109.5
511.833	105.5
512.049	87.5
512.265	97.5
512.481	81.5
512.698	91.5
512.914	95.5
513.13	97.5
513.346	103.5
513.562	107.5
513.778	104.5
513.994	104.5
514.21	113.5
514.426	113.5
514.642	173.5
514.858	147.5
515.074	204.5
515.29	622.5
515.506	2205.5
515.721	749.5
515.937	196.5
516.153	137.5
516.369	106.5
516.585	110.5
516.801	116.5
517.016	102.5
517.232	87.5
517.448	100.5
517.664	93.5
517.879	89.5
518.095	94.5
518.311	96.5
518.527	82.5
518.742	86.5
518.958	102.5
519.173	96.5
519.389	84.5
519.605	88.5
519.82	95.5
520.036	112.5
520.251	131.5
520.467	132.5
520.682	122.5
520.898	111.5
521.113	136.5
521.329	166.5
521.544	270.5
521.76	794.5
521.975	3706.5
522.19	2189.5
522.406	437.5
522.621	148.5
522.836	120.5
523.052	110.5
523.267	109.5
523.482	90.5
523.698	116.5
523.913	128.5
524.128	121.5
524.343	106.5
524.559	84.5
524.774	83.5
524.989	86.5
525.204	113.5
525.419	122.5
525.634	98.5
525.849	101.5
526.064	102.5
526.28	84.5
526.495	94.5
526.71	106.5
526.925	79.5
527.14	104.5
527.355	87.5
527.57	85.5
527.785	96.5
527.999	94.5
528.214	108.5
528.429	99.5
528.644	96.5
528.859	88.5
529.074	93.5
529.289	133.5
529.503	245.5
529.718	113.5
529.933	107.5
530.148	82.5
530.363	99.5
530.577	84.5
530.792	78.5
531.007	88.5
531.221	91.5
531.436	88.5
531.651	95.5
531.865	89.5
532.08	93.5
532.295	90.5
532.509	86.5
532.724	82.5
532.938	101.5
533.153	100.5
