Data from Circ_1995_H10_HRD10591_00063.txt Node
Date: Wed Jan 03 11:36:59 EST 2024
User: Yrep
Spectrometer: HR+D1059
Trigger mode: 1
Integration Time (sec): 1.000000E-1
Scans to average: 1
Electric dark correction enabled: true
Nonlinearity correction enabled: false
Boxcar width: 0
XAxis mode: Wavelengths
Number of Pixels in Spectrum: 2048
>>>>>Begin Spectral Data<<<<<
223.165	-10.44
223.4	-10.44
223.635	-10.44
223.869	-28.44
224.104	-21.44
224.338	-14.44
224.573	-19.44
224.808	-2.44
225.042	-9.44
225.277	-3.44
225.511	12.56
225.746	3.56
225.98	2.56
226.215	4.56
226.449	13.56
226.683	17.56
226.918	30.56
227.152	24.56
227.387	31.56
227.621	38.56
227.856	46.56
228.09	46.56
228.324	61.56
228.559	68.56
228.793	70.56
229.027	59.56
229.262	72.56
229.496	73.56
229.73	96.56
229.964	108.56
230.199	80.56
230.433	76.56
230.667	80.56
230.901	87.56
231.136	84.56
231.37	86.56
231.604	84.56
231.838	103.56
232.072	77.56
232.306	79.56
232.541	95.56
232.775	74.56
233.009	97.56
233.243	80.56
233.477	86.56
233.711	95.56
233.945	93.56
234.179	88.56
234.413	86.56
234.647	89.56
234.881	79.56
235.115	83.56
235.349	98.56
235.583	91.56
235.817	90.56
236.051	91.56
236.285	82.56
236.519	80.56
236.753	76.56
236.987	75.56
237.221	95.56
237.455	98.56
237.689	82.56
237.922	82.56
238.156	81.56
238.39	82.56
238.624	81.56
238.858	74.56
239.091	87.56
239.325	82.56
239.559	94.56
239.793	89.56
240.027	78.56
240.26	85.56
240.494	89.56
240.728	81.56
240.961	83.56
241.195	76.56
241.429	82.56
241.662	76.56
241.896	75.56
242.13	96.56
242.363	83.56
242.597	82.56
242.83	77.56
243.064	77.56
243.298	82.56
243.531	90.56
243.765	80.56
243.998	74.56
244.232	93.56
244.465	87.56
244.699	82.56
244.932	88.56
245.166	90.56
245.399	84.56
245.633	91.56
245.866	79.56
246.099	83.56
246.333	97.56
246.566	93.56
246.8	70.56
247.033	83.56
247.266	84.56
247.5	93.56
247.733	67.56
247.966	70.56
248.2	86.56
248.433	94.56
248.666	96.56
248.899	83.56
249.133	91.56
249.366	122.56
249.599	117.56
249.832	92.56
250.066	88.56
250.299	83.56
250.532	78.56
250.765	96.56
250.998	78.56
251.231	81.56
251.465	70.56
251.698	92.56
251.931	98.56
252.164	92.56
252.397	76.56
252.63	82.56
252.863	81.56
253.096	75.56
253.329	80.56
253.562	74.56
253.795	80.56
254.028	89.56
254.261	87.56
254.494	93.56
254.727	94.56
254.96	95.56
255.193	92.56
255.426	89.56
255.659	91.56
255.892	88.56
256.124	101.56
256.357	93.56
256.59	95.56
256.823	84.56
257.056	93.56
257.289	94.56
257.521	101.56
257.754	95.56
257.987	106.56
258.22	113.56
258.452	109.56
258.685	95.56
258.918	87.56
259.151	86.56
259.383	78.56
259.616	85.56
259.849	80.56
260.081	103.56
260.314	85.56
260.547	89.56
260.779	110.56
261.012	116.56
261.244	122.56
261.477	109.56
261.71	99.56
261.942	143.56
262.175	165.56
262.407	117.56
262.64	93.56
262.872	84.56
263.105	96.56
263.337	98.56
263.57	93.56
263.802	87.56
264.035	81.56
264.267	80.56
264.499	73.56
264.732	74.56
264.964	89.56
265.197	86.56
265.429	91.56
265.661	79.56
265.894	86.56
266.126	81.56
266.358	93.56
266.591	87.56
266.823	82.56
267.055	78.56
267.287	93.56
267.52	84.56
267.752	96.56
267.984	82.56
268.216	89.56
268.448	87.56
268.681	98.56
268.913	94.56
269.145	100.56
269.377	79.56
269.609	71.56
269.841	99.56
270.073	84.56
270.306	75.56
270.538	98.56
270.77	90.56
271.002	94.56
271.234	90.56
271.466	92.56
271.698	91.56
271.93	91.56
272.162	96.56
272.394	96.56
272.626	108.56
272.858	94.56
273.09	93.56
273.322	89.56
273.553	83.56
273.785	95.56
274.017	102.56
274.249	109.56
274.481	97.56
274.713	91.56
274.945	93.56
275.176	91.56
275.408	122.56
275.64	124.56
275.872	148.56
276.104	110.56
276.335	118.56
276.567	134.56
276.799	165.56
277.031	201.56
277.262	255.56
277.494	191.56
277.726	125.56
277.957	93.56
278.189	101.56
278.421	115.56
278.652	92.56
278.884	93.56
279.115	87.56
279.347	86.56
279.579	112.56
279.81	133.56
280.042	248.56
280.273	355.56
280.505	231.56
280.736	110.56
280.968	98.56
281.199	107.56
281.431	91.56
281.662	97.56
281.894	79.56
282.125	111.56
282.356	144.56
282.588	201.56
282.819	141.56
283.051	90.56
283.282	92.56
283.513	87.56
283.745	94.56
283.976	82.56
284.207	90.56
284.439	98.56
284.67	106.56
284.901	84.56
285.132	78.56
285.364	86.56
285.595	77.56
285.826	89.56
286.057	99.56
286.288	98.56
286.52	88.56
286.751	95.56
286.982	109.56
287.213	92.56
287.444	98.56
287.675	94.56
287.906	93.56
288.138	102.56
288.369	98.56
288.6	100.56
288.831	102.56
289.062	96.56
289.293	97.56
289.524	91.56
289.755	97.56
289.986	88.56
290.217	93.56
290.448	90.56
290.679	97.56
290.91	97.56
291.141	100.56
291.371	107.56
291.602	96.56
291.833	85.56
292.064	98.56
292.295	89.56
292.526	93.56
292.757	97.56
292.987	91.56
293.218	83.56
293.449	85.56
293.68	102.56
293.91	90.56
294.141	86.56
294.372	102.56
294.603	112.56
294.833	85.56
295.064	98.56
295.295	99.56
295.525	102.56
295.756	120.56
295.987	128.56
296.217	188.56
296.448	151.56
296.679	114.56
296.909	95.56
297.14	93.56
297.37	90.56
297.601	99.56
297.831	103.56
298.062	98.56
298.292	110.56
298.523	105.56
298.753	102.56
298.984	99.56
299.214	90.56
299.445	103.56
299.675	90.56
299.905	98.56
300.136	95.56
300.366	99.56
300.597	97.56
300.827	95.56
301.057	98.56
301.288	130.56
301.518	110.56
301.748	89.56
301.979	124.56
302.209	109.56
302.439	106.56
302.669	98.56
302.9	101.56
303.13	91.56
303.36	102.56
303.59	151.56
303.82	182.56
304.051	123.56
304.281	93.56
304.511	111.56
304.741	93.56
304.971	90.56
305.201	88.56
305.431	93.56
305.661	93.56
305.891	95.56
306.121	109.56
306.352	108.56
306.582	122.56
306.812	128.56
307.042	142.56
307.272	185.56
307.502	209.56
307.731	213.56
307.961	143.56
308.191	102.56
308.421	99.56
308.651	93.56
308.881	101.56
309.111	103.56
309.341	113.56
309.571	112.56
309.8	110.56
310.03	113.56
310.26	109.56
310.49	113.56
310.72	120.56
310.949	144.56
311.179	114.56
311.409	111.56
311.639	100.56
311.868	113.56
312.098	107.56
312.328	126.56
312.557	116.56
312.787	147.56
313.017	122.56
313.246	108.56
313.476	106.56
313.706	97.56
313.935	113.56
314.165	116.56
314.394	115.56
314.624	105.56
314.853	108.56
315.083	102.56
315.312	106.56
315.542	95.56
315.771	98.56
316.001	94.56
316.23	98.56
316.46	93.56
316.689	110.56
316.919	100.56
317.148	102.56
317.377	102.56
317.607	114.56
317.836	103.56
318.065	94.56
318.295	95.56
318.524	98.56
318.753	99.56
318.983	89.56
319.212	129.56
319.441	141.56
319.67	121.56
319.9	99.56
320.129	101.56
320.358	101.56
320.587	119.56
320.816	113.56
321.046	126.56
321.275	115.56
321.504	111.56
321.733	103.56
321.962	110.56
322.191	121.56
322.42	129.56
322.649	131.56
322.878	127.56
323.108	141.56
323.337	166.56
323.566	178.56
323.795	195.56
324.024	261.56
324.253	514.56
324.482	1196.56
324.71	2428.56
324.939	3240.56
325.168	1168.56
325.397	333.56
325.626	167.56
325.855	154.56
326.084	171.56
326.313	154.56
326.542	183.56
326.77	303.56
326.999	599.56
327.228	1245.56
327.457	2300.56
327.686	1829.56
327.914	669.56
328.143	717.56
328.372	940.56
328.6	511.56
328.829	238.56
329.058	233.56
329.287	234.56
329.515	215.56
329.744	313.56
329.972	645.56
330.201	1405.56
330.43	2095.56
330.658	893.56
330.887	382.56
331.115	230.56
331.344	136.56
331.572	133.56
331.801	142.56
332.03	145.56
332.258	124.56
332.486	111.56
332.715	120.56
332.943	123.56
333.172	154.56
333.4	152.56
333.629	203.56
333.857	288.56
334.085	588.56
334.314	1257.56
334.542	2528.56
334.771	2366.56
334.999	583.56
335.227	219.56
335.455	153.56
335.684	138.56
335.912	127.56
336.14	110.56
336.369	121.56
336.597	109.56
336.825	119.56
337.053	110.56
337.281	106.56
337.51	94.56
337.738	96.56
337.966	93.56
338.194	115.56
338.422	122.56
338.65	101.56
338.878	113.56
339.106	99.56
339.334	113.56
339.562	97.56
339.79	103.56
340.018	107.56
340.246	102.56
340.474	97.56
340.702	120.56
340.93	100.56
341.158	102.56
341.386	100.56
341.614	97.56
341.842	109.56
342.07	101.56
342.298	109.56
342.526	87.56
342.754	91.56
342.981	93.56
343.209	93.56
343.437	106.56
343.665	89.56
343.893	99.56
344.12	100.56
344.348	101.56
344.576	91.56
344.804	123.56
345.031	126.56
345.259	130.56
345.487	129.56
345.714	107.56
345.942	116.56
346.17	97.56
346.397	105.56
346.625	91.56
346.853	94.56
347.08	105.56
347.308	111.56
347.535	115.56
347.763	119.56
347.99	123.56
348.218	118.56
348.445	132.56
348.673	119.56
348.9	117.56
349.128	102.56
349.355	80.56
349.583	101.56
349.81	90.56
350.037	96.56
350.265	99.56
350.492	105.56
350.72	107.56
350.947	112.56
351.174	125.56
351.402	127.56
351.629	111.56
351.856	112.56
352.083	126.56
352.311	129.56
352.538	135.56
352.765	118.56
352.992	131.56
353.22	131.56
353.447	116.56
353.674	121.56
353.901	89.56
354.128	109.56
354.355	94.56
354.583	113.56
354.81	107.56
355.037	106.56
355.264	110.56
355.491	95.56
355.718	93.56
355.945	112.56
356.172	93.56
356.399	99.56
356.626	95.56
356.853	102.56
357.08	91.56
357.307	103.56
357.534	112.56
357.761	98.56
357.988	101.56
358.215	97.56
358.441	86.56
358.668	86.56
358.895	91.56
359.122	109.56
359.349	105.56
359.576	100.56
359.802	112.56
360.029	150.56
360.256	149.56
360.483	133.56
360.709	104.56
360.936	98.56
361.163	112.56
361.39	111.56
361.616	103.56
361.843	99.56
362.07	111.56
362.296	107.56
362.523	116.56
362.749	110.56
362.976	91.56
363.203	112.56
363.429	94.56
363.656	105.56
363.882	92.56
364.109	92.56
364.335	94.56
364.562	98.56
364.788	108.56
365.015	111.56
365.241	115.56
365.468	125.56
365.694	125.56
365.92	121.56
366.147	110.56
366.373	113.56
366.599	91.56
366.826	93.56
367.052	105.56
367.278	90.56
367.505	96.56
367.731	109.56
367.957	102.56
368.184	113.56
368.41	115.56
368.636	126.56
368.862	139.56
369.089	115.56
369.315	107.56
369.541	114.56
369.767	86.56
369.993	110.56
370.219	103.56
370.445	100.56
370.672	91.56
370.898	89.56
371.124	86.56
371.35	89.56
371.576	86.56
371.802	87.56
372.028	80.56
372.254	90.56
372.48	93.56
372.706	87.56
372.932	96.56
373.158	97.56
373.384	104.56
373.61	102.56
373.835	95.56
374.061	90.56
374.287	106.56
374.513	95.56
374.739	104.56
374.965	94.56
375.191	98.56
375.416	89.56
375.642	98.56
375.868	96.56
376.094	97.56
376.319	95.56
376.545	85.56
376.771	92.56
376.997	103.56
377.222	99.56
377.448	101.56
377.674	92.56
377.899	90.56
378.125	96.56
378.35	87.56
378.576	89.56
378.802	96.56
379.027	92.56
379.253	96.56
379.478	92.56
379.704	92.56
379.929	106.56
380.155	96.56
380.38	91.56
380.606	118.56
380.831	85.56
381.057	96.56
381.282	93.56
381.507	92.56
381.733	100.56
381.958	94.56
382.184	96.56
382.409	99.56
382.634	106.56
382.86	99.56
383.085	100.56
383.31	92.56
383.535	94.56
383.761	101.56
383.986	92.56
384.211	94.56
384.436	111.56
384.662	106.56
384.887	92.56
385.112	95.56
385.337	123.56
385.562	94.56
385.787	110.56
386.013	130.56
386.238	135.56
386.463	112.56
386.688	118.56
386.913	111.56
387.138	103.56
387.363	103.56
387.588	92.56
387.813	90.56
388.038	111.56
388.263	116.56
388.488	106.56
388.713	99.56
388.938	98.56
389.163	80.56
389.387	99.56
389.612	88.56
389.837	101.56
390.062	95.56
390.287	78.56
390.512	78.56
390.736	89.56
390.961	85.56
391.186	103.56
391.411	117.56
391.636	92.56
391.86	76.56
392.085	78.56
392.31	79.56
392.534	83.56
392.759	88.56
392.984	92.56
393.208	94.56
393.433	101.56
393.658	97.56
393.882	105.56
394.107	92.56
394.331	79.56
394.556	86.56
394.78	95.56
395.005	81.56
395.229	75.56
395.454	99.56
395.678	99.56
395.903	88.56
396.127	78.56
396.352	98.56
396.576	102.56
396.801	87.56
397.025	90.56
397.249	94.56
397.474	94.56
397.698	102.56
397.922	98.56
398.147	92.56
398.371	85.56
398.595	90.56
398.82	79.56
399.044	94.56
399.268	78.56
399.492	95.56
399.717	88.56
399.941	86.56
400.165	99.56
400.389	103.56
400.613	93.56
400.837	89.56
401.062	95.56
401.286	100.56
401.51	98.56
401.734	106.56
401.958	118.56
402.182	164.56
402.406	223.56
402.63	161.56
402.854	120.56
403.078	92.56
403.302	94.56
403.526	92.56
403.75	103.56
403.974	87.56
404.198	100.56
404.422	101.56
404.645	94.56
404.869	113.56
405.093	129.56
405.317	166.56
405.541	157.56
405.765	116.56
405.988	154.56
406.212	257.56
406.436	359.56
406.66	243.56
406.883	126.56
407.107	110.56
407.331	101.56
407.555	103.56
407.778	109.56
408.002	107.56
408.226	99.56
408.449	102.56
408.673	85.56
408.896	107.56
409.12	108.56
409.344	89.56
409.567	91.56
409.791	91.56
410.014	104.56
410.238	102.56
410.461	103.56
410.685	88.56
410.908	100.56
411.132	109.56
411.355	108.56
411.578	86.56
411.802	86.56
412.025	97.56
412.249	109.56
412.472	145.56
412.695	149.56
412.919	110.56
413.142	104.56
413.365	94.56
413.589	94.56
413.812	89.56
414.035	89.56
414.258	92.56
414.482	87.56
414.705	91.56
414.928	95.56
415.151	84.56
415.374	99.56
415.597	90.56
415.821	109.56
416.044	97.56
416.267	98.56
416.49	89.56
416.713	92.56
416.936	85.56
417.159	92.56
417.382	123.56
417.605	121.56
417.828	128.56
418.051	118.56
418.274	110.56
418.497	84.56
418.72	101.56
418.943	88.56
419.166	95.56
419.389	95.56
419.611	111.56
419.834	97.56
420.057	86.56
420.28	94.56
420.503	108.56
420.726	91.56
420.948	99.56
421.171	119.56
421.394	116.56
421.617	83.56
421.839	93.56
422.062	85.56
422.285	96.56
422.507	103.56
422.73	110.56
422.953	106.56
423.175	94.56
423.398	93.56
423.621	97.56
423.843	99.56
424.066	95.56
424.288	93.56
424.511	82.56
424.733	98.56
424.956	119.56
425.178	107.56
425.401	111.56
425.623	114.56
425.846	93.56
426.068	111.56
426.291	107.56
426.513	98.56
426.735	102.56
426.958	114.56
427.18	126.56
427.402	185.56
427.625	302.56
427.847	286.56
428.069	260.56
428.292	135.56
428.514	95.56
428.736	83.56
428.958	86.56
429.181	93.56
429.403	77.56
429.625	98.56
429.847	93.56
430.069	129.56
430.292	97.56
430.514	89.56
430.736	98.56
430.958	86.56
431.18	85.56
431.402	89.56
431.624	106.56
431.846	94.56
432.068	87.56
432.29	98.56
432.512	98.56
432.734	109.56
432.956	101.56
433.178	113.56
433.4	111.56
433.622	82.56
433.844	86.56
434.066	104.56
434.287	96.56
434.509	87.56
434.731	113.56
434.953	111.56
435.175	102.56
435.397	97.56
435.618	106.56
435.84	114.56
436.062	149.56
436.284	123.56
436.505	125.56
436.727	105.56
436.949	109.56
437.17	96.56
437.392	90.56
437.614	97.56
437.835	131.56
438.057	167.56
438.278	134.56
438.5	129.56
438.721	148.56
438.943	119.56
439.165	94.56
439.386	109.56
439.608	107.56
439.829	111.56
440.05	158.56
440.272	210.56
440.493	103.56
440.715	93.56
440.936	91.56
441.158	93.56
441.379	101.56
441.6	115.56
441.822	109.56
442.043	113.56
442.264	119.56
442.486	114.56
442.707	99.56
442.928	135.56
443.149	192.56
443.371	195.56
443.592	146.56
443.813	147.56
444.034	132.56
444.255	107.56
444.476	83.56
444.698	89.56
444.919	99.56
445.14	143.56
445.361	151.56
445.582	144.56
445.803	208.56
446.024	189.56
446.245	177.56
446.466	128.56
446.687	113.56
446.908	90.56
447.129	97.56
447.35	102.56
447.571	121.56
447.792	86.56
448.013	113.56
448.234	140.56
448.455	122.56
448.675	130.56
448.896	133.56
449.117	110.56
449.338	106.56
449.559	164.56
449.779	151.56
450	102.56
450.221	91.56
450.442	96.56
450.662	109.56
450.883	145.56
451.104	161.56
451.324	132.56
451.545	90.56
451.766	99.56
451.986	89.56
452.207	101.56
452.428	114.56
452.648	137.56
452.869	137.56
453.089	148.56
453.31	143.56
453.53	111.56
453.751	117.56
453.971	138.56
454.192	162.56
454.412	127.56
454.633	106.56
454.853	82.56
455.073	107.56
455.294	86.56
455.514	113.56
455.734	95.56
455.955	80.56
456.175	91.56
456.395	86.56
456.616	86.56
456.836	79.56
457.056	99.56
457.276	93.56
457.497	93.56
457.717	92.56
457.937	90.56
458.157	99.56
458.377	102.56
458.598	137.56
458.818	242.56
459.038	265.56
459.258	175.56
459.478	109.56
459.698	83.56
459.918	97.56
460.138	83.56
460.358	86.56
460.578	77.56
460.798	91.56
461.018	103.56
461.238	79.56
461.458	76.56
461.678	80.56
461.898	95.56
462.118	94.56
462.338	91.56
462.558	87.56
462.777	101.56
462.997	109.56
463.217	139.56
463.437	101.56
463.657	101.56
463.876	98.56
464.096	103.56
464.316	114.56
464.536	116.56
464.755	118.56
464.975	144.56
465.195	283.56
465.414	268.56
465.634	134.56
465.854	85.56
466.073	95.56
466.293	94.56
466.512	92.56
466.732	90.56
466.951	94.56
467.171	107.56
467.391	123.56
467.61	179.56
467.829	281.56
468.049	797.56
468.268	1253.56
468.488	286.56
468.707	126.56
468.927	98.56
469.146	107.56
469.365	98.56
469.585	96.56
469.804	107.56
470.023	134.56
470.243	109.56
470.462	122.56
470.681	162.56
470.901	125.56
471.12	120.56
471.339	135.56
471.558	142.56
471.777	197.56
471.997	387.56
472.216	1529.56
472.435	3624.56
472.654	797.56
472.873	189.56
473.092	121.56
473.311	92.56
473.53	102.56
473.749	103.56
473.968	124.56
474.187	118.56
474.406	122.56
474.625	93.56
474.844	89.56
475.063	89.56
475.282	90.56
475.501	93.56
475.72	86.56
475.939	93.56
476.158	98.56
476.377	105.56
476.596	103.56
476.814	114.56
477.033	109.56
477.252	94.56
477.471	105.56
477.69	97.56
477.908	105.56
478.127	100.56
478.346	105.56
478.564	118.56
478.783	129.56
479.002	107.56
479.22	129.56
479.439	140.56
479.658	150.56
479.876	148.56
480.095	132.56
480.313	148.56
480.532	194.56
480.751	366.56
480.969	1368.56
481.188	6043.56
481.406	3407.56
481.624	475.56
481.843	163.56
482.061	119.56
482.28	113.56
482.498	98.56
482.717	103.56
482.935	108.56
483.153	105.56
483.372	109.56
483.59	99.56
483.808	91.56
484.027	106.56
484.245	106.56
484.463	104.56
484.681	108.56
484.9	106.56
485.118	109.56
485.336	115.56
485.554	101.56
485.772	90.56
485.99	112.56
486.209	93.56
486.427	114.56
486.645	121.56
486.863	138.56
487.081	115.56
487.299	105.56
487.517	99.56
487.735	97.56
487.953	94.56
488.171	81.56
488.389	101.56
488.607	93.56
488.825	102.56
489.043	98.56
489.261	82.56
489.479	86.56
489.696	86.56
489.914	85.56
490.132	79.56
490.35	85.56
490.568	88.56
490.786	103.56
491.003	78.56
491.221	94.56
491.439	109.56
491.657	103.56
491.874	98.56
492.092	89.56
492.31	102.56
492.527	110.56
492.745	113.56
492.963	94.56
493.18	100.56
493.398	97.56
493.615	105.56
493.833	115.56
494.05	89.56
494.268	86.56
494.485	95.56
494.703	96.56
494.92	92.56
495.138	86.56
495.355	104.56
495.573	98.56
495.79	86.56
496.008	104.56
496.225	113.56
496.442	99.56
496.66	104.56
496.877	97.56
497.094	115.56
497.312	86.56
497.529	90.56
497.746	96.56
497.963	103.56
498.181	91.56
498.398	110.56
498.615	122.56
498.832	118.56
499.049	89.56
499.267	97.56
499.484	84.56
499.701	100.56
499.918	98.56
500.135	96.56
500.352	102.56
500.569	110.56
500.786	102.56
501.003	87.56
501.22	92.56
501.437	117.56
501.654	113.56
501.871	137.56
502.088	111.56
502.305	106.56
502.522	94.56
502.739	89.56
502.956	98.56
503.172	98.56
503.389	106.56
503.606	146.56
503.823	116.56
504.04	107.56
504.256	97.56
504.473	89.56
504.69	109.56
504.907	102.56
505.123	101.56
505.34	94.56
505.557	85.56
505.773	108.56
505.99	101.56
506.207	108.56
506.423	95.56
506.64	101.56
506.856	109.56
507.073	95.56
507.289	107.56
507.506	110.56
507.722	142.56
507.939	146.56
508.155	102.56
508.372	102.56
508.588	91.56
508.805	109.56
509.021	103.56
509.238	95.56
509.454	95.56
509.67	121.56
509.887	128.56
510.103	145.56
510.319	262.56
510.536	1024.56
510.752	3801.56
