Data from Circ_1995_H10_HRD10591_00004.txt Node
Date: Wed Jan 03 11:36:47 EST 2024
User: Yrep
Spectrometer: HR+D1059
Trigger mode: 1
Integration Time (sec): 1.000000E-1
Scans to average: 1
Electric dark correction enabled: true
Nonlinearity correction enabled: false
Boxcar width: 0
XAxis mode: Wavelengths
Number of Pixels in Spectrum: 2048
>>>>>Begin Spectral Data<<<<<
223.165	-22.12
223.4	-22.12
223.635	-22.12
223.869	-20.12
224.104	-9.12
224.338	-23.12
224.573	-13.12
224.808	-13.12
225.042	-9.12
225.277	-9.12
225.511	-9.12
225.746	3.88
225.98	22.88
226.215	13.88
226.449	13.88
226.683	21.88
226.918	24.88
227.152	26.88
227.387	25.88
227.621	39.88
227.856	54.88
228.09	49.88
228.324	53.88
228.559	45.88
228.793	46.88
229.027	71.88
229.262	76.88
229.496	67.88
229.73	97.88
229.964	99.88
230.199	83.88
230.433	75.88
230.667	84.88
230.901	75.88
231.136	64.88
231.37	82.88
231.604	67.88
231.838	88.88
232.072	75.88
232.306	87.88
232.541	79.88
232.775	78.88
233.009	73.88
233.243	87.88
233.477	82.88
233.711	78.88
233.945	90.88
234.179	85.88
234.413	82.88
234.647	90.88
234.881	87.88
235.115	82.88
235.349	74.88
235.583	60.88
235.817	81.88
236.051	81.88
236.285	77.88
236.519	77.88
236.753	78.88
236.987	77.88
237.221	73.88
237.455	84.88
237.689	73.88
237.922	71.88
238.156	84.88
238.39	74.88
238.624	78.88
238.858	66.88
239.091	89.88
239.325	63.88
239.559	76.88
239.793	81.88
240.027	79.88
240.26	71.88
240.494	85.88
240.728	78.88
240.961	81.88
241.195	70.88
241.429	67.88
241.662	73.88
241.896	93.88
242.13	70.88
242.363	82.88
242.597	73.88
242.83	72.88
243.064	83.88
243.298	80.88
243.531	94.88
243.765	79.88
243.998	95.88
244.232	81.88
244.465	93.88
244.699	91.88
244.932	88.88
245.166	78.88
245.399	78.88
245.633	77.88
245.866	65.88
246.099	72.88
246.333	75.88
246.566	77.88
246.8	96.88
247.033	82.88
247.266	79.88
247.5	79.88
247.733	81.88
247.966	75.88
248.2	71.88
248.433	93.88
248.666	71.88
248.899	79.88
249.133	85.88
249.366	97.88
249.599	98.88
249.832	82.88
250.066	84.88
250.299	83.88
250.532	81.88
250.765	87.88
250.998	88.88
251.231	85.88
251.465	79.88
251.698	91.88
251.931	91.88
252.164	73.88
252.397	86.88
252.63	74.88
252.863	78.88
253.096	75.88
253.329	75.88
253.562	82.88
253.795	80.88
254.028	86.88
254.261	76.88
254.494	77.88
254.727	77.88
254.96	64.88
255.193	74.88
255.426	74.88
255.659	76.88
255.892	90.88
256.124	88.88
256.357	85.88
256.59	67.88
256.823	86.88
257.056	82.88
257.289	85.88
257.521	95.88
257.754	65.88
257.987	90.88
258.22	94.88
258.452	91.88
258.685	90.88
258.918	88.88
259.151	89.88
259.383	82.88
259.616	82.88
259.849	81.88
260.081	80.88
260.314	85.88
260.547	83.88
260.779	97.88
261.012	104.88
261.244	106.88
261.477	91.88
261.71	110.88
261.942	114.88
262.175	152.88
262.407	93.88
262.64	79.88
262.872	86.88
263.105	90.88
263.337	87.88
263.57	84.88
263.802	96.88
264.035	77.88
264.267	59.88
264.499	82.88
264.732	76.88
264.964	79.88
265.197	85.88
265.429	83.88
265.661	72.88
265.894	87.88
266.126	96.88
266.358	94.88
266.591	78.88
266.823	86.88
267.055	87.88
267.287	68.88
267.52	92.88
267.752	88.88
267.984	93.88
268.216	84.88
268.448	88.88
268.681	73.88
268.913	85.88
269.145	90.88
269.377	71.88
269.609	90.88
269.841	78.88
270.073	76.88
270.306	94.88
270.538	85.88
270.77	97.88
271.002	94.88
271.234	88.88
271.466	77.88
271.698	83.88
271.93	86.88
272.162	79.88
272.394	82.88
272.626	96.88
272.858	85.88
273.09	77.88
273.322	85.88
273.553	85.88
273.785	102.88
274.017	72.88
274.249	69.88
274.481	91.88
274.713	89.88
274.945	88.88
275.176	102.88
275.408	95.88
275.64	94.88
275.872	129.88
276.104	98.88
276.335	88.88
276.567	113.88
276.799	128.88
277.031	152.88
277.262	183.88
277.494	135.88
277.726	97.88
277.957	100.88
278.189	86.88
278.421	89.88
278.652	78.88
278.884	85.88
279.115	94.88
279.347	85.88
279.579	106.88
279.81	124.88
280.042	171.88
280.273	237.88
280.505	175.88
280.736	102.88
280.968	95.88
281.199	96.88
281.431	82.88
281.662	87.88
281.894	84.88
282.125	108.88
282.356	113.88
282.588	170.88
282.819	137.88
283.051	73.88
283.282	77.88
283.513	86.88
283.745	96.88
283.976	79.88
284.207	84.88
284.439	102.88
284.67	85.88
284.901	96.88
285.132	76.88
285.364	88.88
285.595	86.88
285.826	97.88
286.057	89.88
286.288	74.88
286.52	78.88
286.751	102.88
286.982	94.88
287.213	90.88
287.444	99.88
287.675	77.88
287.906	86.88
288.138	83.88
288.369	97.88
288.6	90.88
288.831	70.88
289.062	78.88
289.293	98.88
289.524	88.88
289.755	94.88
289.986	81.88
290.217	90.88
290.448	83.88
290.679	87.88
290.91	84.88
291.141	95.88
291.371	97.88
291.602	94.88
291.833	102.88
292.064	84.88
292.295	89.88
292.526	93.88
292.757	94.88
292.987	90.88
293.218	101.88
293.449	87.88
293.68	91.88
293.91	78.88
294.141	89.88
294.372	88.88
294.603	100.88
294.833	76.88
295.064	70.88
295.295	103.88
295.525	86.88
295.756	101.88
295.987	142.88
296.217	177.88
296.448	145.88
296.679	93.88
296.909	83.88
297.14	86.88
297.37	95.88
297.601	87.88
297.831	93.88
298.062	86.88
298.292	87.88
298.523	88.88
298.753	87.88
298.984	97.88
299.214	94.88
299.445	91.88
299.675	93.88
299.905	94.88
300.136	85.88
300.366	83.88
300.597	74.88
300.827	91.88
301.057	109.88
301.288	108.88
301.518	98.88
301.748	109.88
301.979	122.88
302.209	87.88
302.439	107.88
302.669	89.88
302.9	85.88
303.13	93.88
303.36	102.88
303.59	140.88
303.82	141.88
304.051	104.88
304.281	88.88
304.511	96.88
304.741	91.88
304.971	85.88
305.201	82.88
305.431	89.88
305.661	91.88
305.891	89.88
306.121	104.88
306.352	93.88
306.582	106.88
306.812	120.88
307.042	113.88
307.272	151.88
307.502	165.88
307.731	160.88
307.961	141.88
308.191	82.88
308.421	78.88
308.651	111.88
308.881	98.88
309.111	91.88
309.341	81.88
309.571	113.88
309.8	96.88
310.03	98.88
310.26	109.88
310.49	91.88
310.72	99.88
310.949	109.88
311.179	113.88
311.409	84.88
311.639	96.88
311.868	96.88
312.098	94.88
312.328	107.88
312.557	103.88
312.787	124.88
313.017	98.88
313.246	96.88
313.476	93.88
313.706	90.88
313.935	118.88
314.165	117.88
314.394	111.88
314.624	99.88
314.853	114.88
315.083	95.88
315.312	91.88
315.542	88.88
315.771	90.88
316.001	99.88
316.23	85.88
316.46	102.88
316.689	99.88
316.919	111.88
317.148	97.88
317.377	84.88
317.607	100.88
317.836	102.88
318.065	87.88
318.295	94.88
318.524	92.88
318.753	97.88
318.983	94.88
319.212	97.88
319.441	117.88
319.67	118.88
319.9	94.88
320.129	91.88
320.358	103.88
320.587	88.88
320.816	106.88
321.046	112.88
321.275	98.88
321.504	90.88
321.733	91.88
321.962	93.88
322.191	94.88
322.42	98.88
322.649	111.88
322.878	107.88
323.108	123.88
323.337	136.88
323.566	155.88
323.795	164.88
324.024	232.88
324.253	453.88
324.482	1013.88
324.71	2081.88
324.939	2806.88
325.168	1024.88
325.397	301.88
325.626	167.88
325.855	160.88
326.084	138.88
326.313	144.88
326.542	165.88
326.77	258.88
326.999	521.88
327.228	1101.88
327.457	2026.88
327.686	1623.88
327.914	535.88
328.143	474.88
328.372	591.88
328.6	334.88
328.829	179.88
329.058	183.88
329.287	189.88
329.515	184.88
329.744	227.88
329.972	402.88
330.201	823.88
330.43	1274.88
330.658	545.88
330.887	258.88
331.115	169.88
331.344	135.88
331.572	112.88
331.801	131.88
332.03	139.88
332.258	107.88
332.486	106.88
332.715	94.88
332.943	119.88
333.172	118.88
333.4	125.88
333.629	154.88
333.857	208.88
334.085	386.88
334.314	756.88
334.542	1511.88
334.771	1502.88
334.999	375.88
335.227	169.88
335.455	118.88
335.684	115.88
335.912	106.88
336.14	108.88
336.369	95.88
336.597	120.88
336.825	118.88
337.053	94.88
337.281	93.88
337.51	100.88
337.738	109.88
337.966	98.88
338.194	116.88
338.422	92.88
338.65	104.88
338.878	98.88
339.106	110.88
339.334	90.88
339.562	89.88
339.79	95.88
340.018	94.88
340.246	106.88
340.474	96.88
340.702	106.88
340.93	107.88
341.158	87.88
341.386	102.88
341.614	98.88
341.842	106.88
342.07	82.88
342.298	95.88
342.526	106.88
342.754	78.88
342.981	99.88
343.209	86.88
343.437	108.88
343.665	87.88
343.893	96.88
344.12	99.88
344.348	97.88
344.576	96.88
344.804	92.88
345.031	101.88
345.259	116.88
345.487	103.88
345.714	109.88
345.942	92.88
346.17	88.88
346.397	93.88
346.625	97.88
346.853	105.88
347.08	91.88
347.308	94.88
347.535	104.88
347.763	110.88
347.99	103.88
348.218	122.88
348.445	129.88
348.673	105.88
348.9	103.88
349.128	94.88
349.355	110.88
349.583	105.88
349.81	103.88
350.037	106.88
350.265	99.88
350.492	94.88
350.72	99.88
350.947	103.88
351.174	108.88
351.402	94.88
351.629	112.88
351.856	98.88
352.083	98.88
352.311	118.88
352.538	124.88
352.765	119.88
352.992	120.88
353.22	124.88
353.447	115.88
353.674	120.88
353.901	88.88
354.128	81.88
354.355	118.88
354.583	107.88
354.81	110.88
355.037	96.88
355.264	102.88
355.491	105.88
355.718	95.88
355.945	93.88
356.172	103.88
356.399	98.88
356.626	92.88
356.853	101.88
357.08	87.88
357.307	96.88
357.534	91.88
357.761	99.88
357.988	89.88
358.215	112.88
358.441	95.88
358.668	81.88
358.895	93.88
359.122	98.88
359.349	100.88
359.576	82.88
359.802	99.88
360.029	122.88
360.256	142.88
360.483	112.88
360.709	98.88
360.936	99.88
361.163	106.88
361.39	108.88
361.616	104.88
361.843	102.88
362.07	104.88
362.296	105.88
362.523	98.88
362.749	94.88
362.976	82.88
363.203	93.88
363.429	83.88
363.656	94.88
363.882	99.88
364.109	91.88
364.335	100.88
364.562	94.88
364.788	99.88
365.015	101.88
365.241	87.88
365.468	109.88
365.694	115.88
365.92	95.88
366.147	98.88
366.373	97.88
366.599	75.88
366.826	96.88
367.052	83.88
367.278	93.88
367.505	92.88
367.731	93.88
367.957	87.88
368.184	102.88
368.41	121.88
368.636	130.88
368.862	121.88
369.089	121.88
369.315	108.88
369.541	98.88
369.767	91.88
369.993	90.88
370.219	110.88
370.445	97.88
370.672	94.88
370.898	94.88
371.124	95.88
371.35	97.88
371.576	95.88
371.802	81.88
372.028	88.88
372.254	85.88
372.48	81.88
372.706	78.88
372.932	89.88
373.158	84.88
373.384	89.88
373.61	92.88
373.835	77.88
374.061	79.88
374.287	91.88
374.513	81.88
374.739	86.88
374.965	93.88
375.191	92.88
375.416	71.88
375.642	80.88
375.868	82.88
376.094	89.88
376.319	111.88
376.545	86.88
376.771	95.88
376.997	81.88
377.222	98.88
377.448	86.88
377.674	99.88
377.899	106.88
378.125	84.88
378.35	92.88
378.576	92.88
378.802	84.88
379.027	87.88
379.253	91.88
379.478	107.88
379.704	96.88
379.929	101.88
380.155	113.88
380.38	102.88
380.606	102.88
380.831	111.88
381.057	104.88
381.282	101.88
381.507	109.88
381.733	112.88
381.958	119.88
382.184	100.88
382.409	106.88
382.634	122.88
382.86	107.88
383.085	119.88
383.31	112.88
383.535	113.88
383.761	95.88
383.986	105.88
384.211	96.88
384.436	115.88
384.662	119.88
384.887	116.88
385.112	118.88
385.337	141.88
385.562	104.88
385.787	119.88
386.013	114.88
386.238	137.88
386.463	114.88
386.688	127.88
386.913	125.88
387.138	135.88
387.363	127.88
387.588	120.88
387.813	115.88
388.038	128.88
388.263	144.88
388.488	141.88
388.713	114.88
388.938	103.88
389.163	78.88
389.387	107.88
389.612	85.88
389.837	93.88
390.062	90.88
390.287	98.88
390.512	85.88
390.736	90.88
390.961	79.88
391.186	89.88
391.411	91.88
391.636	90.88
391.86	80.88
392.085	93.88
392.31	88.88
392.534	79.88
392.759	92.88
392.984	86.88
393.208	98.88
393.433	88.88
393.658	83.88
393.882	75.88
394.107	85.88
394.331	73.88
394.556	83.88
394.78	87.88
395.005	67.88
395.229	75.88
395.454	105.88
395.678	91.88
395.903	95.88
396.127	95.88
396.352	91.88
396.576	84.88
396.801	82.88
397.025	85.88
397.249	87.88
397.474	97.88
397.698	98.88
397.922	80.88
398.147	85.88
398.371	94.88
398.595	81.88
398.82	97.88
399.044	83.88
399.268	83.88
399.492	90.88
399.717	97.88
399.941	88.88
400.165	91.88
400.389	93.88
400.613	97.88
400.837	84.88
401.062	87.88
401.286	82.88
401.51	93.88
401.734	96.88
401.958	109.88
402.182	140.88
402.406	177.88
402.63	148.88
402.854	117.88
403.078	98.88
403.302	92.88
403.526	92.88
403.75	96.88
403.974	82.88
404.198	81.88
404.422	89.88
404.645	91.88
404.869	90.88
405.093	107.88
405.317	141.88
405.541	137.88
405.765	113.88
405.988	118.88
406.212	204.88
406.436	322.88
406.66	207.88
406.883	111.88
407.107	100.88
407.331	98.88
407.555	114.88
407.778	101.88
408.002	87.88
408.226	96.88
408.449	84.88
408.673	93.88
408.896	102.88
409.12	103.88
409.344	102.88
409.567	82.88
409.791	108.88
410.014	97.88
410.238	90.88
410.461	83.88
410.685	95.88
410.908	101.88
411.132	109.88
411.355	93.88
411.578	92.88
411.802	91.88
412.025	79.88
412.249	97.88
412.472	121.88
412.695	150.88
412.919	120.88
413.142	106.88
413.365	86.88
413.589	87.88
413.812	99.88
414.035	97.88
414.258	102.88
414.482	96.88
414.705	108.88
414.928	91.88
415.151	90.88
415.374	82.88
415.597	83.88
415.821	88.88
416.044	98.88
416.267	98.88
416.49	89.88
416.713	89.88
416.936	78.88
417.159	103.88
417.382	105.88
417.605	107.88
417.828	107.88
418.051	110.88
418.274	78.88
418.497	79.88
418.72	83.88
418.943	90.88
419.166	90.88
419.389	84.88
419.611	94.88
419.834	76.88
420.057	87.88
420.28	79.88
420.503	99.88
420.726	90.88
420.948	91.88
421.171	100.88
421.394	97.88
421.617	72.88
421.839	93.88
422.062	88.88
422.285	87.88
422.507	115.88
422.73	115.88
422.953	96.88
423.175	99.88
423.398	94.88
423.621	87.88
423.843	91.88
424.066	81.88
424.288	86.88
424.511	101.88
424.733	108.88
424.956	105.88
425.178	107.88
425.401	94.88
425.623	102.88
425.846	108.88
426.068	104.88
426.291	105.88
426.513	76.88
426.735	100.88
426.958	82.88
427.18	95.88
427.402	169.88
427.625	256.88
427.847	229.88
428.069	210.88
428.292	122.88
428.514	97.88
428.736	91.88
428.958	99.88
429.181	96.88
429.403	84.88
429.625	91.88
429.847	97.88
430.069	130.88
430.292	95.88
430.514	105.88
430.736	78.88
430.958	90.88
431.18	80.88
431.402	97.88
431.624	97.88
431.846	85.88
432.068	99.88
432.29	79.88
432.512	94.88
432.734	78.88
432.956	80.88
433.178	102.88
433.4	113.88
433.622	95.88
433.844	89.88
434.066	99.88
434.287	82.88
434.509	87.88
434.731	77.88
434.953	77.88
435.175	93.88
435.397	94.88
435.618	97.88
435.84	117.88
436.062	129.88
436.284	134.88
436.505	106.88
436.727	108.88
436.949	93.88
437.17	86.88
437.392	96.88
437.614	117.88
437.835	118.88
438.057	157.88
438.278	121.88
438.5	108.88
438.721	139.88
438.943	103.88
439.165	90.88
439.386	99.88
439.608	106.88
439.829	110.88
440.05	153.88
440.272	173.88
440.493	99.88
440.715	87.88
440.936	95.88
441.158	81.88
441.379	92.88
441.6	96.88
441.822	114.88
442.043	93.88
442.264	98.88
442.486	96.88
442.707	93.88
442.928	110.88
443.149	164.88
443.371	170.88
443.592	120.88
443.813	119.88
444.034	130.88
444.255	96.88
444.476	90.88
444.698	88.88
444.919	75.88
445.14	129.88
445.361	137.88
445.582	138.88
445.803	173.88
446.024	176.88
446.245	157.88
446.466	142.88
446.687	92.88
446.908	82.88
447.129	87.88
447.35	91.88
447.571	94.88
447.792	86.88
448.013	105.88
448.234	113.88
448.455	96.88
448.675	125.88
448.896	126.88
449.117	93.88
449.338	97.88
449.559	138.88
449.779	139.88
450	79.88
450.221	103.88
450.442	97.88
450.662	90.88
450.883	118.88
451.104	134.88
451.324	102.88
451.545	98.88
451.766	86.88
451.986	83.88
452.207	74.88
452.428	96.88
452.648	105.88
452.869	121.88
453.089	135.88
453.31	136.88
453.53	97.88
453.751	98.88
453.971	130.88
454.192	133.88
454.412	100.88
454.633	95.88
454.853	75.88
455.073	91.88
455.294	86.88
455.514	95.88
455.734	94.88
455.955	73.88
456.175	91.88
456.395	77.88
456.616	79.88
456.836	78.88
457.056	92.88
457.276	84.88
457.497	81.88
457.717	85.88
457.937	85.88
458.157	89.88
458.377	99.88
458.598	125.88
458.818	217.88
459.038	234.88
459.258	131.88
459.478	95.88
459.698	98.88
459.918	82.88
460.138	98.88
460.358	85.88
460.578	103.88
460.798	98.88
461.018	91.88
461.238	85.88
461.458	77.88
461.678	81.88
461.898	100.88
462.118	85.88
462.338	91.88
462.558	89.88
462.777	72.88
462.997	114.88
463.217	112.88
463.437	99.88
463.657	86.88
463.876	87.88
464.096	89.88
464.316	111.88
464.536	97.88
464.755	104.88
464.975	124.88
465.195	228.88
465.414	238.88
465.634	117.88
465.854	96.88
466.073	90.88
466.293	88.88
466.512	85.88
466.732	79.88
466.951	91.88
467.171	102.88
467.391	103.88
467.61	138.88
467.829	207.88
468.049	478.88
468.268	751.88
468.488	201.88
468.707	107.88
468.927	105.88
469.146	90.88
469.365	96.88
469.585	106.88
469.804	94.88
470.023	103.88
470.243	117.88
470.462	118.88
470.681	134.88
470.901	99.88
471.12	105.88
471.339	98.88
471.558	110.88
471.777	145.88
471.997	260.88
472.216	939.88
472.435	2213.88
472.654	523.88
472.873	153.88
473.092	108.88
473.311	97.88
473.53	73.88
473.749	99.88
473.968	97.88
474.187	115.88
474.406	105.88
474.625	96.88
474.844	91.88
475.063	92.88
475.282	106.88
475.501	94.88
475.72	95.88
475.939	89.88
476.158	99.88
476.377	94.88
476.596	89.88
476.814	83.88
477.033	105.88
477.252	102.88
477.471	80.88
477.69	83.88
477.908	85.88
478.127	75.88
478.346	93.88
478.564	88.88
478.783	93.88
479.002	107.88
479.22	110.88
479.439	123.88
479.658	128.88
479.876	125.88
480.095	111.88
480.313	130.88
480.532	162.88
480.751	264.88
480.969	869.88
481.188	3699.88
481.406	2138.88
481.624	323.88
481.843	125.88
482.061	105.88
482.28	90.88
482.498	87.88
482.717	77.88
482.935	77.88
483.153	88.88
483.372	84.88
483.59	82.88
483.808	98.88
484.027	89.88
484.245	82.88
484.463	83.88
484.681	80.88
484.9	85.88
485.118	90.88
485.336	87.88
485.554	107.88
485.772	101.88
485.99	105.88
486.209	99.88
486.427	102.88
486.645	130.88
486.863	113.88
487.081	108.88
487.299	102.88
487.517	97.88
487.735	108.88
487.953	99.88
488.171	84.88
488.389	99.88
488.607	105.88
488.825	82.88
489.043	80.88
489.261	87.88
489.479	97.88
489.696	78.88
489.914	80.88
490.132	80.88
490.35	105.88
490.568	77.88
490.786	94.88
491.003	91.88
491.221	92.88
491.439	89.88
491.657	83.88
491.874	103.88
492.092	87.88
492.31	99.88
492.527	93.88
492.745	80.88
492.963	86.88
493.18	98.88
493.398	93.88
493.615	106.88
493.833	88.88
494.05	105.88
494.268	87.88
494.485	86.88
494.703	75.88
494.92	96.88
495.138	92.88
495.355	77.88
495.573	91.88
495.79	112.88
496.008	105.88
496.225	95.88
496.442	107.88
496.66	90.88
496.877	79.88
497.094	89.88
497.312	85.88
497.529	66.88
497.746	103.88
497.963	92.88
498.181	91.88
498.398	104.88
498.615	121.88
498.832	105.88
499.049	82.88
499.267	90.88
499.484	87.88
499.701	103.88
499.918	99.88
500.135	80.88
500.352	88.88
500.569	84.88
500.786	87.88
501.003	82.88
501.22	89.88
501.437	74.88
501.654	105.88
501.871	123.88
502.088	93.88
502.305	90.88
502.522	95.88
502.739	84.88
502.956	102.88
503.172	91.88
503.389	99.88
503.606	119.88
503.823	110.88
504.04	91.88
504.256	87.88
504.473	79.88
504.69	93.88
504.907	100.88
505.123	101.88
505.34	83.88
505.557	98.88
505.773	104.88
505.99	96.88
506.207	94.88
506.423	94.88
506.64	90.88
506.856	92.88
507.073	89.88
507.289	97.88
507.506	90.88
507.722	127.88
507.939	129.88
508.155	111.88
508.372	89.88
508.588	98.88
508.805	89.88
509.021	95.88
509.238	114.88
509.454	108.88
509.67	110.88
509.887	120.88
510.103	147.88
510.319	235.88
510.536	889.88
510.752	3134.88
510.968	854.88
511.184	191.88
511.401	109.88
511.617	97.88
511.833	96.88
512.049	84.88
512.265	90.88
512.481	103.88
512.698	98.88
512.914	102.88
513.13	102.88
513.346	96.88
513.562	89.88
