Data from Circ_1995_H10_HRD10591_00016.txt Node
Date: Wed Jan 03 11:36:49 EST 2024
User: Yrep
Spectrometer: HR+D1059
Trigger mode: 1
Integration Time (sec): 1.000000E-1
Scans to average: 1
Electric dark correction enabled: true
Nonlinearity correction enabled: false
Boxcar width: 0
XAxis mode: Wavelengths
Number of Pixels in Spectrum: 2048
>>>>>Begin Spectral Data<<<<<
223.165	-8.06
223.4	-8.06
223.635	-8.06
223.869	-18.06
224.104	-37.06
224.338	-18.06
224.573	-14.06
224.808	5.94
225.042	-6.06
225.277	-13.06
225.511	-9.06
225.746	6.94
225.98	-0.06
226.215	17.94
226.449	11.94
226.683	27.94
226.918	21.94
227.152	30.94
227.387	26.94
227.621	34.94
227.856	36.94
228.09	37.94
228.324	41.94
228.559	56.94
228.793	58.94
229.027	59.94
229.262	70.94
229.496	73.94
229.73	97.94
229.964	100.94
230.199	77.94
230.433	85.94
230.667	81.94
230.901	71.94
231.136	79.94
231.37	63.94
231.604	64.94
231.838	73.94
232.072	81.94
232.306	77.94
232.541	78.94
232.775	71.94
233.009	89.94
233.243	72.94
233.477	76.94
233.711	85.94
233.945	77.94
234.179	74.94
234.413	86.94
234.647	79.94
234.881	97.94
235.115	75.94
235.349	77.94
235.583	82.94
235.817	69.94
236.051	73.94
236.285	70.94
236.519	81.94
236.753	86.94
236.987	93.94
237.221	86.94
237.455	91.94
237.689	69.94
237.922	72.94
238.156	70.94
238.39	77.94
238.624	79.94
238.858	79.94
239.091	74.94
239.325	71.94
239.559	68.94
239.793	75.94
240.027	72.94
240.26	81.94
240.494	74.94
240.728	62.94
240.961	70.94
241.195	85.94
241.429	67.94
241.662	77.94
241.896	66.94
242.13	79.94
242.363	91.94
242.597	71.94
242.83	85.94
243.064	72.94
243.298	70.94
243.531	83.94
243.765	79.94
243.998	86.94
244.232	81.94
244.465	88.94
244.699	66.94
244.932	73.94
245.166	77.94
245.399	76.94
245.633	93.94
245.866	75.94
246.099	85.94
246.333	70.94
246.566	77.94
246.8	87.94
247.033	95.94
247.266	82.94
247.5	75.94
247.733	85.94
247.966	88.94
248.2	87.94
248.433	83.94
248.666	67.94
248.899	87.94
249.133	95.94
249.366	105.94
249.599	102.94
249.832	79.94
250.066	75.94
250.299	85.94
250.532	90.94
250.765	81.94
250.998	73.94
251.231	64.94
251.465	82.94
251.698	64.94
251.931	69.94
252.164	97.94
252.397	87.94
252.63	77.94
252.863	72.94
253.096	85.94
253.329	93.94
253.562	90.94
253.795	76.94
254.028	79.94
254.261	75.94
254.494	76.94
254.727	84.94
254.96	78.94
255.193	90.94
255.426	76.94
255.659	72.94
255.892	97.94
256.124	101.94
256.357	93.94
256.59	77.94
256.823	71.94
257.056	88.94
257.289	80.94
257.521	93.94
257.754	79.94
257.987	87.94
258.22	84.94
258.452	99.94
258.685	91.94
258.918	94.94
259.151	80.94
259.383	65.94
259.616	88.94
259.849	80.94
260.081	83.94
260.314	94.94
260.547	94.94
260.779	93.94
261.012	94.94
261.244	105.94
261.477	102.94
261.71	118.94
261.942	113.94
262.175	131.94
262.407	96.94
262.64	87.94
262.872	71.94
263.105	103.94
263.337	90.94
263.57	80.94
263.802	81.94
264.035	72.94
264.267	71.94
264.499	81.94
264.732	90.94
264.964	82.94
265.197	82.94
265.429	82.94
265.661	94.94
265.894	83.94
266.126	88.94
266.358	86.94
266.591	63.94
266.823	79.94
267.055	77.94
267.287	86.94
267.52	91.94
267.752	85.94
267.984	87.94
268.216	81.94
268.448	93.94
268.681	95.94
268.913	85.94
269.145	87.94
269.377	95.94
269.609	81.94
269.841	85.94
270.073	89.94
270.306	82.94
270.538	78.94
270.77	86.94
271.002	82.94
271.234	99.94
271.466	84.94
271.698	94.94
271.93	97.94
272.162	85.94
272.394	103.94
272.626	94.94
272.858	81.94
273.09	78.94
273.322	95.94
273.553	80.94
273.785	84.94
274.017	99.94
274.249	93.94
274.481	90.94
274.713	84.94
274.945	81.94
275.176	92.94
275.408	103.94
275.64	113.94
275.872	110.94
276.104	109.94
276.335	95.94
276.567	117.94
276.799	129.94
277.031	165.94
277.262	186.94
277.494	150.94
277.726	93.94
277.957	90.94
278.189	84.94
278.421	105.94
278.652	91.94
278.884	95.94
279.115	83.94
279.347	103.94
279.579	107.94
279.81	114.94
280.042	179.94
280.273	237.94
280.505	177.94
280.736	101.94
280.968	96.94
281.199	90.94
281.431	90.94
281.662	76.94
281.894	79.94
282.125	97.94
282.356	122.94
282.588	165.94
282.819	125.94
283.051	86.94
283.282	83.94
283.513	86.94
283.745	87.94
283.976	92.94
284.207	80.94
284.439	87.94
284.67	82.94
284.901	84.94
285.132	81.94
285.364	91.94
285.595	85.94
285.826	92.94
286.057	87.94
286.288	80.94
286.52	81.94
286.751	105.94
286.982	82.94
287.213	90.94
287.444	86.94
287.675	88.94
287.906	91.94
288.138	99.94
288.369	89.94
288.6	106.94
288.831	71.94
289.062	98.94
289.293	87.94
289.524	81.94
289.755	85.94
289.986	75.94
290.217	97.94
290.448	94.94
290.679	92.94
290.91	92.94
291.141	98.94
291.371	112.94
291.602	83.94
291.833	76.94
292.064	80.94
292.295	93.94
292.526	88.94
292.757	83.94
292.987	97.94
293.218	77.94
293.449	77.94
293.68	99.94
293.91	88.94
294.141	103.94
294.372	89.94
294.603	81.94
294.833	82.94
295.064	90.94
295.295	89.94
295.525	86.94
295.756	98.94
295.987	117.94
296.217	170.94
296.448	148.94
296.679	105.94
296.909	73.94
297.14	70.94
297.37	87.94
297.601	76.94
297.831	87.94
298.062	96.94
298.292	97.94
298.523	93.94
298.753	73.94
298.984	88.94
299.214	94.94
299.445	88.94
299.675	108.94
299.905	108.94
300.136	93.94
300.366	81.94
300.597	95.94
300.827	88.94
301.057	103.94
301.288	115.94
301.518	110.94
301.748	106.94
301.979	113.94
302.209	117.94
302.439	96.94
302.669	92.94
302.9	91.94
303.13	91.94
303.36	117.94
303.59	134.94
303.82	137.94
304.051	96.94
304.281	97.94
304.511	101.94
304.741	86.94
304.971	86.94
305.201	86.94
305.431	92.94
305.661	103.94
305.891	88.94
306.121	87.94
306.352	107.94
306.582	96.94
306.812	102.94
307.042	118.94
307.272	148.94
307.502	162.94
307.731	167.94
307.961	120.94
308.191	104.94
308.421	104.94
308.651	88.94
308.881	86.94
309.111	101.94
309.341	82.94
309.571	99.94
309.8	97.94
310.03	98.94
310.26	79.94
310.49	85.94
310.72	117.94
310.949	117.94
311.179	106.94
311.409	95.94
311.639	93.94
311.868	105.94
312.098	86.94
312.328	108.94
312.557	106.94
312.787	128.94
313.017	118.94
313.246	92.94
313.476	91.94
313.706	89.94
313.935	88.94
314.165	107.94
314.394	112.94
314.624	107.94
314.853	98.94
315.083	107.94
315.312	99.94
315.542	77.94
315.771	94.94
316.001	97.94
316.23	96.94
316.46	93.94
316.689	97.94
316.919	83.94
317.148	100.94
317.377	107.94
317.607	102.94
317.836	102.94
318.065	103.94
318.295	90.94
318.524	105.94
318.753	93.94
318.983	95.94
319.212	100.94
319.441	112.94
319.67	124.94
319.9	93.94
320.129	89.94
320.358	84.94
320.587	105.94
320.816	123.94
321.046	113.94
321.275	105.94
321.504	104.94
321.733	94.94
321.962	102.94
322.191	96.94
322.42	105.94
322.649	110.94
322.878	123.94
323.108	118.94
323.337	119.94
323.566	149.94
323.795	165.94
324.024	213.94
324.253	442.94
324.482	972.94
324.71	2001.94
324.939	2659.94
325.168	971.94
325.397	273.94
325.626	157.94
325.855	144.94
326.084	138.94
326.313	144.94
326.542	179.94
326.77	245.94
326.999	495.94
327.228	1050.94
327.457	1922.94
327.686	1572.94
327.914	512.94
328.143	487.94
328.372	621.94
328.6	355.94
328.829	191.94
329.058	186.94
329.287	200.94
329.515	168.94
329.744	239.94
329.972	424.94
330.201	885.94
330.43	1325.94
330.658	576.94
330.887	271.94
331.115	170.94
331.344	115.94
331.572	116.94
331.801	133.94
332.03	128.94
332.258	114.94
332.486	101.94
332.715	119.94
332.943	109.94
333.172	128.94
333.4	133.94
333.629	151.94
333.857	215.94
334.085	410.94
334.314	815.94
334.542	1641.94
334.771	1571.94
334.999	425.94
335.227	153.94
335.455	116.94
335.684	115.94
335.912	103.94
336.14	113.94
336.369	108.94
336.597	114.94
336.825	104.94
337.053	95.94
337.281	84.94
337.51	103.94
337.738	101.94
337.966	106.94
338.194	111.94
338.422	97.94
338.65	96.94
338.878	100.94
339.106	89.94
339.334	93.94
339.562	96.94
339.79	106.94
340.018	97.94
340.246	94.94
340.474	113.94
340.702	98.94
340.93	92.94
341.158	89.94
341.386	105.94
341.614	105.94
341.842	94.94
342.07	91.94
342.298	97.94
342.526	87.94
342.754	89.94
342.981	98.94
343.209	89.94
343.437	87.94
343.665	104.94
343.893	98.94
344.12	97.94
344.348	92.94
344.576	95.94
344.804	86.94
345.031	93.94
345.259	109.94
345.487	106.94
345.714	99.94
345.942	106.94
346.17	90.94
346.397	81.94
346.625	106.94
346.853	109.94
347.08	104.94
347.308	96.94
347.535	103.94
347.763	114.94
347.99	102.94
348.218	109.94
348.445	103.94
348.673	89.94
348.9	98.94
349.128	84.94
349.355	87.94
349.583	81.94
349.81	89.94
350.037	102.94
350.265	114.94
350.492	96.94
350.72	94.94
350.947	108.94
351.174	114.94
351.402	133.94
351.629	108.94
351.856	108.94
352.083	105.94
352.311	107.94
352.538	118.94
352.765	118.94
352.992	110.94
353.22	109.94
353.447	123.94
353.674	91.94
353.901	87.94
354.128	103.94
354.355	91.94
354.583	111.94
354.81	108.94
355.037	99.94
355.264	102.94
355.491	98.94
355.718	95.94
355.945	93.94
356.172	108.94
356.399	81.94
356.626	86.94
356.853	86.94
357.08	95.94
357.307	84.94
357.534	94.94
357.761	102.94
357.988	87.94
358.215	98.94
358.441	110.94
358.668	95.94
358.895	92.94
359.122	110.94
359.349	81.94
359.576	104.94
359.802	116.94
360.029	129.94
360.256	127.94
360.483	128.94
360.709	103.94
360.936	96.94
361.163	99.94
361.39	106.94
361.616	88.94
361.843	89.94
362.07	117.94
362.296	100.94
362.523	99.94
362.749	104.94
362.976	83.94
363.203	99.94
363.429	71.94
363.656	81.94
363.882	89.94
364.109	90.94
364.335	87.94
364.562	92.94
364.788	94.94
365.015	98.94
365.241	108.94
365.468	121.94
365.694	114.94
365.92	97.94
366.147	90.94
366.373	85.94
366.599	85.94
366.826	88.94
367.052	88.94
367.278	109.94
367.505	95.94
367.731	105.94
367.957	81.94
368.184	96.94
368.41	115.94
368.636	130.94
368.862	122.94
369.089	133.94
369.315	94.94
369.541	89.94
369.767	89.94
369.993	90.94
370.219	94.94
370.445	86.94
370.672	73.94
370.898	78.94
371.124	89.94
371.35	82.94
371.576	97.94
371.802	96.94
372.028	91.94
372.254	96.94
372.48	94.94
372.706	88.94
372.932	84.94
373.158	92.94
373.384	95.94
373.61	86.94
373.835	92.94
374.061	93.94
374.287	89.94
374.513	85.94
374.739	103.94
374.965	87.94
375.191	92.94
375.416	73.94
375.642	89.94
375.868	91.94
376.094	96.94
376.319	99.94
376.545	96.94
376.771	88.94
376.997	93.94
377.222	91.94
377.448	91.94
377.674	83.94
377.899	99.94
378.125	80.94
378.35	89.94
378.576	86.94
378.802	79.94
379.027	86.94
379.253	92.94
379.478	98.94
379.704	93.94
379.929	92.94
380.155	79.94
380.38	81.94
380.606	105.94
380.831	95.94
381.057	101.94
381.282	94.94
381.507	103.94
381.733	105.94
381.958	106.94
382.184	94.94
382.409	104.94
382.634	114.94
382.86	91.94
383.085	103.94
383.31	93.94
383.535	96.94
383.761	104.94
383.986	118.94
384.211	102.94
384.436	114.94
384.662	104.94
384.887	109.94
385.112	105.94
385.337	103.94
385.562	102.94
385.787	111.94
386.013	136.94
386.238	136.94
386.463	102.94
386.688	120.94
386.913	126.94
387.138	114.94
387.363	101.94
387.588	101.94
387.813	111.94
388.038	112.94
388.263	131.94
388.488	105.94
388.713	93.94
388.938	85.94
389.163	85.94
389.387	98.94
389.612	94.94
389.837	102.94
390.062	90.94
390.287	92.94
390.512	73.94
390.736	93.94
390.961	89.94
391.186	107.94
391.411	96.94
391.636	87.94
391.86	89.94
392.085	73.94
392.31	85.94
392.534	83.94
392.759	93.94
392.984	91.94
393.208	89.94
393.433	90.94
393.658	94.94
393.882	81.94
394.107	85.94
394.331	89.94
394.556	90.94
394.78	97.94
395.005	97.94
395.229	90.94
395.454	92.94
395.678	78.94
395.903	62.94
396.127	85.94
396.352	83.94
396.576	79.94
396.801	66.94
397.025	86.94
397.249	77.94
397.474	74.94
397.698	91.94
397.922	93.94
398.147	97.94
398.371	94.94
398.595	91.94
398.82	86.94
399.044	92.94
399.268	82.94
399.492	69.94
399.717	89.94
399.941	89.94
400.165	96.94
400.389	87.94
400.613	91.94
400.837	77.94
401.062	91.94
401.286	94.94
401.51	85.94
401.734	99.94
401.958	105.94
402.182	137.94
402.406	195.94
402.63	135.94
402.854	105.94
403.078	106.94
403.302	99.94
403.526	96.94
403.75	107.94
403.974	85.94
404.198	88.94
404.422	91.94
404.645	81.94
404.869	81.94
405.093	110.94
405.317	131.94
405.541	126.94
405.765	126.94
405.988	139.94
406.212	209.94
406.436	306.94
406.66	205.94
406.883	122.94
407.107	100.94
407.331	99.94
407.555	117.94
407.778	111.94
408.002	98.94
408.226	82.94
408.449	78.94
408.673	104.94
408.896	99.94
409.12	93.94
409.344	87.94
409.567	87.94
409.791	94.94
410.014	83.94
410.238	94.94
410.461	108.94
410.685	93.94
410.908	94.94
411.132	97.94
411.355	100.94
411.578	101.94
411.802	80.94
412.025	97.94
412.249	93.94
412.472	106.94
412.695	129.94
412.919	101.94
413.142	89.94
413.365	88.94
413.589	98.94
413.812	93.94
414.035	96.94
414.258	94.94
414.482	95.94
414.705	104.94
414.928	88.94
415.151	90.94
415.374	95.94
415.597	92.94
415.821	87.94
416.044	87.94
416.267	93.94
416.49	74.94
416.713	89.94
416.936	81.94
417.159	93.94
417.382	92.94
417.605	105.94
417.828	110.94
418.051	90.94
418.274	88.94
418.497	71.94
418.72	87.94
418.943	96.94
419.166	92.94
419.389	82.94
419.611	90.94
419.834	103.94
420.057	97.94
420.28	87.94
420.503	81.94
420.726	84.94
420.948	83.94
421.171	104.94
421.394	93.94
421.617	85.94
421.839	80.94
422.062	89.94
422.285	82.94
422.507	108.94
422.73	109.94
422.953	88.94
423.175	96.94
423.398	78.94
423.621	86.94
423.843	83.94
424.066	80.94
424.288	92.94
424.511	86.94
424.733	102.94
424.956	123.94
425.178	117.94
425.401	103.94
425.623	118.94
425.846	92.94
426.068	99.94
426.291	91.94
426.513	93.94
426.735	96.94
426.958	84.94
427.18	124.94
427.402	178.94
427.625	267.94
427.847	223.94
428.069	217.94
428.292	122.94
428.514	94.94
428.736	81.94
428.958	85.94
429.181	91.94
429.403	83.94
429.625	99.94
429.847	96.94
430.069	108.94
430.292	89.94
430.514	91.94
430.736	93.94
430.958	103.94
431.18	86.94
431.402	80.94
431.624	82.94
431.846	77.94
432.068	85.94
432.29	91.94
432.512	97.94
432.734	90.94
432.956	103.94
433.178	109.94
433.4	99.94
433.622	80.94
433.844	91.94
434.066	90.94
434.287	93.94
434.509	99.94
434.731	94.94
434.953	93.94
435.175	87.94
435.397	105.94
435.618	106.94
435.84	102.94
436.062	125.94
436.284	114.94
436.505	105.94
436.727	99.94
436.949	100.94
437.17	89.94
437.392	92.94
437.614	103.94
437.835	128.94
438.057	141.94
438.278	115.94
438.5	102.94
438.721	130.94
438.943	113.94
439.165	99.94
439.386	70.94
439.608	82.94
439.829	95.94
440.05	149.94
440.272	171.94
440.493	127.94
440.715	92.94
440.936	93.94
441.158	85.94
441.379	88.94
441.6	109.94
441.822	87.94
442.043	101.94
442.264	113.94
442.486	107.94
442.707	111.94
442.928	117.94
443.149	147.94
443.371	172.94
443.592	125.94
443.813	122.94
444.034	122.94
444.255	80.94
444.476	87.94
444.698	91.94
444.919	86.94
445.14	130.94
445.361	122.94
445.582	129.94
445.803	191.94
446.024	174.94
446.245	155.94
446.466	121.94
446.687	89.94
446.908	87.94
447.129	89.94
447.35	89.94
447.571	89.94
447.792	99.94
448.013	111.94
448.234	113.94
448.455	108.94
448.675	135.94
448.896	128.94
449.117	110.94
449.338	106.94
449.559	151.94
449.779	158.94
450	89.94
450.221	95.94
450.442	93.94
450.662	107.94
450.883	114.94
451.104	121.94
451.324	117.94
451.545	115.94
451.766	88.94
451.986	93.94
452.207	92.94
452.428	99.94
452.648	110.94
452.869	99.94
453.089	104.94
453.31	128.94
453.53	108.94
453.751	86.94
453.971	118.94
454.192	128.94
454.412	107.94
454.633	93.94
454.853	81.94
455.073	85.94
455.294	94.94
455.514	103.94
455.734	91.94
455.955	93.94
456.175	80.94
456.395	73.94
456.616	72.94
456.836	90.94
457.056	91.94
457.276	90.94
457.497	85.94
457.717	92.94
457.937	85.94
458.157	86.94
458.377	105.94
458.598	126.94
458.818	200.94
459.038	211.94
459.258	142.94
459.478	96.94
459.698	89.94
459.918	86.94
460.138	73.94
460.358	87.94
460.578	91.94
460.798	80.94
461.018	76.94
461.238	93.94
461.458	78.94
461.678	81.94
461.898	88.94
462.118	73.94
462.338	85.94
462.558	92.94
462.777	83.94
462.997	98.94
463.217	98.94
463.437	87.94
463.657	88.94
463.876	91.94
464.096	90.94
464.316	91.94
464.536	101.94
464.755	87.94
464.975	135.94
465.195	233.94
465.414	225.94
465.634	113.94
465.854	93.94
466.073	95.94
466.293	94.94
466.512	92.94
466.732	70.94
466.951	93.94
467.171	97.94
467.391	114.94
467.61	145.94
467.829	206.94
468.049	536.94
468.268	783.94
468.488	208.94
468.707	109.94
468.927	77.94
469.146	91.94
469.365	105.94
469.585	93.94
469.804	107.94
470.023	107.94
470.243	101.94
470.462	115.94
470.681	124.94
470.901	95.94
471.12	92.94
471.339	97.94
471.558	104.94
471.777	140.94
471.997	277.94
472.216	986.94
472.435	2331.94
472.654	533.94
472.873	170.94
473.092	105.94
473.311	102.94
473.53	92.94
473.749	89.94
473.968	111.94
474.187	122.94
474.406	97.94
474.625	80.94
474.844	97.94
475.063	96.94
475.282	89.94
475.501	91.94
475.72	93.94
475.939	94.94
476.158	80.94
476.377	84.94
476.596	101.94
476.814	107.94
477.033	105.94
477.252	96.94
477.471	93.94
477.69	82.94
477.908	106.94
478.127	91.94
478.346	93.94
478.564	104.94
478.783	115.94
479.002	106.94
479.22	105.94
479.439	109.94
479.658	145.94
479.876	111.94
480.095	120.94
480.313	124.94
480.532	149.94
480.751	273.94
480.969	904.94
481.188	3981.94
481.406	2305.94
481.624	350.94
481.843	137.94
482.061	106.94
482.28	101.94
482.498	103.94
482.717	97.94
482.935	89.94
483.153	91.94
483.372	81.94
483.59	82.94
483.808	107.94
484.027	91.94
484.245	98.94
484.463	107.94
484.681	103.94
484.9	88.94
485.118	90.94
485.336	96.94
485.554	83.94
485.772	113.94
485.99	113.94
486.209	102.94
486.427	130.94
486.645	105.94
486.863	133.94
487.081	102.94
487.299	92.94
487.517	117.94
487.735	93.94
487.953	90.94
488.171	95.94
488.389	102.94
488.607	109.94
488.825	95.94
489.043	91.94
489.261	81.94
489.479	89.94
489.696	78.94
489.914	86.94
490.132	90.94
490.35	95.94
490.568	91.94
490.786	81.94
491.003	91.94
491.221	107.94
491.439	75.94
491.657	84.94
491.874	99.94
492.092	98.94
492.31	81.94
492.527	90.94
492.745	97.94
492.963	97.94
493.18	90.94
493.398	96.94
493.615	90.94
493.833	90.94
494.05	95.94
494.268	88.94
494.485	87.94
494.703	98.94
494.92	91.94
495.138	87.94
495.355	87.94
495.573	87.94
495.79	90.94
496.008	93.94
496.225	83.94
496.442	89.94
496.66	111.94
496.877	79.94
497.094	90.94
497.312	83.94
497.529	85.94
497.746	101.94
497.963	93.94
498.181	88.94
498.398	103.94
498.615	103.94
498.832	107.94
499.049	93.94
499.267	95.94
499.484	104.94
499.701	85.94
499.918	92.94
500.135	89.94
500.352	108.94
500.569	93.94
500.786	105.94
501.003	93.94
501.22	97.94
501.437	104.94
501.654	88.94
501.871	118.94
502.088	91.94
502.305	109.94
502.522	86.94
502.739	91.94
502.956	92.94
503.172	95.94
503.389	99.94
503.606	121.94
503.823	109.94
504.04	100.94
504.256	89.94
504.473	82.94
504.69	89.94
504.907	89.94
505.123	92.94
505.34	82.94
505.557	101.94
505.773	90.94
505.99	90.94
506.207	82.94
506.423	85.94
506.64	84.94
506.856	111.94
507.073	94.94
507.289	104.94
507.506	108.94
507.722	117.94
507.939	125.94
508.155	96.94
508.372	89.94
508.588	89.94
508.805	102.94
509.021	117.94
509.238	110.94
509.454	101.94
509.67	123.94
509.887	110.94
510.103	126.94
510.319	225.94
510.536	813.94
510.752	2912.94
510.968	813.94
511.184	183.94
511.401	123.94
511.617	91.94
511.833	120.94
512.049	98.94
512.265	82.94
512.481	98.94
512.698	112.94
512.914	110.94
513.13	103.94
513.346	91.94
