Data from Circ_1995_H10_HRD10591_00033.txt Node
Date: Wed Jan 03 11:36:53 EST 2024
User: Yrep
Spectrometer: HR+D1059
Trigger mode: 1
Integration Time (sec): 1.000000E-1
Scans to average: 1
Electric dark correction enabled: true
Nonlinearity correction enabled: false
Boxcar width: 0
XAxis mode: Wavelengths
Number of Pixels in Spectrum: 2048
>>>>>Begin Spectral Data<<<<<
223.165	-16.56
223.4	-16.56
223.635	-16.56
223.869	-27.56
224.104	-13.56
224.338	-18.56
224.573	-12.56
224.808	-2.56
225.042	-15.56
225.277	-4.56
225.511	0.44
225.746	10.44
225.98	6.44
226.215	8.44
226.449	16.44
226.683	12.44
226.918	22.44
227.152	34.44
227.387	41.44
227.621	29.44
227.856	32.44
228.09	45.44
228.324	52.44
228.559	69.44
228.793	53.44
229.027	76.44
229.262	62.44
229.496	76.44
229.73	90.44
229.964	98.44
230.199	74.44
230.433	68.44
230.667	67.44
230.901	85.44
231.136	65.44
231.37	62.44
231.604	96.44
231.838	71.44
232.072	71.44
232.306	85.44
232.541	80.44
232.775	69.44
233.009	77.44
233.243	78.44
233.477	71.44
233.711	87.44
233.945	98.44
234.179	83.44
234.413	81.44
234.647	78.44
234.881	64.44
235.115	91.44
235.349	93.44
235.583	75.44
235.817	75.44
236.051	74.44
236.285	79.44
236.519	72.44
236.753	86.44
236.987	71.44
237.221	80.44
237.455	102.44
237.689	82.44
237.922	70.44
238.156	71.44
238.39	81.44
238.624	83.44
238.858	74.44
239.091	68.44
239.325	77.44
239.559	98.44
239.793	82.44
240.027	95.44
240.26	78.44
240.494	80.44
240.728	71.44
240.961	77.44
241.195	70.44
241.429	79.44
241.662	73.44
241.896	83.44
242.13	79.44
242.363	80.44
242.597	82.44
242.83	64.44
243.064	56.44
243.298	66.44
243.531	67.44
243.765	77.44
243.998	97.44
244.232	74.44
244.465	85.44
244.699	85.44
244.932	88.44
245.166	80.44
245.399	89.44
245.633	63.44
245.866	73.44
246.099	71.44
246.333	83.44
246.566	78.44
246.8	82.44
247.033	87.44
247.266	76.44
247.5	69.44
247.733	76.44
247.966	63.44
248.2	66.44
248.433	83.44
248.666	77.44
248.899	76.44
249.133	87.44
249.366	90.44
249.599	92.44
249.832	83.44
250.066	91.44
250.299	77.44
250.532	86.44
250.765	82.44
250.998	73.44
251.231	87.44
251.465	89.44
251.698	80.44
251.931	69.44
252.164	81.44
252.397	77.44
252.63	76.44
252.863	84.44
253.096	81.44
253.329	76.44
253.562	78.44
253.795	85.44
254.028	87.44
254.261	87.44
254.494	77.44
254.727	82.44
254.96	92.44
255.193	83.44
255.426	92.44
255.659	84.44
255.892	88.44
256.124	91.44
256.357	92.44
256.59	85.44
256.823	85.44
257.056	81.44
257.289	89.44
257.521	96.44
257.754	72.44
257.987	79.44
258.22	95.44
258.452	100.44
258.685	79.44
258.918	82.44
259.151	80.44
259.383	69.44
259.616	85.44
259.849	82.44
260.081	93.44
260.314	89.44
260.547	76.44
260.779	80.44
261.012	103.44
261.244	113.44
261.477	102.44
261.71	88.44
261.942	135.44
262.175	159.44
262.407	93.44
262.64	81.44
262.872	88.44
263.105	85.44
263.337	83.44
263.57	77.44
263.802	81.44
264.035	83.44
264.267	85.44
264.499	83.44
264.732	83.44
264.964	86.44
265.197	88.44
265.429	74.44
265.661	70.44
265.894	73.44
266.126	80.44
266.358	83.44
266.591	78.44
266.823	81.44
267.055	79.44
267.287	78.44
267.52	82.44
267.752	99.44
267.984	87.44
268.216	86.44
268.448	98.44
268.681	85.44
268.913	80.44
269.145	94.44
269.377	89.44
269.609	98.44
269.841	78.44
270.073	85.44
270.306	84.44
270.538	90.44
270.77	84.44
271.002	82.44
271.234	90.44
271.466	81.44
271.698	88.44
271.93	65.44
272.162	98.44
272.394	77.44
272.626	81.44
272.858	65.44
273.09	85.44
273.322	99.44
273.553	86.44
273.785	97.44
274.017	90.44
274.249	94.44
274.481	87.44
274.713	91.44
274.945	90.44
275.176	88.44
275.408	104.44
275.64	96.44
275.872	122.44
276.104	105.44
276.335	96.44
276.567	127.44
276.799	155.44
277.031	177.44
277.262	201.44
277.494	150.44
277.726	119.44
277.957	83.44
278.189	93.44
278.421	85.44
278.652	93.44
278.884	79.44
279.115	92.44
279.347	88.44
279.579	98.44
279.81	128.44
280.042	201.44
280.273	288.44
280.505	181.44
280.736	127.44
280.968	86.44
281.199	89.44
281.431	90.44
281.662	83.44
281.894	85.44
282.125	103.44
282.356	121.44
282.588	155.44
282.819	140.44
283.051	82.44
283.282	95.44
283.513	93.44
283.745	89.44
283.976	97.44
284.207	88.44
284.439	86.44
284.67	91.44
284.901	70.44
285.132	77.44
285.364	89.44
285.595	83.44
285.826	89.44
286.057	90.44
286.288	82.44
286.52	78.44
286.751	79.44
286.982	66.44
287.213	88.44
287.444	81.44
287.675	98.44
287.906	86.44
288.138	87.44
288.369	95.44
288.6	100.44
288.831	81.44
289.062	90.44
289.293	102.44
289.524	74.44
289.755	92.44
289.986	81.44
290.217	84.44
290.448	79.44
290.679	98.44
290.91	100.44
291.141	89.44
291.371	93.44
291.602	76.44
291.833	103.44
292.064	99.44
292.295	91.44
292.526	93.44
292.757	94.44
292.987	96.44
293.218	94.44
293.449	80.44
293.68	95.44
293.91	88.44
294.141	90.44
294.372	89.44
294.603	86.44
294.833	94.44
295.064	113.44
295.295	94.44
295.525	90.44
295.756	101.44
295.987	132.44
296.217	148.44
296.448	143.44
296.679	101.44
296.909	95.44
297.14	110.44
297.37	83.44
297.601	82.44
297.831	88.44
298.062	85.44
298.292	82.44
298.523	81.44
298.753	77.44
298.984	96.44
299.214	93.44
299.445	102.44
299.675	96.44
299.905	84.44
300.136	97.44
300.366	89.44
300.597	110.44
300.827	98.44
301.057	96.44
301.288	102.44
301.518	101.44
301.748	94.44
301.979	104.44
302.209	105.44
302.439	95.44
302.669	98.44
302.9	97.44
303.13	88.44
303.36	102.44
303.59	121.44
303.82	168.44
304.051	103.44
304.281	94.44
304.511	98.44
304.741	94.44
304.971	90.44
305.201	94.44
305.431	92.44
305.661	89.44
305.891	91.44
306.121	89.44
306.352	112.44
306.582	111.44
306.812	94.44
307.042	127.44
307.272	165.44
307.502	197.44
307.731	178.44
307.961	128.44
308.191	97.44
308.421	101.44
308.651	87.44
308.881	98.44
309.111	94.44
309.341	95.44
309.571	87.44
309.8	107.44
310.03	102.44
310.26	113.44
310.49	94.44
310.72	105.44
310.949	115.44
311.179	114.44
311.409	97.44
311.639	96.44
311.868	95.44
312.098	103.44
312.328	96.44
312.557	99.44
312.787	120.44
313.017	102.44
313.246	97.44
313.476	90.44
313.706	95.44
313.935	96.44
314.165	105.44
314.394	107.44
314.624	100.44
314.853	105.44
315.083	82.44
315.312	93.44
315.542	94.44
315.771	80.44
316.001	91.44
316.23	84.44
316.46	87.44
316.689	84.44
316.919	96.44
317.148	112.44
317.377	100.44
317.607	102.44
317.836	110.44
318.065	98.44
318.295	102.44
318.524	93.44
318.753	93.44
318.983	89.44
319.212	98.44
319.441	111.44
319.67	126.44
319.9	107.44
320.129	98.44
320.358	89.44
320.587	106.44
320.816	91.44
321.046	123.44
321.275	94.44
321.504	90.44
321.733	103.44
321.962	102.44
322.191	106.44
322.42	110.44
322.649	129.44
322.878	117.44
323.108	135.44
323.337	149.44
323.566	141.44
323.795	186.44
324.024	262.44
324.253	512.44
324.482	1102.44
324.71	2342.44
324.939	3070.44
325.168	1097.44
325.397	299.44
325.626	184.44
325.855	149.44
326.084	145.44
326.313	137.44
326.542	191.44
326.77	253.44
326.999	546.44
327.228	1147.44
327.457	2182.44
327.686	1745.44
327.914	589.44
328.143	568.44
328.372	718.44
328.6	412.44
328.829	203.44
329.058	195.44
329.287	202.44
329.515	173.44
329.744	259.44
329.972	514.44
330.201	1088.44
330.43	1623.44
330.658	704.44
330.887	306.44
331.115	199.44
331.344	144.44
331.572	122.44
331.801	129.44
332.03	109.44
332.258	124.44
332.486	99.44
332.715	106.44
332.943	117.44
333.172	120.44
333.4	147.44
333.629	162.44
333.857	248.44
334.085	455.44
334.314	974.44
334.542	1966.44
334.771	1818.44
334.999	471.44
335.227	186.44
335.455	128.44
335.684	121.44
335.912	105.44
336.14	93.44
336.369	109.44
336.597	115.44
336.825	94.44
337.053	117.44
337.281	104.44
337.51	113.44
337.738	101.44
337.966	104.44
338.194	93.44
338.422	105.44
338.65	97.44
338.878	95.44
339.106	88.44
339.334	85.44
339.562	89.44
339.79	86.44
340.018	95.44
340.246	101.44
340.474	99.44
340.702	97.44
340.93	87.44
341.158	109.44
341.386	96.44
341.614	109.44
341.842	99.44
342.07	79.44
342.298	91.44
342.526	85.44
342.754	91.44
342.981	91.44
343.209	91.44
343.437	97.44
343.665	87.44
343.893	106.44
344.12	83.44
344.348	80.44
344.576	83.44
344.804	95.44
345.031	102.44
345.259	112.44
345.487	110.44
345.714	79.44
345.942	84.44
346.17	84.44
346.397	88.44
346.625	87.44
346.853	91.44
347.08	105.44
347.308	98.44
347.535	105.44
347.763	102.44
347.99	107.44
348.218	111.44
348.445	116.44
348.673	95.44
348.9	87.44
349.128	95.44
349.355	97.44
349.583	97.44
349.81	91.44
350.037	93.44
350.265	101.44
350.492	70.44
350.72	90.44
350.947	97.44
351.174	113.44
351.402	118.44
351.629	110.44
351.856	107.44
352.083	118.44
352.311	128.44
352.538	137.44
352.765	123.44
352.992	112.44
353.22	109.44
353.447	114.44
353.674	104.44
353.901	105.44
354.128	94.44
354.355	95.44
354.583	103.44
354.81	107.44
355.037	90.44
355.264	93.44
355.491	91.44
355.718	85.44
355.945	83.44
356.172	102.44
356.399	104.44
356.626	102.44
356.853	96.44
357.08	87.44
357.307	92.44
357.534	91.44
357.761	95.44
357.988	98.44
358.215	100.44
358.441	99.44
358.668	98.44
358.895	83.44
359.122	108.44
359.349	83.44
359.576	95.44
359.802	105.44
360.029	149.44
360.256	135.44
360.483	115.44
360.709	87.44
360.936	92.44
361.163	106.44
361.39	123.44
361.616	87.44
361.843	94.44
362.07	95.44
362.296	102.44
362.523	98.44
362.749	103.44
362.976	99.44
363.203	82.44
363.429	93.44
363.656	98.44
363.882	79.44
364.109	95.44
364.335	90.44
364.562	102.44
364.788	87.44
365.015	103.44
365.241	97.44
365.468	105.44
365.694	123.44
365.92	89.44
366.147	103.44
366.373	98.44
366.599	89.44
366.826	95.44
367.052	92.44
367.278	89.44
367.505	94.44
367.731	88.44
367.957	91.44
368.184	86.44
368.41	94.44
368.636	125.44
368.862	125.44
369.089	124.44
369.315	101.44
369.541	76.44
369.767	83.44
369.993	101.44
370.219	93.44
370.445	92.44
370.672	79.44
370.898	92.44
371.124	85.44
371.35	82.44
371.576	87.44
371.802	95.44
372.028	82.44
372.254	77.44
372.48	84.44
372.706	76.44
372.932	80.44
373.158	79.44
373.384	74.44
373.61	79.44
373.835	80.44
374.061	74.44
374.287	97.44
374.513	92.44
374.739	80.44
374.965	73.44
375.191	87.44
375.416	94.44
375.642	101.44
375.868	83.44
376.094	85.44
376.319	92.44
376.545	93.44
376.771	103.44
376.997	91.44
377.222	66.44
377.448	79.44
377.674	85.44
377.899	101.44
378.125	85.44
378.35	83.44
378.576	96.44
378.802	85.44
379.027	82.44
379.253	105.44
379.478	91.44
379.704	82.44
379.929	91.44
380.155	96.44
380.38	97.44
380.606	85.44
380.831	104.44
381.057	95.44
381.282	89.44
381.507	109.44
381.733	65.44
381.958	98.44
382.184	113.44
382.409	118.44
382.634	105.44
382.86	103.44
383.085	98.44
383.31	95.44
383.535	99.44
383.761	101.44
383.986	97.44
384.211	103.44
384.436	102.44
384.662	104.44
384.887	94.44
385.112	106.44
385.337	103.44
385.562	108.44
385.787	105.44
386.013	108.44
386.238	133.44
386.463	126.44
386.688	109.44
386.913	103.44
387.138	105.44
387.363	116.44
387.588	111.44
387.813	94.44
388.038	108.44
388.263	107.44
388.488	108.44
388.713	89.44
388.938	96.44
389.163	83.44
389.387	87.44
389.612	97.44
389.837	97.44
390.062	98.44
390.287	89.44
390.512	94.44
390.736	99.44
390.961	83.44
391.186	80.44
391.411	81.44
391.636	89.44
391.86	87.44
392.085	88.44
392.31	84.44
392.534	75.44
392.759	83.44
392.984	78.44
393.208	78.44
393.433	92.44
393.658	83.44
393.882	87.44
394.107	84.44
394.331	97.44
394.556	85.44
394.78	86.44
395.005	81.44
395.229	97.44
395.454	83.44
395.678	81.44
395.903	86.44
396.127	95.44
396.352	93.44
396.576	86.44
396.801	73.44
397.025	105.44
397.249	73.44
397.474	99.44
397.698	105.44
397.922	86.44
398.147	97.44
398.371	76.44
398.595	82.44
398.82	92.44
399.044	87.44
399.268	84.44
399.492	72.44
399.717	99.44
399.941	73.44
400.165	97.44
400.389	105.44
400.613	111.44
400.837	86.44
401.062	90.44
401.286	98.44
401.51	97.44
401.734	86.44
401.958	110.44
402.182	138.44
402.406	200.44
402.63	163.44
402.854	108.44
403.078	92.44
403.302	85.44
403.526	87.44
403.75	88.44
403.974	77.44
404.198	99.44
404.422	93.44
404.645	81.44
404.869	83.44
405.093	112.44
405.317	151.44
405.541	135.44
405.765	122.44
405.988	154.44
406.212	221.44
406.436	321.44
406.66	198.44
406.883	125.44
407.107	102.44
407.331	97.44
407.555	105.44
407.778	100.44
408.002	99.44
408.226	81.44
408.449	88.44
408.673	100.44
408.896	94.44
409.12	101.44
409.344	90.44
409.567	85.44
409.791	84.44
410.014	87.44
410.238	85.44
410.461	79.44
410.685	110.44
410.908	96.44
411.132	110.44
411.355	95.44
411.578	103.44
411.802	91.44
412.025	105.44
412.249	109.44
412.472	121.44
412.695	129.44
412.919	103.44
413.142	78.44
413.365	94.44
413.589	96.44
413.812	92.44
414.035	99.44
414.258	96.44
414.482	108.44
414.705	89.44
414.928	98.44
415.151	93.44
415.374	88.44
415.597	97.44
415.821	94.44
416.044	101.44
416.267	100.44
416.49	88.44
416.713	91.44
416.936	78.44
417.159	82.44
417.382	96.44
417.605	107.44
417.828	108.44
418.051	96.44
418.274	84.44
418.497	95.44
418.72	81.44
418.943	78.44
419.166	81.44
419.389	87.44
419.611	88.44
419.834	77.44
420.057	101.44
420.28	87.44
420.503	97.44
420.726	84.44
420.948	88.44
421.171	99.44
421.394	99.44
421.617	99.44
421.839	86.44
422.062	82.44
422.285	93.44
422.507	106.44
422.73	99.44
422.953	99.44
423.175	93.44
423.398	86.44
423.621	93.44
423.843	82.44
424.066	78.44
424.288	89.44
424.511	88.44
424.733	104.44
424.956	129.44
425.178	111.44
425.401	98.44
425.623	111.44
425.846	107.44
426.068	94.44
426.291	99.44
426.513	93.44
426.735	89.44
426.958	123.44
427.18	124.44
427.402	182.44
427.625	247.44
427.847	233.44
428.069	229.44
428.292	106.44
428.514	102.44
428.736	107.44
428.958	86.44
429.181	87.44
429.403	87.44
429.625	85.44
429.847	95.44
430.069	103.44
430.292	99.44
430.514	68.44
430.736	63.44
430.958	90.44
431.18	90.44
431.402	92.44
431.624	84.44
431.846	83.44
432.068	91.44
432.29	80.44
432.512	87.44
432.734	69.44
432.956	85.44
433.178	104.44
433.4	107.44
433.622	84.44
433.844	101.44
434.066	97.44
434.287	93.44
434.509	95.44
434.731	100.44
434.953	96.44
435.175	90.44
435.397	95.44
435.618	110.44
435.84	96.44
436.062	143.44
436.284	110.44
436.505	106.44
436.727	93.44
436.949	95.44
437.17	95.44
437.392	99.44
437.614	87.44
437.835	119.44
438.057	151.44
438.278	129.44
438.5	122.44
438.721	138.44
438.943	98.44
439.165	87.44
439.386	86.44
439.608	92.44
439.829	113.44
440.05	137.44
440.272	189.44
440.493	114.44
440.715	85.44
440.936	89.44
441.158	92.44
441.379	99.44
441.6	105.44
441.822	98.44
442.043	101.44
442.264	121.44
442.486	99.44
442.707	82.44
442.928	118.44
443.149	185.44
443.371	192.44
443.592	134.44
443.813	123.44
444.034	113.44
444.255	84.44
444.476	91.44
444.698	101.44
444.919	103.44
445.14	134.44
445.361	137.44
445.582	140.44
445.803	189.44
446.024	166.44
446.245	170.44
446.466	130.44
446.687	99.44
446.908	81.44
447.129	97.44
447.35	103.44
447.571	92.44
447.792	100.44
448.013	103.44
448.234	106.44
448.455	91.44
448.675	112.44
448.896	109.44
449.117	98.44
449.338	115.44
449.559	147.44
449.779	145.44
450	105.44
450.221	91.44
450.442	84.44
450.662	116.44
450.883	133.44
451.104	152.44
451.324	115.44
451.545	90.44
451.766	86.44
451.986	90.44
452.207	88.44
452.428	103.44
452.648	116.44
452.869	138.44
453.089	149.44
453.31	162.44
453.53	105.44
453.751	92.44
453.971	120.44
454.192	136.44
454.412	105.44
454.633	89.44
454.853	98.44
455.073	96.44
455.294	97.44
455.514	115.44
455.734	91.44
455.955	87.44
456.175	74.44
456.395	73.44
456.616	88.44
456.836	94.44
457.056	88.44
457.276	85.44
457.497	83.44
457.717	86.44
457.937	86.44
458.157	80.44
458.377	101.44
458.598	117.44
458.818	236.44
459.038	239.44
459.258	131.44
459.478	112.44
459.698	93.44
459.918	94.44
460.138	85.44
460.358	74.44
460.578	83.44
460.798	92.44
461.018	91.44
461.238	85.44
461.458	72.44
461.678	87.44
461.898	82.44
462.118	79.44
462.338	79.44
462.558	89.44
462.777	96.44
462.997	102.44
463.217	104.44
463.437	96.44
463.657	92.44
463.876	89.44
464.096	97.44
464.316	97.44
464.536	114.44
464.755	102.44
464.975	120.44
465.195	233.44
465.414	228.44
465.634	110.44
465.854	94.44
466.073	81.44
466.293	96.44
466.512	83.44
466.732	79.44
466.951	95.44
467.171	89.44
467.391	108.44
467.61	153.44
467.829	223.44
468.049	635.44
468.268	989.44
468.488	243.44
468.707	107.44
468.927	85.44
469.146	91.44
469.365	88.44
469.585	93.44
469.804	98.44
470.023	108.44
470.243	122.44
470.462	129.44
470.681	140.44
470.901	113.44
471.12	106.44
471.339	99.44
471.558	121.44
471.777	164.44
471.997	323.44
472.216	1197.44
472.435	2863.44
472.654	631.44
472.873	168.44
473.092	128.44
473.311	89.44
473.53	81.44
473.749	106.44
473.968	104.44
474.187	124.44
474.406	110.44
474.625	97.44
474.844	103.44
475.063	89.44
475.282	88.44
475.501	81.44
475.72	98.44
475.939	98.44
476.158	87.44
476.377	86.44
476.596	103.44
476.814	117.44
477.033	96.44
477.252	81.44
477.471	85.44
477.69	100.44
477.908	91.44
478.127	106.44
478.346	99.44
478.564	86.44
478.783	95.44
479.002	99.44
479.22	111.44
479.439	127.44
479.658	142.44
479.876	128.44
480.095	123.44
480.313	124.44
480.532	163.44
480.751	302.44
480.969	1113.44
481.188	4795.44
481.406	2801.44
481.624	395.44
481.843	139.44
482.061	116.44
482.28	110.44
482.498	100.44
482.717	97.44
482.935	87.44
483.153	99.44
483.372	110.44
483.59	90.44
483.808	94.44
484.027	85.44
484.245	87.44
484.463	98.44
484.681	106.44
484.9	83.44
485.118	90.44
485.336	103.44
485.554	101.44
485.772	110.44
485.99	115.44
486.209	96.44
486.427	112.44
486.645	123.44
486.863	139.44
487.081	111.44
487.299	101.44
487.517	102.44
487.735	104.44
487.953	86.44
488.171	90.44
488.389	90.44
488.607	114.44
488.825	84.44
489.043	85.44
489.261	97.44
489.479	95.44
489.696	98.44
489.914	78.44
490.132	80.44
490.35	96.44
490.568	101.44
490.786	107.44
491.003	91.44
491.221	82.44
491.439	93.44
491.657	111.44
491.874	96.44
492.092	89.44
492.31	93.44
492.527	97.44
492.745	89.44
492.963	93.44
493.18	92.44
493.398	100.44
493.615	94.44
493.833	90.44
494.05	98.44
494.268	91.44
494.485	82.44
494.703	90.44
494.92	104.44
495.138	78.44
495.355	94.44
495.573	89.44
495.79	88.44
496.008	104.44
496.225	78.44
496.442	90.44
496.66	89.44
496.877	85.44
497.094	98.44
497.312	91.44
497.529	83.44
497.746	79.44
497.963	85.44
498.181	84.44
498.398	105.44
498.615	126.44
498.832	115.44
499.049	90.44
499.267	91.44
499.484	89.44
499.701	98.44
499.918	81.44
500.135	81.44
500.352	73.44
500.569	94.44
500.786	89.44
501.003	93.44
501.22	90.44
501.437	91.44
501.654	80.44
501.871	130.44
502.088	92.44
502.305	80.44
502.522	91.44
502.739	91.44
502.956	97.44
503.172	94.44
503.389	110.44
503.606	129.44
503.823	99.44
504.04	109.44
504.256	103.44
504.473	86.44
504.69	90.44
504.907	95.44
505.123	78.44
505.34	88.44
505.557	85.44
505.773	88.44
505.99	86.44
506.207	99.44
506.423	85.44
506.64	92.44
506.856	82.44
507.073	96.44
507.289	103.44
507.506	106.44
507.722	130.44
507.939	134.44
508.155	97.44
508.372	105.44
508.588	109.44
508.805	99.44
509.021	99.44
509.238	99.44
509.454	94.44
509.67	114.44
509.887	109.44
510.103	141.44
510.319	244.44
510.536	945.44
510.752	3397.44
510.968	885.44
511.184	190.44
511.401	139.44
511.617	100.44
511.833	102.44
512.049	97.44
512.265	85.44
512.481	99.44
512.698	109.44
512.914	79.44
513.13	105.44
513.346	81.44
513.562	100.44
