Data from Circ_1995_H10_HRD10591_00013.txt Node
Date: Wed Jan 03 11:36:49 EST 2024
User: Yrep
Spectrometer: HR+D1059
Trigger mode: 1
Integration Time (sec): 1.000000E-1
Scans to average: 1
Electric dark correction enabled: true
Nonlinearity correction enabled: false
Boxcar width: 0
XAxis mode: Wavelengths
Number of Pixels in Spectrum: 2048
>>>>>Begin Spectral Data<<<<<
223.165	-25.38
223.4	-25.38
223.635	-25.38
223.869	-29.38
224.104	-10.38
224.338	-19.38
224.573	-7.38
224.808	-6.38
225.042	4.62
225.277	-20.38
225.511	-7.38
225.746	4.62
225.98	9.62
226.215	6.62
226.449	24.62
226.683	28.62
226.918	20.62
227.152	26.62
227.387	36.62
227.621	22.62
227.856	34.62
228.09	42.62
228.324	50.62
228.559	44.62
228.793	52.62
229.027	47.62
229.262	66.62
229.496	81.62
229.73	96.62
229.964	88.62
230.199	86.62
230.433	77.62
230.667	84.62
230.901	93.62
231.136	81.62
231.37	87.62
231.604	95.62
231.838	92.62
232.072	88.62
232.306	70.62
232.541	80.62
232.775	77.62
233.009	76.62
233.243	77.62
233.477	85.62
233.711	83.62
233.945	88.62
234.179	89.62
234.413	74.62
234.647	95.62
234.881	82.62
235.115	80.62
235.349	84.62
235.583	88.62
235.817	78.62
236.051	76.62
236.285	76.62
236.519	75.62
236.753	82.62
236.987	65.62
237.221	84.62
237.455	95.62
237.689	91.62
237.922	101.62
238.156	81.62
238.39	89.62
238.624	84.62
238.858	72.62
239.091	93.62
239.325	88.62
239.559	86.62
239.793	92.62
240.027	80.62
240.26	74.62
240.494	83.62
240.728	83.62
240.961	78.62
241.195	93.62
241.429	91.62
241.662	67.62
241.896	80.62
242.13	86.62
242.363	88.62
242.597	72.62
242.83	74.62
243.064	79.62
243.298	78.62
243.531	84.62
243.765	92.62
243.998	92.62
244.232	66.62
244.465	89.62
244.699	90.62
244.932	69.62
245.166	62.62
245.399	87.62
245.633	79.62
245.866	92.62
246.099	75.62
246.333	87.62
246.566	98.62
246.8	82.62
247.033	77.62
247.266	84.62
247.5	76.62
247.733	92.62
247.966	87.62
248.2	83.62
248.433	89.62
248.666	80.62
248.899	74.62
249.133	96.62
249.366	94.62
249.599	116.62
249.832	85.62
250.066	83.62
250.299	86.62
250.532	87.62
250.765	84.62
250.998	82.62
251.231	77.62
251.465	94.62
251.698	98.62
251.931	97.62
252.164	92.62
252.397	81.62
252.63	90.62
252.863	84.62
253.096	77.62
253.329	67.62
253.562	84.62
253.795	88.62
254.028	99.62
254.261	87.62
254.494	85.62
254.727	92.62
254.96	69.62
255.193	84.62
255.426	88.62
255.659	79.62
255.892	101.62
256.124	95.62
256.357	99.62
256.59	89.62
256.823	83.62
257.056	93.62
257.289	85.62
257.521	83.62
257.754	96.62
257.987	80.62
258.22	85.62
258.452	109.62
258.685	109.62
258.918	109.62
259.151	95.62
259.383	92.62
259.616	89.62
259.849	81.62
260.081	83.62
260.314	91.62
260.547	81.62
260.779	96.62
261.012	93.62
261.244	105.62
261.477	96.62
261.71	126.62
261.942	130.62
262.175	170.62
262.407	129.62
262.64	82.62
262.872	84.62
263.105	77.62
263.337	90.62
263.57	93.62
263.802	105.62
264.035	88.62
264.267	84.62
264.499	79.62
264.732	83.62
264.964	83.62
265.197	82.62
265.429	82.62
265.661	83.62
265.894	90.62
266.126	108.62
266.358	84.62
266.591	102.62
266.823	78.62
267.055	73.62
267.287	90.62
267.52	81.62
267.752	80.62
267.984	85.62
268.216	82.62
268.448	82.62
268.681	91.62
268.913	94.62
269.145	101.62
269.377	84.62
269.609	88.62
269.841	89.62
270.073	87.62
270.306	70.62
270.538	90.62
270.77	85.62
271.002	95.62
271.234	98.62
271.466	102.62
271.698	102.62
271.93	82.62
272.162	78.62
272.394	93.62
272.626	90.62
272.858	83.62
273.09	93.62
273.322	82.62
273.553	82.62
273.785	81.62
274.017	79.62
274.249	96.62
274.481	106.62
274.713	102.62
274.945	97.62
275.176	83.62
275.408	113.62
275.64	126.62
275.872	125.62
276.104	105.62
276.335	101.62
276.567	128.62
276.799	167.62
277.031	196.62
277.262	224.62
277.494	157.62
277.726	102.62
277.957	90.62
278.189	91.62
278.421	102.62
278.652	94.62
278.884	86.62
279.115	97.62
279.347	96.62
279.579	90.62
279.81	139.62
280.042	208.62
280.273	282.62
280.505	197.62
280.736	121.62
280.968	90.62
281.199	97.62
281.431	84.62
281.662	89.62
281.894	84.62
282.125	110.62
282.356	126.62
282.588	188.62
282.819	131.62
283.051	96.62
283.282	93.62
283.513	84.62
283.745	94.62
283.976	100.62
284.207	84.62
284.439	97.62
284.67	89.62
284.901	93.62
285.132	90.62
285.364	97.62
285.595	95.62
285.826	85.62
286.057	97.62
286.288	92.62
286.52	89.62
286.751	88.62
286.982	80.62
287.213	78.62
287.444	93.62
287.675	98.62
287.906	98.62
288.138	107.62
288.369	91.62
288.6	96.62
288.831	107.62
289.062	98.62
289.293	82.62
289.524	86.62
289.755	93.62
289.986	88.62
290.217	74.62
290.448	94.62
290.679	92.62
290.91	78.62
291.141	85.62
291.371	89.62
291.602	85.62
291.833	96.62
292.064	78.62
292.295	84.62
292.526	95.62
292.757	88.62
292.987	92.62
293.218	103.62
293.449	89.62
293.68	93.62
293.91	78.62
294.141	105.62
294.372	96.62
294.603	88.62
294.833	96.62
295.064	79.62
295.295	94.62
295.525	91.62
295.756	104.62
295.987	148.62
296.217	188.62
296.448	171.62
296.679	114.62
296.909	95.62
297.14	82.62
297.37	92.62
297.601	102.62
297.831	111.62
298.062	107.62
298.292	99.62
298.523	104.62
298.753	102.62
298.984	96.62
299.214	90.62
299.445	97.62
299.675	93.62
299.905	101.62
300.136	93.62
300.366	103.62
300.597	88.62
300.827	102.62
301.057	112.62
301.288	117.62
301.518	110.62
301.748	103.62
301.979	125.62
302.209	105.62
302.439	112.62
302.669	97.62
302.9	73.62
303.13	93.62
303.36	110.62
303.59	132.62
303.82	170.62
304.051	117.62
304.281	102.62
304.511	100.62
304.741	93.62
304.971	83.62
305.201	88.62
305.431	76.62
305.661	96.62
305.891	99.62
306.121	102.62
306.352	119.62
306.582	125.62
306.812	112.62
307.042	122.62
307.272	163.62
307.502	188.62
307.731	172.62
307.961	127.62
308.191	95.62
308.421	85.62
308.651	93.62
308.881	104.62
309.111	86.62
309.341	111.62
309.571	109.62
309.8	106.62
310.03	124.62
310.26	108.62
310.49	117.62
310.72	97.62
310.949	116.62
311.179	127.62
311.409	109.62
311.639	117.62
311.868	105.62
312.098	116.62
312.328	104.62
312.557	133.62
312.787	137.62
313.017	138.62
313.246	109.62
313.476	101.62
313.706	81.62
313.935	100.62
314.165	112.62
314.394	138.62
314.624	129.62
314.853	122.62
315.083	108.62
315.312	93.62
315.542	81.62
315.771	96.62
316.001	102.62
316.23	81.62
316.46	88.62
316.689	92.62
316.919	103.62
317.148	117.62
317.377	112.62
317.607	92.62
317.836	112.62
318.065	109.62
318.295	90.62
318.524	91.62
318.753	110.62
318.983	100.62
319.212	122.62
319.441	115.62
319.67	128.62
319.9	111.62
320.129	100.62
320.358	77.62
320.587	95.62
320.816	122.62
321.046	119.62
321.275	105.62
321.504	99.62
321.733	97.62
321.962	97.62
322.191	104.62
322.42	118.62
322.649	118.62
322.878	133.62
323.108	113.62
323.337	155.62
323.566	162.62
323.795	183.62
324.024	237.62
324.253	486.62
324.482	1073.62
324.71	2225.62
324.939	2930.62
325.168	1089.62
325.397	334.62
325.626	181.62
325.855	144.62
326.084	149.62
326.313	153.62
326.542	178.62
326.77	273.62
326.999	561.62
327.228	1157.62
327.457	2049.62
327.686	1674.62
327.914	576.62
328.143	552.62
328.372	752.62
328.6	416.62
328.829	187.62
329.058	213.62
329.287	238.62
329.515	185.62
329.744	253.62
329.972	481.62
330.201	1014.62
330.43	1545.62
330.658	703.62
330.887	321.62
331.115	214.62
331.344	136.62
331.572	124.62
331.801	145.62
332.03	129.62
332.258	121.62
332.486	109.62
332.715	114.62
332.943	111.62
333.172	116.62
333.4	123.62
333.629	172.62
333.857	241.62
334.085	460.62
334.314	924.62
334.542	1819.62
334.771	1788.62
334.999	474.62
335.227	200.62
335.455	133.62
335.684	131.62
335.912	117.62
336.14	101.62
336.369	113.62
336.597	117.62
336.825	116.62
337.053	105.62
337.281	96.62
337.51	97.62
337.738	101.62
337.966	106.62
338.194	107.62
338.422	110.62
338.65	92.62
338.878	100.62
339.106	89.62
339.334	101.62
339.562	105.62
339.79	88.62
340.018	99.62
340.246	113.62
340.474	108.62
340.702	93.62
340.93	105.62
341.158	97.62
341.386	108.62
341.614	102.62
341.842	107.62
342.07	97.62
342.298	105.62
342.526	100.62
342.754	102.62
342.981	101.62
343.209	105.62
343.437	95.62
343.665	86.62
343.893	94.62
344.12	91.62
344.348	85.62
344.576	86.62
344.804	112.62
345.031	114.62
345.259	114.62
345.487	113.62
345.714	106.62
345.942	97.62
346.17	91.62
346.397	91.62
346.625	106.62
346.853	97.62
347.08	101.62
347.308	99.62
347.535	110.62
347.763	131.62
347.99	112.62
348.218	115.62
348.445	121.62
348.673	123.62
348.9	114.62
349.128	108.62
349.355	107.62
349.583	92.62
349.81	100.62
350.037	108.62
350.265	101.62
350.492	104.62
350.72	103.62
350.947	125.62
351.174	112.62
351.402	118.62
351.629	112.62
351.856	129.62
352.083	118.62
352.311	125.62
352.538	128.62
352.765	129.62
352.992	133.62
353.22	133.62
353.447	115.62
353.674	111.62
353.901	91.62
354.128	98.62
354.355	92.62
354.583	101.62
354.81	97.62
355.037	94.62
355.264	88.62
355.491	96.62
355.718	77.62
355.945	93.62
356.172	95.62
356.399	98.62
356.626	102.62
356.853	97.62
357.08	77.62
357.307	92.62
357.534	97.62
357.761	89.62
357.988	98.62
358.215	96.62
358.441	104.62
358.668	88.62
358.895	92.62
359.122	102.62
359.349	106.62
359.576	101.62
359.802	122.62
360.029	161.62
360.256	173.62
360.483	135.62
360.709	104.62
360.936	100.62
361.163	95.62
361.39	115.62
361.616	114.62
361.843	101.62
362.07	106.62
362.296	123.62
362.523	95.62
362.749	120.62
362.976	117.62
363.203	107.62
363.429	100.62
363.656	92.62
363.882	93.62
364.109	99.62
364.335	114.62
364.562	113.62
364.788	102.62
365.015	109.62
365.241	108.62
365.468	134.62
365.694	147.62
365.92	102.62
366.147	97.62
366.373	94.62
366.599	101.62
366.826	101.62
367.052	97.62
367.278	87.62
367.505	93.62
367.731	103.62
367.957	106.62
368.184	107.62
368.41	110.62
368.636	130.62
368.862	139.62
369.089	126.62
369.315	108.62
369.541	109.62
369.767	108.62
369.993	99.62
370.219	97.62
370.445	87.62
370.672	89.62
370.898	97.62
371.124	104.62
371.35	105.62
371.576	101.62
371.802	99.62
372.028	100.62
372.254	95.62
372.48	106.62
372.706	82.62
372.932	92.62
373.158	83.62
373.384	95.62
373.61	101.62
373.835	107.62
374.061	103.62
374.287	96.62
374.513	97.62
374.739	98.62
374.965	78.62
375.191	92.62
375.416	88.62
375.642	102.62
375.868	109.62
376.094	107.62
376.319	107.62
376.545	106.62
376.771	88.62
376.997	93.62
377.222	91.62
377.448	92.62
377.674	98.62
377.899	101.62
378.125	91.62
378.35	100.62
378.576	100.62
378.802	100.62
379.027	101.62
379.253	91.62
379.478	83.62
379.704	108.62
379.929	103.62
380.155	112.62
380.38	112.62
380.606	104.62
380.831	103.62
381.057	106.62
381.282	105.62
381.507	98.62
381.733	117.62
381.958	120.62
382.184	117.62
382.409	90.62
382.634	112.62
382.86	109.62
383.085	105.62
383.31	116.62
383.535	106.62
383.761	115.62
383.986	99.62
384.211	110.62
384.436	99.62
384.662	116.62
384.887	117.62
385.112	119.62
385.337	116.62
385.562	111.62
385.787	126.62
386.013	138.62
386.238	138.62
386.463	128.62
386.688	123.62
386.913	123.62
387.138	136.62
387.363	112.62
387.588	107.62
387.813	105.62
388.038	122.62
388.263	132.62
388.488	146.62
388.713	104.62
388.938	107.62
389.163	90.62
389.387	88.62
389.612	91.62
389.837	91.62
390.062	98.62
390.287	84.62
390.512	82.62
390.736	101.62
390.961	93.62
391.186	98.62
391.411	105.62
391.636	96.62
391.86	86.62
392.085	96.62
392.31	92.62
392.534	93.62
392.759	81.62
392.984	98.62
393.208	101.62
393.433	99.62
393.658	95.62
393.882	100.62
394.107	80.62
394.331	90.62
394.556	89.62
394.78	108.62
395.005	88.62
395.229	77.62
395.454	102.62
395.678	91.62
395.903	100.62
396.127	83.62
396.352	81.62
396.576	78.62
396.801	94.62
397.025	97.62
397.249	86.62
397.474	107.62
397.698	81.62
397.922	76.62
398.147	92.62
398.371	86.62
398.595	84.62
398.82	101.62
399.044	94.62
399.268	96.62
399.492	90.62
399.717	78.62
399.941	97.62
400.165	101.62
400.389	89.62
400.613	98.62
400.837	93.62
401.062	95.62
401.286	107.62
401.51	92.62
401.734	98.62
401.958	115.62
402.182	164.62
402.406	230.62
402.63	155.62
402.854	120.62
403.078	102.62
403.302	95.62
403.526	93.62
403.75	96.62
403.974	79.62
404.198	87.62
404.422	105.62
404.645	90.62
404.869	110.62
405.093	124.62
405.317	152.62
405.541	142.62
405.765	132.62
405.988	125.62
406.212	241.62
406.436	361.62
406.66	241.62
406.883	129.62
407.107	110.62
407.331	117.62
407.555	117.62
407.778	116.62
408.002	107.62
408.226	89.62
408.449	94.62
408.673	95.62
408.896	100.62
409.12	104.62
409.344	99.62
409.567	92.62
409.791	98.62
410.014	92.62
410.238	86.62
410.461	100.62
410.685	87.62
410.908	111.62
411.132	110.62
411.355	117.62
411.578	91.62
411.802	96.62
412.025	98.62
412.249	92.62
412.472	129.62
412.695	125.62
412.919	116.62
413.142	93.62
413.365	93.62
413.589	89.62
413.812	102.62
414.035	82.62
414.258	86.62
414.482	92.62
414.705	84.62
414.928	98.62
415.151	95.62
415.374	107.62
415.597	100.62
415.821	98.62
416.044	84.62
416.267	106.62
416.49	96.62
416.713	96.62
416.936	87.62
417.159	107.62
417.382	90.62
417.605	112.62
417.828	120.62
418.051	108.62
418.274	96.62
418.497	85.62
418.72	103.62
418.943	96.62
419.166	78.62
419.389	97.62
419.611	87.62
419.834	102.62
420.057	84.62
420.28	94.62
420.503	107.62
420.726	91.62
420.948	98.62
421.171	114.62
421.394	111.62
421.617	75.62
421.839	91.62
422.062	81.62
422.285	95.62
422.507	108.62
422.73	131.62
422.953	111.62
423.175	97.62
423.398	77.62
423.621	82.62
423.843	81.62
424.066	85.62
424.288	83.62
424.511	113.62
424.733	98.62
424.956	126.62
425.178	118.62
425.401	114.62
425.623	102.62
425.846	108.62
426.068	103.62
426.291	112.62
426.513	122.62
426.735	110.62
426.958	107.62
427.18	132.62
427.402	190.62
427.625	282.62
427.847	248.62
428.069	230.62
428.292	119.62
428.514	107.62
428.736	97.62
428.958	93.62
429.181	80.62
429.403	86.62
429.625	78.62
429.847	107.62
430.069	122.62
430.292	98.62
430.514	85.62
430.736	86.62
430.958	102.62
431.18	84.62
431.402	78.62
431.624	72.62
431.846	91.62
432.068	94.62
432.29	91.62
432.512	95.62
432.734	91.62
432.956	96.62
433.178	123.62
433.4	96.62
433.622	88.62
433.844	88.62
434.066	98.62
434.287	90.62
434.509	90.62
434.731	102.62
434.953	96.62
435.175	103.62
435.397	95.62
435.618	108.62
435.84	112.62
436.062	140.62
436.284	134.62
436.505	104.62
436.727	110.62
436.949	116.62
437.17	76.62
437.392	84.62
437.614	105.62
437.835	122.62
438.057	141.62
438.278	133.62
438.5	112.62
438.721	140.62
438.943	114.62
439.165	105.62
439.386	98.62
439.608	99.62
439.829	110.62
440.05	161.62
440.272	200.62
440.493	121.62
440.715	109.62
440.936	81.62
441.158	80.62
441.379	103.62
441.6	100.62
441.822	107.62
442.043	112.62
442.264	121.62
442.486	117.62
442.707	102.62
442.928	127.62
443.149	180.62
443.371	193.62
443.592	157.62
443.813	118.62
444.034	127.62
444.255	109.62
444.476	97.62
444.698	87.62
444.919	106.62
445.14	136.62
445.361	129.62
445.582	164.62
445.803	185.62
446.024	193.62
446.245	177.62
446.466	137.62
446.687	108.62
446.908	104.62
447.129	91.62
447.35	99.62
447.571	109.62
447.792	102.62
448.013	108.62
448.234	130.62
448.455	130.62
448.675	136.62
448.896	132.62
449.117	117.62
449.338	119.62
449.559	130.62
449.779	159.62
450	98.62
450.221	95.62
450.442	99.62
450.662	116.62
450.883	142.62
451.104	137.62
451.324	111.62
451.545	102.62
451.766	92.62
451.986	72.62
452.207	115.62
452.428	108.62
452.648	108.62
452.869	139.62
453.089	165.62
453.31	161.62
453.53	106.62
453.751	108.62
453.971	134.62
454.192	152.62
454.412	120.62
454.633	88.62
454.853	97.62
455.073	86.62
455.294	119.62
455.514	106.62
455.734	88.62
455.955	103.62
456.175	100.62
456.395	87.62
456.616	78.62
456.836	95.62
457.056	100.62
457.276	81.62
457.497	91.62
457.717	98.62
457.937	89.62
458.157	93.62
458.377	113.62
458.598	134.62
458.818	248.62
459.038	250.62
459.258	157.62
459.478	105.62
459.698	81.62
459.918	77.62
460.138	80.62
460.358	86.62
460.578	80.62
460.798	99.62
461.018	87.62
461.238	87.62
461.458	79.62
461.678	98.62
461.898	91.62
462.118	90.62
462.338	79.62
462.558	94.62
462.777	94.62
462.997	111.62
463.217	115.62
463.437	97.62
463.657	92.62
463.876	83.62
464.096	88.62
464.316	100.62
464.536	125.62
464.755	113.62
464.975	140.62
465.195	258.62
465.414	278.62
465.634	116.62
465.854	97.62
466.073	88.62
466.293	100.62
466.512	99.62
466.732	89.62
466.951	110.62
467.171	103.62
467.391	121.62
467.61	163.62
467.829	234.62
468.049	597.62
468.268	924.62
468.488	239.62
468.707	117.62
468.927	95.62
469.146	82.62
469.365	88.62
469.585	98.62
469.804	123.62
470.023	129.62
470.243	116.62
470.462	113.62
470.681	155.62
470.901	124.62
471.12	112.62
471.339	124.62
471.558	126.62
471.777	158.62
471.997	313.62
472.216	1117.62
472.435	2686.62
472.654	619.62
472.873	174.62
473.092	124.62
473.311	96.62
473.53	98.62
473.749	102.62
473.968	100.62
474.187	142.62
474.406	115.62
474.625	97.62
474.844	102.62
475.063	90.62
475.282	96.62
475.501	101.62
475.72	102.62
475.939	72.62
476.158	84.62
476.377	94.62
476.596	100.62
476.814	112.62
477.033	102.62
477.252	101.62
477.471	90.62
477.69	100.62
477.908	95.62
478.127	88.62
478.346	86.62
478.564	93.62
478.783	120.62
479.002	114.62
479.22	124.62
479.439	132.62
479.658	142.62
479.876	117.62
480.095	123.62
480.313	130.62
480.532	172.62
480.751	291.62
480.969	1021.62
481.188	4556.62
481.406	2633.62
481.624	374.62
481.843	149.62
482.061	124.62
482.28	103.62
482.498	108.62
482.717	106.62
482.935	97.62
483.153	99.62
483.372	88.62
483.59	117.62
483.808	93.62
484.027	87.62
484.245	105.62
484.463	102.62
484.681	114.62
484.9	90.62
485.118	100.62
485.336	101.62
485.554	101.62
485.772	107.62
485.99	111.62
486.209	110.62
486.427	118.62
486.645	129.62
486.863	148.62
487.081	116.62
487.299	106.62
487.517	112.62
487.735	106.62
487.953	100.62
488.171	103.62
488.389	112.62
488.607	128.62
488.825	101.62
489.043	84.62
489.261	96.62
489.479	110.62
489.696	99.62
489.914	91.62
490.132	101.62
490.35	92.62
490.568	79.62
490.786	85.62
491.003	99.62
491.221	103.62
491.439	99.62
491.657	97.62
491.874	97.62
492.092	95.62
492.31	113.62
492.527	97.62
492.745	100.62
492.963	91.62
493.18	97.62
493.398	94.62
493.615	109.62
493.833	103.62
494.05	108.62
494.268	95.62
494.485	91.62
494.703	105.62
494.92	96.62
495.138	93.62
495.355	93.62
495.573	87.62
495.79	102.62
496.008	83.62
496.225	84.62
496.442	96.62
496.66	88.62
496.877	99.62
497.094	89.62
497.312	98.62
497.529	98.62
497.746	84.62
497.963	86.62
498.181	114.62
498.398	106.62
498.615	122.62
498.832	92.62
499.049	98.62
499.267	97.62
499.484	78.62
499.701	91.62
499.918	94.62
500.135	93.62
500.352	83.62
500.569	106.62
500.786	106.62
501.003	94.62
501.22	93.62
501.437	106.62
501.654	97.62
501.871	132.62
502.088	107.62
502.305	93.62
502.522	88.62
502.739	101.62
502.956	97.62
503.172	95.62
503.389	113.62
503.606	138.62
503.823	111.62
504.04	114.62
504.256	98.62
504.473	93.62
504.69	95.62
504.907	94.62
505.123	83.62
505.34	97.62
505.557	93.62
505.773	102.62
505.99	79.62
506.207	98.62
506.423	76.62
506.64	94.62
506.856	89.62
507.073	100.62
507.289	105.62
507.506	105.62
507.722	132.62
507.939	152.62
508.155	116.62
508.372	104.62
508.588	93.62
508.805	102.62
509.021	108.62
509.238	103.62
509.454	109.62
509.67	102.62
509.887	132.62
510.103	155.62
510.319	270.62
510.536	992.62
510.752	3658.62
510.968	962.62
