Data from Circ_1995_H10_HRD10591_00055.txt Node
Date: Wed Jan 03 11:36:57 EST 2024
User: Yrep
Spectrometer: HR+D1059
Trigger mode: 1
Integration Time (sec): 1.000000E-1
Scans to average: 1
Electric dark correction enabled: true
Nonlinearity correction enabled: false
Boxcar width: 0
XAxis mode: Wavelengths
Number of Pixels in Spectrum: 2048
>>>>>Begin Spectral Data<<<<<
223.165	-7.38
223.4	-7.38
223.635	-7.38
223.869	-28.38
224.104	-15.38
224.338	-8.38
224.573	-20.38
224.808	-22.38
225.042	-1.38
225.277	-7.38
225.511	2.62
225.746	12.62
225.98	-3.38
226.215	15.62
226.449	13.62
226.683	24.62
226.918	22.62
227.152	22.62
227.387	45.62
227.621	35.62
227.856	53.62
228.09	46.62
228.324	45.62
228.559	52.62
228.793	62.62
229.027	54.62
229.262	63.62
229.496	83.62
229.73	106.62
229.964	104.62
230.199	71.62
230.433	88.62
230.667	83.62
230.901	72.62
231.136	83.62
231.37	89.62
231.604	80.62
231.838	83.62
232.072	72.62
232.306	79.62
232.541	82.62
232.775	82.62
233.009	66.62
233.243	96.62
233.477	81.62
233.711	80.62
233.945	66.62
234.179	84.62
234.413	78.62
234.647	83.62
234.881	82.62
235.115	82.62
235.349	75.62
235.583	83.62
235.817	77.62
236.051	81.62
236.285	77.62
236.519	88.62
236.753	80.62
236.987	89.62
237.221	95.62
237.455	89.62
237.689	81.62
237.922	66.62
238.156	88.62
238.39	79.62
238.624	75.62
238.858	64.62
239.091	68.62
239.325	82.62
239.559	82.62
239.793	90.62
240.027	64.62
240.26	70.62
240.494	84.62
240.728	77.62
240.961	78.62
241.195	78.62
241.429	86.62
241.662	62.62
241.896	87.62
242.13	76.62
242.363	79.62
242.597	70.62
242.83	72.62
243.064	75.62
243.298	90.62
243.531	70.62
243.765	85.62
243.998	87.62
244.232	74.62
244.465	86.62
244.699	83.62
244.932	81.62
245.166	79.62
245.399	78.62
245.633	74.62
245.866	79.62
246.099	75.62
246.333	80.62
246.566	78.62
246.8	86.62
247.033	89.62
247.266	87.62
247.5	87.62
247.733	91.62
247.966	80.62
248.2	74.62
248.433	84.62
248.666	79.62
248.899	68.62
249.133	103.62
249.366	82.62
249.599	103.62
249.832	105.62
250.066	86.62
250.299	92.62
250.532	96.62
250.765	78.62
250.998	81.62
251.231	78.62
251.465	83.62
251.698	80.62
251.931	98.62
252.164	84.62
252.397	88.62
252.63	81.62
252.863	82.62
253.096	92.62
253.329	79.62
253.562	81.62
253.795	84.62
254.028	76.62
254.261	96.62
254.494	84.62
254.727	95.62
254.96	88.62
255.193	95.62
255.426	74.62
255.659	83.62
255.892	103.62
256.124	97.62
256.357	87.62
256.59	80.62
256.823	76.62
257.056	82.62
257.289	99.62
257.521	74.62
257.754	84.62
257.987	100.62
258.22	102.62
258.452	90.62
258.685	113.62
258.918	86.62
259.151	87.62
259.383	91.62
259.616	102.62
259.849	84.62
260.081	90.62
260.314	84.62
260.547	95.62
260.779	90.62
261.012	119.62
261.244	133.62
261.477	102.62
261.71	129.62
261.942	161.62
262.175	155.62
262.407	98.62
262.64	88.62
262.872	79.62
263.105	92.62
263.337	96.62
263.57	75.62
263.802	83.62
264.035	84.62
264.267	74.62
264.499	90.62
264.732	89.62
264.964	75.62
265.197	78.62
265.429	86.62
265.661	98.62
265.894	79.62
266.126	90.62
266.358	74.62
266.591	81.62
266.823	84.62
267.055	99.62
267.287	81.62
267.52	82.62
267.752	102.62
267.984	80.62
268.216	85.62
268.448	98.62
268.681	90.62
268.913	103.62
269.145	83.62
269.377	99.62
269.609	94.62
269.841	104.62
270.073	77.62
270.306	88.62
270.538	92.62
270.77	85.62
271.002	85.62
271.234	101.62
271.466	97.62
271.698	78.62
271.93	81.62
272.162	94.62
272.394	94.62
272.626	98.62
272.858	100.62
273.09	91.62
273.322	88.62
273.553	87.62
273.785	95.62
274.017	89.62
274.249	100.62
274.481	89.62
274.713	86.62
274.945	108.62
275.176	82.62
275.408	116.62
275.64	122.62
275.872	140.62
276.104	124.62
276.335	104.62
276.567	147.62
276.799	170.62
277.031	226.62
277.262	271.62
277.494	216.62
277.726	124.62
277.957	102.62
278.189	82.62
278.421	102.62
278.652	84.62
278.884	91.62
279.115	93.62
279.347	96.62
279.579	109.62
279.81	161.62
280.042	252.62
280.273	370.62
280.505	241.62
280.736	134.62
280.968	106.62
281.199	87.62
281.431	110.62
281.662	88.62
281.894	86.62
282.125	111.62
282.356	146.62
282.588	174.62
282.819	152.62
283.051	88.62
283.282	89.62
283.513	94.62
283.745	94.62
283.976	88.62
284.207	87.62
284.439	95.62
284.67	106.62
284.901	95.62
285.132	94.62
285.364	77.62
285.595	92.62
285.826	87.62
286.057	99.62
286.288	94.62
286.52	92.62
286.751	87.62
286.982	86.62
287.213	95.62
287.444	95.62
287.675	80.62
287.906	87.62
288.138	104.62
288.369	95.62
288.6	98.62
288.831	78.62
289.062	84.62
289.293	98.62
289.524	87.62
289.755	77.62
289.986	83.62
290.217	106.62
290.448	95.62
290.679	90.62
290.91	99.62
291.141	87.62
291.371	78.62
291.602	81.62
291.833	95.62
292.064	80.62
292.295	82.62
292.526	96.62
292.757	100.62
292.987	84.62
293.218	83.62
293.449	103.62
293.68	98.62
293.91	82.62
294.141	87.62
294.372	105.62
294.603	95.62
294.833	90.62
295.064	104.62
295.295	97.62
295.525	97.62
295.756	100.62
295.987	145.62
296.217	192.62
296.448	167.62
296.679	102.62
296.909	97.62
297.14	98.62
297.37	92.62
297.601	91.62
297.831	93.62
298.062	90.62
298.292	101.62
298.523	98.62
298.753	84.62
298.984	94.62
299.214	96.62
299.445	100.62
299.675	103.62
299.905	104.62
300.136	94.62
300.366	98.62
300.597	90.62
300.827	94.62
301.057	107.62
301.288	119.62
301.518	112.62
301.748	117.62
301.979	116.62
302.209	112.62
302.439	102.62
302.669	99.62
302.9	102.62
303.13	86.62
303.36	126.62
303.59	169.62
303.82	177.62
304.051	114.62
304.281	86.62
304.511	95.62
304.741	90.62
304.971	100.62
305.201	104.62
305.431	96.62
305.661	105.62
305.891	107.62
306.121	106.62
306.352	121.62
306.582	124.62
306.812	104.62
307.042	126.62
307.272	210.62
307.502	222.62
307.731	206.62
307.961	140.62
308.191	103.62
308.421	101.62
308.651	89.62
308.881	109.62
309.111	111.62
309.341	115.62
309.571	113.62
309.8	106.62
310.03	120.62
310.26	114.62
310.49	100.62
310.72	118.62
310.949	125.62
311.179	112.62
311.409	104.62
311.639	104.62
311.868	105.62
312.098	100.62
312.328	94.62
312.557	124.62
312.787	126.62
313.017	122.62
313.246	103.62
313.476	99.62
313.706	90.62
313.935	108.62
314.165	127.62
314.394	119.62
314.624	117.62
314.853	90.62
315.083	101.62
315.312	100.62
315.542	110.62
315.771	86.62
316.001	91.62
316.23	100.62
316.46	98.62
316.689	95.62
316.919	120.62
317.148	114.62
317.377	106.62
317.607	103.62
317.836	95.62
318.065	109.62
318.295	99.62
318.524	92.62
318.753	101.62
318.983	94.62
319.212	123.62
319.441	124.62
319.67	127.62
319.9	106.62
320.129	102.62
320.358	89.62
320.587	100.62
320.816	119.62
321.046	114.62
321.275	108.62
321.504	94.62
321.733	112.62
321.962	107.62
322.191	125.62
322.42	130.62
322.649	119.62
322.878	142.62
323.108	154.62
323.337	146.62
323.566	171.62
323.795	209.62
324.024	287.62
324.253	585.62
324.482	1266.62
324.71	2745.62
324.939	3726.62
325.168	1282.62
325.397	341.62
325.626	199.62
325.855	161.62
326.084	152.62
326.313	153.62
326.542	199.62
326.77	339.62
326.999	638.62
327.228	1381.62
327.457	2611.62
327.686	2091.62
327.914	716.62
328.143	730.62
328.372	1003.62
328.6	534.62
328.829	236.62
329.058	236.62
329.287	246.62
329.515	232.62
329.744	322.62
329.972	674.62
330.201	1447.62
330.43	2249.62
330.658	932.62
330.887	394.62
331.115	257.62
331.344	144.62
331.572	143.62
331.801	156.62
332.03	150.62
332.258	129.62
332.486	120.62
332.715	135.62
332.943	131.62
333.172	137.62
333.4	146.62
333.629	191.62
333.857	308.62
334.085	591.62
334.314	1352.62
334.542	2716.62
334.771	2646.62
334.999	639.62
335.227	240.62
335.455	154.62
335.684	121.62
335.912	100.62
336.14	120.62
336.369	104.62
336.597	113.62
336.825	123.62
337.053	108.62
337.281	127.62
337.51	99.62
337.738	113.62
337.966	94.62
338.194	110.62
338.422	105.62
338.65	127.62
338.878	106.62
339.106	95.62
339.334	102.62
339.562	92.62
339.79	98.62
340.018	103.62
340.246	102.62
340.474	111.62
340.702	117.62
340.93	101.62
341.158	116.62
341.386	116.62
341.614	117.62
341.842	105.62
342.07	101.62
342.298	100.62
342.526	98.62
342.754	87.62
342.981	83.62
343.209	89.62
343.437	114.62
343.665	112.62
343.893	98.62
344.12	105.62
344.348	113.62
344.576	101.62
344.804	98.62
345.031	104.62
345.259	118.62
345.487	101.62
345.714	105.62
345.942	97.62
346.17	108.62
346.397	100.62
346.625	101.62
346.853	94.62
347.08	103.62
347.308	104.62
347.535	115.62
347.763	122.62
347.99	101.62
348.218	109.62
348.445	136.62
348.673	114.62
348.9	98.62
349.128	97.62
349.355	86.62
349.583	101.62
349.81	106.62
350.037	103.62
350.265	106.62
350.492	95.62
350.72	96.62
350.947	100.62
351.174	143.62
351.402	140.62
351.629	118.62
351.856	104.62
352.083	116.62
352.311	120.62
352.538	144.62
352.765	132.62
352.992	118.62
353.22	126.62
353.447	113.62
353.674	123.62
353.901	91.62
354.128	91.62
354.355	101.62
354.583	86.62
354.81	94.62
355.037	119.62
355.264	99.62
355.491	103.62
355.718	91.62
355.945	102.62
356.172	100.62
356.399	88.62
356.626	84.62
356.853	100.62
357.08	93.62
357.307	96.62
357.534	99.62
357.761	94.62
357.988	85.62
358.215	88.62
358.441	97.62
358.668	99.62
358.895	100.62
359.122	89.62
359.349	97.62
359.576	106.62
359.802	132.62
360.029	177.62
360.256	160.62
360.483	129.62
360.709	103.62
360.936	110.62
361.163	105.62
361.39	110.62
361.616	105.62
361.843	103.62
362.07	94.62
362.296	101.62
362.523	100.62
362.749	104.62
362.976	103.62
363.203	97.62
363.429	111.62
363.656	112.62
363.882	94.62
364.109	94.62
364.335	108.62
364.562	93.62
364.788	91.62
365.015	120.62
365.241	129.62
365.468	122.62
365.694	116.62
365.92	114.62
366.147	109.62
366.373	86.62
366.599	95.62
366.826	96.62
367.052	86.62
367.278	104.62
367.505	99.62
367.731	104.62
367.957	113.62
368.184	100.62
368.41	106.62
368.636	147.62
368.862	146.62
369.089	133.62
369.315	115.62
369.541	111.62
369.767	100.62
369.993	93.62
370.219	92.62
370.445	75.62
370.672	84.62
370.898	89.62
371.124	80.62
371.35	106.62
371.576	92.62
371.802	102.62
372.028	104.62
372.254	93.62
372.48	82.62
372.706	82.62
372.932	103.62
373.158	78.62
373.384	98.62
373.61	103.62
373.835	89.62
374.061	91.62
374.287	112.62
374.513	102.62
374.739	91.62
374.965	87.62
375.191	91.62
375.416	94.62
375.642	90.62
375.868	83.62
376.094	86.62
376.319	105.62
376.545	91.62
376.771	99.62
376.997	103.62
377.222	99.62
377.448	103.62
377.674	97.62
377.899	88.62
378.125	81.62
378.35	90.62
378.576	91.62
378.802	83.62
379.027	88.62
379.253	92.62
379.478	79.62
379.704	102.62
379.929	96.62
380.155	116.62
380.38	98.62
380.606	101.62
380.831	97.62
381.057	113.62
381.282	98.62
381.507	98.62
381.733	104.62
381.958	92.62
382.184	103.62
382.409	91.62
382.634	100.62
382.86	107.62
383.085	105.62
383.31	105.62
383.535	104.62
383.761	100.62
383.986	94.62
384.211	92.62
384.436	104.62
384.662	113.62
384.887	95.62
385.112	112.62
385.337	110.62
385.562	96.62
385.787	115.62
386.013	125.62
386.238	129.62
386.463	97.62
386.688	121.62
386.913	115.62
387.138	104.62
387.363	106.62
387.588	98.62
387.813	99.62
388.038	114.62
388.263	122.62
388.488	115.62
388.713	104.62
388.938	94.62
389.163	96.62
389.387	87.62
389.612	75.62
389.837	92.62
390.062	95.62
390.287	91.62
390.512	113.62
390.736	87.62
390.961	88.62
391.186	88.62
391.411	91.62
391.636	70.62
391.86	95.62
392.085	92.62
392.31	82.62
392.534	83.62
392.759	88.62
392.984	86.62
393.208	92.62
393.433	94.62
393.658	80.62
393.882	98.62
394.107	88.62
394.331	87.62
394.556	97.62
394.78	100.62
395.005	87.62
395.229	76.62
395.454	89.62
395.678	93.62
395.903	86.62
396.127	109.62
396.352	85.62
396.576	84.62
396.801	88.62
397.025	92.62
397.249	80.62
397.474	82.62
397.698	86.62
397.922	89.62
398.147	94.62
398.371	91.62
398.595	90.62
398.82	89.62
399.044	84.62
399.268	104.62
399.492	98.62
399.717	92.62
399.941	97.62
400.165	102.62
400.389	113.62
400.613	90.62
400.837	86.62
401.062	101.62
401.286	108.62
401.51	106.62
401.734	95.62
401.958	115.62
402.182	163.62
402.406	245.62
402.63	161.62
402.854	94.62
403.078	99.62
403.302	92.62
403.526	104.62
403.75	94.62
403.974	72.62
404.198	97.62
404.422	103.62
404.645	100.62
404.869	116.62
405.093	139.62
405.317	161.62
405.541	142.62
405.765	132.62
405.988	158.62
406.212	256.62
406.436	375.62
406.66	246.62
406.883	138.62
407.107	123.62
407.331	126.62
407.555	122.62
407.778	106.62
408.002	89.62
408.226	87.62
408.449	97.62
408.673	92.62
408.896	94.62
409.12	99.62
409.344	92.62
409.567	84.62
409.791	78.62
410.014	90.62
410.238	103.62
410.461	105.62
410.685	96.62
410.908	109.62
411.132	106.62
411.355	102.62
411.578	98.62
411.802	90.62
412.025	90.62
412.249	105.62
412.472	130.62
412.695	161.62
412.919	110.62
413.142	111.62
413.365	98.62
413.589	88.62
413.812	91.62
414.035	100.62
414.258	96.62
414.482	94.62
414.705	102.62
414.928	100.62
415.151	84.62
415.374	91.62
415.597	85.62
415.821	82.62
416.044	86.62
416.267	85.62
416.49	88.62
416.713	80.62
416.936	92.62
417.159	98.62
417.382	108.62
417.605	118.62
417.828	130.62
418.051	111.62
418.274	104.62
418.497	115.62
418.72	77.62
418.943	82.62
419.166	93.62
419.389	104.62
419.611	98.62
419.834	90.62
420.057	105.62
420.28	107.62
420.503	100.62
420.726	88.62
420.948	96.62
421.171	111.62
421.394	111.62
421.617	99.62
421.839	110.62
422.062	95.62
422.285	96.62
422.507	100.62
422.73	113.62
422.953	102.62
423.175	88.62
423.398	94.62
423.621	98.62
423.843	85.62
424.066	86.62
424.288	104.62
424.511	95.62
424.733	101.62
424.956	128.62
425.178	129.62
425.401	128.62
425.623	113.62
425.846	102.62
426.068	105.62
426.291	104.62
426.513	99.62
426.735	102.62
426.958	105.62
427.18	127.62
427.402	194.62
427.625	337.62
427.847	308.62
428.069	266.62
428.292	156.62
428.514	99.62
428.736	96.62
428.958	98.62
429.181	80.62
429.403	96.62
429.625	107.62
429.847	106.62
430.069	107.62
430.292	93.62
430.514	111.62
430.736	91.62
430.958	87.62
431.18	82.62
431.402	95.62
431.624	94.62
431.846	97.62
432.068	86.62
432.29	81.62
432.512	87.62
432.734	96.62
432.956	113.62
433.178	106.62
433.4	118.62
433.622	97.62
433.844	101.62
434.066	100.62
434.287	102.62
434.509	80.62
434.731	102.62
434.953	97.62
435.175	79.62
435.397	82.62
435.618	97.62
435.84	114.62
436.062	157.62
436.284	136.62
436.505	121.62
436.727	103.62
436.949	93.62
437.17	78.62
437.392	103.62
437.614	107.62
437.835	135.62
438.057	187.62
438.278	146.62
438.5	121.62
438.721	125.62
438.943	116.62
439.165	90.62
439.386	99.62
439.608	105.62
439.829	118.62
440.05	166.62
440.272	234.62
440.493	113.62
440.715	83.62
440.936	96.62
441.158	88.62
441.379	88.62
441.6	98.62
441.822	124.62
442.043	99.62
442.264	133.62
442.486	118.62
442.707	106.62
442.928	138.62
443.149	202.62
443.371	194.62
443.592	161.62
443.813	132.62
444.034	141.62
444.255	98.62
444.476	87.62
444.698	101.62
444.919	83.62
445.14	127.62
445.361	145.62
445.582	158.62
445.803	219.62
446.024	205.62
446.245	192.62
446.466	144.62
446.687	97.62
446.908	88.62
447.129	74.62
447.35	116.62
447.571	113.62
447.792	113.62
448.013	101.62
448.234	134.62
448.455	127.62
448.675	138.62
448.896	142.62
449.117	123.62
449.338	121.62
449.559	156.62
449.779	168.62
450	116.62
450.221	100.62
450.442	96.62
450.662	97.62
450.883	132.62
451.104	172.62
451.324	110.62
451.545	94.62
451.766	94.62
451.986	93.62
452.207	84.62
452.428	103.62
452.648	98.62
452.869	130.62
453.089	154.62
453.31	158.62
453.53	105.62
453.751	106.62
453.971	130.62
454.192	163.62
454.412	112.62
454.633	75.62
454.853	78.62
455.073	87.62
455.294	88.62
455.514	112.62
455.734	122.62
455.955	91.62
456.175	96.62
456.395	91.62
456.616	92.62
456.836	107.62
457.056	95.62
457.276	97.62
457.497	81.62
457.717	91.62
457.937	88.62
458.157	93.62
458.377	103.62
458.598	134.62
458.818	271.62
459.038	296.62
459.258	172.62
459.478	113.62
459.698	94.62
459.918	100.62
460.138	97.62
460.358	93.62
460.578	99.62
460.798	105.62
461.018	112.62
461.238	111.62
461.458	99.62
461.678	74.62
461.898	91.62
462.118	94.62
462.338	76.62
462.558	91.62
462.777	102.62
462.997	111.62
463.217	116.62
463.437	97.62
463.657	91.62
463.876	98.62
464.096	85.62
464.316	92.62
464.536	111.62
464.755	110.62
464.975	130.62
465.195	288.62
465.414	292.62
465.634	106.62
465.854	106.62
466.073	82.62
466.293	93.62
466.512	106.62
466.732	98.62
466.951	106.62
467.171	109.62
467.391	126.62
467.61	165.62
467.829	282.62
468.049	839.62
468.268	1292.62
468.488	292.62
468.707	123.62
468.927	110.62
469.146	100.62
469.365	93.62
469.585	96.62
469.804	120.62
470.023	116.62
470.243	110.62
470.462	124.62
470.681	157.62
470.901	110.62
471.12	110.62
471.339	101.62
471.558	139.62
471.777	186.62
471.997	388.62
472.216	1549.62
472.435	3843.62
472.654	854.62
472.873	202.62
473.092	124.62
473.311	122.62
473.53	96.62
473.749	103.62
473.968	103.62
474.187	129.62
474.406	115.62
474.625	92.62
474.844	107.62
475.063	98.62
475.282	99.62
475.501	86.62
475.72	98.62
475.939	89.62
476.158	78.62
476.377	79.62
476.596	99.62
476.814	123.62
477.033	110.62
477.252	106.62
477.471	95.62
477.69	99.62
477.908	97.62
478.127	96.62
478.346	103.62
478.564	108.62
478.783	102.62
479.002	138.62
479.22	114.62
479.439	131.62
479.658	144.62
479.876	134.62
480.095	138.62
480.313	172.62
480.532	195.62
480.751	367.62
480.969	1419.62
481.188	6417.62
481.406	3739.62
481.624	505.62
481.843	175.62
482.061	126.62
482.28	107.62
482.498	108.62
482.717	97.62
482.935	96.62
483.153	104.62
483.372	91.62
483.59	91.62
483.808	88.62
484.027	111.62
484.245	112.62
484.463	95.62
484.681	107.62
484.9	97.62
485.118	89.62
485.336	87.62
485.554	113.62
485.772	111.62
485.99	115.62
486.209	114.62
486.427	122.62
486.645	140.62
486.863	154.62
487.081	105.62
487.299	108.62
487.517	99.62
487.735	95.62
487.953	98.62
488.171	90.62
488.389	97.62
488.607	108.62
488.825	90.62
489.043	103.62
489.261	94.62
489.479	96.62
489.696	82.62
489.914	95.62
490.132	99.62
490.35	89.62
490.568	82.62
490.786	90.62
491.003	86.62
491.221	96.62
491.439	100.62
491.657	95.62
491.874	80.62
492.092	91.62
492.31	102.62
492.527	100.62
492.745	108.62
492.963	98.62
493.18	99.62
493.398	94.62
493.615	95.62
493.833	101.62
494.05	78.62
494.268	95.62
494.485	92.62
494.703	92.62
494.92	86.62
495.138	88.62
495.355	93.62
495.573	97.62
495.79	95.62
496.008	98.62
496.225	94.62
496.442	97.62
496.66	95.62
496.877	93.62
497.094	103.62
497.312	97.62
497.529	92.62
497.746	101.62
497.963	92.62
498.181	102.62
498.398	99.62
498.615	120.62
498.832	118.62
499.049	98.62
499.267	97.62
499.484	87.62
499.701	91.62
499.918	92.62
500.135	95.62
500.352	88.62
500.569	92.62
500.786	92.62
501.003	89.62
501.22	89.62
501.437	92.62
501.654	103.62
501.871	140.62
502.088	102.62
502.305	88.62
502.522	96.62
502.739	91.62
502.956	106.62
503.172	104.62
503.389	111.62
503.606	143.62
503.823	117.62
504.04	96.62
504.256	99.62
504.473	101.62
504.69	90.62
504.907	87.62
505.123	80.62
505.34	99.62
505.557	100.62
505.773	98.62
505.99	92.62
506.207	96.62
506.423	98.62
506.64	94.62
506.856	104.62
507.073	104.62
507.289	95.62
507.506	110.62
507.722	150.62
507.939	154.62
508.155	107.62
508.372	99.62
508.588	112.62
508.805	102.62
509.021	105.62
509.238	95.62
509.454	102.62
509.67	110.62
509.887	137.62
510.103	159.62
510.319	273.62
510.536	1083.62
510.752	3956.62
510.968	1034.62
