Data from Circ_1995_H10_HRD10591_00044.txt Node
Date: Wed Jan 03 11:36:55 EST 2024
User: Yrep
Spectrometer: HR+D1059
Trigger mode: 1
Integration Time (sec): 1.000000E-1
Scans to average: 1
Electric dark correction enabled: true
Nonlinearity correction enabled: false
Boxcar width: 0
XAxis mode: Wavelengths
Number of Pixels in Spectrum: 2048
>>>>>Begin Spectral Data<<<<<
223.165	-9.62
223.4	-9.62
223.635	-9.62
223.869	-16.62
224.104	-24.62
224.338	-16.62
224.573	-9.62
224.808	6.38
225.042	1.38
225.277	-4.62
225.511	-15.62
225.746	-3.62
225.98	5.38
226.215	21.38
226.449	14.38
226.683	7.38
226.918	21.38
227.152	23.38
227.387	29.38
227.621	36.38
227.856	41.38
228.09	34.38
228.324	63.38
228.559	48.38
228.793	57.38
229.027	79.38
229.262	56.38
229.496	69.38
229.73	114.38
229.964	113.38
230.199	82.38
230.433	81.38
230.667	87.38
230.901	67.38
231.136	74.38
231.37	88.38
231.604	89.38
231.838	78.38
232.072	61.38
232.306	83.38
232.541	86.38
232.775	88.38
233.009	68.38
233.243	78.38
233.477	73.38
233.711	73.38
233.945	74.38
234.179	93.38
234.413	73.38
234.647	87.38
234.881	78.38
235.115	88.38
235.349	78.38
235.583	73.38
235.817	78.38
236.051	73.38
236.285	78.38
236.519	81.38
236.753	87.38
236.987	83.38
237.221	85.38
237.455	86.38
237.689	76.38
237.922	82.38
238.156	76.38
238.39	80.38
238.624	63.38
238.858	70.38
239.091	85.38
239.325	69.38
239.559	73.38
239.793	89.38
240.027	80.38
240.26	75.38
240.494	78.38
240.728	72.38
240.961	83.38
241.195	96.38
241.429	78.38
241.662	75.38
241.896	74.38
242.13	79.38
242.363	92.38
242.597	67.38
242.83	81.38
243.064	90.38
243.298	85.38
243.531	84.38
243.765	79.38
243.998	77.38
244.232	76.38
244.465	99.38
244.699	79.38
244.932	74.38
245.166	79.38
245.399	81.38
245.633	78.38
245.866	75.38
246.099	71.38
246.333	88.38
246.566	82.38
246.8	84.38
247.033	81.38
247.266	78.38
247.5	95.38
247.733	80.38
247.966	92.38
248.2	82.38
248.433	99.38
248.666	79.38
248.899	93.38
249.133	101.38
249.366	97.38
249.599	113.38
249.832	90.38
250.066	65.38
250.299	91.38
250.532	86.38
250.765	86.38
250.998	99.38
251.231	86.38
251.465	97.38
251.698	86.38
251.931	91.38
252.164	73.38
252.397	96.38
252.63	96.38
252.863	81.38
253.096	86.38
253.329	90.38
253.562	77.38
253.795	94.38
254.028	83.38
254.261	78.38
254.494	79.38
254.727	91.38
254.96	66.38
255.193	69.38
255.426	86.38
255.659	97.38
255.892	94.38
256.124	116.38
256.357	93.38
256.59	83.38
256.823	97.38
257.056	93.38
257.289	102.38
257.521	81.38
257.754	98.38
257.987	101.38
258.22	111.38
258.452	110.38
258.685	106.38
258.918	78.38
259.151	86.38
259.383	86.38
259.616	77.38
259.849	84.38
260.081	91.38
260.314	84.38
260.547	88.38
260.779	93.38
261.012	124.38
261.244	130.38
261.477	116.38
261.71	119.38
261.942	163.38
262.175	202.38
262.407	109.38
262.64	106.38
262.872	109.38
263.105	107.38
263.337	93.38
263.57	90.38
263.802	103.38
264.035	83.38
264.267	80.38
264.499	83.38
264.732	98.38
264.964	79.38
265.197	81.38
265.429	86.38
265.661	90.38
265.894	94.38
266.126	98.38
266.358	93.38
266.591	70.38
266.823	75.38
267.055	93.38
267.287	89.38
267.52	86.38
267.752	103.38
267.984	94.38
268.216	85.38
268.448	93.38
268.681	93.38
268.913	83.38
269.145	88.38
269.377	81.38
269.609	81.38
269.841	83.38
270.073	91.38
270.306	83.38
270.538	94.38
270.77	85.38
271.002	91.38
271.234	87.38
271.466	85.38
271.698	108.38
271.93	94.38
272.162	84.38
272.394	92.38
272.626	98.38
272.858	81.38
273.09	69.38
273.322	74.38
273.553	94.38
273.785	82.38
274.017	89.38
274.249	92.38
274.481	89.38
274.713	85.38
274.945	93.38
275.176	100.38
275.408	119.38
275.64	144.38
275.872	165.38
276.104	142.38
276.335	120.38
276.567	142.38
276.799	191.38
277.031	254.38
277.262	297.38
277.494	210.38
277.726	114.38
277.957	98.38
278.189	100.38
278.421	103.38
278.652	98.38
278.884	77.38
279.115	82.38
279.347	111.38
279.579	120.38
279.81	176.38
280.042	290.38
280.273	437.38
280.505	274.38
280.736	153.38
280.968	115.38
281.199	106.38
281.431	102.38
281.662	100.38
281.894	97.38
282.125	130.38
282.356	157.38
282.588	188.38
282.819	160.38
283.051	99.38
283.282	93.38
283.513	89.38
283.745	96.38
283.976	86.38
284.207	86.38
284.439	93.38
284.67	77.38
284.901	81.38
285.132	83.38
285.364	88.38
285.595	96.38
285.826	102.38
286.057	101.38
286.288	98.38
286.52	90.38
286.751	98.38
286.982	97.38
287.213	90.38
287.444	90.38
287.675	91.38
287.906	111.38
288.138	98.38
288.369	108.38
288.6	90.38
288.831	86.38
289.062	81.38
289.293	78.38
289.524	93.38
289.755	82.38
289.986	95.38
290.217	86.38
290.448	96.38
290.679	87.38
290.91	101.38
291.141	89.38
291.371	97.38
291.602	95.38
291.833	95.38
292.064	92.38
292.295	101.38
292.526	106.38
292.757	85.38
292.987	99.38
293.218	91.38
293.449	96.38
293.68	93.38
293.91	87.38
294.141	98.38
294.372	89.38
294.603	91.38
294.833	110.38
295.064	94.38
295.295	99.38
295.525	104.38
295.756	96.38
295.987	154.38
296.217	219.38
296.448	190.38
296.679	112.38
296.909	89.38
297.14	66.38
297.37	95.38
297.601	100.38
297.831	95.38
298.062	103.38
298.292	88.38
298.523	94.38
298.753	93.38
298.984	98.38
299.214	106.38
299.445	112.38
299.675	99.38
299.905	97.38
300.136	85.38
300.366	93.38
300.597	99.38
300.827	108.38
301.057	126.38
301.288	134.38
301.518	124.38
301.748	124.38
301.979	140.38
302.209	110.38
302.439	107.38
302.669	101.38
302.9	102.38
303.13	99.38
303.36	117.38
303.59	157.38
303.82	207.38
304.051	121.38
304.281	96.38
304.511	117.38
304.741	93.38
304.971	88.38
305.201	109.38
305.431	104.38
305.661	87.38
305.891	79.38
306.121	98.38
306.352	138.38
306.582	125.38
306.812	109.38
307.042	137.38
307.272	220.38
307.502	256.38
307.731	226.38
307.961	174.38
308.191	119.38
308.421	99.38
308.651	95.38
308.881	99.38
309.111	93.38
309.341	111.38
309.571	112.38
309.8	118.38
310.03	126.38
310.26	117.38
310.49	101.38
310.72	119.38
310.949	142.38
311.179	130.38
311.409	108.38
311.639	113.38
311.868	118.38
312.098	111.38
312.328	106.38
312.557	131.38
312.787	154.38
313.017	122.38
313.246	110.38
313.476	93.38
313.706	102.38
313.935	117.38
314.165	121.38
314.394	151.38
314.624	111.38
314.853	101.38
315.083	113.38
315.312	101.38
315.542	99.38
315.771	97.38
316.001	89.38
316.23	95.38
316.46	89.38
316.689	100.38
316.919	87.38
317.148	113.38
317.377	98.38
317.607	106.38
317.836	110.38
318.065	101.38
318.295	84.38
318.524	99.38
318.753	87.38
318.983	97.38
319.212	112.38
319.441	146.38
319.67	134.38
319.9	117.38
320.129	100.38
320.358	107.38
320.587	113.38
320.816	110.38
321.046	128.38
321.275	100.38
321.504	107.38
321.733	111.38
321.962	114.38
322.191	129.38
322.42	129.38
322.649	156.38
322.878	147.38
323.108	143.38
323.337	163.38
323.566	184.38
323.795	221.38
324.024	277.38
324.253	585.38
324.482	1290.38
324.71	2655.38
324.939	3519.38
325.168	1294.38
325.397	377.38
325.626	213.38
325.855	172.38
326.084	154.38
326.313	176.38
326.542	182.38
326.77	292.38
326.999	609.38
327.228	1265.38
327.457	2413.38
327.686	1967.38
327.914	785.38
328.143	859.38
328.372	1131.38
328.6	590.38
328.829	246.38
329.058	267.38
329.287	284.38
329.515	258.38
329.744	367.38
329.972	763.38
330.201	1634.38
330.43	2491.38
330.658	1042.38
330.887	449.38
331.115	283.38
331.344	176.38
331.572	157.38
331.801	161.38
332.03	154.38
332.258	123.38
332.486	119.38
332.715	120.38
332.943	129.38
333.172	136.38
333.4	153.38
333.629	202.38
333.857	342.38
334.085	686.38
334.314	1427.38
334.542	2961.38
334.771	2771.38
334.999	665.38
335.227	236.38
335.455	162.38
335.684	131.38
335.912	118.38
336.14	127.38
336.369	128.38
336.597	134.38
336.825	128.38
337.053	94.38
337.281	98.38
337.51	102.38
337.738	105.38
337.966	103.38
338.194	127.38
338.422	123.38
338.65	104.38
338.878	89.38
339.106	87.38
339.334	92.38
339.562	105.38
339.79	101.38
340.018	96.38
340.246	113.38
340.474	99.38
340.702	98.38
340.93	91.38
341.158	93.38
341.386	113.38
341.614	114.38
341.842	93.38
342.07	96.38
342.298	113.38
342.526	107.38
342.754	84.38
342.981	93.38
343.209	97.38
343.437	86.38
343.665	87.38
343.893	87.38
344.12	94.38
344.348	107.38
344.576	87.38
344.804	89.38
345.031	105.38
345.259	118.38
345.487	117.38
345.714	92.38
345.942	105.38
346.17	83.38
346.397	99.38
346.625	110.38
346.853	100.38
347.08	103.38
347.308	105.38
347.535	113.38
347.763	142.38
347.99	116.38
348.218	107.38
348.445	142.38
348.673	130.38
348.9	82.38
349.128	98.38
349.355	83.38
349.583	86.38
349.81	93.38
350.037	97.38
350.265	114.38
350.492	118.38
350.72	109.38
350.947	103.38
351.174	135.38
351.402	142.38
351.629	113.38
351.856	124.38
352.083	138.38
352.311	137.38
352.538	161.38
352.765	150.38
352.992	149.38
353.22	137.38
353.447	122.38
353.674	123.38
353.901	95.38
354.128	91.38
354.355	93.38
354.583	107.38
354.81	94.38
355.037	99.38
355.264	87.38
355.491	101.38
355.718	94.38
355.945	91.38
356.172	102.38
356.399	102.38
356.626	102.38
356.853	94.38
357.08	101.38
357.307	97.38
357.534	75.38
357.761	98.38
357.988	94.38
358.215	102.38
358.441	94.38
358.668	99.38
358.895	92.38
359.122	87.38
359.349	93.38
359.576	94.38
359.802	143.38
360.029	194.38
360.256	184.38
360.483	126.38
360.709	96.38
360.936	106.38
361.163	128.38
361.39	121.38
361.616	135.38
361.843	115.38
362.07	120.38
362.296	120.38
362.523	115.38
362.749	110.38
362.976	114.38
363.203	93.38
363.429	97.38
363.656	104.38
363.882	103.38
364.109	72.38
364.335	106.38
364.562	115.38
364.788	94.38
365.015	96.38
365.241	124.38
365.468	137.38
365.694	135.38
365.92	113.38
366.147	107.38
366.373	87.38
366.599	88.38
366.826	86.38
367.052	91.38
367.278	94.38
367.505	91.38
367.731	111.38
367.957	111.38
368.184	105.38
368.41	121.38
368.636	150.38
368.862	165.38
369.089	147.38
369.315	114.38
369.541	98.38
369.767	94.38
369.993	94.38
370.219	103.38
370.445	103.38
370.672	95.38
370.898	85.38
371.124	96.38
371.35	88.38
371.576	104.38
371.802	85.38
372.028	89.38
372.254	88.38
372.48	98.38
372.706	87.38
372.932	79.38
373.158	86.38
373.384	87.38
373.61	110.38
373.835	95.38
374.061	88.38
374.287	104.38
374.513	104.38
374.739	112.38
374.965	63.38
375.191	104.38
375.416	83.38
375.642	90.38
375.868	98.38
376.094	97.38
376.319	103.38
376.545	94.38
376.771	95.38
376.997	99.38
377.222	81.38
377.448	90.38
377.674	83.38
377.899	74.38
378.125	89.38
378.35	82.38
378.576	105.38
378.802	92.38
379.027	94.38
379.253	76.38
379.478	77.38
379.704	109.38
379.929	114.38
380.155	109.38
380.38	92.38
380.606	93.38
380.831	101.38
381.057	106.38
381.282	95.38
381.507	106.38
381.733	103.38
381.958	99.38
382.184	114.38
382.409	115.38
382.634	108.38
382.86	101.38
383.085	107.38
383.31	101.38
383.535	101.38
383.761	95.38
383.986	110.38
384.211	113.38
384.436	104.38
384.662	94.38
384.887	114.38
385.112	100.38
385.337	101.38
385.562	114.38
385.787	123.38
386.013	133.38
386.238	139.38
386.463	121.38
386.688	102.38
386.913	110.38
387.138	115.38
387.363	109.38
387.588	89.38
387.813	98.38
388.038	114.38
388.263	130.38
388.488	119.38
388.713	103.38
388.938	85.38
389.163	98.38
389.387	101.38
389.612	90.38
389.837	93.38
390.062	97.38
390.287	85.38
390.512	78.38
390.736	87.38
390.961	95.38
391.186	89.38
391.411	93.38
391.636	86.38
391.86	85.38
392.085	78.38
392.31	94.38
392.534	83.38
392.759	96.38
392.984	93.38
393.208	83.38
393.433	87.38
393.658	86.38
393.882	96.38
394.107	79.38
394.331	89.38
394.556	94.38
394.78	86.38
395.005	88.38
395.229	97.38
395.454	83.38
395.678	90.38
395.903	82.38
396.127	85.38
396.352	85.38
396.576	91.38
396.801	85.38
397.025	71.38
397.249	86.38
397.474	90.38
397.698	90.38
397.922	79.38
398.147	88.38
398.371	77.38
398.595	81.38
398.82	85.38
399.044	83.38
399.268	92.38
399.492	95.38
399.717	96.38
399.941	100.38
400.165	93.38
400.389	92.38
400.613	89.38
400.837	92.38
401.062	94.38
401.286	103.38
401.51	98.38
401.734	105.38
401.958	127.38
402.182	195.38
402.406	273.38
402.63	186.38
402.854	126.38
403.078	99.38
403.302	90.38
403.526	89.38
403.75	95.38
403.974	92.38
404.198	81.38
404.422	91.38
404.645	90.38
404.869	112.38
405.093	121.38
405.317	175.38
405.541	157.38
405.765	154.38
405.988	179.38
406.212	309.38
406.436	481.38
406.66	306.38
406.883	163.38
407.107	128.38
407.331	117.38
407.555	123.38
407.778	119.38
408.002	94.38
408.226	93.38
408.449	83.38
408.673	98.38
408.896	97.38
409.12	92.38
409.344	90.38
409.567	87.38
409.791	98.38
410.014	98.38
410.238	95.38
410.461	99.38
410.685	90.38
410.908	90.38
411.132	106.38
411.355	95.38
411.578	102.38
411.802	87.38
412.025	85.38
412.249	106.38
412.472	129.38
412.695	158.38
412.919	115.38
413.142	110.38
413.365	94.38
413.589	82.38
413.812	94.38
414.035	118.38
414.258	96.38
414.482	94.38
414.705	89.38
414.928	98.38
415.151	108.38
415.374	89.38
415.597	69.38
415.821	91.38
416.044	91.38
416.267	92.38
416.49	89.38
416.713	98.38
416.936	80.38
417.159	102.38
417.382	97.38
417.605	110.38
417.828	118.38
418.051	105.38
418.274	101.38
418.497	84.38
418.72	92.38
418.943	92.38
419.166	100.38
419.389	88.38
419.611	82.38
419.834	96.38
420.057	99.38
420.28	79.38
420.503	96.38
420.726	93.38
420.948	93.38
421.171	118.38
421.394	92.38
421.617	85.38
421.839	88.38
422.062	89.38
422.285	88.38
422.507	99.38
422.73	123.38
422.953	98.38
423.175	100.38
423.398	84.38
423.621	84.38
423.843	72.38
424.066	97.38
424.288	73.38
424.511	106.38
424.733	94.38
424.956	137.38
425.178	123.38
425.401	119.38
425.623	107.38
425.846	102.38
426.068	110.38
426.291	118.38
426.513	95.38
426.735	100.38
426.958	115.38
427.18	147.38
427.402	214.38
427.625	364.38
427.847	302.38
428.069	255.38
428.292	143.38
428.514	99.38
428.736	91.38
428.958	104.38
429.181	91.38
429.403	90.38
429.625	86.38
429.847	100.38
430.069	115.38
430.292	98.38
430.514	104.38
430.736	89.38
430.958	86.38
431.18	82.38
431.402	89.38
431.624	83.38
431.846	99.38
432.068	79.38
432.29	93.38
432.512	92.38
432.734	96.38
432.956	101.38
433.178	121.38
433.4	104.38
433.622	101.38
433.844	75.38
434.066	87.38
434.287	99.38
434.509	87.38
434.731	93.38
434.953	82.38
435.175	81.38
435.397	96.38
435.618	101.38
435.84	108.38
436.062	154.38
436.284	133.38
436.505	103.38
436.727	103.38
436.949	98.38
437.17	95.38
437.392	98.38
437.614	101.38
437.835	154.38
438.057	210.38
438.278	155.38
438.5	121.38
438.721	174.38
438.943	114.38
439.165	87.38
439.386	95.38
439.608	91.38
439.829	122.38
440.05	175.38
440.272	213.38
440.493	114.38
440.715	93.38
440.936	86.38
441.158	90.38
441.379	92.38
441.6	118.38
441.822	111.38
442.043	104.38
442.264	131.38
442.486	137.38
442.707	123.38
442.928	139.38
443.149	201.38
443.371	221.38
443.592	162.38
443.813	156.38
444.034	123.38
444.255	101.38
444.476	86.38
444.698	89.38
444.919	111.38
445.14	152.38
445.361	149.38
445.582	146.38
445.803	233.38
446.024	200.38
446.245	193.38
446.466	133.38
446.687	93.38
446.908	90.38
447.129	106.38
447.35	97.38
447.571	95.38
447.792	105.38
448.013	117.38
448.234	133.38
448.455	114.38
448.675	128.38
448.896	152.38
449.117	108.38
449.338	118.38
449.559	149.38
449.779	167.38
450	104.38
450.221	111.38
450.442	96.38
450.662	127.38
450.883	168.38
451.104	184.38
451.324	127.38
451.545	90.38
451.766	91.38
451.986	105.38
452.207	106.38
452.428	108.38
452.648	126.38
452.869	155.38
453.089	170.38
453.31	185.38
453.53	115.38
453.751	116.38
453.971	161.38
454.192	181.38
454.412	111.38
454.633	91.38
454.853	95.38
455.073	92.38
455.294	94.38
455.514	124.38
455.734	96.38
455.955	97.38
456.175	91.38
456.395	79.38
456.616	81.38
456.836	82.38
457.056	77.38
457.276	95.38
457.497	85.38
457.717	74.38
457.937	106.38
458.157	103.38
458.377	109.38
458.598	163.38
458.818	299.38
459.038	328.38
459.258	189.38
459.478	124.38
459.698	85.38
459.918	92.38
460.138	77.38
460.358	89.38
460.578	82.38
460.798	94.38
461.018	108.38
461.238	90.38
461.458	90.38
461.678	88.38
461.898	88.38
462.118	93.38
462.338	78.38
462.558	81.38
462.777	101.38
462.997	99.38
463.217	131.38
463.437	110.38
463.657	96.38
463.876	97.38
464.096	108.38
464.316	110.38
464.536	128.38
464.755	106.38
464.975	153.38
465.195	373.38
465.414	353.38
465.634	140.38
465.854	88.38
466.073	90.38
466.293	97.38
466.512	94.38
466.732	103.38
466.951	108.38
467.171	90.38
467.391	126.38
467.61	208.38
467.829	321.38
468.049	974.38
468.268	1491.38
468.488	333.38
468.707	135.38
468.927	106.38
469.146	108.38
469.365	110.38
469.585	98.38
469.804	125.38
470.023	116.38
470.243	124.38
470.462	140.38
470.681	185.38
470.901	137.38
471.12	112.38
471.339	119.38
471.558	145.38
471.777	202.38
471.997	432.38
472.216	1777.38
472.435	4339.38
472.654	923.38
472.873	225.38
473.092	141.38
473.311	126.38
473.53	110.38
473.749	109.38
473.968	109.38
474.187	127.38
474.406	134.38
474.625	86.38
474.844	97.38
475.063	86.38
475.282	87.38
475.501	99.38
475.72	110.38
475.939	84.38
476.158	87.38
476.377	82.38
476.596	97.38
476.814	119.38
477.033	109.38
477.252	119.38
477.471	98.38
477.69	109.38
477.908	93.38
478.127	95.38
478.346	88.38
478.564	106.38
478.783	124.38
479.002	129.38
479.22	134.38
479.439	155.38
479.658	161.38
479.876	138.38
480.095	153.38
480.313	150.38
480.532	197.38
480.751	421.38
480.969	1564.38
481.188	7111.38
481.406	4013.38
481.624	508.38
481.843	179.38
482.061	116.38
482.28	115.38
482.498	105.38
482.717	99.38
482.935	101.38
483.153	92.38
483.372	90.38
483.59	91.38
483.808	99.38
484.027	97.38
484.245	106.38
484.463	110.38
484.681	105.38
484.9	103.38
485.118	100.38
485.336	98.38
485.554	101.38
485.772	105.38
485.99	104.38
486.209	106.38
486.427	115.38
486.645	151.38
486.863	153.38
487.081	127.38
487.299	79.38
487.517	100.38
487.735	86.38
487.953	98.38
488.171	91.38
488.389	101.38
488.607	106.38
488.825	111.38
489.043	91.38
489.261	98.38
489.479	102.38
489.696	91.38
489.914	97.38
490.132	74.38
490.35	89.38
490.568	97.38
490.786	99.38
491.003	94.38
491.221	80.38
491.439	117.38
491.657	83.38
491.874	93.38
492.092	93.38
492.31	110.38
492.527	115.38
492.745	104.38
492.963	89.38
493.18	99.38
493.398	102.38
493.615	99.38
493.833	98.38
494.05	86.38
494.268	118.38
494.485	111.38
494.703	93.38
494.92	97.38
495.138	90.38
495.355	95.38
495.573	87.38
495.79	92.38
496.008	92.38
496.225	93.38
496.442	90.38
496.66	99.38
496.877	97.38
497.094	94.38
497.312	93.38
497.529	101.38
497.746	90.38
497.963	99.38
498.181	106.38
498.398	91.38
498.615	110.38
498.832	125.38
499.049	101.38
499.267	97.38
499.484	99.38
499.701	92.38
499.918	93.38
500.135	84.38
500.352	90.38
500.569	89.38
500.786	96.38
501.003	92.38
501.22	98.38
501.437	102.38
501.654	106.38
501.871	147.38
502.088	110.38
502.305	97.38
502.522	97.38
502.739	96.38
502.956	107.38
503.172	103.38
503.389	119.38
503.606	169.38
503.823	131.38
504.04	101.38
504.256	99.38
504.473	79.38
504.69	90.38
504.907	104.38
505.123	103.38
505.34	99.38
505.557	101.38
505.773	96.38
505.99	95.38
506.207	104.38
506.423	96.38
506.64	109.38
506.856	97.38
507.073	86.38
507.289	93.38
507.506	107.38
507.722	175.38
507.939	165.38
508.155	113.38
508.372	100.38
508.588	90.38
508.805	106.38
509.021	102.38
509.238	118.38
509.454	116.38
509.67	98.38
509.887	139.38
510.103	176.38
510.319	311.38
510.536	1342.38
510.752	4930.38
510.968	1243.38
511.184	234.38
