Data from Circ_1995_H10_HRD10591_00020.txt Node
Date: Wed Jan 03 11:36:50 EST 2024
User: Yrep
Spectrometer: HR+D1059
Trigger mode: 1
Integration Time (sec): 1.000000E-1
Scans to average: 1
Electric dark correction enabled: true
Nonlinearity correction enabled: false
Boxcar width: 0
XAxis mode: Wavelengths
Number of Pixels in Spectrum: 2048
>>>>>Begin Spectral Data<<<<<
223.165	-14.31
223.4	-14.31
223.635	-14.31
223.869	-14.31
224.104	-10.31
224.338	-32.31
224.573	-14.31
224.808	-8.31
225.042	-10.31
225.277	-9.31
225.511	-3.31
225.746	2.69
225.98	10.69
226.215	0.69
226.449	16.69
226.683	22.69
226.918	26.69
227.152	36.69
227.387	22.69
227.621	47.69
227.856	30.69
228.09	54.69
228.324	61.69
228.559	70.69
228.793	72.69
229.027	62.69
229.262	77.69
229.496	74.69
229.73	97.69
229.964	91.69
230.199	77.69
230.433	74.69
230.667	80.69
230.901	81.69
231.136	74.69
231.37	86.69
231.604	78.69
231.838	85.69
232.072	74.69
232.306	82.69
232.541	91.69
232.775	77.69
233.009	76.69
233.243	94.69
233.477	84.69
233.711	88.69
233.945	86.69
234.179	74.69
234.413	77.69
234.647	89.69
234.881	65.69
235.115	75.69
235.349	63.69
235.583	85.69
235.817	75.69
236.051	78.69
236.285	70.69
236.519	80.69
236.753	85.69
236.987	84.69
237.221	84.69
237.455	95.69
237.689	75.69
237.922	64.69
238.156	81.69
238.39	73.69
238.624	78.69
238.858	89.69
239.091	85.69
239.325	67.69
239.559	78.69
239.793	82.69
240.027	91.69
240.26	94.69
240.494	87.69
240.728	75.69
240.961	78.69
241.195	59.69
241.429	74.69
241.662	90.69
241.896	76.69
242.13	83.69
242.363	83.69
242.597	65.69
242.83	74.69
243.064	76.69
243.298	69.69
243.531	76.69
243.765	72.69
243.998	81.69
244.232	91.69
244.465	85.69
244.699	99.69
244.932	70.69
245.166	72.69
245.399	83.69
245.633	86.69
245.866	80.69
246.099	74.69
246.333	74.69
246.566	72.69
246.8	90.69
247.033	82.69
247.266	90.69
247.5	74.69
247.733	75.69
247.966	74.69
248.2	78.69
248.433	81.69
248.666	82.69
248.899	84.69
249.133	86.69
249.366	107.69
249.599	104.69
249.832	86.69
250.066	84.69
250.299	81.69
250.532	93.69
250.765	90.69
250.998	78.69
251.231	87.69
251.465	94.69
251.698	92.69
251.931	87.69
252.164	82.69
252.397	92.69
252.63	94.69
252.863	86.69
253.096	77.69
253.329	67.69
253.562	90.69
253.795	93.69
254.028	81.69
254.261	69.69
254.494	77.69
254.727	72.69
254.96	82.69
255.193	74.69
255.426	72.69
255.659	93.69
255.892	92.69
256.124	90.69
256.357	84.69
256.59	83.69
256.823	96.69
257.056	82.69
257.289	92.69
257.521	95.69
257.754	85.69
257.987	82.69
258.22	98.69
258.452	89.69
258.685	102.69
258.918	100.69
259.151	93.69
259.383	93.69
259.616	85.69
259.849	79.69
260.081	75.69
260.314	87.69
260.547	94.69
260.779	83.69
261.012	113.69
261.244	113.69
261.477	92.69
261.71	98.69
261.942	139.69
262.175	160.69
262.407	110.69
262.64	98.69
262.872	92.69
263.105	90.69
263.337	89.69
263.57	80.69
263.802	83.69
264.035	80.69
264.267	82.69
264.499	86.69
264.732	88.69
264.964	76.69
265.197	84.69
265.429	80.69
265.661	91.69
265.894	94.69
266.126	97.69
266.358	96.69
266.591	84.69
266.823	78.69
267.055	75.69
267.287	85.69
267.52	80.69
267.752	68.69
267.984	80.69
268.216	80.69
268.448	76.69
268.681	78.69
268.913	104.69
269.145	86.69
269.377	96.69
269.609	91.69
269.841	98.69
270.073	78.69
270.306	88.69
270.538	81.69
270.77	92.69
271.002	101.69
271.234	87.69
271.466	86.69
271.698	91.69
271.93	88.69
272.162	85.69
272.394	89.69
272.626	88.69
272.858	104.69
273.09	89.69
273.322	88.69
273.553	79.69
273.785	87.69
274.017	83.69
274.249	87.69
274.481	89.69
274.713	84.69
274.945	89.69
275.176	106.69
275.408	96.69
275.64	107.69
275.872	118.69
276.104	120.69
276.335	89.69
276.567	125.69
276.799	134.69
277.031	173.69
277.262	197.69
277.494	152.69
277.726	110.69
277.957	95.69
278.189	81.69
278.421	93.69
278.652	88.69
278.884	97.69
279.115	106.69
279.347	97.69
279.579	105.69
279.81	141.69
280.042	182.69
280.273	251.69
280.505	186.69
280.736	115.69
280.968	98.69
281.199	88.69
281.431	94.69
281.662	101.69
281.894	96.69
282.125	106.69
282.356	125.69
282.588	163.69
282.819	136.69
283.051	99.69
283.282	92.69
283.513	90.69
283.745	85.69
283.976	87.69
284.207	80.69
284.439	78.69
284.67	102.69
284.901	88.69
285.132	90.69
285.364	80.69
285.595	96.69
285.826	96.69
286.057	95.69
286.288	91.69
286.52	93.69
286.751	94.69
286.982	94.69
287.213	82.69
287.444	83.69
287.675	99.69
287.906	86.69
288.138	94.69
288.369	90.69
288.6	86.69
288.831	80.69
289.062	107.69
289.293	97.69
289.524	88.69
289.755	84.69
289.986	78.69
290.217	93.69
290.448	98.69
290.679	92.69
290.91	94.69
291.141	89.69
291.371	104.69
291.602	93.69
291.833	94.69
292.064	101.69
292.295	89.69
292.526	93.69
292.757	100.69
292.987	94.69
293.218	95.69
293.449	100.69
293.68	102.69
293.91	76.69
294.141	76.69
294.372	100.69
294.603	108.69
294.833	99.69
295.064	90.69
295.295	104.69
295.525	102.69
295.756	91.69
295.987	133.69
296.217	177.69
296.448	152.69
296.679	104.69
296.909	95.69
297.14	91.69
297.37	90.69
297.601	91.69
297.831	92.69
298.062	95.69
298.292	93.69
298.523	91.69
298.753	101.69
298.984	99.69
299.214	91.69
299.445	107.69
299.675	102.69
299.905	89.69
300.136	92.69
300.366	72.69
300.597	90.69
300.827	104.69
301.057	96.69
301.288	118.69
301.518	105.69
301.748	109.69
301.979	107.69
302.209	89.69
302.439	92.69
302.669	97.69
302.9	90.69
303.13	101.69
303.36	124.69
303.59	133.69
303.82	153.69
304.051	95.69
304.281	98.69
304.511	101.69
304.741	85.69
304.971	95.69
305.201	96.69
305.431	99.69
305.661	88.69
305.891	102.69
306.121	106.69
306.352	110.69
306.582	116.69
306.812	100.69
307.042	109.69
307.272	156.69
307.502	186.69
307.731	185.69
307.961	132.69
308.191	106.69
308.421	96.69
308.651	99.69
308.881	97.69
309.111	93.69
309.341	104.69
309.571	95.69
309.8	102.69
310.03	113.69
310.26	109.69
310.49	104.69
310.72	113.69
310.949	120.69
311.179	113.69
311.409	97.69
311.639	99.69
311.868	109.69
312.098	94.69
312.328	92.69
312.557	123.69
312.787	118.69
313.017	123.69
313.246	92.69
313.476	77.69
313.706	99.69
313.935	102.69
314.165	115.69
314.394	111.69
314.624	109.69
314.853	116.69
315.083	107.69
315.312	98.69
315.542	110.69
315.771	85.69
316.001	85.69
316.23	101.69
316.46	85.69
316.689	88.69
316.919	82.69
317.148	100.69
317.377	100.69
317.607	102.69
317.836	110.69
318.065	95.69
318.295	98.69
318.524	108.69
318.753	103.69
318.983	119.69
319.212	107.69
319.441	107.69
319.67	116.69
319.9	104.69
320.129	81.69
320.358	96.69
320.587	99.69
320.816	107.69
321.046	106.69
321.275	98.69
321.504	94.69
321.733	103.69
321.962	102.69
322.191	107.69
322.42	100.69
322.649	137.69
322.878	152.69
323.108	126.69
323.337	149.69
323.566	146.69
323.795	178.69
324.024	257.69
324.253	481.69
324.482	1027.69
324.71	2162.69
324.939	2937.69
325.168	1081.69
325.397	320.69
325.626	172.69
325.855	140.69
326.084	133.69
326.313	151.69
326.542	163.69
326.77	273.69
326.999	525.69
327.228	1117.69
327.457	2122.69
327.686	1709.69
327.914	564.69
328.143	538.69
328.372	650.69
328.6	375.69
328.829	189.69
329.058	195.69
329.287	181.69
329.515	185.69
329.744	229.69
329.972	449.69
330.201	933.69
330.43	1424.69
330.658	618.69
330.887	276.69
331.115	198.69
331.344	139.69
331.572	131.69
331.801	139.69
332.03	120.69
332.258	124.69
332.486	98.69
332.715	116.69
332.943	109.69
333.172	134.69
333.4	135.69
333.629	158.69
333.857	235.69
334.085	419.69
334.314	826.69
334.542	1685.69
334.771	1661.69
334.999	433.69
335.227	163.69
335.455	130.69
335.684	119.69
335.912	108.69
336.14	115.69
336.369	120.69
336.597	109.69
336.825	97.69
337.053	99.69
337.281	102.69
337.51	89.69
337.738	97.69
337.966	92.69
338.194	98.69
338.422	105.69
338.65	98.69
338.878	109.69
339.106	113.69
339.334	99.69
339.562	95.69
339.79	101.69
340.018	97.69
340.246	103.69
340.474	105.69
340.702	100.69
340.93	92.69
341.158	90.69
341.386	110.69
341.614	102.69
341.842	93.69
342.07	105.69
342.298	99.69
342.526	102.69
342.754	108.69
342.981	78.69
343.209	83.69
343.437	107.69
343.665	95.69
343.893	84.69
344.12	110.69
344.348	95.69
344.576	102.69
344.804	116.69
345.031	104.69
345.259	107.69
345.487	101.69
345.714	106.69
345.942	86.69
346.17	88.69
346.397	88.69
346.625	92.69
346.853	102.69
347.08	95.69
347.308	93.69
347.535	112.69
347.763	110.69
347.99	126.69
348.218	118.69
348.445	116.69
348.673	97.69
348.9	99.69
349.128	103.69
349.355	91.69
349.583	98.69
349.81	100.69
350.037	85.69
350.265	95.69
350.492	104.69
350.72	99.69
350.947	102.69
351.174	135.69
351.402	111.69
351.629	90.69
351.856	115.69
352.083	116.69
352.311	125.69
352.538	119.69
352.765	123.69
352.992	124.69
353.22	126.69
353.447	119.69
353.674	107.69
353.901	98.69
354.128	93.69
354.355	97.69
354.583	117.69
354.81	115.69
355.037	106.69
355.264	102.69
355.491	97.69
355.718	99.69
355.945	78.69
356.172	98.69
356.399	107.69
356.626	114.69
356.853	86.69
357.08	85.69
357.307	96.69
357.534	90.69
357.761	99.69
357.988	114.69
358.215	101.69
358.441	104.69
358.668	98.69
358.895	107.69
359.122	95.69
359.349	104.69
359.576	93.69
359.802	91.69
360.029	138.69
360.256	139.69
360.483	109.69
360.709	98.69
360.936	98.69
361.163	93.69
361.39	112.69
361.616	92.69
361.843	102.69
362.07	101.69
362.296	116.69
362.523	99.69
362.749	94.69
362.976	102.69
363.203	97.69
363.429	84.69
363.656	108.69
363.882	99.69
364.109	105.69
364.335	89.69
364.562	98.69
364.788	95.69
365.015	99.69
365.241	110.69
365.468	127.69
365.694	126.69
365.92	121.69
366.147	97.69
366.373	87.69
366.599	98.69
366.826	102.69
367.052	105.69
367.278	91.69
367.505	88.69
367.731	104.69
367.957	110.69
368.184	103.69
368.41	114.69
368.636	145.69
368.862	124.69
369.089	116.69
369.315	97.69
369.541	104.69
369.767	91.69
369.993	97.69
370.219	96.69
370.445	96.69
370.672	86.69
370.898	105.69
371.124	90.69
371.35	91.69
371.576	90.69
371.802	109.69
372.028	97.69
372.254	105.69
372.48	92.69
372.706	92.69
372.932	84.69
373.158	98.69
373.384	86.69
373.61	103.69
373.835	92.69
374.061	77.69
374.287	99.69
374.513	98.69
374.739	92.69
374.965	95.69
375.191	84.69
375.416	84.69
375.642	96.69
375.868	93.69
376.094	92.69
376.319	89.69
376.545	101.69
376.771	99.69
376.997	90.69
377.222	102.69
377.448	92.69
377.674	80.69
377.899	76.69
378.125	96.69
378.35	95.69
378.576	88.69
378.802	102.69
379.027	84.69
379.253	95.69
379.478	94.69
379.704	85.69
379.929	100.69
380.155	96.69
380.38	102.69
380.606	88.69
380.831	97.69
381.057	112.69
381.282	100.69
381.507	105.69
381.733	108.69
381.958	108.69
382.184	91.69
382.409	120.69
382.634	107.69
382.86	109.69
383.085	108.69
383.31	109.69
383.535	127.69
383.761	94.69
383.986	106.69
384.211	104.69
384.436	101.69
384.662	111.69
384.887	108.69
385.112	112.69
385.337	113.69
385.562	124.69
385.787	114.69
386.013	118.69
386.238	145.69
386.463	122.69
386.688	121.69
386.913	116.69
387.138	127.69
387.363	101.69
387.588	114.69
387.813	127.69
388.038	105.69
388.263	114.69
388.488	124.69
388.713	105.69
388.938	99.69
389.163	92.69
389.387	90.69
389.612	89.69
389.837	105.69
390.062	86.69
390.287	94.69
390.512	101.69
390.736	105.69
390.961	83.69
391.186	96.69
391.411	72.69
391.636	80.69
391.86	80.69
392.085	84.69
392.31	84.69
392.534	72.69
392.759	90.69
392.984	91.69
393.208	97.69
393.433	91.69
393.658	93.69
393.882	93.69
394.107	98.69
394.331	88.69
394.556	94.69
394.78	76.69
395.005	84.69
395.229	92.69
395.454	86.69
395.678	85.69
395.903	78.69
396.127	109.69
396.352	86.69
396.576	84.69
396.801	87.69
397.025	105.69
397.249	94.69
397.474	88.69
397.698	85.69
397.922	81.69
398.147	85.69
398.371	84.69
398.595	73.69
398.82	90.69
399.044	91.69
399.268	75.69
399.492	87.69
399.717	93.69
399.941	85.69
400.165	100.69
400.389	89.69
400.613	92.69
400.837	82.69
401.062	92.69
401.286	85.69
401.51	95.69
401.734	94.69
401.958	103.69
402.182	140.69
402.406	203.69
402.63	164.69
402.854	94.69
403.078	97.69
403.302	85.69
403.526	78.69
403.75	93.69
403.974	94.69
404.198	89.69
404.422	105.69
404.645	87.69
404.869	101.69
405.093	101.69
405.317	153.69
405.541	142.69
405.765	114.69
405.988	152.69
406.212	202.69
406.436	312.69
406.66	212.69
406.883	115.69
407.107	94.69
407.331	108.69
407.555	110.69
407.778	118.69
408.002	94.69
408.226	113.69
408.449	89.69
408.673	93.69
408.896	90.69
409.12	100.69
409.344	94.69
409.567	93.69
409.791	87.69
410.014	99.69
410.238	97.69
410.461	90.69
410.685	91.69
410.908	100.69
411.132	94.69
411.355	101.69
411.578	89.69
411.802	88.69
412.025	88.69
412.249	98.69
412.472	122.69
412.695	136.69
412.919	102.69
413.142	92.69
413.365	84.69
413.589	90.69
413.812	101.69
414.035	107.69
414.258	98.69
414.482	97.69
414.705	95.69
414.928	89.69
415.151	92.69
415.374	99.69
415.597	85.69
415.821	91.69
416.044	92.69
416.267	93.69
416.49	92.69
416.713	93.69
416.936	80.69
417.159	99.69
417.382	98.69
417.605	105.69
417.828	101.69
418.051	102.69
418.274	107.69
418.497	82.69
418.72	77.69
418.943	100.69
419.166	78.69
419.389	77.69
419.611	90.69
419.834	99.69
420.057	93.69
420.28	98.69
420.503	109.69
420.726	86.69
420.948	93.69
421.171	98.69
421.394	104.69
421.617	96.69
421.839	84.69
422.062	81.69
422.285	80.69
422.507	98.69
422.73	92.69
422.953	105.69
423.175	93.69
423.398	80.69
423.621	93.69
423.843	100.69
424.066	84.69
424.288	103.69
424.511	95.69
424.733	100.69
424.956	120.69
425.178	97.69
425.401	95.69
425.623	103.69
425.846	99.69
426.068	106.69
426.291	96.69
426.513	94.69
426.735	84.69
426.958	100.69
427.18	116.69
427.402	179.69
427.625	268.69
427.847	237.69
428.069	220.69
428.292	123.69
428.514	108.69
428.736	100.69
428.958	89.69
429.181	74.69
429.403	88.69
429.625	83.69
429.847	114.69
430.069	116.69
430.292	92.69
430.514	94.69
430.736	89.69
430.958	74.69
431.18	87.69
431.402	94.69
431.624	96.69
431.846	77.69
432.068	96.69
432.29	80.69
432.512	100.69
432.734	90.69
432.956	85.69
433.178	103.69
433.4	97.69
433.622	94.69
433.844	95.69
434.066	100.69
434.287	98.69
434.509	86.69
434.731	102.69
434.953	97.69
435.175	91.69
435.397	88.69
435.618	107.69
435.84	113.69
436.062	132.69
436.284	120.69
436.505	107.69
436.727	108.69
436.949	91.69
437.17	104.69
437.392	78.69
437.614	88.69
437.835	109.69
438.057	144.69
438.278	126.69
438.5	101.69
438.721	126.69
438.943	127.69
439.165	98.69
439.386	87.69
439.608	107.69
439.829	120.69
440.05	156.69
440.272	178.69
440.493	117.69
440.715	92.69
440.936	85.69
441.158	105.69
441.379	97.69
441.6	88.69
441.822	117.69
442.043	100.69
442.264	96.69
442.486	106.69
442.707	97.69
442.928	123.69
443.149	187.69
443.371	164.69
443.592	121.69
443.813	122.69
444.034	127.69
444.255	91.69
444.476	98.69
444.698	90.69
444.919	95.69
445.14	138.69
445.361	129.69
445.582	140.69
445.803	190.69
446.024	174.69
446.245	161.69
446.466	108.69
446.687	80.69
446.908	98.69
447.129	83.69
447.35	90.69
447.571	104.69
447.792	90.69
448.013	119.69
448.234	118.69
448.455	114.69
448.675	118.69
448.896	126.69
449.117	121.69
449.338	109.69
449.559	134.69
449.779	133.69
450	76.69
450.221	99.69
450.442	89.69
450.662	84.69
450.883	125.69
451.104	129.69
451.324	94.69
451.545	94.69
451.766	84.69
451.986	86.69
452.207	107.69
452.428	102.69
452.648	108.69
452.869	129.69
453.089	127.69
453.31	140.69
453.53	93.69
453.751	98.69
453.971	125.69
454.192	133.69
454.412	104.69
454.633	90.69
454.853	98.69
455.073	100.69
455.294	93.69
455.514	103.69
455.734	87.69
455.955	90.69
456.175	82.69
456.395	89.69
456.616	100.69
456.836	89.69
457.056	97.69
457.276	78.69
457.497	89.69
457.717	77.69
457.937	94.69
458.157	92.69
458.377	101.69
458.598	126.69
458.818	211.69
459.038	244.69
459.258	125.69
459.478	105.69
459.698	92.69
459.918	84.69
460.138	90.69
460.358	94.69
460.578	101.69
460.798	101.69
461.018	106.69
461.238	90.69
461.458	67.69
461.678	76.69
461.898	86.69
462.118	99.69
462.338	101.69
462.558	99.69
462.777	96.69
462.997	95.69
463.217	105.69
463.437	108.69
463.657	80.69
463.876	102.69
464.096	83.69
464.316	79.69
464.536	89.69
464.755	102.69
464.975	126.69
465.195	218.69
465.414	238.69
465.634	113.69
465.854	107.69
466.073	83.69
466.293	83.69
466.512	87.69
466.732	97.69
466.951	99.69
467.171	88.69
467.391	106.69
467.61	153.69
467.829	211.69
468.049	586.69
468.268	859.69
468.488	220.69
468.707	117.69
468.927	94.69
469.146	89.69
469.365	108.69
469.585	96.69
469.804	101.69
470.023	114.69
470.243	113.69
470.462	119.69
470.681	133.69
470.901	108.69
471.12	114.69
471.339	109.69
471.558	112.69
471.777	152.69
471.997	304.69
472.216	1063.69
472.435	2495.69
472.654	584.69
472.873	170.69
473.092	116.69
473.311	97.69
473.53	96.69
473.749	85.69
473.968	106.69
474.187	117.69
474.406	99.69
474.625	90.69
474.844	77.69
475.063	84.69
475.282	94.69
475.501	86.69
475.72	92.69
475.939	96.69
476.158	84.69
476.377	90.69
476.596	89.69
476.814	101.69
477.033	101.69
477.252	94.69
477.471	88.69
477.69	94.69
477.908	97.69
478.127	98.69
478.346	90.69
478.564	98.69
478.783	106.69
479.002	112.69
479.22	113.69
479.439	131.69
479.658	133.69
479.876	124.69
480.095	121.69
480.313	129.69
480.532	153.69
480.751	274.69
480.969	964.69
481.188	4216.69
481.406	2448.69
481.624	352.69
481.843	139.69
482.061	115.69
482.28	103.69
482.498	102.69
482.717	76.69
482.935	92.69
483.153	103.69
483.372	89.69
483.59	100.69
483.808	85.69
484.027	96.69
484.245	83.69
484.463	94.69
484.681	85.69
484.9	95.69
485.118	97.69
485.336	91.69
485.554	113.69
485.772	111.69
485.99	108.69
486.209	113.69
486.427	109.69
486.645	129.69
486.863	131.69
487.081	112.69
487.299	105.69
487.517	97.69
487.735	104.69
487.953	97.69
488.171	88.69
488.389	97.69
488.607	116.69
488.825	94.69
489.043	95.69
489.261	98.69
489.479	96.69
489.696	89.69
489.914	74.69
490.132	89.69
490.35	87.69
490.568	100.69
490.786	76.69
491.003	92.69
491.221	86.69
491.439	84.69
491.657	113.69
491.874	88.69
492.092	94.69
492.31	95.69
492.527	90.69
492.745	92.69
492.963	110.69
493.18	98.69
493.398	106.69
493.615	95.69
493.833	88.69
494.05	91.69
494.268	84.69
494.485	105.69
494.703	83.69
494.92	88.69
495.138	84.69
495.355	94.69
495.573	77.69
495.79	105.69
496.008	93.69
496.225	92.69
496.442	89.69
496.66	74.69
496.877	88.69
497.094	93.69
497.312	86.69
497.529	88.69
497.746	91.69
497.963	79.69
498.181	84.69
498.398	110.69
498.615	107.69
498.832	113.69
499.049	85.69
499.267	96.69
499.484	94.69
499.701	101.69
499.918	93.69
500.135	98.69
500.352	100.69
500.569	76.69
500.786	85.69
501.003	105.69
501.22	77.69
501.437	84.69
501.654	91.69
501.871	130.69
502.088	102.69
502.305	92.69
502.522	104.69
502.739	93.69
502.956	90.69
503.172	90.69
503.389	109.69
503.606	129.69
503.823	110.69
504.04	94.69
504.256	90.69
504.473	87.69
504.69	93.69
504.907	86.69
505.123	95.69
505.34	82.69
505.557	99.69
505.773	88.69
505.99	102.69
506.207	88.69
506.423	93.69
506.64	99.69
506.856	100.69
507.073	84.69
507.289	118.69
507.506	100.69
507.722	140.69
507.939	127.69
508.155	99.69
508.372	116.69
508.588	107.69
508.805	108.69
509.021	95.69
509.238	91.69
509.454	105.69
509.67	109.69
509.887	116.69
510.103	142.69
510.319	235.69
510.536	856.69
510.752	3050.69
510.968	838.69
511.184	176.69
511.401	125.69
511.617	114.69
511.833	122.69
512.049	101.69
512.265	91.69
