Data from Circ_1995_H10_HRD10591_00021.txt Node
Date: Wed Jan 03 11:36:50 EST 2024
User: Yrep
Spectrometer: HR+D1059
Trigger mode: 1
Integration Time (sec): 1.000000E-1
Scans to average: 1
Electric dark correction enabled: true
Nonlinearity correction enabled: false
Boxcar width: 0
XAxis mode: Wavelengths
Number of Pixels in Spectrum: 2048
>>>>>Begin Spectral Data<<<<<
223.165	-13.56
223.4	-13.56
223.635	-13.56
223.869	-20.56
224.104	-23.56
224.338	-11.56
224.573	-20.56
224.808	-11.56
225.042	-12.56
225.277	0.44
225.511	-1.56
225.746	5.44
225.98	4.44
226.215	14.44
226.449	19.44
226.683	18.44
226.918	26.44
227.152	26.44
227.387	44.44
227.621	45.44
227.856	37.44
228.09	38.44
228.324	43.44
228.559	62.44
228.793	67.44
229.027	64.44
229.262	89.44
229.496	81.44
229.73	105.44
229.964	91.44
230.199	83.44
230.433	89.44
230.667	82.44
230.901	79.44
231.136	81.44
231.37	77.44
231.604	83.44
231.838	83.44
232.072	92.44
232.306	82.44
232.541	81.44
232.775	74.44
233.009	80.44
233.243	102.44
233.477	93.44
233.711	75.44
233.945	87.44
234.179	92.44
234.413	89.44
234.647	79.44
234.881	86.44
235.115	75.44
235.349	78.44
235.583	78.44
235.817	75.44
236.051	68.44
236.285	89.44
236.519	77.44
236.753	89.44
236.987	75.44
237.221	92.44
237.455	97.44
237.689	94.44
237.922	65.44
238.156	92.44
238.39	80.44
238.624	80.44
238.858	73.44
239.091	83.44
239.325	67.44
239.559	105.44
239.793	91.44
240.027	90.44
240.26	91.44
240.494	67.44
240.728	98.44
240.961	89.44
241.195	102.44
241.429	76.44
241.662	75.44
241.896	77.44
242.13	88.44
242.363	67.44
242.597	96.44
242.83	80.44
243.064	79.44
243.298	75.44
243.531	73.44
243.765	84.44
243.998	79.44
244.232	81.44
244.465	106.44
244.699	78.44
244.932	80.44
245.166	75.44
245.399	83.44
245.633	83.44
245.866	74.44
246.099	97.44
246.333	81.44
246.566	80.44
246.8	84.44
247.033	87.44
247.266	85.44
247.5	80.44
247.733	76.44
247.966	108.44
248.2	89.44
248.433	78.44
248.666	82.44
248.899	88.44
249.133	101.44
249.366	115.44
249.599	106.44
249.832	90.44
250.066	75.44
250.299	104.44
250.532	88.44
250.765	74.44
250.998	80.44
251.231	92.44
251.465	98.44
251.698	85.44
251.931	84.44
252.164	99.44
252.397	84.44
252.63	83.44
252.863	81.44
253.096	87.44
253.329	79.44
253.562	66.44
253.795	80.44
254.028	77.44
254.261	81.44
254.494	91.44
254.727	92.44
254.96	79.44
255.193	82.44
255.426	86.44
255.659	86.44
255.892	98.44
256.124	93.44
256.357	82.44
256.59	96.44
256.823	92.44
257.056	88.44
257.289	82.44
257.521	89.44
257.754	93.44
257.987	84.44
258.22	98.44
258.452	110.44
258.685	94.44
258.918	101.44
259.151	101.44
259.383	89.44
259.616	76.44
259.849	79.44
260.081	99.44
260.314	94.44
260.547	95.44
260.779	99.44
261.012	130.44
261.244	132.44
261.477	113.44
261.71	109.44
261.942	141.44
262.175	158.44
262.407	118.44
262.64	86.44
262.872	82.44
263.105	86.44
263.337	89.44
263.57	82.44
263.802	82.44
264.035	90.44
264.267	90.44
264.499	73.44
264.732	80.44
264.964	84.44
265.197	85.44
265.429	88.44
265.661	88.44
265.894	69.44
266.126	89.44
266.358	78.44
266.591	87.44
266.823	78.44
267.055	76.44
267.287	82.44
267.52	68.44
267.752	82.44
267.984	74.44
268.216	91.44
268.448	101.44
268.681	92.44
268.913	77.44
269.145	88.44
269.377	96.44
269.609	88.44
269.841	83.44
270.073	97.44
270.306	86.44
270.538	88.44
270.77	84.44
271.002	81.44
271.234	107.44
271.466	110.44
271.698	106.44
271.93	101.44
272.162	84.44
272.394	87.44
272.626	93.44
272.858	97.44
273.09	85.44
273.322	92.44
273.553	93.44
273.785	89.44
274.017	80.44
274.249	91.44
274.481	86.44
274.713	91.44
274.945	89.44
275.176	100.44
275.408	106.44
275.64	120.44
275.872	136.44
276.104	109.44
276.335	98.44
276.567	138.44
276.799	161.44
277.031	193.44
277.262	219.44
277.494	162.44
277.726	118.44
277.957	104.44
278.189	108.44
278.421	92.44
278.652	79.44
278.884	93.44
279.115	97.44
279.347	108.44
279.579	118.44
279.81	131.44
280.042	221.44
280.273	320.44
280.505	186.44
280.736	126.44
280.968	84.44
281.199	75.44
281.431	100.44
281.662	97.44
281.894	76.44
282.125	113.44
282.356	146.44
282.588	194.44
282.819	155.44
283.051	97.44
283.282	85.44
283.513	108.44
283.745	87.44
283.976	84.44
284.207	84.44
284.439	93.44
284.67	92.44
284.901	100.44
285.132	92.44
285.364	92.44
285.595	92.44
285.826	89.44
286.057	84.44
286.288	90.44
286.52	105.44
286.751	92.44
286.982	88.44
287.213	88.44
287.444	93.44
287.675	99.44
287.906	84.44
288.138	107.44
288.369	101.44
288.6	99.44
288.831	93.44
289.062	88.44
289.293	93.44
289.524	93.44
289.755	78.44
289.986	87.44
290.217	86.44
290.448	99.44
290.679	99.44
290.91	93.44
291.141	82.44
291.371	112.44
291.602	91.44
291.833	77.44
292.064	82.44
292.295	84.44
292.526	93.44
292.757	88.44
292.987	84.44
293.218	93.44
293.449	92.44
293.68	85.44
293.91	85.44
294.141	84.44
294.372	82.44
294.603	90.44
294.833	92.44
295.064	100.44
295.295	101.44
295.525	106.44
295.756	115.44
295.987	142.44
296.217	178.44
296.448	167.44
296.679	116.44
296.909	102.44
297.14	105.44
297.37	77.44
297.601	93.44
297.831	100.44
298.062	92.44
298.292	88.44
298.523	89.44
298.753	78.44
298.984	91.44
299.214	85.44
299.445	93.44
299.675	99.44
299.905	107.44
300.136	90.44
300.366	75.44
300.597	98.44
300.827	98.44
301.057	115.44
301.288	110.44
301.518	114.44
301.748	100.44
301.979	124.44
302.209	113.44
302.439	109.44
302.669	102.44
302.9	107.44
303.13	100.44
303.36	117.44
303.59	131.44
303.82	164.44
304.051	129.44
304.281	102.44
304.511	98.44
304.741	99.44
304.971	100.44
305.201	110.44
305.431	101.44
305.661	106.44
305.891	84.44
306.121	88.44
306.352	110.44
306.582	123.44
306.812	120.44
307.042	143.44
307.272	187.44
307.502	199.44
307.731	177.44
307.961	120.44
308.191	94.44
308.421	98.44
308.651	89.44
308.881	99.44
309.111	109.44
309.341	102.44
309.571	120.44
309.8	102.44
310.03	111.44
310.26	118.44
310.49	98.44
310.72	117.44
310.949	147.44
311.179	114.44
311.409	111.44
311.639	117.44
311.868	116.44
312.098	113.44
312.328	118.44
312.557	120.44
312.787	146.44
313.017	113.44
313.246	98.44
313.476	101.44
313.706	95.44
313.935	113.44
314.165	122.44
314.394	123.44
314.624	110.44
314.853	106.44
315.083	107.44
315.312	107.44
315.542	100.44
315.771	112.44
316.001	79.44
316.23	89.44
316.46	95.44
316.689	105.44
316.919	103.44
317.148	110.44
317.377	114.44
317.607	113.44
317.836	93.44
318.065	95.44
318.295	93.44
318.524	107.44
318.753	82.44
318.983	92.44
319.212	111.44
319.441	137.44
319.67	129.44
319.9	99.44
320.129	89.44
320.358	99.44
320.587	106.44
320.816	104.44
321.046	127.44
321.275	116.44
321.504	99.44
321.733	108.44
321.962	112.44
322.191	132.44
322.42	113.44
322.649	134.44
322.878	121.44
323.108	143.44
323.337	163.44
323.566	164.44
323.795	190.44
324.024	261.44
324.253	542.44
324.482	1158.44
324.71	2370.44
324.939	3204.44
325.168	1126.44
325.397	320.44
325.626	198.44
325.855	161.44
326.084	155.44
326.313	161.44
326.542	187.44
326.77	280.44
326.999	573.44
327.228	1215.44
327.457	2195.44
327.686	1809.44
327.914	625.44
328.143	642.44
328.372	824.44
328.6	453.44
328.829	229.44
329.058	221.44
329.287	237.44
329.515	192.44
329.744	289.44
329.972	583.44
330.201	1222.44
330.43	1794.44
330.658	792.44
330.887	359.44
331.115	234.44
331.344	158.44
331.572	125.44
331.801	133.44
332.03	137.44
332.258	126.44
332.486	123.44
332.715	108.44
332.943	128.44
333.172	139.44
333.4	158.44
333.629	182.44
333.857	266.44
334.085	507.44
334.314	1107.44
334.542	2174.44
334.771	2010.44
334.999	527.44
335.227	190.44
335.455	136.44
335.684	120.44
335.912	124.44
336.14	110.44
336.369	113.44
336.597	120.44
336.825	126.44
337.053	106.44
337.281	101.44
337.51	96.44
337.738	101.44
337.966	108.44
338.194	115.44
338.422	121.44
338.65	115.44
338.878	102.44
339.106	108.44
339.334	101.44
339.562	101.44
339.79	93.44
340.018	92.44
340.246	109.44
340.474	109.44
340.702	107.44
340.93	100.44
341.158	99.44
341.386	103.44
341.614	113.44
341.842	100.44
342.07	91.44
342.298	95.44
342.526	105.44
342.754	84.44
342.981	101.44
343.209	102.44
343.437	95.44
343.665	97.44
343.893	90.44
344.12	97.44
344.348	93.44
344.576	97.44
344.804	109.44
345.031	111.44
345.259	128.44
345.487	112.44
345.714	108.44
345.942	106.44
346.17	103.44
346.397	98.44
346.625	94.44
346.853	94.44
347.08	97.44
347.308	124.44
347.535	101.44
347.763	127.44
347.99	113.44
348.218	117.44
348.445	141.44
348.673	116.44
348.9	124.44
349.128	102.44
349.355	91.44
349.583	83.44
349.81	100.44
350.037	103.44
350.265	96.44
350.492	101.44
350.72	98.44
350.947	116.44
351.174	133.44
351.402	137.44
351.629	125.44
351.856	120.44
352.083	135.44
352.311	120.44
352.538	139.44
352.765	128.44
352.992	119.44
353.22	128.44
353.447	114.44
353.674	126.44
353.901	95.44
354.128	96.44
354.355	102.44
354.583	106.44
354.81	106.44
355.037	112.44
355.264	86.44
355.491	85.44
355.718	89.44
355.945	79.44
356.172	93.44
356.399	102.44
356.626	110.44
356.853	96.44
357.08	94.44
357.307	85.44
357.534	83.44
357.761	95.44
357.988	104.44
358.215	106.44
358.441	106.44
358.668	102.44
358.895	116.44
359.122	95.44
359.349	92.44
359.576	98.44
359.802	133.44
360.029	165.44
360.256	165.44
360.483	130.44
360.709	106.44
360.936	102.44
361.163	111.44
361.39	122.44
361.616	122.44
361.843	101.44
362.07	123.44
362.296	109.44
362.523	117.44
362.749	102.44
362.976	105.44
363.203	104.44
363.429	102.44
363.656	101.44
363.882	99.44
364.109	101.44
364.335	97.44
364.562	103.44
364.788	94.44
365.015	101.44
365.241	111.44
365.468	127.44
365.694	130.44
365.92	126.44
366.147	101.44
366.373	104.44
366.599	110.44
366.826	100.44
367.052	97.44
367.278	105.44
367.505	117.44
367.731	108.44
367.957	102.44
368.184	101.44
368.41	124.44
368.636	121.44
368.862	153.44
369.089	137.44
369.315	112.44
369.541	100.44
369.767	95.44
369.993	110.44
370.219	100.44
370.445	91.44
370.672	104.44
370.898	92.44
371.124	94.44
371.35	86.44
371.576	102.44
371.802	87.44
372.028	85.44
372.254	104.44
372.48	83.44
372.706	94.44
372.932	94.44
373.158	94.44
373.384	97.44
373.61	105.44
373.835	86.44
374.061	104.44
374.287	102.44
374.513	98.44
374.739	86.44
374.965	101.44
375.191	105.44
375.416	96.44
375.642	98.44
375.868	98.44
376.094	93.44
376.319	99.44
376.545	91.44
376.771	90.44
376.997	89.44
377.222	94.44
377.448	104.44
377.674	96.44
377.899	74.44
378.125	92.44
378.35	101.44
378.576	83.44
378.802	88.44
379.027	83.44
379.253	103.44
379.478	108.44
379.704	99.44
379.929	97.44
380.155	111.44
380.38	112.44
380.606	105.44
380.831	101.44
381.057	106.44
381.282	104.44
381.507	100.44
381.733	107.44
381.958	104.44
382.184	101.44
382.409	109.44
382.634	112.44
382.86	107.44
383.085	114.44
383.31	90.44
383.535	116.44
383.761	110.44
383.986	105.44
384.211	101.44
384.436	110.44
384.662	107.44
384.887	102.44
385.112	116.44
385.337	140.44
385.562	117.44
385.787	118.44
386.013	125.44
386.238	141.44
386.463	124.44
386.688	124.44
386.913	127.44
387.138	131.44
387.363	114.44
387.588	104.44
387.813	118.44
388.038	114.44
388.263	115.44
388.488	117.44
388.713	107.44
388.938	98.44
389.163	106.44
389.387	101.44
389.612	100.44
389.837	88.44
390.062	97.44
390.287	98.44
390.512	107.44
390.736	85.44
390.961	83.44
391.186	84.44
391.411	98.44
391.636	86.44
391.86	92.44
392.085	81.44
392.31	90.44
392.534	96.44
392.759	97.44
392.984	93.44
393.208	95.44
393.433	86.44
393.658	92.44
393.882	112.44
394.107	99.44
394.331	91.44
394.556	105.44
394.78	90.44
395.005	104.44
395.229	91.44
395.454	88.44
395.678	90.44
395.903	85.44
396.127	97.44
396.352	91.44
396.576	81.44
396.801	90.44
397.025	93.44
397.249	78.44
397.474	103.44
397.698	84.44
397.922	93.44
398.147	95.44
398.371	96.44
398.595	96.44
398.82	92.44
399.044	90.44
399.268	77.44
399.492	83.44
399.717	91.44
399.941	93.44
400.165	109.44
400.389	95.44
400.613	87.44
400.837	93.44
401.062	92.44
401.286	88.44
401.51	103.44
401.734	102.44
401.958	107.44
402.182	179.44
402.406	234.44
402.63	176.44
402.854	126.44
403.078	94.44
403.302	100.44
403.526	99.44
403.75	99.44
403.974	86.44
404.198	92.44
404.422	91.44
404.645	105.44
404.869	99.44
405.093	129.44
405.317	141.44
405.541	140.44
405.765	130.44
405.988	156.44
406.212	255.44
406.436	378.44
406.66	240.44
406.883	127.44
407.107	115.44
407.331	101.44
407.555	117.44
407.778	125.44
408.002	105.44
408.226	100.44
408.449	85.44
408.673	97.44
408.896	85.44
409.12	98.44
409.344	82.44
409.567	92.44
409.791	83.44
410.014	86.44
410.238	91.44
410.461	99.44
410.685	101.44
410.908	111.44
411.132	117.44
411.355	97.44
411.578	102.44
411.802	101.44
412.025	99.44
412.249	115.44
412.472	119.44
412.695	151.44
412.919	120.44
413.142	100.44
413.365	96.44
413.589	89.44
413.812	80.44
414.035	97.44
414.258	86.44
414.482	99.44
414.705	93.44
414.928	92.44
415.151	103.44
415.374	91.44
415.597	96.44
415.821	93.44
416.044	94.44
416.267	99.44
416.49	114.44
416.713	88.44
416.936	102.44
417.159	98.44
417.382	92.44
417.605	112.44
417.828	115.44
418.051	114.44
418.274	96.44
418.497	98.44
418.72	82.44
418.943	88.44
419.166	96.44
419.389	99.44
419.611	100.44
419.834	113.44
420.057	96.44
420.28	102.44
420.503	90.44
420.726	93.44
420.948	99.44
421.171	91.44
421.394	101.44
421.617	90.44
421.839	79.44
422.062	92.44
422.285	92.44
422.507	103.44
422.73	117.44
422.953	89.44
423.175	82.44
423.398	104.44
423.621	92.44
423.843	97.44
424.066	84.44
424.288	79.44
424.511	98.44
424.733	112.44
424.956	117.44
425.178	123.44
425.401	124.44
425.623	126.44
425.846	94.44
426.068	115.44
426.291	103.44
426.513	101.44
426.735	88.44
426.958	98.44
427.18	121.44
427.402	206.44
427.625	291.44
427.847	271.44
428.069	214.44
428.292	126.44
428.514	101.44
428.736	104.44
428.958	91.44
429.181	97.44
429.403	101.44
429.625	100.44
429.847	95.44
430.069	127.44
430.292	100.44
430.514	97.44
430.736	77.44
430.958	78.44
431.18	84.44
431.402	84.44
431.624	72.44
431.846	75.44
432.068	94.44
432.29	88.44
432.512	84.44
432.734	97.44
432.956	90.44
433.178	92.44
433.4	103.44
433.622	86.44
433.844	99.44
434.066	90.44
434.287	102.44
434.509	105.44
434.731	108.44
434.953	86.44
435.175	96.44
435.397	100.44
435.618	99.44
435.84	114.44
436.062	146.44
436.284	130.44
436.505	93.44
436.727	110.44
436.949	87.44
437.17	85.44
437.392	79.44
437.614	114.44
437.835	143.44
438.057	166.44
438.278	146.44
438.5	126.44
438.721	140.44
438.943	131.44
439.165	101.44
439.386	101.44
439.608	88.44
439.829	125.44
440.05	164.44
440.272	196.44
440.493	119.44
440.715	99.44
440.936	96.44
441.158	98.44
441.379	87.44
441.6	95.44
441.822	97.44
442.043	98.44
442.264	151.44
442.486	122.44
442.707	105.44
442.928	131.44
443.149	204.44
443.371	212.44
443.592	142.44
443.813	123.44
444.034	121.44
444.255	106.44
444.476	87.44
444.698	100.44
444.919	95.44
445.14	157.44
445.361	156.44
445.582	153.44
445.803	205.44
446.024	207.44
446.245	181.44
446.466	126.44
446.687	88.44
446.908	99.44
447.129	90.44
447.35	97.44
447.571	104.44
447.792	108.44
448.013	105.44
448.234	127.44
448.455	122.44
448.675	130.44
448.896	148.44
449.117	122.44
449.338	116.44
449.559	141.44
449.779	168.44
450	98.44
450.221	102.44
450.442	110.44
450.662	115.44
450.883	128.44
451.104	161.44
451.324	113.44
451.545	117.44
451.766	97.44
451.986	84.44
452.207	97.44
452.428	112.44
452.648	125.44
452.869	148.44
453.089	157.44
453.31	181.44
453.53	118.44
453.751	112.44
453.971	146.44
454.192	160.44
454.412	102.44
454.633	100.44
454.853	98.44
455.073	94.44
455.294	83.44
455.514	114.44
455.734	102.44
455.955	92.44
456.175	90.44
456.395	88.44
456.616	79.44
456.836	99.44
457.056	84.44
457.276	83.44
457.497	87.44
457.717	92.44
457.937	74.44
458.157	104.44
458.377	111.44
458.598	149.44
458.818	264.44
459.038	287.44
459.258	170.44
459.478	108.44
459.698	84.44
459.918	93.44
460.138	93.44
460.358	93.44
460.578	82.44
460.798	97.44
461.018	98.44
461.238	88.44
461.458	85.44
461.678	97.44
461.898	75.44
462.118	85.44
462.338	101.44
462.558	75.44
462.777	101.44
462.997	116.44
463.217	120.44
463.437	108.44
463.657	110.44
463.876	100.44
464.096	94.44
464.316	105.44
464.536	97.44
464.755	121.44
464.975	139.44
465.195	291.44
465.414	281.44
465.634	125.44
465.854	92.44
466.073	88.44
466.293	106.44
466.512	88.44
466.732	91.44
466.951	90.44
467.171	116.44
467.391	116.44
467.61	160.44
467.829	250.44
468.049	674.44
468.268	1026.44
468.488	259.44
468.707	125.44
468.927	116.44
469.146	111.44
469.365	103.44
469.585	96.44
469.804	117.44
470.023	123.44
470.243	104.44
470.462	140.44
470.681	156.44
470.901	120.44
471.12	100.44
471.339	106.44
471.558	132.44
471.777	170.44
471.997	341.44
472.216	1332.44
472.435	3059.44
472.654	698.44
472.873	176.44
473.092	118.44
473.311	113.44
473.53	99.44
473.749	104.44
473.968	100.44
474.187	135.44
474.406	121.44
474.625	90.44
474.844	95.44
475.063	95.44
475.282	91.44
475.501	107.44
475.72	90.44
475.939	97.44
476.158	88.44
476.377	120.44
476.596	92.44
476.814	94.44
477.033	94.44
477.252	98.44
477.471	104.44
477.69	93.44
477.908	91.44
478.127	97.44
478.346	103.44
478.564	105.44
478.783	121.44
479.002	115.44
479.22	113.44
479.439	146.44
479.658	157.44
479.876	128.44
480.095	154.44
480.313	150.44
480.532	191.44
480.751	337.44
480.969	1188.44
481.188	5250.44
481.406	2928.44
481.624	426.44
481.843	163.44
482.061	131.44
482.28	103.44
482.498	112.44
482.717	99.44
482.935	105.44
483.153	85.44
483.372	85.44
483.59	112.44
483.808	92.44
484.027	111.44
484.245	101.44
484.463	100.44
484.681	118.44
484.9	88.44
485.118	89.44
485.336	102.44
485.554	97.44
485.772	113.44
485.99	107.44
486.209	101.44
486.427	123.44
486.645	125.44
486.863	158.44
487.081	106.44
487.299	96.44
487.517	102.44
487.735	96.44
487.953	85.44
488.171	94.44
488.389	93.44
488.607	110.44
488.825	95.44
489.043	91.44
489.261	86.44
489.479	100.44
489.696	103.44
489.914	84.44
490.132	82.44
490.35	85.44
490.568	94.44
490.786	88.44
491.003	93.44
491.221	95.44
491.439	107.44
491.657	95.44
491.874	97.44
492.092	102.44
492.31	115.44
492.527	92.44
492.745	109.44
492.963	101.44
493.18	106.44
493.398	97.44
493.615	97.44
493.833	96.44
494.05	106.44
494.268	93.44
494.485	82.44
494.703	92.44
494.92	88.44
495.138	85.44
495.355	98.44
495.573	106.44
495.79	90.44
496.008	79.44
496.225	94.44
496.442	88.44
496.66	84.44
496.877	88.44
497.094	95.44
497.312	79.44
497.529	93.44
497.746	85.44
497.963	84.44
498.181	98.44
498.398	86.44
498.615	133.44
498.832	123.44
499.049	88.44
499.267	93.44
499.484	93.44
499.701	98.44
499.918	84.44
500.135	91.44
500.352	85.44
500.569	106.44
500.786	110.44
501.003	102.44
501.22	95.44
501.437	102.44
501.654	122.44
501.871	144.44
502.088	103.44
502.305	80.44
502.522	92.44
502.739	113.44
502.956	85.44
503.172	97.44
503.389	115.44
503.606	154.44
503.823	129.44
504.04	91.44
504.256	101.44
504.473	84.44
504.69	100.44
504.907	96.44
505.123	96.44
505.34	85.44
505.557	105.44
505.773	89.44
505.99	93.44
506.207	86.44
506.423	95.44
506.64	93.44
506.856	99.44
507.073	104.44
507.289	93.44
507.506	110.44
507.722	162.44
507.939	163.44
508.155	101.44
508.372	92.44
508.588	101.44
508.805	90.44
509.021	100.44
509.238	111.44
509.454	104.44
509.67	122.44
509.887	108.44
510.103	174.44
510.319	280.44
510.536	1086.44
510.752	3920.44
