Data from Circ_1995_H10_HRD10591_00093.txt Node
Date: Wed Jan 03 11:37:05 EST 2024
User: Yrep
Spectrometer: HR+D1059
Trigger mode: 1
Integration Time (sec): 1.000000E-1
Scans to average: 1
Electric dark correction enabled: true
Nonlinearity correction enabled: false
Boxcar width: 0
XAxis mode: Wavelengths
Number of Pixels in Spectrum: 2048
>>>>>Begin Spectral Data<<<<<
223.165	-19.62
223.4	-19.62
223.635	-19.62
223.869	-26.62
224.104	-25.62
224.338	-17.62
224.573	-17.62
224.808	-4.62
225.042	-2.62
225.277	-9.62
225.511	-0.62
225.746	4.38
225.98	12.38
226.215	12.38
226.449	17.38
226.683	17.38
226.918	37.38
227.152	23.38
227.387	42.38
227.621	53.38
227.856	33.38
228.09	41.38
228.324	49.38
228.559	67.38
228.793	172.38
229.027	470.38
229.262	554.38
229.496	667.38
229.73	934.38
229.964	874.38
230.199	610.38
230.433	544.38
230.667	535.38
230.901	496.38
231.136	502.38
231.37	498.38
231.604	503.38
231.838	502.38
232.072	495.38
232.306	510.38
232.541	513.38
232.775	519.38
233.009	541.38
233.243	525.38
233.477	532.38
233.711	556.38
233.945	551.38
234.179	545.38
234.413	571.38
234.647	572.38
234.881	575.38
235.115	596.38
235.349	589.38
235.583	621.38
235.817	673.38
236.051	700.38
236.285	676.38
236.519	704.38
236.753	793.38
236.987	985.38
237.221	1535.38
237.455	1615.38
237.689	987.38
237.922	808.38
238.156	767.38
238.39	749.38
238.624	725.38
238.858	732.38
239.091	743.38
239.325	789.38
239.559	778.38
239.793	826.38
240.027	887.38
240.26	1033.38
240.494	1082.38
240.728	1039.38
240.961	973.38
241.195	914.38
241.429	896.38
241.662	882.38
241.896	897.38
242.13	889.38
242.363	897.38
242.597	955.38
242.83	968.38
243.064	975.38
243.298	987.38
243.531	976.38
243.765	986.38
243.998	1007.38
244.232	1008.38
244.465	1033.38
244.699	1068.38
244.932	1075.38
245.166	1051.38
245.399	1081.38
245.633	1089.38
245.866	1064.38
246.099	1116.38
246.333	1122.38
246.566	1124.38
246.8	1166.38
247.033	1156.38
247.266	1204.38
247.5	1293.38
247.733	1328.38
247.966	1315.38
248.2	1336.38
248.433	1372.38
248.666	1451.38
248.899	1580.38
249.133	1749.38
249.366	1760.38
249.599	1725.38
249.832	1739.38
250.066	2059.38
250.299	2908.38
250.532	3957.38
250.765	3487.38
250.998	2726.38
251.231	2305.38
251.465	1994.38
251.698	1894.38
251.931	1807.38
252.164	1750.38
252.397	1740.38
252.63	1761.38
252.863	1828.38
253.096	1953.38
253.329	1980.38
253.562	1864.38
253.795	1832.38
254.028	1857.38
254.261	1933.38
254.494	2180.38
254.727	2519.38
254.96	2648.38
255.193	2519.38
255.426	2653.38
255.659	3428.38
255.892	5377.38
256.124	7097.38
256.357	5517.38
256.59	3793.38
256.823	2976.38
257.056	2622.38
257.289	2465.38
257.521	2274.38
257.754	2159.38
257.987	2086.38
258.22	2076.38
258.452	2060.38
258.685	2001.38
258.918	1986.38
259.151	2005.38
259.383	2041.38
259.616	2041.38
259.849	2103.38
260.081	2296.38
260.314	2461.38
260.547	2327.38
260.779	2163.38
261.012	2136.38
261.244	2069.38
261.477	2024.38
261.71	2060.38
261.942	2153.38
262.175	2228.38
262.407	2098.38
262.64	1979.38
262.872	1972.38
263.105	1929.38
263.337	1951.38
263.57	1985.38
263.802	1960.38
264.035	1947.38
264.267	1968.38
264.499	1948.38
264.732	1944.38
264.964	2013.38
265.197	1986.38
265.429	2038.38
265.661	2042.38
265.894	2064.38
266.126	2065.38
266.358	2104.38
266.591	2095.38
266.823	2129.38
267.055	2152.38
267.287	2140.38
267.52	2122.38
267.752	2100.38
267.984	2129.38
268.216	2210.38
268.448	2249.38
268.681	2306.38
268.913	2442.38
269.145	2605.38
269.377	2606.38
269.609	2512.38
269.841	2468.38
270.073	2584.38
270.306	2908.38
270.538	3001.38
270.77	2790.38
271.002	2695.38
271.234	2726.38
271.466	2902.38
271.698	2987.38
271.93	2997.38
272.162	2974.38
272.394	2945.38
272.626	2783.38
272.858	2619.38
273.09	2619.38
273.322	2647.38
273.553	2604.38
273.785	2608.38
274.017	2651.38
274.249	2700.38
274.481	2686.38
274.713	2773.38
274.945	2752.38
275.176	2842.38
275.408	2904.38
275.64	2993.38
275.872	3103.38
276.104	3118.38
276.335	3094.38
276.567	3240.38
276.799	3596.38
277.031	4076.38
277.262	4453.38
277.494	4103.38
277.726	3548.38
277.957	3369.38
278.189	3249.38
278.421	3173.38
278.652	3122.38
278.884	3135.38
279.115	3115.38
279.347	3165.38
279.579	3288.38
279.81	3569.38
280.042	4032.38
280.273	4551.38
280.505	4217.38
280.736	3581.38
280.968	3371.38
281.199	3248.38
281.431	3213.38
281.662	3105.38
281.894	3109.38
282.125	3149.38
282.356	3376.38
282.588	3542.38
282.819	3313.38
283.051	3090.38
283.282	2990.38
283.513	3055.38
283.745	3042.38
283.976	3116.38
284.207	3059.38
284.439	3062.38
284.67	3064.38
284.901	3053.38
285.132	3078.38
285.364	3053.38
285.595	3032.38
285.826	3123.38
286.057	3187.38
286.288	3157.38
286.52	3138.38
286.751	3105.38
286.982	3167.38
287.213	3185.38
287.444	3224.38
287.675	3213.38
287.906	3380.38
288.138	3352.38
288.369	3297.38
288.6	3323.38
288.831	3269.38
289.062	3321.38
289.293	3264.38
289.524	3269.38
289.755	3256.38
289.986	3223.38
290.217	3224.38
290.448	3226.38
290.679	3247.38
290.91	3188.38
291.141	3161.38
291.371	3164.38
291.602	3190.38
291.833	3145.38
292.064	3146.38
292.295	3162.38
292.526	3218.38
292.757	3086.38
292.987	3099.38
293.218	3080.38
293.449	3141.38
293.68	3188.38
293.91	3186.38
294.141	3197.38
294.372	3161.38
294.603	3146.38
294.833	3161.38
295.064	3195.38
295.295	3246.38
295.525	3222.38
295.756	3323.38
295.987	3433.38
296.217	3644.38
296.448	3565.38
296.679	3323.38
296.909	3243.38
297.14	3273.38
297.37	3391.38
297.601	3364.38
297.831	3333.38
298.062	3381.38
298.292	3429.38
298.523	3456.38
298.753	3490.38
298.984	3481.38
299.214	3432.38
299.445	3434.38
299.675	3446.38
299.905	3555.38
300.136	3494.38
300.366	3493.38
300.597	3541.38
300.827	3693.38
301.057	3751.38
301.288	3821.38
301.518	3759.38
301.748	3759.38
301.979	3891.38
302.209	3896.38
302.439	3825.38
302.669	3804.38
302.9	3683.38
303.13	3682.38
303.36	3839.38
303.59	4016.38
303.82	4178.38
304.051	4000.38
304.281	3841.38
304.511	3706.38
304.741	3626.38
304.971	3713.38
305.201	3645.38
305.431	3658.38
305.661	3640.38
305.891	3664.38
306.121	3678.38
306.352	3736.38
306.582	3754.38
306.812	3769.38
307.042	3994.38
307.272	4299.38
307.502	4489.38
307.731	4302.38
307.961	3958.38
308.191	3823.38
308.421	3797.38
308.651	3752.38
308.881	3741.38
309.111	3796.38
309.341	3815.38
309.571	3944.38
309.8	4031.38
310.03	4135.38
310.26	4125.38
310.49	4052.38
310.72	4301.38
310.949	4433.38
311.179	4385.38
311.409	4142.38
311.639	4213.38
311.868	4155.38
312.098	4268.38
312.328	4249.38
312.557	4528.38
312.787	4677.38
313.017	4429.38
313.246	4242.38
313.476	4191.38
313.706	4262.38
313.935	4387.38
314.165	4500.38
314.394	4625.38
314.624	4493.38
314.853	4319.38
315.083	4273.38
315.312	4227.38
315.542	4151.38
315.771	4130.38
316.001	4121.38
316.23	4094.38
316.46	4144.38
316.689	4260.38
316.919	4303.38
317.148	4361.38
317.377	4246.38
317.607	4326.38
317.836	4268.38
318.065	4185.38
318.295	4191.38
318.524	4228.38
318.753	4221.38
318.983	4244.38
319.212	4174.38
319.441	4344.38
319.67	4299.38
319.9	4272.38
320.129	4288.38
320.358	4299.38
320.587	4350.38
320.816	4483.38
321.046	4510.38
321.275	4466.38
321.504	4499.38
321.733	4558.38
321.962	4662.38
322.191	4774.38
322.42	4925.38
322.649	5054.38
322.878	5143.38
323.108	5356.38
323.337	5692.38
323.566	6003.38
323.795	6337.38
324.024	7208.38
324.253	9644.38
324.482	14043.38
324.71	15618.38
324.939	15618.38
325.168	14944.38
325.397	8317.38
325.626	6812.38
325.855	6272.38
326.084	6207.38
326.313	6305.38
326.542	6632.38
326.77	7618.38
326.999	9768.38
327.228	13757.38
327.457	15618.38
327.686	15618.38
327.914	13473.38
328.143	13373.38
328.372	14270.38
328.6	11540.38
328.829	9229.38
329.058	9335.38
329.287	9629.38
329.515	9909.38
329.744	11788.38
329.972	14743.38
330.201	15618.38
330.43	15618.38
330.658	15584.38
330.887	11706.38
331.115	9442.38
331.344	8118.38
331.572	7676.38
331.801	7638.38
332.03	7544.38
332.258	7418.38
332.486	7388.38
332.715	7605.38
332.943	8102.38
333.172	8623.38
333.4	9426.38
333.629	10671.38
333.857	12880.38
334.085	15357.38
334.314	15618.38
334.542	15618.38
334.771	15618.38
334.999	14988.38
335.227	10875.38
335.455	9047.38
335.684	8086.38
335.912	7471.38
336.14	7121.38
336.369	6766.38
336.597	6733.38
336.825	6407.38
337.053	6180.38
337.281	6009.38
337.51	5879.38
337.738	5829.38
337.966	5720.38
338.194	5735.38
338.422	5642.38
338.65	5443.38
338.878	5380.38
339.106	5334.38
339.334	5257.38
339.562	5141.38
339.79	5120.38
340.018	5160.38
340.246	5197.38
340.474	5172.38
340.702	5045.38
340.93	4991.38
341.158	5044.38
341.386	5063.38
341.614	5056.38
341.842	4958.38
342.07	4897.38
342.298	4878.38
342.526	4835.38
342.754	4813.38
342.981	4808.38
343.209	4902.38
343.437	5097.38
343.665	5314.38
343.893	5533.38
344.12	5553.38
344.348	5309.38
344.576	5190.38
344.804	5192.38
345.031	5217.38
345.259	5113.38
345.487	5020.38
345.714	4879.38
345.942	4764.38
346.17	4746.38
346.397	4647.38
346.625	4701.38
346.853	4660.38
347.08	4657.38
347.308	4751.38
347.535	4869.38
347.763	4944.38
347.99	4845.38
348.218	4851.38
348.445	4932.38
348.673	4818.38
348.9	4670.38
349.128	4522.38
349.355	4537.38
349.583	4552.38
349.81	4505.38
350.037	4515.38
350.265	4484.38
350.492	4555.38
350.72	4520.38
350.947	4573.38
351.174	4684.38
351.402	4851.38
351.629	4718.38
351.856	4750.38
352.083	4872.38
352.311	4958.38
352.538	4906.38
352.765	4845.38
352.992	4695.38
353.22	4684.38
353.447	4574.38
353.674	4459.38
353.901	4408.38
354.128	4407.38
354.355	4352.38
354.583	4426.38
354.81	4388.38
355.037	4344.38
355.264	4310.38
355.491	4279.38
355.718	4345.38
355.945	4329.38
356.172	4300.38
356.399	4325.38
356.626	4295.38
356.853	4363.38
357.08	4292.38
357.307	4278.38
357.534	4247.38
357.761	4316.38
357.988	4303.38
358.215	4261.38
358.441	4357.38
358.668	4441.38
358.895	4462.38
359.122	4416.38
359.349	4542.38
359.576	4733.38
359.802	5116.38
360.029	5447.38
360.256	5320.38
360.483	5017.38
360.709	4709.38
360.936	4623.38
361.163	4661.38
361.39	4758.38
361.616	4705.38
361.843	4628.38
362.07	4584.38
362.296	4754.38
362.523	4648.38
362.749	4648.38
362.976	4591.38
363.203	4457.38
363.429	4453.38
363.656	4475.38
363.882	4530.38
364.109	4428.38
364.335	4465.38
364.562	4488.38
364.788	4463.38
365.015	4506.38
365.241	4460.38
365.468	4546.38
365.694	4602.38
365.92	4555.38
366.147	4452.38
366.373	4454.38
366.599	4415.38
366.826	4374.38
367.052	4417.38
367.278	4474.38
367.505	4474.38
367.731	4512.38
367.957	4510.38
368.184	4519.38
368.41	4653.38
368.636	4689.38
368.862	4671.38
369.089	4534.38
369.315	4529.38
369.541	4478.38
369.767	4498.38
369.993	4540.38
370.219	4580.38
370.445	4503.38
370.672	4545.38
370.898	4589.38
371.124	4533.38
371.35	4632.38
371.576	4620.38
371.802	4622.38
372.028	4530.38
372.254	4555.38
372.48	4676.38
372.706	4717.38
372.932	4760.38
373.158	4718.38
373.384	4681.38
373.61	4653.38
373.835	4678.38
374.061	4662.38
374.287	4713.38
374.513	4801.38
374.739	4889.38
374.965	4996.38
375.191	5017.38
375.416	4951.38
375.642	4828.38
375.868	4761.38
376.094	4674.38
376.319	4635.38
376.545	4620.38
376.771	4632.38
376.997	4558.38
377.222	4612.38
377.448	4531.38
377.674	4526.38
377.899	4532.38
378.125	4498.38
378.35	4493.38
378.576	4510.38
378.802	4500.38
379.027	4501.38
379.253	4533.38
379.478	4498.38
379.704	4495.38
379.929	4501.38
380.155	4590.38
380.38	4563.38
380.606	4630.38
380.831	4614.38
381.057	4601.38
381.282	4606.38
381.507	4666.38
381.733	4628.38
381.958	4659.38
382.184	4756.38
382.409	4788.38
382.634	4805.38
382.86	4804.38
383.085	4896.38
383.31	4955.38
383.535	4983.38
383.761	5036.38
383.986	5081.38
384.211	5249.38
384.436	5247.38
384.662	5291.38
384.887	5409.38
385.112	5398.38
385.337	5444.38
385.562	5437.38
385.787	5439.38
386.013	5587.38
386.238	5590.38
386.463	5578.38
386.688	5502.38
386.913	5441.38
387.138	5383.38
387.363	5410.38
387.588	5359.38
387.813	5316.38
388.038	5360.38
388.263	5378.38
388.488	5400.38
388.713	5420.38
388.938	5391.38
389.163	5320.38
389.387	5412.38
389.612	5270.38
389.837	5331.38
390.062	5281.38
390.287	5293.38
390.512	5302.38
390.736	5360.38
390.961	5485.38
391.186	5474.38
391.411	5718.38
391.636	5775.38
391.86	5912.38
392.085	5977.38
392.31	5912.38
392.534	5734.38
392.759	5761.38
392.984	5597.38
393.208	5515.38
393.433	5618.38
393.658	5592.38
393.882	5523.38
394.107	5610.38
394.331	5652.38
394.556	5676.38
394.78	5695.38
395.005	5784.38
395.229	5754.38
395.454	5926.38
395.678	6091.38
395.903	6015.38
396.127	6131.38
396.352	5963.38
396.576	5820.38
396.801	5749.38
397.025	5865.38
397.249	5950.38
397.474	6092.38
397.698	6101.38
397.922	6259.38
398.147	6411.38
398.371	6471.38
398.595	6538.38
398.82	6832.38
399.044	7444.38
399.268	8113.38
399.492	9124.38
399.717	9726.38
399.941	9586.38
400.165	9067.38
400.389	8364.38
400.613	7588.38
400.837	7117.38
401.062	6910.38
401.286	6857.38
401.51	6917.38
401.734	6844.38
401.958	7001.38
402.182	7146.38
402.406	7284.38
402.63	7292.38
402.854	7313.38
403.078	7431.38
403.302	7524.38
403.526	7659.38
403.75	7827.38
403.974	7939.38
404.198	7995.38
404.422	8207.38
404.645	8351.38
404.869	8681.38
405.093	9490.38
405.317	10116.38
405.541	9978.38
405.765	8894.38
405.988	8378.38
406.212	8361.38
406.436	8462.38
406.66	8465.38
406.883	8257.38
407.107	8791.38
407.331	9387.38
407.555	9726.38
407.778	9454.38
408.002	8581.38
408.226	8316.38
408.449	8216.38
408.673	8102.38
408.896	8160.38
409.12	8374.38
409.344	7935.38
409.567	7541.38
409.791	7547.38
410.014	7387.38
410.238	7356.38
410.461	7509.38
410.685	7443.38
410.908	7550.38
411.132	7769.38
411.355	7876.38
411.578	7590.38
411.802	7504.38
412.025	7780.38
412.249	8586.38
412.472	9466.38
412.695	10095.38
412.919	9228.38
413.142	8600.38
413.365	8076.38
413.589	7655.38
413.812	7419.38
414.035	7225.38
414.258	7300.38
414.482	7149.38
414.705	7094.38
414.928	7030.38
415.151	7038.38
415.374	6935.38
415.597	6806.38
415.821	6727.38
416.044	6841.38
416.267	6874.38
416.49	6758.38
416.713	6735.38
416.936	6831.38
417.159	6900.38
417.382	7250.38
417.605	7480.38
417.828	7519.38
418.051	7309.38
418.274	7004.38
418.497	6911.38
418.72	6972.38
418.943	6946.38
419.166	7375.38
419.389	7929.38
419.611	7962.38
419.834	8128.38
420.057	8402.38
420.28	8902.38
420.503	8506.38
420.726	8199.38
420.948	8010.38
421.171	8102.38
421.394	7749.38
421.617	7190.38
421.839	7085.38
422.062	7190.38
422.285	7291.38
422.507	7904.38
422.73	8408.38
422.953	7699.38
423.175	7327.38
423.398	7377.38
423.621	7337.38
423.843	7588.38
424.066	7456.38
424.288	7398.38
424.511	7646.38
424.733	8171.38
424.956	8628.38
425.178	8114.38
425.401	8281.38
425.623	8208.38
425.846	7124.38
426.068	7032.38
426.291	6950.38
426.513	6896.38
426.735	7112.38
426.958	7625.38
427.18	8534.38
427.402	10084.38
427.625	10913.38
427.847	10487.38
428.069	10118.38
428.292	8386.38
428.514	7088.38
428.736	6691.38
428.958	6662.38
429.181	6335.38
429.403	6248.38
429.625	6491.38
429.847	6812.38
430.069	7348.38
430.292	6734.38
430.514	6206.38
430.736	6132.38
430.958	6107.38
431.18	6009.38
431.402	5956.38
431.624	5942.38
431.846	5991.38
432.068	5974.38
432.29	6173.38
432.512	6119.38
432.734	6129.38
432.956	6012.38
433.178	6188.38
433.4	6231.38
433.622	6032.38
433.844	6059.38
434.066	6043.38
434.287	6195.38
434.509	6333.38
434.731	6539.38
434.953	6712.38
435.175	6812.38
435.397	6940.38
435.618	6825.38
435.84	7290.38
436.062	8305.38
436.284	8216.38
436.505	6836.38
436.727	6528.38
436.949	6250.38
437.17	6085.38
437.392	6001.38
437.614	6308.38
437.835	6725.38
438.057	7946.38
438.278	8543.38
438.5	8372.38
438.721	9344.38
438.943	7932.38
439.165	6642.38
439.386	6564.38
439.608	6577.38
439.829	6810.38
440.05	7321.38
440.272	7896.38
440.493	6871.38
440.715	6474.38
440.936	6345.38
441.158	6420.38
441.379	6542.38
441.6	6883.38
441.822	7116.38
442.043	7626.38
442.264	8498.38
442.486	8165.38
442.707	7073.38
442.928	7064.38
443.149	7429.38
443.371	7616.38
443.592	8070.38
443.813	9240.38
444.034	9045.38
444.255	7702.38
444.476	7500.38
444.698	7680.38
444.919	7769.38
445.14	7575.38
445.361	7649.38
445.582	7989.38
445.803	8978.38
446.024	9673.38
446.245	9099.38
446.466	7984.38
446.687	6755.38
446.908	6374.38
447.129	6060.38
447.35	5934.38
447.571	5868.38
447.792	5800.38
448.013	5990.38
448.234	6146.38
448.455	6935.38
448.675	8251.38
448.896	8704.38
449.117	7085.38
449.338	7436.38
449.559	8914.38
449.779	9004.38
450	6724.38
450.221	6055.38
450.442	5830.38
450.662	5753.38
450.883	6073.38
451.104	6264.38
451.324	5862.38
451.545	5686.38
451.766	5484.38
451.986	5371.38
452.207	5371.38
452.428	5330.38
452.648	5436.38
452.869	5506.38
453.089	5502.38
453.31	5662.38
453.53	5405.38
453.751	5302.38
453.971	5493.38
454.192	5716.38
454.412	5444.38
454.633	5225.38
454.853	5159.38
455.073	5246.38
455.294	5734.38
455.514	6333.38
455.734	5737.38
455.955	5087.38
456.175	4982.38
456.395	5008.38
456.616	5005.38
456.836	4992.38
457.056	5016.38
457.276	4936.38
457.497	5057.38
457.717	5117.38
457.937	5159.38
458.157	5221.38
458.377	5424.38
458.598	5947.38
458.818	6868.38
459.038	7786.38
459.258	7279.38
459.478	6379.38
459.698	6205.38
459.918	6131.38
460.138	6411.38
460.358	6566.38
460.578	6578.38
460.798	6728.38
461.018	6716.38
461.238	6534.38
461.458	6556.38
461.678	6534.38
461.898	6641.38
462.118	6648.38
462.338	6972.38
462.558	7161.38
462.777	7441.38
462.997	7864.38
463.217	8439.38
463.437	8233.38
463.657	7705.38
463.876	7483.38
464.096	7585.38
464.316	7529.38
464.536	7593.38
464.755	7415.38
464.975	7315.38
465.195	8104.38
465.414	8303.38
465.634	6932.38
465.854	6540.38
466.073	6201.38
466.293	6024.38
466.512	5781.38
466.732	5636.38
466.951	5759.38
467.171	5810.38
467.391	5956.38
467.61	6306.38
467.829	6974.38
468.049	9583.38
468.268	12278.38
468.488	8464.38
468.707	6809.38
468.927	6325.38
469.146	6072.38
469.365	6032.38
469.585	6021.38
469.804	6168.38
470.023	6282.38
470.243	6221.38
470.462	6305.38
470.681	6522.38
470.901	6380.38
471.12	6288.38
471.339	6346.38
471.558	6547.38
471.777	6905.38
471.997	8194.38
472.216	13690.38
472.435	15618.38
472.654	14988.38
472.873	9916.38
473.092	8235.38
473.311	7497.38
473.53	7039.38
473.749	6861.38
473.968	7259.38
474.187	8201.38
474.406	7434.38
474.625	6442.38
474.844	6084.38
475.063	5964.38
475.282	5945.38
475.501	6007.38
475.72	6004.38
475.939	5932.38
476.158	6057.38
476.377	5946.38
476.596	5981.38
476.814	6203.38
477.033	6236.38
477.252	6230.38
477.471	6425.38
477.69	6416.38
477.908	6552.38
478.127	6667.38
478.346	6680.38
478.564	6920.38
478.783	7049.38
479.002	7226.38
479.22	7270.38
479.439	7521.38
479.658	7762.38
479.876	7889.38
480.095	8300.38
480.313	8998.38
480.532	9340.38
480.751	10700.38
480.969	14894.38
481.188	15618.38
481.406	15618.38
481.624	15618.38
481.843	12726.38
482.061	10849.38
482.28	9798.38
482.498	9042.38
482.717	8565.38
482.935	8134.38
483.153	7846.38
483.372	7709.38
483.59	7512.38
483.808	7523.38
484.027	7407.38
484.245	7332.38
484.463	7386.38
484.681	7360.38
484.9	7423.38
485.118	7397.38
485.336	7368.38
485.554	7431.38
485.772	7402.38
485.99	7416.38
486.209	7511.38
486.427	7434.38
486.645	7689.38
486.863	7862.38
487.081	7705.38
487.299	7580.38
