Data from Circ_1995_H10_HRD10591_00097.txt Node
Date: Wed Jan 03 11:37:06 EST 2024
User: Yrep
Spectrometer: HR+D1059
Trigger mode: 1
Integration Time (sec): 1.000000E-1
Scans to average: 1
Electric dark correction enabled: true
Nonlinearity correction enabled: false
Boxcar width: 0
XAxis mode: Wavelengths
Number of Pixels in Spectrum: 2048
>>>>>Begin Spectral Data<<<<<
223.165	-10.06
223.4	-10.06
223.635	-10.06
223.869	-9.06
224.104	-19.06
224.338	-18.06
224.573	-6.06
224.808	-27.06
225.042	-19.06
225.277	-19.06
225.511	-6.06
225.746	-1.06
225.98	-4.06
226.215	28.94
226.449	22.94
226.683	17.94
226.918	34.94
227.152	33.94
227.387	34.94
227.621	35.94
227.856	48.94
228.09	49.94
228.324	49.94
228.559	51.94
228.793	48.94
229.027	63.94
229.262	79.94
229.496	93.94
229.73	111.94
229.964	103.94
230.199	95.94
230.433	78.94
230.667	97.94
230.901	78.94
231.136	80.94
231.37	87.94
231.604	82.94
231.838	76.94
232.072	82.94
232.306	78.94
232.541	81.94
232.775	79.94
233.009	79.94
233.243	87.94
233.477	82.94
233.711	80.94
233.945	84.94
234.179	83.94
234.413	87.94
234.647	73.94
234.881	80.94
235.115	94.94
235.349	80.94
235.583	77.94
235.817	81.94
236.051	90.94
236.285	74.94
236.519	75.94
236.753	97.94
236.987	81.94
237.221	83.94
237.455	105.94
237.689	100.94
237.922	72.94
238.156	76.94
238.39	76.94
238.624	87.94
238.858	83.94
239.091	66.94
239.325	74.94
239.559	84.94
239.793	76.94
240.027	81.94
240.26	92.94
240.494	88.94
240.728	72.94
240.961	90.94
241.195	74.94
241.429	79.94
241.662	84.94
241.896	77.94
242.13	73.94
242.363	80.94
242.597	76.94
242.83	79.94
243.064	79.94
243.298	88.94
243.531	83.94
243.765	79.94
243.998	90.94
244.232	92.94
244.465	96.94
244.699	88.94
244.932	79.94
245.166	65.94
245.399	81.94
245.633	77.94
245.866	82.94
246.099	91.94
246.333	93.94
246.566	75.94
246.8	79.94
247.033	75.94
247.266	82.94
247.5	91.94
247.733	82.94
247.966	84.94
248.2	88.94
248.433	90.94
248.666	84.94
248.899	93.94
249.133	72.94
249.366	104.94
249.599	115.94
249.832	100.94
250.066	85.94
250.299	91.94
250.532	94.94
250.765	92.94
250.998	74.94
251.231	82.94
251.465	84.94
251.698	81.94
251.931	88.94
252.164	93.94
252.397	64.94
252.63	72.94
252.863	91.94
253.096	83.94
253.329	87.94
253.562	85.94
253.795	95.94
254.028	82.94
254.261	92.94
254.494	74.94
254.727	92.94
254.96	94.94
255.193	67.94
255.426	80.94
255.659	96.94
255.892	99.94
256.124	108.94
256.357	94.94
256.59	96.94
256.823	89.94
257.056	99.94
257.289	93.94
257.521	89.94
257.754	86.94
257.987	86.94
258.22	104.94
258.452	99.94
258.685	95.94
258.918	105.94
259.151	89.94
259.383	89.94
259.616	94.94
259.849	102.94
260.081	97.94
260.314	89.94
260.547	84.94
260.779	108.94
261.012	146.94
261.244	125.94
261.477	112.94
261.71	118.94
261.942	167.94
262.175	175.94
262.407	116.94
262.64	100.94
262.872	100.94
263.105	89.94
263.337	71.94
263.57	80.94
263.802	89.94
264.035	81.94
264.267	90.94
264.499	86.94
264.732	96.94
264.964	76.94
265.197	96.94
265.429	82.94
265.661	81.94
265.894	99.94
266.126	81.94
266.358	80.94
266.591	88.94
266.823	81.94
267.055	83.94
267.287	80.94
267.52	80.94
267.752	79.94
267.984	75.94
268.216	89.94
268.448	91.94
268.681	101.94
268.913	83.94
269.145	98.94
269.377	82.94
269.609	75.94
269.841	81.94
270.073	98.94
270.306	87.94
270.538	82.94
270.77	92.94
271.002	85.94
271.234	94.94
271.466	104.94
271.698	102.94
271.93	79.94
272.162	93.94
272.394	82.94
272.626	91.94
272.858	90.94
273.09	89.94
273.322	91.94
273.553	78.94
273.785	84.94
274.017	94.94
274.249	90.94
274.481	92.94
274.713	90.94
274.945	90.94
275.176	88.94
275.408	109.94
275.64	140.94
275.872	170.94
276.104	127.94
276.335	119.94
276.567	140.94
276.799	199.94
277.031	275.94
277.262	314.94
277.494	221.94
277.726	115.94
277.957	89.94
278.189	93.94
278.421	93.94
278.652	98.94
278.884	107.94
279.115	92.94
279.347	88.94
279.579	110.94
279.81	182.94
280.042	321.94
280.273	444.94
280.505	298.94
280.736	147.94
280.968	109.94
281.199	103.94
281.431	94.94
281.662	95.94
281.894	95.94
282.125	109.94
282.356	154.94
282.588	205.94
282.819	159.94
283.051	111.94
283.282	99.94
283.513	90.94
283.745	89.94
283.976	86.94
284.207	91.94
284.439	89.94
284.67	99.94
284.901	88.94
285.132	82.94
285.364	98.94
285.595	74.94
285.826	89.94
286.057	80.94
286.288	91.94
286.52	91.94
286.751	94.94
286.982	85.94
287.213	89.94
287.444	90.94
287.675	87.94
287.906	88.94
288.138	84.94
288.369	107.94
288.6	81.94
288.831	91.94
289.062	86.94
289.293	94.94
289.524	91.94
289.755	94.94
289.986	84.94
290.217	95.94
290.448	88.94
290.679	85.94
290.91	87.94
291.141	80.94
291.371	90.94
291.602	90.94
291.833	101.94
292.064	92.94
292.295	88.94
292.526	81.94
292.757	92.94
292.987	93.94
293.218	85.94
293.449	87.94
293.68	97.94
293.91	86.94
294.141	96.94
294.372	65.94
294.603	78.94
294.833	92.94
295.064	103.94
295.295	86.94
295.525	95.94
295.756	119.94
295.987	157.94
296.217	198.94
296.448	182.94
296.679	109.94
296.909	94.94
297.14	75.94
297.37	86.94
297.601	105.94
297.831	90.94
298.062	98.94
298.292	95.94
298.523	84.94
298.753	83.94
298.984	96.94
299.214	99.94
299.445	94.94
299.675	110.94
299.905	97.94
300.136	84.94
300.366	83.94
300.597	92.94
300.827	106.94
301.057	120.94
301.288	134.94
301.518	108.94
301.748	122.94
301.979	129.94
302.209	98.94
302.439	106.94
302.669	102.94
302.9	116.94
303.13	100.94
303.36	142.94
303.59	177.94
303.82	210.94
304.051	129.94
304.281	98.94
304.511	101.94
304.741	107.94
304.971	98.94
305.201	95.94
305.431	104.94
305.661	103.94
305.891	100.94
306.121	98.94
306.352	110.94
306.582	122.94
306.812	126.94
307.042	151.94
307.272	229.94
307.502	270.94
307.731	237.94
307.961	166.94
308.191	100.94
308.421	96.94
308.651	86.94
308.881	98.94
309.111	108.94
309.341	96.94
309.571	107.94
309.8	92.94
310.03	107.94
310.26	132.94
310.49	120.94
310.72	113.94
310.949	150.94
311.179	140.94
311.409	105.94
311.639	111.94
311.868	117.94
312.098	97.94
312.328	111.94
312.557	134.94
312.787	155.94
313.017	121.94
313.246	105.94
313.476	98.94
313.706	110.94
313.935	105.94
314.165	108.94
314.394	131.94
314.624	113.94
314.853	105.94
315.083	103.94
315.312	106.94
315.542	92.94
315.771	104.94
316.001	93.94
316.23	95.94
316.46	95.94
316.689	98.94
316.919	96.94
317.148	105.94
317.377	103.94
317.607	127.94
317.836	94.94
318.065	105.94
318.295	96.94
318.524	104.94
318.753	110.94
318.983	92.94
319.212	105.94
319.441	136.94
319.67	147.94
319.9	98.94
320.129	95.94
320.358	102.94
320.587	102.94
320.816	122.94
321.046	111.94
321.275	112.94
321.504	100.94
321.733	112.94
321.962	104.94
322.191	114.94
322.42	127.94
322.649	115.94
322.878	140.94
323.108	150.94
323.337	170.94
323.566	190.94
323.795	216.94
324.024	285.94
324.253	566.94
324.482	1230.94
324.71	2563.94
324.939	3359.94
325.168	1264.94
325.397	363.94
325.626	205.94
325.855	159.94
326.084	157.94
326.313	172.94
326.542	206.94
326.77	313.94
326.999	605.94
327.228	1279.94
327.457	2356.94
327.686	1942.94
327.914	786.94
328.143	873.94
328.372	1224.94
328.6	633.94
328.829	254.94
329.058	273.94
329.287	288.94
329.515	262.94
329.744	418.94
329.972	839.94
330.201	1812.94
330.43	2739.94
330.658	1139.94
330.887	455.94
331.115	275.94
331.344	153.94
331.572	131.94
331.801	169.94
332.03	167.94
332.258	118.94
332.486	131.94
332.715	122.94
332.943	143.94
333.172	154.94
333.4	168.94
333.629	228.94
333.857	343.94
334.085	722.94
334.314	1618.94
334.542	3343.94
334.771	3107.94
334.999	720.94
335.227	242.94
335.455	158.94
335.684	152.94
335.912	123.94
336.14	127.94
336.369	123.94
336.597	134.94
336.825	124.94
337.053	112.94
337.281	110.94
337.51	106.94
337.738	106.94
337.966	114.94
338.194	135.94
338.422	113.94
338.65	107.94
338.878	122.94
339.106	95.94
339.334	113.94
339.562	98.94
339.79	97.94
340.018	93.94
340.246	108.94
340.474	107.94
340.702	105.94
340.93	79.94
341.158	103.94
341.386	102.94
341.614	113.94
341.842	107.94
342.07	113.94
342.298	95.94
342.526	91.94
342.754	99.94
342.981	101.94
343.209	90.94
343.437	92.94
343.665	90.94
343.893	82.94
344.12	95.94
344.348	99.94
344.576	108.94
344.804	92.94
345.031	125.94
345.259	146.94
345.487	115.94
345.714	129.94
345.942	96.94
346.17	87.94
346.397	86.94
346.625	105.94
346.853	97.94
347.08	102.94
347.308	102.94
347.535	114.94
347.763	124.94
347.99	123.94
348.218	117.94
348.445	137.94
348.673	130.94
348.9	100.94
349.128	97.94
349.355	97.94
349.583	94.94
349.81	99.94
350.037	90.94
350.265	108.94
350.492	103.94
350.72	114.94
350.947	113.94
351.174	147.94
351.402	145.94
351.629	117.94
351.856	124.94
352.083	116.94
352.311	131.94
352.538	116.94
352.765	119.94
352.992	134.94
353.22	114.94
353.447	126.94
353.674	120.94
353.901	100.94
354.128	102.94
354.355	98.94
354.583	110.94
354.81	96.94
355.037	101.94
355.264	106.94
355.491	92.94
355.718	82.94
355.945	81.94
356.172	94.94
356.399	97.94
356.626	97.94
356.853	89.94
357.08	103.94
357.307	101.94
357.534	91.94
357.761	85.94
357.988	101.94
358.215	93.94
358.441	92.94
358.668	97.94
358.895	108.94
359.122	99.94
359.349	100.94
359.576	125.94
359.802	133.94
360.029	166.94
360.256	170.94
360.483	132.94
360.709	107.94
360.936	103.94
361.163	110.94
361.39	110.94
361.616	109.94
361.843	94.94
362.07	100.94
362.296	124.94
362.523	115.94
362.749	122.94
362.976	111.94
363.203	104.94
363.429	106.94
363.656	100.94
363.882	89.94
364.109	75.94
364.335	96.94
364.562	110.94
364.788	117.94
365.015	97.94
365.241	131.94
365.468	139.94
365.694	152.94
365.92	116.94
366.147	82.94
366.373	106.94
366.599	94.94
366.826	96.94
367.052	104.94
367.278	104.94
367.505	106.94
367.731	94.94
367.957	102.94
368.184	114.94
368.41	112.94
368.636	145.94
368.862	162.94
369.089	138.94
369.315	118.94
369.541	106.94
369.767	116.94
369.993	107.94
370.219	100.94
370.445	93.94
370.672	97.94
370.898	86.94
371.124	103.94
371.35	100.94
371.576	103.94
371.802	90.94
372.028	91.94
372.254	91.94
372.48	82.94
372.706	91.94
372.932	90.94
373.158	86.94
373.384	90.94
373.61	90.94
373.835	97.94
374.061	84.94
374.287	98.94
374.513	92.94
374.739	91.94
374.965	91.94
375.191	89.94
375.416	94.94
375.642	92.94
375.868	99.94
376.094	93.94
376.319	85.94
376.545	102.94
376.771	97.94
376.997	87.94
377.222	90.94
377.448	84.94
377.674	87.94
377.899	92.94
378.125	83.94
378.35	80.94
378.576	79.94
378.802	78.94
379.027	91.94
379.253	102.94
379.478	98.94
379.704	89.94
379.929	89.94
380.155	113.94
380.38	96.94
380.606	92.94
380.831	113.94
381.057	102.94
381.282	88.94
381.507	100.94
381.733	87.94
381.958	92.94
382.184	93.94
382.409	109.94
382.634	109.94
382.86	109.94
383.085	93.94
383.31	102.94
383.535	103.94
383.761	121.94
383.986	97.94
384.211	87.94
384.436	96.94
384.662	107.94
384.887	106.94
385.112	100.94
385.337	109.94
385.562	102.94
385.787	97.94
386.013	125.94
386.238	123.94
386.463	109.94
386.688	108.94
386.913	102.94
387.138	93.94
387.363	94.94
387.588	92.94
387.813	97.94
388.038	98.94
388.263	111.94
388.488	99.94
388.713	100.94
388.938	98.94
389.163	107.94
389.387	102.94
389.612	100.94
389.837	108.94
390.062	99.94
390.287	82.94
390.512	80.94
390.736	96.94
390.961	92.94
391.186	93.94
391.411	108.94
391.636	82.94
391.86	95.94
392.085	89.94
392.31	94.94
392.534	94.94
392.759	102.94
392.984	91.94
393.208	84.94
393.433	94.94
393.658	100.94
393.882	95.94
394.107	95.94
394.331	89.94
394.556	100.94
394.78	91.94
395.005	92.94
395.229	90.94
395.454	90.94
395.678	75.94
395.903	76.94
396.127	101.94
396.352	108.94
396.576	89.94
396.801	80.94
397.025	86.94
397.249	77.94
397.474	80.94
397.698	92.94
397.922	89.94
398.147	96.94
398.371	82.94
398.595	88.94
398.82	78.94
399.044	93.94
399.268	76.94
399.492	92.94
399.717	85.94
399.941	102.94
400.165	93.94
400.389	109.94
400.613	108.94
400.837	107.94
401.062	83.94
401.286	89.94
401.51	110.94
401.734	113.94
401.958	127.94
402.182	195.94
402.406	253.94
402.63	198.94
402.854	126.94
403.078	100.94
403.302	116.94
403.526	112.94
403.75	88.94
403.974	96.94
404.198	97.94
404.422	111.94
404.645	91.94
404.869	118.94
405.093	134.94
405.317	168.94
405.541	157.94
405.765	146.94
405.988	165.94
406.212	284.94
406.436	424.94
406.66	285.94
406.883	166.94
407.107	115.94
407.331	121.94
407.555	127.94
407.778	107.94
408.002	95.94
408.226	116.94
408.449	104.94
408.673	92.94
408.896	97.94
409.12	95.94
409.344	82.94
409.567	87.94
409.791	98.94
410.014	115.94
410.238	95.94
410.461	88.94
410.685	94.94
410.908	95.94
411.132	107.94
411.355	100.94
411.578	97.94
411.802	89.94
412.025	95.94
412.249	123.94
412.472	130.94
412.695	162.94
412.919	115.94
413.142	93.94
413.365	107.94
413.589	88.94
413.812	75.94
414.035	112.94
414.258	97.94
414.482	94.94
414.705	90.94
414.928	102.94
415.151	104.94
415.374	96.94
415.597	93.94
415.821	95.94
416.044	101.94
416.267	100.94
416.49	85.94
416.713	91.94
416.936	88.94
417.159	107.94
417.382	96.94
417.605	120.94
417.828	140.94
418.051	116.94
418.274	100.94
418.497	94.94
418.72	79.94
418.943	86.94
419.166	91.94
419.389	86.94
419.611	96.94
419.834	96.94
420.057	104.94
420.28	109.94
420.503	99.94
420.726	103.94
420.948	105.94
421.171	109.94
421.394	110.94
421.617	88.94
421.839	91.94
422.062	98.94
422.285	118.94
422.507	110.94
422.73	108.94
422.953	92.94
423.175	98.94
423.398	85.94
423.621	83.94
423.843	72.94
424.066	98.94
424.288	86.94
424.511	91.94
424.733	99.94
424.956	137.94
425.178	116.94
425.401	111.94
425.623	117.94
425.846	106.94
426.068	109.94
426.291	100.94
426.513	100.94
426.735	98.94
426.958	88.94
427.18	141.94
427.402	208.94
427.625	355.94
427.847	322.94
428.069	278.94
428.292	159.94
428.514	116.94
428.736	86.94
428.958	105.94
429.181	110.94
429.403	89.94
429.625	93.94
429.847	99.94
430.069	112.94
430.292	116.94
430.514	97.94
430.736	97.94
430.958	96.94
431.18	99.94
431.402	101.94
431.624	99.94
431.846	96.94
432.068	111.94
432.29	97.94
432.512	97.94
432.734	96.94
432.956	84.94
433.178	109.94
433.4	108.94
433.622	113.94
433.844	93.94
434.066	100.94
434.287	98.94
434.509	96.94
434.731	93.94
434.953	96.94
435.175	86.94
435.397	111.94
435.618	100.94
435.84	131.94
436.062	144.94
436.284	137.94
436.505	103.94
436.727	112.94
436.949	93.94
437.17	106.94
437.392	108.94
437.614	114.94
437.835	123.94
438.057	192.94
438.278	145.94
438.5	130.94
438.721	150.94
438.943	128.94
439.165	119.94
439.386	106.94
439.608	103.94
439.829	127.94
440.05	161.94
440.272	220.94
440.493	110.94
440.715	100.94
440.936	101.94
441.158	104.94
441.379	93.94
441.6	118.94
441.822	114.94
442.043	112.94
442.264	127.94
442.486	118.94
442.707	112.94
442.928	138.94
443.149	202.94
443.371	216.94
443.592	170.94
443.813	152.94
444.034	127.94
444.255	101.94
444.476	74.94
444.698	86.94
444.919	95.94
445.14	140.94
445.361	140.94
445.582	164.94
445.803	220.94
446.024	200.94
446.245	159.94
446.466	136.94
446.687	102.94
446.908	105.94
447.129	89.94
447.35	103.94
447.571	105.94
447.792	96.94
448.013	122.94
448.234	149.94
448.455	121.94
448.675	124.94
448.896	158.94
449.117	126.94
449.338	104.94
449.559	159.94
449.779	154.94
450	88.94
450.221	90.94
450.442	96.94
450.662	124.94
450.883	166.94
451.104	170.94
451.324	119.94
451.545	109.94
451.766	96.94
451.986	94.94
452.207	98.94
452.428	106.94
452.648	122.94
452.869	172.94
453.089	152.94
453.31	168.94
453.53	116.94
453.751	108.94
453.971	122.94
454.192	169.94
454.412	126.94
454.633	93.94
454.853	99.94
455.073	106.94
455.294	99.94
455.514	118.94
455.734	101.94
455.955	88.94
456.175	94.94
456.395	91.94
456.616	96.94
456.836	87.94
457.056	77.94
457.276	92.94
457.497	101.94
457.717	86.94
457.937	99.94
458.157	101.94
458.377	101.94
458.598	162.94
458.818	278.94
459.038	302.94
459.258	184.94
459.478	103.94
459.698	98.94
459.918	90.94
460.138	90.94
460.358	93.94
460.578	91.94
460.798	104.94
461.018	102.94
461.238	93.94
461.458	94.94
461.678	93.94
461.898	85.94
462.118	91.94
462.338	87.94
462.558	91.94
462.777	92.94
462.997	101.94
463.217	133.94
463.437	115.94
463.657	92.94
463.876	102.94
464.096	94.94
464.316	90.94
464.536	116.94
464.755	107.94
464.975	138.94
465.195	339.94
465.414	336.94
465.634	129.94
465.854	97.94
466.073	86.94
466.293	110.94
466.512	89.94
466.732	98.94
466.951	105.94
467.171	119.94
467.391	126.94
467.61	184.94
467.829	336.94
468.049	1037.94
468.268	1691.94
468.488	350.94
468.707	144.94
468.927	117.94
469.146	98.94
469.365	94.94
469.585	112.94
469.804	119.94
470.023	130.94
470.243	120.94
470.462	151.94
470.681	188.94
470.901	115.94
471.12	108.94
471.339	125.94
471.558	156.94
471.777	214.94
471.997	484.94
472.216	2041.94
472.435	4747.94
472.654	1016.94
472.873	227.94
473.092	131.94
473.311	107.94
473.53	105.94
473.749	99.94
473.968	111.94
474.187	136.94
474.406	124.94
474.625	97.94
474.844	96.94
475.063	104.94
475.282	87.94
475.501	104.94
475.72	107.94
475.939	94.94
476.158	102.94
476.377	96.94
476.596	99.94
476.814	109.94
477.033	111.94
477.252	99.94
477.471	105.94
477.69	109.94
477.908	100.94
478.127	118.94
478.346	103.94
478.564	103.94
478.783	126.94
479.002	120.94
479.22	118.94
479.439	162.94
479.658	164.94
479.876	161.94
480.095	143.94
480.313	183.94
480.532	242.94
480.751	423.94
480.969	1726.94
481.188	7836.94
481.406	4484.94
481.624	584.94
481.843	203.94
482.061	133.94
482.28	108.94
482.498	114.94
482.717	101.94
482.935	99.94
483.153	96.94
483.372	105.94
483.59	107.94
483.808	99.94
484.027	103.94
484.245	86.94
484.463	84.94
484.681	104.94
484.9	84.94
485.118	105.94
485.336	120.94
485.554	79.94
485.772	123.94
485.99	114.94
486.209	111.94
486.427	104.94
486.645	139.94
486.863	158.94
487.081	130.94
487.299	99.94
487.517	95.94
487.735	91.94
487.953	98.94
488.171	95.94
488.389	96.94
488.607	100.94
488.825	101.94
489.043	99.94
489.261	104.94
489.479	94.94
489.696	87.94
489.914	89.94
490.132	94.94
490.35	91.94
490.568	87.94
490.786	93.94
491.003	85.94
491.221	87.94
491.439	110.94
491.657	103.94
491.874	94.94
492.092	90.94
492.31	103.94
492.527	90.94
492.745	93.94
492.963	109.94
493.18	95.94
493.398	97.94
493.615	103.94
493.833	90.94
494.05	104.94
494.268	100.94
494.485	92.94
494.703	99.94
494.92	101.94
495.138	94.94
495.355	97.94
495.573	100.94
495.79	111.94
496.008	96.94
496.225	82.94
496.442	89.94
496.66	92.94
496.877	91.94
497.094	91.94
497.312	83.94
497.529	101.94
497.746	84.94
497.963	93.94
498.181	101.94
498.398	111.94
498.615	120.94
498.832	115.94
499.049	82.94
499.267	99.94
499.484	93.94
499.701	99.94
499.918	78.94
500.135	88.94
500.352	99.94
500.569	98.94
500.786	113.94
501.003	94.94
501.22	105.94
501.437	104.94
501.654	114.94
501.871	147.94
502.088	100.94
502.305	90.94
502.522	76.94
502.739	88.94
502.956	106.94
503.172	102.94
503.389	118.94
503.606	162.94
503.823	120.94
504.04	99.94
504.256	90.94
504.473	108.94
504.69	100.94
504.907	94.94
505.123	93.94
505.34	102.94
505.557	95.94
505.773	100.94
505.99	97.94
506.207	97.94
506.423	91.94
506.64	106.94
506.856	101.94
507.073	103.94
507.289	99.94
507.506	114.94
507.722	152.94
507.939	170.94
508.155	127.94
508.372	108.94
508.588	106.94
508.805	111.94
509.021	95.94
509.238	110.94
509.454	123.94
509.67	121.94
509.887	126.94
510.103	168.94
510.319	312.94
510.536	1202.94
