Data from Circ_1995_H10_HRD10591_00049.txt Node
Date: Wed Jan 03 11:36:56 EST 2024
User: Yrep
Spectrometer: HR+D1059
Trigger mode: 1
Integration Time (sec): 1.000000E-1
Scans to average: 1
Electric dark correction enabled: true
Nonlinearity correction enabled: false
Boxcar width: 0
XAxis mode: Wavelengths
Number of Pixels in Spectrum: 2048
>>>>>Begin Spectral Data<<<<<
223.165	-8.38
223.4	-8.38
223.635	-8.38
223.869	-27.38
224.104	-27.38
224.338	-4.38
224.573	-14.38
224.808	-21.38
225.042	-11.38
225.277	4.62
225.511	-1.38
225.746	11.62
225.98	0.62
226.215	14.62
226.449	14.62
226.683	21.62
226.918	18.62
227.152	29.62
227.387	30.62
227.621	36.62
227.856	37.62
228.09	42.62
228.324	49.62
228.559	57.62
228.793	58.62
229.027	67.62
229.262	65.62
229.496	70.62
229.73	104.62
229.964	88.62
230.199	58.62
230.433	66.62
230.667	89.62
230.901	77.62
231.136	76.62
231.37	78.62
231.604	88.62
231.838	79.62
232.072	67.62
232.306	72.62
232.541	76.62
232.775	92.62
233.009	91.62
233.243	75.62
233.477	80.62
233.711	82.62
233.945	88.62
234.179	61.62
234.413	79.62
234.647	82.62
234.881	87.62
235.115	83.62
235.349	82.62
235.583	68.62
235.817	84.62
236.051	85.62
236.285	70.62
236.519	97.62
236.753	79.62
236.987	82.62
237.221	112.62
237.455	90.62
237.689	83.62
237.922	54.62
238.156	73.62
238.39	72.62
238.624	69.62
238.858	67.62
239.091	91.62
239.325	100.62
239.559	86.62
239.793	92.62
240.027	86.62
240.26	82.62
240.494	78.62
240.728	64.62
240.961	90.62
241.195	82.62
241.429	77.62
241.662	86.62
241.896	74.62
242.13	68.62
242.363	65.62
242.597	72.62
242.83	85.62
243.064	84.62
243.298	77.62
243.531	83.62
243.765	79.62
243.998	83.62
244.232	90.62
244.465	80.62
244.699	76.62
244.932	68.62
245.166	78.62
245.399	75.62
245.633	81.62
245.866	76.62
246.099	74.62
246.333	82.62
246.566	74.62
246.8	69.62
247.033	74.62
247.266	77.62
247.5	78.62
247.733	84.62
247.966	82.62
248.2	66.62
248.433	81.62
248.666	86.62
248.899	84.62
249.133	101.62
249.366	111.62
249.599	99.62
249.832	84.62
250.066	98.62
250.299	75.62
250.532	84.62
250.765	92.62
250.998	80.62
251.231	84.62
251.465	82.62
251.698	89.62
251.931	94.62
252.164	92.62
252.397	81.62
252.63	80.62
252.863	79.62
253.096	81.62
253.329	72.62
253.562	76.62
253.795	84.62
254.028	81.62
254.261	78.62
254.494	75.62
254.727	74.62
254.96	89.62
255.193	86.62
255.426	84.62
255.659	94.62
255.892	85.62
256.124	110.62
256.357	94.62
256.59	87.62
256.823	85.62
257.056	90.62
257.289	90.62
257.521	78.62
257.754	83.62
257.987	95.62
258.22	114.62
258.452	109.62
258.685	111.62
258.918	86.62
259.151	70.62
259.383	82.62
259.616	86.62
259.849	76.62
260.081	91.62
260.314	87.62
260.547	92.62
260.779	106.62
261.012	107.62
261.244	114.62
261.477	111.62
261.71	106.62
261.942	136.62
262.175	167.62
262.407	108.62
262.64	83.62
262.872	89.62
263.105	97.62
263.337	96.62
263.57	86.62
263.802	84.62
264.035	67.62
264.267	85.62
264.499	68.62
264.732	94.62
264.964	88.62
265.197	84.62
265.429	86.62
265.661	93.62
265.894	78.62
266.126	84.62
266.358	83.62
266.591	83.62
266.823	80.62
267.055	94.62
267.287	88.62
267.52	83.62
267.752	94.62
267.984	85.62
268.216	98.62
268.448	95.62
268.681	94.62
268.913	87.62
269.145	76.62
269.377	79.62
269.609	92.62
269.841	88.62
270.073	97.62
270.306	97.62
270.538	75.62
270.77	82.62
271.002	85.62
271.234	97.62
271.466	98.62
271.698	88.62
271.93	102.62
272.162	94.62
272.394	98.62
272.626	97.62
272.858	81.62
273.09	81.62
273.322	80.62
273.553	89.62
273.785	91.62
274.017	88.62
274.249	82.62
274.481	102.62
274.713	95.62
274.945	96.62
275.176	94.62
275.408	102.62
275.64	114.62
275.872	140.62
276.104	120.62
276.335	107.62
276.567	117.62
276.799	162.62
277.031	186.62
277.262	253.62
277.494	171.62
277.726	107.62
277.957	97.62
278.189	88.62
278.421	97.62
278.652	95.62
278.884	89.62
279.115	90.62
279.347	95.62
279.579	117.62
279.81	156.62
280.042	243.62
280.273	337.62
280.505	231.62
280.736	122.62
280.968	95.62
281.199	91.62
281.431	87.62
281.662	86.62
281.894	101.62
282.125	102.62
282.356	136.62
282.588	194.62
282.819	151.62
283.051	94.62
283.282	89.62
283.513	94.62
283.745	100.62
283.976	102.62
284.207	98.62
284.439	79.62
284.67	98.62
284.901	107.62
285.132	86.62
285.364	93.62
285.595	78.62
285.826	69.62
286.057	91.62
286.288	95.62
286.52	88.62
286.751	95.62
286.982	88.62
287.213	88.62
287.444	104.62
287.675	100.62
287.906	87.62
288.138	104.62
288.369	97.62
288.6	97.62
288.831	88.62
289.062	84.62
289.293	98.62
289.524	97.62
289.755	93.62
289.986	87.62
290.217	85.62
290.448	94.62
290.679	90.62
290.91	96.62
291.141	81.62
291.371	94.62
291.602	84.62
291.833	88.62
292.064	94.62
292.295	82.62
292.526	88.62
292.757	70.62
292.987	89.62
293.218	96.62
293.449	91.62
293.68	82.62
293.91	82.62
294.141	79.62
294.372	90.62
294.603	98.62
294.833	90.62
295.064	93.62
295.295	92.62
295.525	109.62
295.756	108.62
295.987	121.62
296.217	168.62
296.448	168.62
296.679	113.62
296.909	92.62
297.14	91.62
297.37	92.62
297.601	90.62
297.831	91.62
298.062	86.62
298.292	98.62
298.523	93.62
298.753	95.62
298.984	88.62
299.214	92.62
299.445	95.62
299.675	93.62
299.905	96.62
300.136	90.62
300.366	92.62
300.597	100.62
300.827	99.62
301.057	112.62
301.288	131.62
301.518	113.62
301.748	98.62
301.979	117.62
302.209	108.62
302.439	100.62
302.669	97.62
302.9	94.62
303.13	104.62
303.36	132.62
303.59	154.62
303.82	164.62
304.051	116.62
304.281	90.62
304.511	91.62
304.741	80.62
304.971	93.62
305.201	95.62
305.431	96.62
305.661	105.62
305.891	94.62
306.121	110.62
306.352	119.62
306.582	141.62
306.812	119.62
307.042	142.62
307.272	169.62
307.502	217.62
307.731	222.62
307.961	147.62
308.191	95.62
308.421	120.62
308.651	106.62
308.881	96.62
309.111	97.62
309.341	83.62
309.571	105.62
309.8	113.62
310.03	96.62
310.26	107.62
310.49	89.62
310.72	117.62
310.949	130.62
311.179	105.62
311.409	98.62
311.639	112.62
311.868	111.62
312.098	112.62
312.328	110.62
312.557	104.62
312.787	141.62
313.017	119.62
313.246	89.62
313.476	90.62
313.706	91.62
313.935	100.62
314.165	116.62
314.394	128.62
314.624	115.62
314.853	113.62
315.083	100.62
315.312	99.62
315.542	92.62
315.771	98.62
316.001	92.62
316.23	101.62
316.46	95.62
316.689	112.62
316.919	105.62
317.148	107.62
317.377	121.62
317.607	113.62
317.836	83.62
318.065	90.62
318.295	92.62
318.524	104.62
318.753	96.62
318.983	96.62
319.212	102.62
319.441	136.62
319.67	119.62
319.9	99.62
320.129	103.62
320.358	118.62
320.587	111.62
320.816	114.62
321.046	120.62
321.275	111.62
321.504	95.62
321.733	97.62
321.962	104.62
322.191	110.62
322.42	119.62
322.649	126.62
322.878	130.62
323.108	141.62
323.337	157.62
323.566	175.62
323.795	209.62
324.024	287.62
324.253	555.62
324.482	1214.62
324.71	2550.62
324.939	3492.62
325.168	1230.62
325.397	344.62
325.626	185.62
325.855	174.62
326.084	152.62
326.313	157.62
326.542	211.62
326.77	304.62
326.999	602.62
327.228	1310.62
327.457	2422.62
327.686	1995.62
327.914	692.62
328.143	712.62
328.372	954.62
328.6	506.62
328.829	236.62
329.058	241.62
329.287	245.62
329.515	222.62
329.744	347.62
329.972	635.62
330.201	1454.62
330.43	2202.62
330.658	942.62
330.887	387.62
331.115	222.62
331.344	146.62
331.572	136.62
331.801	138.62
332.03	135.62
332.258	142.62
332.486	115.62
332.715	129.62
332.943	128.62
333.172	131.62
333.4	151.62
333.629	187.62
333.857	292.62
334.085	602.62
334.314	1328.62
334.542	2697.62
334.771	2465.62
334.999	592.62
335.227	222.62
335.455	143.62
335.684	128.62
335.912	113.62
336.14	110.62
336.369	109.62
336.597	122.62
336.825	115.62
337.053	105.62
337.281	106.62
337.51	97.62
337.738	102.62
337.966	103.62
338.194	124.62
338.422	118.62
338.65	116.62
338.878	92.62
339.106	115.62
339.334	118.62
339.562	98.62
339.79	88.62
340.018	100.62
340.246	122.62
340.474	101.62
340.702	99.62
340.93	94.62
341.158	88.62
341.386	113.62
341.614	108.62
341.842	102.62
342.07	102.62
342.298	108.62
342.526	102.62
342.754	98.62
342.981	96.62
343.209	82.62
343.437	81.62
343.665	85.62
343.893	100.62
344.12	108.62
344.348	91.62
344.576	90.62
344.804	92.62
345.031	113.62
345.259	108.62
345.487	111.62
345.714	100.62
345.942	92.62
346.17	86.62
346.397	90.62
346.625	96.62
346.853	93.62
347.08	109.62
347.308	106.62
347.535	96.62
347.763	115.62
347.99	101.62
348.218	100.62
348.445	136.62
348.673	126.62
348.9	107.62
349.128	98.62
349.355	91.62
349.583	96.62
349.81	103.62
350.037	115.62
350.265	102.62
350.492	100.62
350.72	109.62
350.947	129.62
351.174	126.62
351.402	125.62
351.629	105.62
351.856	112.62
352.083	126.62
352.311	132.62
352.538	127.62
352.765	126.62
352.992	112.62
353.22	135.62
353.447	120.62
353.674	109.62
353.901	103.62
354.128	99.62
354.355	100.62
354.583	91.62
354.81	101.62
355.037	98.62
355.264	92.62
355.491	94.62
355.718	103.62
355.945	93.62
356.172	106.62
356.399	100.62
356.626	96.62
356.853	105.62
357.08	93.62
357.307	95.62
357.534	97.62
357.761	85.62
357.988	104.62
358.215	108.62
358.441	88.62
358.668	91.62
358.895	92.62
359.122	97.62
359.349	88.62
359.576	91.62
359.802	129.62
360.029	152.62
360.256	142.62
360.483	142.62
360.709	96.62
360.936	112.62
361.163	96.62
361.39	99.62
361.616	100.62
361.843	92.62
362.07	104.62
362.296	125.62
362.523	112.62
362.749	116.62
362.976	106.62
363.203	106.62
363.429	93.62
363.656	85.62
363.882	90.62
364.109	97.62
364.335	107.62
364.562	99.62
364.788	103.62
365.015	99.62
365.241	114.62
365.468	144.62
365.694	140.62
365.92	103.62
366.147	96.62
366.373	89.62
366.599	89.62
366.826	113.62
367.052	96.62
367.278	102.62
367.505	94.62
367.731	95.62
367.957	98.62
368.184	111.62
368.41	118.62
368.636	130.62
368.862	128.62
369.089	139.62
369.315	111.62
369.541	110.62
369.767	103.62
369.993	108.62
370.219	106.62
370.445	101.62
370.672	102.62
370.898	94.62
371.124	88.62
371.35	92.62
371.576	99.62
371.802	88.62
372.028	87.62
372.254	100.62
372.48	83.62
372.706	96.62
372.932	97.62
373.158	79.62
373.384	94.62
373.61	99.62
373.835	85.62
374.061	92.62
374.287	96.62
374.513	101.62
374.739	106.62
374.965	109.62
375.191	92.62
375.416	109.62
375.642	89.62
375.868	102.62
376.094	74.62
376.319	86.62
376.545	90.62
376.771	86.62
376.997	94.62
377.222	90.62
377.448	87.62
377.674	90.62
377.899	92.62
378.125	98.62
378.35	86.62
378.576	90.62
378.802	96.62
379.027	77.62
379.253	82.62
379.478	98.62
379.704	112.62
379.929	92.62
380.155	86.62
380.38	105.62
380.606	118.62
380.831	96.62
381.057	98.62
381.282	90.62
381.507	97.62
381.733	91.62
381.958	98.62
382.184	100.62
382.409	99.62
382.634	120.62
382.86	106.62
383.085	81.62
383.31	108.62
383.535	98.62
383.761	83.62
383.986	95.62
384.211	90.62
384.436	86.62
384.662	102.62
384.887	106.62
385.112	114.62
385.337	104.62
385.562	92.62
385.787	106.62
386.013	117.62
386.238	123.62
386.463	119.62
386.688	110.62
386.913	102.62
387.138	125.62
387.363	106.62
387.588	96.62
387.813	114.62
388.038	104.62
388.263	108.62
388.488	112.62
388.713	95.62
388.938	94.62
389.163	109.62
389.387	94.62
389.612	85.62
389.837	89.62
390.062	97.62
390.287	104.62
390.512	102.62
390.736	102.62
390.961	94.62
391.186	85.62
391.411	98.62
391.636	95.62
391.86	97.62
392.085	94.62
392.31	95.62
392.534	106.62
392.759	96.62
392.984	94.62
393.208	78.62
393.433	103.62
393.658	98.62
393.882	97.62
394.107	81.62
394.331	89.62
394.556	91.62
394.78	96.62
395.005	92.62
395.229	74.62
395.454	78.62
395.678	85.62
395.903	99.62
396.127	88.62
396.352	99.62
396.576	99.62
396.801	98.62
397.025	94.62
397.249	87.62
397.474	81.62
397.698	97.62
397.922	91.62
398.147	89.62
398.371	87.62
398.595	76.62
398.82	90.62
399.044	87.62
399.268	95.62
399.492	81.62
399.717	94.62
399.941	92.62
400.165	107.62
400.389	99.62
400.613	84.62
400.837	100.62
401.062	89.62
401.286	89.62
401.51	103.62
401.734	101.62
401.958	134.62
402.182	179.62
402.406	220.62
402.63	167.62
402.854	104.62
403.078	103.62
403.302	95.62
403.526	94.62
403.75	90.62
403.974	88.62
404.198	88.62
404.422	91.62
404.645	99.62
404.869	106.62
405.093	123.62
405.317	162.62
405.541	159.62
405.765	135.62
405.988	154.62
406.212	229.62
406.436	366.62
406.66	263.62
406.883	144.62
407.107	111.62
407.331	105.62
407.555	129.62
407.778	115.62
408.002	101.62
408.226	95.62
408.449	94.62
408.673	88.62
408.896	94.62
409.12	109.62
409.344	104.62
409.567	94.62
409.791	105.62
410.014	97.62
410.238	112.62
410.461	101.62
410.685	91.62
410.908	97.62
411.132	114.62
411.355	116.62
411.578	93.62
411.802	104.62
412.025	97.62
412.249	101.62
412.472	118.62
412.695	147.62
412.919	115.62
413.142	99.62
413.365	93.62
413.589	87.62
413.812	93.62
414.035	84.62
414.258	87.62
414.482	100.62
414.705	83.62
414.928	77.62
415.151	99.62
415.374	104.62
415.597	95.62
415.821	83.62
416.044	94.62
416.267	97.62
416.49	84.62
416.713	95.62
416.936	88.62
417.159	95.62
417.382	97.62
417.605	115.62
417.828	127.62
418.051	115.62
418.274	104.62
418.497	91.62
418.72	94.62
418.943	98.62
419.166	93.62
419.389	95.62
419.611	102.62
419.834	82.62
420.057	97.62
420.28	102.62
420.503	92.62
420.726	95.62
420.948	88.62
421.171	120.62
421.394	90.62
421.617	101.62
421.839	94.62
422.062	86.62
422.285	79.62
422.507	104.62
422.73	127.62
422.953	104.62
423.175	96.62
423.398	86.62
423.621	94.62
423.843	91.62
424.066	106.62
424.288	86.62
424.511	98.62
424.733	93.62
424.956	132.62
425.178	113.62
425.401	121.62
425.623	113.62
425.846	90.62
426.068	115.62
426.291	91.62
426.513	92.62
426.735	108.62
426.958	104.62
427.18	136.62
427.402	218.62
427.625	319.62
427.847	304.62
428.069	262.62
428.292	149.62
428.514	112.62
428.736	98.62
428.958	94.62
429.181	94.62
429.403	98.62
429.625	98.62
429.847	96.62
430.069	132.62
430.292	108.62
430.514	83.62
430.736	92.62
430.958	107.62
431.18	91.62
431.402	82.62
431.624	88.62
431.846	83.62
432.068	90.62
432.29	81.62
432.512	89.62
432.734	87.62
432.956	116.62
433.178	109.62
433.4	118.62
433.622	103.62
433.844	93.62
434.066	95.62
434.287	89.62
434.509	95.62
434.731	96.62
434.953	83.62
435.175	106.62
435.397	90.62
435.618	109.62
435.84	112.62
436.062	141.62
436.284	141.62
436.505	115.62
436.727	112.62
436.949	95.62
437.17	90.62
437.392	80.62
437.614	109.62
437.835	134.62
438.057	175.62
438.278	170.62
438.5	127.62
438.721	147.62
438.943	130.62
439.165	108.62
439.386	109.62
439.608	90.62
439.829	112.62
440.05	171.62
440.272	212.62
440.493	127.62
440.715	90.62
440.936	82.62
441.158	91.62
441.379	89.62
441.6	88.62
441.822	107.62
442.043	102.62
442.264	132.62
442.486	121.62
442.707	119.62
442.928	134.62
443.149	184.62
443.371	200.62
443.592	150.62
443.813	123.62
444.034	137.62
444.255	106.62
444.476	86.62
444.698	98.62
444.919	89.62
445.14	137.62
445.361	142.62
445.582	153.62
445.803	214.62
446.024	198.62
446.245	201.62
446.466	138.62
446.687	97.62
446.908	90.62
447.129	98.62
447.35	103.62
447.571	95.62
447.792	121.62
448.013	131.62
448.234	143.62
448.455	120.62
448.675	139.62
448.896	156.62
449.117	116.62
449.338	122.62
449.559	161.62
449.779	178.62
450	69.62
450.221	102.62
450.442	90.62
450.662	107.62
450.883	149.62
451.104	161.62
451.324	110.62
451.545	90.62
451.766	88.62
451.986	113.62
452.207	114.62
452.428	110.62
452.648	120.62
452.869	138.62
453.089	143.62
453.31	156.62
453.53	106.62
453.751	102.62
453.971	125.62
454.192	147.62
454.412	116.62
454.633	102.62
454.853	94.62
455.073	86.62
455.294	111.62
455.514	113.62
455.734	111.62
455.955	98.62
456.175	91.62
456.395	103.62
456.616	94.62
456.836	83.62
457.056	91.62
457.276	77.62
457.497	87.62
457.717	88.62
457.937	95.62
458.157	78.62
458.377	109.62
458.598	154.62
458.818	239.62
459.038	263.62
459.258	168.62
459.478	99.62
459.698	98.62
459.918	93.62
460.138	78.62
460.358	85.62
460.578	98.62
460.798	104.62
461.018	106.62
461.238	83.62
461.458	75.62
461.678	93.62
461.898	100.62
462.118	82.62
462.338	83.62
462.558	81.62
462.777	88.62
462.997	105.62
463.217	114.62
463.437	110.62
463.657	91.62
463.876	108.62
464.096	100.62
464.316	86.62
464.536	111.62
464.755	112.62
464.975	158.62
465.195	286.62
465.414	296.62
465.634	111.62
465.854	95.62
466.073	98.62
466.293	97.62
466.512	80.62
466.732	93.62
466.951	100.62
467.171	108.62
467.391	136.62
467.61	180.62
467.829	284.62
468.049	775.62
468.268	1233.62
468.488	289.62
468.707	135.62
468.927	94.62
469.146	104.62
469.365	91.62
469.585	113.62
469.804	111.62
470.023	120.62
470.243	112.62
470.462	115.62
470.681	160.62
470.901	100.62
471.12	113.62
471.339	113.62
471.558	139.62
471.777	192.62
471.997	391.62
472.216	1590.62
472.435	3677.62
472.654	809.62
472.873	195.62
473.092	122.62
473.311	101.62
473.53	86.62
473.749	111.62
473.968	101.62
474.187	140.62
474.406	129.62
474.625	80.62
474.844	84.62
475.063	80.62
475.282	81.62
475.501	91.62
475.72	96.62
475.939	99.62
476.158	90.62
476.377	101.62
476.596	98.62
476.814	105.62
477.033	102.62
477.252	108.62
477.471	89.62
477.69	105.62
477.908	114.62
478.127	97.62
478.346	110.62
478.564	103.62
478.783	101.62
479.002	118.62
479.22	104.62
479.439	141.62
479.658	171.62
479.876	137.62
480.095	134.62
480.313	161.62
480.532	181.62
480.751	367.62
480.969	1398.62
481.188	6268.62
481.406	3558.62
481.624	483.62
481.843	156.62
482.061	112.62
482.28	110.62
482.498	104.62
482.717	99.62
482.935	95.62
483.153	105.62
483.372	109.62
483.59	87.62
483.808	106.62
484.027	106.62
484.245	97.62
484.463	100.62
484.681	92.62
484.9	103.62
485.118	98.62
485.336	103.62
485.554	106.62
485.772	112.62
485.99	99.62
486.209	105.62
486.427	113.62
486.645	141.62
486.863	136.62
487.081	119.62
487.299	115.62
487.517	98.62
487.735	88.62
487.953	96.62
488.171	95.62
488.389	111.62
488.607	96.62
488.825	89.62
489.043	88.62
489.261	89.62
489.479	78.62
489.696	92.62
489.914	92.62
490.132	108.62
490.35	97.62
490.568	93.62
490.786	88.62
491.003	95.62
491.221	91.62
491.439	99.62
491.657	93.62
491.874	107.62
492.092	104.62
492.31	101.62
492.527	109.62
492.745	107.62
492.963	83.62
493.18	99.62
493.398	84.62
493.615	116.62
493.833	98.62
494.05	102.62
494.268	80.62
494.485	95.62
494.703	77.62
494.92	94.62
495.138	88.62
495.355	106.62
495.573	87.62
495.79	90.62
496.008	97.62
496.225	93.62
496.442	107.62
496.66	97.62
496.877	97.62
497.094	79.62
497.312	86.62
497.529	93.62
497.746	112.62
497.963	94.62
498.181	99.62
498.398	86.62
498.615	124.62
498.832	113.62
499.049	93.62
499.267	104.62
499.484	101.62
499.701	95.62
499.918	110.62
500.135	95.62
500.352	87.62
500.569	96.62
500.786	100.62
501.003	99.62
501.22	105.62
501.437	101.62
501.654	113.62
501.871	136.62
502.088	114.62
502.305	102.62
502.522	97.62
502.739	103.62
502.956	89.62
503.172	99.62
503.389	110.62
503.606	150.62
503.823	118.62
504.04	98.62
504.256	95.62
504.473	97.62
504.69	89.62
504.907	100.62
505.123	87.62
505.34	89.62
505.557	99.62
505.773	89.62
505.99	100.62
506.207	74.62
506.423	80.62
506.64	94.62
506.856	99.62
507.073	117.62
507.289	105.62
507.506	96.62
507.722	148.62
507.939	144.62
508.155	113.62
508.372	99.62
508.588	100.62
508.805	100.62
509.021	93.62
509.238	108.62
509.454	115.62
509.67	107.62
509.887	125.62
510.103	159.62
510.319	274.62
510.536	1024.62
510.752	3740.62
510.968	974.62
511.184	184.62
511.401	140.62
