Data from Circ_1995_H10_HRD10591_00037.txt Node
Date: Wed Jan 03 11:36:54 EST 2024
User: Yrep
Spectrometer: HR+D1059
Trigger mode: 1
Integration Time (sec): 1.000000E-1
Scans to average: 1
Electric dark correction enabled: true
Nonlinearity correction enabled: false
Boxcar width: 0
XAxis mode: Wavelengths
Number of Pixels in Spectrum: 2048
>>>>>Begin Spectral Data<<<<<
223.165	-8.81
223.4	-8.81
223.635	-8.81
223.869	-18.81
224.104	-34.81
224.338	-6.81
224.573	-0.81
224.808	-12.81
225.042	5.19
225.277	-15.81
225.511	-17.81
225.746	3.19
225.98	1.19
226.215	23.19
226.449	18.19
226.683	8.19
226.918	19.19
227.152	38.19
227.387	34.19
227.621	40.19
227.856	40.19
228.09	47.19
228.324	45.19
228.559	46.19
228.793	48.19
229.027	67.19
229.262	82.19
229.496	93.19
229.73	93.19
229.964	85.19
230.199	71.19
230.433	81.19
230.667	84.19
230.901	79.19
231.136	74.19
231.37	80.19
231.604	87.19
231.838	79.19
232.072	80.19
232.306	96.19
232.541	81.19
232.775	69.19
233.009	76.19
233.243	83.19
233.477	88.19
233.711	86.19
233.945	86.19
234.179	83.19
234.413	91.19
234.647	86.19
234.881	77.19
235.115	83.19
235.349	81.19
235.583	85.19
235.817	73.19
236.051	81.19
236.285	76.19
236.519	81.19
236.753	84.19
236.987	73.19
237.221	90.19
237.455	88.19
237.689	81.19
237.922	77.19
238.156	76.19
238.39	79.19
238.624	77.19
238.858	79.19
239.091	85.19
239.325	75.19
239.559	93.19
239.793	80.19
240.027	87.19
240.26	82.19
240.494	80.19
240.728	83.19
240.961	81.19
241.195	82.19
241.429	92.19
241.662	87.19
241.896	82.19
242.13	88.19
242.363	89.19
242.597	82.19
242.83	71.19
243.064	84.19
243.298	88.19
243.531	79.19
243.765	65.19
243.998	61.19
244.232	80.19
244.465	97.19
244.699	92.19
244.932	84.19
245.166	77.19
245.399	75.19
245.633	86.19
245.866	86.19
246.099	85.19
246.333	80.19
246.566	76.19
246.8	71.19
247.033	81.19
247.266	91.19
247.5	74.19
247.733	84.19
247.966	82.19
248.2	88.19
248.433	91.19
248.666	75.19
248.899	79.19
249.133	94.19
249.366	99.19
249.599	106.19
249.832	78.19
250.066	98.19
250.299	97.19
250.532	88.19
250.765	84.19
250.998	91.19
251.231	91.19
251.465	97.19
251.698	68.19
251.931	81.19
252.164	89.19
252.397	80.19
252.63	81.19
252.863	90.19
253.096	75.19
253.329	96.19
253.562	81.19
253.795	68.19
254.028	72.19
254.261	88.19
254.494	100.19
254.727	90.19
254.96	66.19
255.193	85.19
255.426	94.19
255.659	97.19
255.892	90.19
256.124	90.19
256.357	79.19
256.59	99.19
256.823	84.19
257.056	94.19
257.289	104.19
257.521	92.19
257.754	96.19
257.987	90.19
258.22	75.19
258.452	109.19
258.685	90.19
258.918	95.19
259.151	89.19
259.383	89.19
259.616	82.19
259.849	84.19
260.081	90.19
260.314	73.19
260.547	85.19
260.779	102.19
261.012	104.19
261.244	125.19
261.477	105.19
261.71	111.19
261.942	151.19
262.175	155.19
262.407	95.19
262.64	73.19
262.872	80.19
263.105	89.19
263.337	85.19
263.57	88.19
263.802	76.19
264.035	78.19
264.267	73.19
264.499	92.19
264.732	88.19
264.964	83.19
265.197	77.19
265.429	79.19
265.661	89.19
265.894	85.19
266.126	88.19
266.358	89.19
266.591	81.19
266.823	97.19
267.055	91.19
267.287	91.19
267.52	81.19
267.752	88.19
267.984	90.19
268.216	89.19
268.448	93.19
268.681	94.19
268.913	96.19
269.145	76.19
269.377	74.19
269.609	72.19
269.841	81.19
270.073	75.19
270.306	81.19
270.538	87.19
270.77	95.19
271.002	87.19
271.234	109.19
271.466	93.19
271.698	95.19
271.93	81.19
272.162	91.19
272.394	82.19
272.626	95.19
272.858	103.19
273.09	87.19
273.322	77.19
273.553	77.19
273.785	99.19
274.017	83.19
274.249	93.19
274.481	84.19
274.713	89.19
274.945	105.19
275.176	88.19
275.408	114.19
275.64	106.19
275.872	155.19
276.104	112.19
276.335	100.19
276.567	111.19
276.799	173.19
277.031	187.19
277.262	214.19
277.494	177.19
277.726	102.19
277.957	90.19
278.189	96.19
278.421	93.19
278.652	87.19
278.884	102.19
279.115	76.19
279.347	93.19
279.579	112.19
279.81	145.19
280.042	218.19
280.273	318.19
280.505	211.19
280.736	113.19
280.968	97.19
281.199	110.19
281.431	88.19
281.662	98.19
281.894	93.19
282.125	120.19
282.356	146.19
282.588	187.19
282.819	134.19
283.051	85.19
283.282	104.19
283.513	94.19
283.745	88.19
283.976	92.19
284.207	99.19
284.439	75.19
284.67	85.19
284.901	80.19
285.132	72.19
285.364	86.19
285.595	83.19
285.826	92.19
286.057	95.19
286.288	81.19
286.52	79.19
286.751	88.19
286.982	108.19
287.213	81.19
287.444	92.19
287.675	95.19
287.906	88.19
288.138	106.19
288.369	100.19
288.6	106.19
288.831	85.19
289.062	107.19
289.293	114.19
289.524	90.19
289.755	86.19
289.986	95.19
290.217	96.19
290.448	100.19
290.679	77.19
290.91	101.19
291.141	84.19
291.371	83.19
291.602	81.19
291.833	86.19
292.064	97.19
292.295	89.19
292.526	84.19
292.757	99.19
292.987	91.19
293.218	83.19
293.449	86.19
293.68	96.19
293.91	94.19
294.141	87.19
294.372	99.19
294.603	88.19
294.833	95.19
295.064	89.19
295.295	92.19
295.525	100.19
295.756	97.19
295.987	132.19
296.217	174.19
296.448	138.19
296.679	100.19
296.909	86.19
297.14	95.19
297.37	97.19
297.601	94.19
297.831	90.19
298.062	93.19
298.292	92.19
298.523	93.19
298.753	96.19
298.984	107.19
299.214	97.19
299.445	95.19
299.675	87.19
299.905	95.19
300.136	93.19
300.366	94.19
300.597	92.19
300.827	88.19
301.057	115.19
301.288	114.19
301.518	100.19
301.748	101.19
301.979	122.19
302.209	113.19
302.439	110.19
302.669	85.19
302.9	92.19
303.13	100.19
303.36	118.19
303.59	137.19
303.82	162.19
304.051	103.19
304.281	99.19
304.511	84.19
304.741	82.19
304.971	88.19
305.201	96.19
305.431	95.19
305.661	96.19
305.891	95.19
306.121	93.19
306.352	101.19
306.582	108.19
306.812	114.19
307.042	147.19
307.272	172.19
307.502	203.19
307.731	192.19
307.961	147.19
308.191	108.19
308.421	96.19
308.651	108.19
308.881	86.19
309.111	88.19
309.341	90.19
309.571	119.19
309.8	96.19
310.03	119.19
310.26	100.19
310.49	108.19
310.72	125.19
310.949	120.19
311.179	114.19
311.409	100.19
311.639	94.19
311.868	96.19
312.098	100.19
312.328	112.19
312.557	112.19
312.787	136.19
313.017	116.19
313.246	105.19
313.476	95.19
313.706	110.19
313.935	101.19
314.165	121.19
314.394	109.19
314.624	100.19
314.853	100.19
315.083	94.19
315.312	100.19
315.542	103.19
315.771	100.19
316.001	95.19
316.23	87.19
316.46	87.19
316.689	95.19
316.919	87.19
317.148	101.19
317.377	91.19
317.607	100.19
317.836	104.19
318.065	87.19
318.295	93.19
318.524	100.19
318.753	110.19
318.983	108.19
319.212	109.19
319.441	108.19
319.67	114.19
319.9	108.19
320.129	95.19
320.358	95.19
320.587	105.19
320.816	119.19
321.046	119.19
321.275	127.19
321.504	117.19
321.733	99.19
321.962	114.19
322.191	93.19
322.42	117.19
322.649	136.19
322.878	123.19
323.108	131.19
323.337	144.19
323.566	160.19
323.795	186.19
324.024	254.19
324.253	511.19
324.482	1083.19
324.71	2229.19
324.939	2935.19
325.168	1079.19
325.397	315.19
325.626	184.19
325.855	151.19
326.084	153.19
326.313	156.19
326.542	162.19
326.77	276.19
326.999	530.19
327.228	1124.19
327.457	2070.19
327.686	1700.19
327.914	617.19
328.143	638.19
328.372	824.19
328.6	452.19
328.829	216.19
329.058	209.19
329.287	223.19
329.515	202.19
329.744	289.19
329.972	551.19
330.201	1193.19
330.43	1784.19
330.658	807.19
330.887	359.19
331.115	217.19
331.344	130.19
331.572	130.19
331.801	133.19
332.03	142.19
332.258	127.19
332.486	99.19
332.715	112.19
332.943	130.19
333.172	141.19
333.4	140.19
333.629	187.19
333.857	256.19
334.085	513.19
334.314	1049.19
334.542	2169.19
334.771	2075.19
334.999	517.19
335.227	213.19
335.455	159.19
335.684	114.19
335.912	109.19
336.14	106.19
336.369	131.19
336.597	114.19
336.825	98.19
337.053	106.19
337.281	96.19
337.51	113.19
337.738	99.19
337.966	93.19
338.194	99.19
338.422	127.19
338.65	107.19
338.878	94.19
339.106	91.19
339.334	98.19
339.562	97.19
339.79	104.19
340.018	77.19
340.246	111.19
340.474	109.19
340.702	109.19
340.93	111.19
341.158	97.19
341.386	107.19
341.614	93.19
341.842	106.19
342.07	109.19
342.298	101.19
342.526	100.19
342.754	101.19
342.981	93.19
343.209	93.19
343.437	97.19
343.665	86.19
343.893	99.19
344.12	111.19
344.348	100.19
344.576	99.19
344.804	91.19
345.031	113.19
345.259	110.19
345.487	98.19
345.714	97.19
345.942	98.19
346.17	95.19
346.397	100.19
346.625	104.19
346.853	112.19
347.08	93.19
347.308	104.19
347.535	111.19
347.763	124.19
347.99	114.19
348.218	117.19
348.445	124.19
348.673	112.19
348.9	99.19
349.128	101.19
349.355	92.19
349.583	101.19
349.81	102.19
350.037	99.19
350.265	95.19
350.492	95.19
350.72	95.19
350.947	109.19
351.174	135.19
351.402	135.19
351.629	112.19
351.856	107.19
352.083	123.19
352.311	109.19
352.538	117.19
352.765	111.19
352.992	129.19
353.22	125.19
353.447	124.19
353.674	113.19
353.901	93.19
354.128	85.19
354.355	100.19
354.583	80.19
354.81	107.19
355.037	101.19
355.264	95.19
355.491	104.19
355.718	96.19
355.945	97.19
356.172	92.19
356.399	99.19
356.626	96.19
356.853	85.19
357.08	97.19
357.307	89.19
357.534	91.19
357.761	86.19
357.988	112.19
358.215	92.19
358.441	105.19
358.668	83.19
358.895	97.19
359.122	91.19
359.349	89.19
359.576	91.19
359.802	132.19
360.029	150.19
360.256	149.19
360.483	111.19
360.709	98.19
360.936	91.19
361.163	102.19
361.39	95.19
361.616	102.19
361.843	97.19
362.07	104.19
362.296	108.19
362.523	108.19
362.749	102.19
362.976	106.19
363.203	98.19
363.429	107.19
363.656	97.19
363.882	85.19
364.109	96.19
364.335	95.19
364.562	92.19
364.788	120.19
365.015	105.19
365.241	109.19
365.468	123.19
365.694	123.19
365.92	108.19
366.147	90.19
366.373	95.19
366.599	99.19
366.826	96.19
367.052	99.19
367.278	93.19
367.505	103.19
367.731	101.19
367.957	107.19
368.184	97.19
368.41	109.19
368.636	124.19
368.862	138.19
369.089	135.19
369.315	108.19
369.541	101.19
369.767	102.19
369.993	100.19
370.219	96.19
370.445	91.19
370.672	109.19
370.898	98.19
371.124	91.19
371.35	104.19
371.576	89.19
371.802	103.19
372.028	92.19
372.254	95.19
372.48	91.19
372.706	84.19
372.932	95.19
373.158	82.19
373.384	84.19
373.61	107.19
373.835	84.19
374.061	103.19
374.287	108.19
374.513	89.19
374.739	81.19
374.965	95.19
375.191	81.19
375.416	93.19
375.642	91.19
375.868	100.19
376.094	102.19
376.319	82.19
376.545	91.19
376.771	96.19
376.997	98.19
377.222	94.19
377.448	97.19
377.674	89.19
377.899	105.19
378.125	103.19
378.35	96.19
378.576	95.19
378.802	96.19
379.027	79.19
379.253	114.19
379.478	94.19
379.704	94.19
379.929	104.19
380.155	93.19
380.38	105.19
380.606	112.19
380.831	109.19
381.057	98.19
381.282	106.19
381.507	111.19
381.733	88.19
381.958	116.19
382.184	98.19
382.409	79.19
382.634	115.19
382.86	94.19
383.085	94.19
383.31	88.19
383.535	100.19
383.761	91.19
383.986	97.19
384.211	105.19
384.436	105.19
384.662	99.19
384.887	105.19
385.112	101.19
385.337	115.19
385.562	122.19
385.787	110.19
386.013	125.19
386.238	130.19
386.463	122.19
386.688	112.19
386.913	111.19
387.138	105.19
387.363	100.19
387.588	104.19
387.813	101.19
388.038	108.19
388.263	123.19
388.488	113.19
388.713	92.19
388.938	104.19
389.163	91.19
389.387	90.19
389.612	110.19
389.837	91.19
390.062	89.19
390.287	94.19
390.512	90.19
390.736	99.19
390.961	89.19
391.186	89.19
391.411	88.19
391.636	95.19
391.86	90.19
392.085	85.19
392.31	90.19
392.534	98.19
392.759	98.19
392.984	98.19
393.208	98.19
393.433	98.19
393.658	92.19
393.882	96.19
394.107	80.19
394.331	99.19
394.556	90.19
394.78	88.19
395.005	94.19
395.229	105.19
395.454	87.19
395.678	84.19
395.903	84.19
396.127	87.19
396.352	96.19
396.576	84.19
396.801	95.19
397.025	77.19
397.249	86.19
397.474	106.19
397.698	85.19
397.922	90.19
398.147	87.19
398.371	97.19
398.595	98.19
398.82	83.19
399.044	92.19
399.268	81.19
399.492	91.19
399.717	84.19
399.941	87.19
400.165	90.19
400.389	95.19
400.613	107.19
400.837	90.19
401.062	92.19
401.286	106.19
401.51	84.19
401.734	103.19
401.958	113.19
402.182	155.19
402.406	230.19
402.63	160.19
402.854	107.19
403.078	105.19
403.302	99.19
403.526	99.19
403.75	94.19
403.974	95.19
404.198	92.19
404.422	83.19
404.645	91.19
404.869	106.19
405.093	114.19
405.317	147.19
405.541	148.19
405.765	117.19
405.988	155.19
406.212	233.19
406.436	356.19
406.66	239.19
406.883	135.19
407.107	116.19
407.331	93.19
407.555	108.19
407.778	101.19
408.002	97.19
408.226	92.19
408.449	87.19
408.673	109.19
408.896	98.19
409.12	99.19
409.344	100.19
409.567	83.19
409.791	80.19
410.014	101.19
410.238	109.19
410.461	104.19
410.685	97.19
410.908	113.19
411.132	107.19
411.355	106.19
411.578	109.19
411.802	90.19
412.025	86.19
412.249	116.19
412.472	121.19
412.695	135.19
412.919	117.19
413.142	95.19
413.365	98.19
413.589	93.19
413.812	93.19
414.035	80.19
414.258	105.19
414.482	103.19
414.705	105.19
414.928	101.19
415.151	89.19
415.374	101.19
415.597	91.19
415.821	87.19
416.044	91.19
416.267	88.19
416.49	93.19
416.713	81.19
416.936	92.19
417.159	101.19
417.382	93.19
417.605	116.19
417.828	106.19
418.051	102.19
418.274	91.19
418.497	108.19
418.72	93.19
418.943	83.19
419.166	79.19
419.389	101.19
419.611	91.19
419.834	100.19
420.057	90.19
420.28	93.19
420.503	97.19
420.726	91.19
420.948	106.19
421.171	103.19
421.394	107.19
421.617	84.19
421.839	96.19
422.062	91.19
422.285	90.19
422.507	89.19
422.73	120.19
422.953	92.19
423.175	84.19
423.398	94.19
423.621	97.19
423.843	96.19
424.066	87.19
424.288	84.19
424.511	116.19
424.733	113.19
424.956	116.19
425.178	99.19
425.401	111.19
425.623	104.19
425.846	86.19
426.068	108.19
426.291	98.19
426.513	106.19
426.735	105.19
426.958	114.19
427.18	117.19
427.402	185.19
427.625	291.19
427.847	285.19
428.069	217.19
428.292	139.19
428.514	108.19
428.736	91.19
428.958	76.19
429.181	85.19
429.403	85.19
429.625	98.19
429.847	94.19
430.069	122.19
430.292	91.19
430.514	97.19
430.736	97.19
430.958	101.19
431.18	84.19
431.402	78.19
431.624	77.19
431.846	75.19
432.068	83.19
432.29	72.19
432.512	77.19
432.734	81.19
432.956	94.19
433.178	114.19
433.4	92.19
433.622	84.19
433.844	91.19
434.066	90.19
434.287	84.19
434.509	102.19
434.731	94.19
434.953	92.19
435.175	102.19
435.397	112.19
435.618	98.19
435.84	116.19
436.062	127.19
436.284	133.19
436.505	106.19
436.727	115.19
436.949	86.19
437.17	99.19
437.392	94.19
437.614	104.19
437.835	122.19
438.057	155.19
438.278	132.19
438.5	124.19
438.721	139.19
438.943	97.19
439.165	95.19
439.386	82.19
439.608	102.19
439.829	124.19
440.05	154.19
440.272	179.19
440.493	105.19
440.715	103.19
440.936	97.19
441.158	84.19
441.379	90.19
441.6	114.19
441.822	106.19
442.043	110.19
442.264	121.19
442.486	113.19
442.707	96.19
442.928	114.19
443.149	177.19
443.371	178.19
443.592	136.19
443.813	122.19
444.034	113.19
444.255	94.19
444.476	85.19
444.698	93.19
444.919	94.19
445.14	145.19
445.361	128.19
445.582	144.19
445.803	192.19
446.024	200.19
446.245	174.19
446.466	109.19
446.687	107.19
446.908	99.19
447.129	90.19
447.35	96.19
447.571	98.19
447.792	110.19
448.013	121.19
448.234	128.19
448.455	111.19
448.675	132.19
448.896	138.19
449.117	110.19
449.338	107.19
449.559	132.19
449.779	156.19
450	100.19
450.221	91.19
450.442	91.19
450.662	107.19
450.883	138.19
451.104	140.19
451.324	117.19
451.545	105.19
451.766	88.19
451.986	80.19
452.207	94.19
452.428	100.19
452.648	105.19
452.869	135.19
453.089	131.19
453.31	169.19
453.53	118.19
453.751	101.19
453.971	113.19
454.192	156.19
454.412	112.19
454.633	84.19
454.853	80.19
455.073	89.19
455.294	99.19
455.514	130.19
455.734	100.19
455.955	82.19
456.175	95.19
456.395	99.19
456.616	85.19
456.836	76.19
457.056	93.19
457.276	107.19
457.497	95.19
457.717	92.19
457.937	92.19
458.157	88.19
458.377	81.19
458.598	132.19
458.818	216.19
459.038	254.19
459.258	171.19
459.478	96.19
459.698	100.19
459.918	92.19
460.138	84.19
460.358	75.19
460.578	92.19
460.798	95.19
461.018	87.19
461.238	88.19
461.458	92.19
461.678	100.19
461.898	86.19
462.118	88.19
462.338	87.19
462.558	86.19
462.777	93.19
462.997	105.19
463.217	118.19
463.437	96.19
463.657	88.19
463.876	92.19
464.096	83.19
464.316	100.19
464.536	123.19
464.755	108.19
464.975	138.19
465.195	256.19
465.414	274.19
465.634	126.19
465.854	105.19
466.073	97.19
466.293	100.19
466.512	105.19
466.732	88.19
466.951	98.19
467.171	100.19
467.391	122.19
467.61	172.19
467.829	234.19
468.049	726.19
468.268	1111.19
468.488	275.19
468.707	116.19
468.927	90.19
469.146	111.19
469.365	97.19
469.585	99.19
469.804	113.19
470.023	122.19
470.243	105.19
470.462	119.19
470.681	166.19
470.901	100.19
471.12	106.19
471.339	128.19
471.558	108.19
471.777	165.19
471.997	356.19
472.216	1335.19
472.435	3203.19
472.654	703.19
472.873	182.19
473.092	104.19
473.311	110.19
473.53	105.19
473.749	108.19
473.968	123.19
474.187	120.19
474.406	88.19
474.625	98.19
474.844	99.19
475.063	83.19
475.282	92.19
475.501	83.19
475.72	80.19
475.939	81.19
476.158	98.19
476.377	97.19
476.596	110.19
476.814	111.19
477.033	104.19
477.252	100.19
477.471	110.19
477.69	110.19
477.908	107.19
478.127	102.19
478.346	90.19
478.564	100.19
478.783	112.19
479.002	106.19
479.22	119.19
479.439	149.19
479.658	136.19
479.876	127.19
480.095	132.19
480.313	151.19
480.532	191.19
480.751	313.19
480.969	1183.19
481.188	5298.19
481.406	3089.19
481.624	420.19
481.843	161.19
482.061	124.19
482.28	107.19
482.498	91.19
482.717	97.19
482.935	110.19
483.153	87.19
483.372	93.19
483.59	84.19
483.808	86.19
484.027	98.19
484.245	111.19
484.463	107.19
484.681	88.19
484.9	92.19
485.118	99.19
485.336	103.19
485.554	92.19
485.772	114.19
485.99	101.19
486.209	112.19
486.427	115.19
486.645	135.19
486.863	147.19
487.081	123.19
487.299	100.19
487.517	99.19
487.735	99.19
487.953	90.19
488.171	105.19
488.389	103.19
488.607	106.19
488.825	101.19
489.043	75.19
489.261	99.19
489.479	102.19
489.696	91.19
489.914	105.19
490.132	100.19
490.35	99.19
490.568	101.19
490.786	95.19
491.003	83.19
491.221	101.19
491.439	105.19
491.657	85.19
491.874	90.19
492.092	91.19
492.31	96.19
492.527	102.19
492.745	103.19
492.963	92.19
493.18	112.19
493.398	91.19
493.615	90.19
493.833	81.19
494.05	84.19
494.268	85.19
494.485	99.19
494.703	99.19
494.92	82.19
495.138	87.19
495.355	94.19
495.573	88.19
495.79	96.19
496.008	95.19
496.225	87.19
496.442	88.19
496.66	104.19
496.877	91.19
497.094	84.19
497.312	100.19
497.529	91.19
497.746	97.19
497.963	96.19
498.181	97.19
498.398	89.19
498.615	101.19
498.832	109.19
499.049	99.19
499.267	86.19
499.484	97.19
499.701	97.19
499.918	92.19
500.135	93.19
500.352	83.19
500.569	75.19
500.786	100.19
501.003	91.19
501.22	95.19
501.437	93.19
501.654	107.19
501.871	143.19
502.088	99.19
502.305	91.19
502.522	100.19
502.739	94.19
502.956	97.19
503.172	92.19
503.389	107.19
503.606	136.19
503.823	105.19
504.04	95.19
504.256	91.19
504.473	96.19
504.69	105.19
504.907	107.19
505.123	94.19
505.34	88.19
505.557	89.19
505.773	99.19
505.99	105.19
506.207	93.19
506.423	81.19
506.64	98.19
506.856	100.19
507.073	92.19
507.289	108.19
507.506	107.19
507.722	141.19
507.939	133.19
508.155	112.19
508.372	111.19
508.588	110.19
508.805	100.19
509.021	106.19
509.238	124.19
509.454	97.19
509.67	101.19
509.887	121.19
510.103	125.19
510.319	234.19
510.536	990.19
510.752	3594.19
510.968	957.19
511.184	205.19
511.401	139.19
511.617	117.19
511.833	121.19
