Data from Circ_1995_H10_HRD10591_00036.txt Node
Date: Wed Jan 03 11:36:53 EST 2024
User: Yrep
Spectrometer: HR+D1059
Trigger mode: 1
Integration Time (sec): 1.000000E-1
Scans to average: 1
Electric dark correction enabled: true
Nonlinearity correction enabled: false
Boxcar width: 0
XAxis mode: Wavelengths
Number of Pixels in Spectrum: 2048
>>>>>Begin Spectral Data<<<<<
223.165	-17.62
223.4	-17.62
223.635	-17.62
223.869	-12.62
224.104	-29.62
224.338	-5.62
224.573	-5.62
224.808	-13.62
225.042	-13.62
225.277	-17.62
225.511	1.38
225.746	8.38
225.98	8.38
226.215	12.38
226.449	16.38
226.683	11.38
226.918	17.38
227.152	40.38
227.387	39.38
227.621	31.38
227.856	28.38
228.09	58.38
228.324	49.38
228.559	59.38
228.793	63.38
229.027	67.38
229.262	75.38
229.496	75.38
229.73	104.38
229.964	107.38
230.199	72.38
230.433	66.38
230.667	82.38
230.901	73.38
231.136	83.38
231.37	74.38
231.604	83.38
231.838	80.38
232.072	78.38
232.306	83.38
232.541	74.38
232.775	72.38
233.009	74.38
233.243	91.38
233.477	82.38
233.711	97.38
233.945	73.38
234.179	66.38
234.413	91.38
234.647	94.38
234.881	85.38
235.115	77.38
235.349	83.38
235.583	88.38
235.817	79.38
236.051	82.38
236.285	88.38
236.519	83.38
236.753	74.38
236.987	82.38
237.221	82.38
237.455	114.38
237.689	72.38
237.922	75.38
238.156	87.38
238.39	75.38
238.624	73.38
238.858	73.38
239.091	68.38
239.325	79.38
239.559	86.38
239.793	82.38
240.027	84.38
240.26	81.38
240.494	90.38
240.728	86.38
240.961	64.38
241.195	81.38
241.429	90.38
241.662	70.38
241.896	81.38
242.13	82.38
242.363	75.38
242.597	76.38
242.83	78.38
243.064	91.38
243.298	98.38
243.531	92.38
243.765	89.38
243.998	74.38
244.232	89.38
244.465	82.38
244.699	77.38
244.932	90.38
245.166	87.38
245.399	84.38
245.633	82.38
245.866	87.38
246.099	86.38
246.333	92.38
246.566	84.38
246.8	77.38
247.033	76.38
247.266	66.38
247.5	86.38
247.733	83.38
247.966	96.38
248.2	89.38
248.433	80.38
248.666	79.38
248.899	84.38
249.133	101.38
249.366	123.38
249.599	127.38
249.832	97.38
250.066	82.38
250.299	95.38
250.532	110.38
250.765	89.38
250.998	82.38
251.231	75.38
251.465	86.38
251.698	88.38
251.931	83.38
252.164	104.38
252.397	86.38
252.63	83.38
252.863	77.38
253.096	89.38
253.329	81.38
253.562	71.38
253.795	67.38
254.028	83.38
254.261	72.38
254.494	73.38
254.727	87.38
254.96	78.38
255.193	85.38
255.426	75.38
255.659	81.38
255.892	103.38
256.124	115.38
256.357	94.38
256.59	91.38
256.823	92.38
257.056	92.38
257.289	105.38
257.521	92.38
257.754	82.38
257.987	79.38
258.22	106.38
258.452	118.38
258.685	94.38
258.918	105.38
259.151	91.38
259.383	76.38
259.616	88.38
259.849	87.38
260.081	104.38
260.314	97.38
260.547	107.38
260.779	112.38
261.012	127.38
261.244	119.38
261.477	105.38
261.71	120.38
261.942	169.38
262.175	172.38
262.407	101.38
262.64	93.38
262.872	109.38
263.105	77.38
263.337	87.38
263.57	79.38
263.802	95.38
264.035	75.38
264.267	91.38
264.499	112.38
264.732	85.38
264.964	87.38
265.197	89.38
265.429	80.38
265.661	80.38
265.894	91.38
266.126	77.38
266.358	78.38
266.591	81.38
266.823	83.38
267.055	90.38
267.287	83.38
267.52	75.38
267.752	86.38
267.984	93.38
268.216	87.38
268.448	99.38
268.681	74.38
268.913	87.38
269.145	92.38
269.377	95.38
269.609	79.38
269.841	77.38
270.073	89.38
270.306	87.38
270.538	83.38
270.77	95.38
271.002	81.38
271.234	93.38
271.466	99.38
271.698	88.38
271.93	80.38
272.162	94.38
272.394	79.38
272.626	84.38
272.858	97.38
273.09	100.38
273.322	90.38
273.553	90.38
273.785	94.38
274.017	88.38
274.249	83.38
274.481	82.38
274.713	89.38
274.945	85.38
275.176	101.38
275.408	98.38
275.64	150.38
275.872	166.38
276.104	112.38
276.335	112.38
276.567	144.38
276.799	190.38
277.031	225.38
277.262	286.38
277.494	195.38
277.726	125.38
277.957	102.38
278.189	103.38
278.421	93.38
278.652	95.38
278.884	99.38
279.115	107.38
279.347	106.38
279.579	115.38
279.81	161.38
280.042	276.38
280.273	405.38
280.505	240.38
280.736	126.38
280.968	110.38
281.199	95.38
281.431	87.38
281.662	87.38
281.894	97.38
282.125	103.38
282.356	172.38
282.588	213.38
282.819	174.38
283.051	106.38
283.282	97.38
283.513	100.38
283.745	94.38
283.976	79.38
284.207	81.38
284.439	78.38
284.67	93.38
284.901	76.38
285.132	104.38
285.364	79.38
285.595	94.38
285.826	89.38
286.057	84.38
286.288	88.38
286.52	94.38
286.751	88.38
286.982	84.38
287.213	88.38
287.444	92.38
287.675	83.38
287.906	89.38
288.138	88.38
288.369	93.38
288.6	97.38
288.831	87.38
289.062	99.38
289.293	105.38
289.524	71.38
289.755	89.38
289.986	97.38
290.217	83.38
290.448	90.38
290.679	83.38
290.91	78.38
291.141	98.38
291.371	87.38
291.602	97.38
291.833	87.38
292.064	96.38
292.295	103.38
292.526	96.38
292.757	87.38
292.987	98.38
293.218	97.38
293.449	100.38
293.68	108.38
293.91	94.38
294.141	92.38
294.372	73.38
294.603	88.38
294.833	99.38
295.064	104.38
295.295	97.38
295.525	101.38
295.756	107.38
295.987	155.38
296.217	226.38
296.448	181.38
296.679	116.38
296.909	100.38
297.14	102.38
297.37	87.38
297.601	102.38
297.831	103.38
298.062	92.38
298.292	99.38
298.523	84.38
298.753	85.38
298.984	97.38
299.214	80.38
299.445	85.38
299.675	106.38
299.905	94.38
300.136	74.38
300.366	76.38
300.597	102.38
300.827	92.38
301.057	130.38
301.288	140.38
301.518	119.38
301.748	107.38
301.979	131.38
302.209	91.38
302.439	106.38
302.669	97.38
302.9	109.38
303.13	105.38
303.36	144.38
303.59	178.38
303.82	201.38
304.051	137.38
304.281	82.38
304.511	95.38
304.741	87.38
304.971	84.38
305.201	106.38
305.431	99.38
305.661	108.38
305.891	107.38
306.121	106.38
306.352	115.38
306.582	135.38
306.812	131.38
307.042	162.38
307.272	219.38
307.502	232.38
307.731	226.38
307.961	144.38
308.191	101.38
308.421	100.38
308.651	93.38
308.881	94.38
309.111	106.38
309.341	102.38
309.571	116.38
309.8	106.38
310.03	123.38
310.26	124.38
310.49	117.38
310.72	120.38
310.949	139.38
311.179	139.38
311.409	108.38
311.639	108.38
311.868	113.38
312.098	107.38
312.328	116.38
312.557	149.38
312.787	159.38
313.017	119.38
313.246	95.38
313.476	93.38
313.706	95.38
313.935	96.38
314.165	128.38
314.394	121.38
314.624	118.38
314.853	104.38
315.083	111.38
315.312	97.38
315.542	90.38
315.771	105.38
316.001	102.38
316.23	103.38
316.46	97.38
316.689	102.38
316.919	122.38
317.148	108.38
317.377	116.38
317.607	106.38
317.836	112.38
318.065	88.38
318.295	104.38
318.524	102.38
318.753	94.38
318.983	100.38
319.212	120.38
319.441	139.38
319.67	130.38
319.9	96.38
320.129	105.38
320.358	88.38
320.587	105.38
320.816	116.38
321.046	123.38
321.275	119.38
321.504	101.38
321.733	103.38
321.962	123.38
322.191	103.38
322.42	131.38
322.649	134.38
322.878	134.38
323.108	127.38
323.337	177.38
323.566	200.38
323.795	236.38
324.024	294.38
324.253	585.38
324.482	1301.38
324.71	2696.38
324.939	3540.38
325.168	1269.38
325.397	372.38
325.626	204.38
325.855	161.38
326.084	170.38
326.313	164.38
326.542	201.38
326.77	313.38
326.999	627.38
327.228	1300.38
327.457	2510.38
327.686	1994.38
327.914	757.38
328.143	848.38
328.372	1102.38
328.6	596.38
328.829	264.38
329.058	262.38
329.287	280.38
329.515	234.38
329.744	355.38
329.972	738.38
330.201	1589.38
330.43	2390.38
330.658	1026.38
330.887	440.38
331.115	284.38
331.344	143.38
331.572	143.38
331.801	161.38
332.03	158.38
332.258	130.38
332.486	128.38
332.715	123.38
332.943	148.38
333.172	151.38
333.4	166.38
333.629	218.38
333.857	337.38
334.085	643.38
334.314	1443.38
334.542	2932.38
334.771	2723.38
334.999	676.38
335.227	237.38
335.455	152.38
335.684	150.38
335.912	118.38
336.14	118.38
336.369	116.38
336.597	119.38
336.825	129.38
337.053	101.38
337.281	96.38
337.51	114.38
337.738	116.38
337.966	122.38
338.194	124.38
338.422	126.38
338.65	110.38
338.878	106.38
339.106	105.38
339.334	103.38
339.562	105.38
339.79	111.38
340.018	99.38
340.246	107.38
340.474	111.38
340.702	109.38
340.93	105.38
341.158	111.38
341.386	114.38
341.614	113.38
341.842	114.38
342.07	95.38
342.298	101.38
342.526	98.38
342.754	99.38
342.981	90.38
343.209	93.38
343.437	109.38
343.665	96.38
343.893	91.38
344.12	84.38
344.348	103.38
344.576	99.38
344.804	100.38
345.031	115.38
345.259	121.38
345.487	120.38
345.714	113.38
345.942	108.38
346.17	99.38
346.397	115.38
346.625	110.38
346.853	101.38
347.08	106.38
347.308	100.38
347.535	115.38
347.763	128.38
347.99	120.38
348.218	122.38
348.445	135.38
348.673	118.38
348.9	114.38
349.128	85.38
349.355	89.38
349.583	92.38
349.81	83.38
350.037	112.38
350.265	98.38
350.492	103.38
350.72	101.38
350.947	111.38
351.174	139.38
351.402	156.38
351.629	130.38
351.856	130.38
352.083	139.38
352.311	127.38
352.538	159.38
352.765	136.38
352.992	143.38
353.22	135.38
353.447	117.38
353.674	108.38
353.901	86.38
354.128	92.38
354.355	100.38
354.583	110.38
354.81	107.38
355.037	97.38
355.264	86.38
355.491	89.38
355.718	95.38
355.945	102.38
356.172	110.38
356.399	99.38
356.626	103.38
356.853	91.38
357.08	93.38
357.307	106.38
357.534	82.38
357.761	106.38
357.988	68.38
358.215	87.38
358.441	91.38
358.668	91.38
358.895	100.38
359.122	103.38
359.349	99.38
359.576	108.38
359.802	136.38
360.029	175.38
360.256	201.38
360.483	160.38
360.709	94.38
360.936	111.38
361.163	116.38
361.39	123.38
361.616	113.38
361.843	98.38
362.07	108.38
362.296	131.38
362.523	102.38
362.749	100.38
362.976	112.38
363.203	106.38
363.429	91.38
363.656	108.38
363.882	97.38
364.109	91.38
364.335	91.38
364.562	101.38
364.788	91.38
365.015	119.38
365.241	118.38
365.468	147.38
365.694	138.38
365.92	121.38
366.147	98.38
366.373	109.38
366.599	89.38
366.826	107.38
367.052	93.38
367.278	93.38
367.505	105.38
367.731	112.38
367.957	105.38
368.184	105.38
368.41	119.38
368.636	154.38
368.862	156.38
369.089	136.38
369.315	108.38
369.541	108.38
369.767	103.38
369.993	99.38
370.219	98.38
370.445	78.38
370.672	103.38
370.898	93.38
371.124	91.38
371.35	103.38
371.576	96.38
371.802	78.38
372.028	81.38
372.254	84.38
372.48	95.38
372.706	83.38
372.932	90.38
373.158	108.38
373.384	91.38
373.61	108.38
373.835	90.38
374.061	102.38
374.287	100.38
374.513	106.38
374.739	90.38
374.965	80.38
375.191	89.38
375.416	88.38
375.642	91.38
375.868	85.38
376.094	74.38
376.319	78.38
376.545	87.38
376.771	101.38
376.997	100.38
377.222	96.38
377.448	94.38
377.674	88.38
377.899	87.38
378.125	97.38
378.35	100.38
378.576	91.38
378.802	86.38
379.027	98.38
379.253	107.38
379.478	87.38
379.704	99.38
379.929	87.38
380.155	110.38
380.38	93.38
380.606	102.38
380.831	94.38
381.057	94.38
381.282	110.38
381.507	92.38
381.733	103.38
381.958	86.38
382.184	115.38
382.409	99.38
382.634	107.38
382.86	96.38
383.085	112.38
383.31	103.38
383.535	101.38
383.761	110.38
383.986	107.38
384.211	99.38
384.436	113.38
384.662	101.38
384.887	110.38
385.112	99.38
385.337	110.38
385.562	118.38
385.787	116.38
386.013	121.38
386.238	128.38
386.463	119.38
386.688	107.38
386.913	98.38
387.138	107.38
387.363	106.38
387.588	89.38
387.813	111.38
388.038	87.38
388.263	108.38
388.488	109.38
388.713	103.38
388.938	102.38
389.163	94.38
389.387	94.38
389.612	94.38
389.837	94.38
390.062	93.38
390.287	108.38
390.512	82.38
390.736	96.38
390.961	83.38
391.186	78.38
391.411	86.38
391.636	90.38
391.86	84.38
392.085	101.38
392.31	72.38
392.534	94.38
392.759	77.38
392.984	80.38
393.208	105.38
393.433	102.38
393.658	95.38
393.882	96.38
394.107	88.38
394.331	90.38
394.556	84.38
394.78	94.38
395.005	96.38
395.229	95.38
395.454	86.38
395.678	88.38
395.903	97.38
396.127	84.38
396.352	79.38
396.576	84.38
396.801	75.38
397.025	78.38
397.249	92.38
397.474	88.38
397.698	80.38
397.922	99.38
398.147	97.38
398.371	76.38
398.595	88.38
398.82	90.38
399.044	103.38
399.268	94.38
399.492	84.38
399.717	80.38
399.941	97.38
400.165	106.38
400.389	113.38
400.613	90.38
400.837	86.38
401.062	105.38
401.286	94.38
401.51	104.38
401.734	106.38
401.958	123.38
402.182	186.38
402.406	267.38
402.63	208.38
402.854	107.38
403.078	99.38
403.302	96.38
403.526	97.38
403.75	81.38
403.974	99.38
404.198	94.38
404.422	88.38
404.645	92.38
404.869	107.38
405.093	130.38
405.317	165.38
405.541	163.38
405.765	142.38
405.988	175.38
406.212	308.38
406.436	465.38
406.66	291.38
406.883	151.38
407.107	130.38
407.331	114.38
407.555	126.38
407.778	112.38
408.002	92.38
408.226	114.38
408.449	106.38
408.673	92.38
408.896	112.38
409.12	94.38
409.344	92.38
409.567	97.38
409.791	92.38
410.014	87.38
410.238	102.38
410.461	95.38
410.685	100.38
410.908	89.38
411.132	118.38
411.355	98.38
411.578	95.38
411.802	106.38
412.025	98.38
412.249	105.38
412.472	141.38
412.695	140.38
412.919	113.38
413.142	95.38
413.365	104.38
413.589	85.38
413.812	97.38
414.035	86.38
414.258	96.38
414.482	87.38
414.705	94.38
414.928	99.38
415.151	88.38
415.374	102.38
415.597	86.38
415.821	93.38
416.044	98.38
416.267	94.38
416.49	97.38
416.713	80.38
416.936	103.38
417.159	103.38
417.382	103.38
417.605	135.38
417.828	127.38
418.051	99.38
418.274	99.38
418.497	85.38
418.72	88.38
418.943	99.38
419.166	83.38
419.389	83.38
419.611	92.38
419.834	99.38
420.057	93.38
420.28	100.38
420.503	98.38
420.726	95.38
420.948	96.38
421.171	115.38
421.394	113.38
421.617	92.38
421.839	92.38
422.062	82.38
422.285	81.38
422.507	95.38
422.73	116.38
422.953	101.38
423.175	86.38
423.398	98.38
423.621	102.38
423.843	96.38
424.066	74.38
424.288	104.38
424.511	93.38
424.733	118.38
424.956	120.38
425.178	127.38
425.401	109.38
425.623	127.38
425.846	111.38
426.068	109.38
426.291	107.38
426.513	105.38
426.735	96.38
426.958	105.38
427.18	131.38
427.402	231.38
427.625	360.38
427.847	318.38
428.069	265.38
428.292	142.38
428.514	113.38
428.736	87.38
428.958	88.38
429.181	80.38
429.403	87.38
429.625	102.38
429.847	105.38
430.069	129.38
430.292	95.38
430.514	92.38
430.736	76.38
430.958	82.38
431.18	87.38
431.402	90.38
431.624	82.38
431.846	72.38
432.068	79.38
432.29	96.38
432.512	81.38
432.734	96.38
432.956	87.38
433.178	98.38
433.4	108.38
433.622	99.38
433.844	98.38
434.066	87.38
434.287	99.38
434.509	103.38
434.731	94.38
434.953	105.38
435.175	97.38
435.397	98.38
435.618	109.38
435.84	107.38
436.062	140.38
436.284	138.38
436.505	113.38
436.727	116.38
436.949	79.38
437.17	84.38
437.392	101.38
437.614	100.38
437.835	158.38
438.057	195.38
438.278	153.38
438.5	119.38
438.721	151.38
438.943	114.38
439.165	112.38
439.386	106.38
439.608	99.38
439.829	130.38
440.05	178.38
440.272	241.38
440.493	123.38
440.715	107.38
440.936	92.38
441.158	93.38
441.379	104.38
441.6	114.38
441.822	131.38
442.043	112.38
442.264	114.38
442.486	115.38
442.707	108.38
442.928	154.38
443.149	232.38
443.371	225.38
443.592	165.38
443.813	152.38
444.034	135.38
444.255	101.38
444.476	94.38
444.698	108.38
444.919	96.38
445.14	139.38
445.361	135.38
445.582	173.38
445.803	232.38
446.024	228.38
446.245	200.38
446.466	134.38
446.687	100.38
446.908	96.38
447.129	94.38
447.35	105.38
447.571	122.38
447.792	110.38
448.013	127.38
448.234	153.38
448.455	127.38
448.675	146.38
448.896	146.38
449.117	111.38
449.338	115.38
449.559	166.38
449.779	189.38
450	120.38
450.221	86.38
450.442	101.38
450.662	123.38
450.883	162.38
451.104	182.38
451.324	120.38
451.545	99.38
451.766	95.38
451.986	91.38
452.207	97.38
452.428	114.38
452.648	111.38
452.869	157.38
453.089	177.38
453.31	178.38
453.53	125.38
453.751	108.38
453.971	131.38
454.192	204.38
454.412	125.38
454.633	97.38
454.853	87.38
455.073	78.38
455.294	97.38
455.514	129.38
455.734	101.38
455.955	80.38
456.175	81.38
456.395	95.38
456.616	92.38
456.836	93.38
457.056	95.38
457.276	94.38
457.497	102.38
457.717	98.38
457.937	90.38
458.157	93.38
458.377	112.38
458.598	157.38
458.818	319.38
459.038	333.38
459.258	195.38
459.478	106.38
459.698	89.38
459.918	78.38
460.138	100.38
460.358	81.38
460.578	102.38
460.798	107.38
461.018	106.38
461.238	110.38
461.458	91.38
461.678	84.38
461.898	84.38
462.118	103.38
462.338	95.38
462.558	92.38
462.777	106.38
462.997	116.38
463.217	134.38
463.437	104.38
463.657	97.38
463.876	90.38
464.096	98.38
464.316	111.38
464.536	113.38
464.755	136.38
464.975	183.38
465.195	383.38
465.414	358.38
465.634	131.38
465.854	96.38
466.073	100.38
466.293	94.38
466.512	96.38
466.732	109.38
466.951	96.38
467.171	124.38
467.391	144.38
467.61	197.38
467.829	307.38
468.049	900.38
468.268	1409.38
468.488	307.38
468.707	131.38
468.927	100.38
469.146	119.38
469.365	91.38
469.585	114.38
469.804	125.38
470.023	137.38
470.243	114.38
470.462	137.38
470.681	206.38
470.901	127.38
471.12	126.38
471.339	119.38
471.558	144.38
471.777	218.38
471.997	438.38
472.216	1764.38
472.435	4233.38
472.654	915.38
472.873	199.38
473.092	124.38
473.311	107.38
473.53	115.38
473.749	86.38
473.968	129.38
474.187	144.38
474.406	114.38
474.625	88.38
474.844	88.38
475.063	92.38
475.282	98.38
475.501	92.38
475.72	95.38
475.939	107.38
476.158	89.38
476.377	102.38
476.596	111.38
476.814	116.38
477.033	114.38
477.252	96.38
477.471	98.38
477.69	99.38
477.908	100.38
478.127	107.38
478.346	86.38
478.564	91.38
478.783	126.38
479.002	115.38
479.22	119.38
479.439	157.38
479.658	178.38
479.876	157.38
480.095	155.38
480.313	175.38
480.532	221.38
480.751	425.38
480.969	1510.38
481.188	6986.38
481.406	3934.38
481.624	528.38
481.843	176.38
482.061	118.38
482.28	106.38
482.498	95.38
482.717	107.38
482.935	102.38
483.153	95.38
483.372	89.38
483.59	97.38
483.808	95.38
484.027	89.38
484.245	102.38
484.463	99.38
484.681	102.38
484.9	100.38
485.118	86.38
485.336	92.38
485.554	104.38
485.772	98.38
485.99	119.38
486.209	121.38
486.427	109.38
486.645	144.38
486.863	167.38
487.081	114.38
487.299	99.38
487.517	97.38
487.735	99.38
487.953	113.38
488.171	103.38
488.389	96.38
488.607	111.38
488.825	105.38
489.043	92.38
489.261	103.38
489.479	90.38
489.696	107.38
489.914	88.38
490.132	83.38
490.35	96.38
490.568	98.38
490.786	93.38
491.003	80.38
491.221	93.38
491.439	103.38
491.657	87.38
491.874	106.38
492.092	107.38
492.31	97.38
492.527	97.38
492.745	103.38
492.963	86.38
493.18	106.38
493.398	98.38
493.615	100.38
493.833	95.38
494.05	95.38
494.268	104.38
494.485	91.38
494.703	93.38
494.92	91.38
495.138	98.38
495.355	92.38
495.573	100.38
495.79	102.38
496.008	99.38
496.225	106.38
496.442	96.38
496.66	99.38
496.877	90.38
497.094	98.38
497.312	99.38
497.529	88.38
497.746	90.38
497.963	96.38
498.181	101.38
498.398	109.38
498.615	134.38
498.832	124.38
499.049	106.38
499.267	90.38
499.484	84.38
499.701	105.38
499.918	84.38
500.135	91.38
500.352	92.38
500.569	88.38
500.786	89.38
501.003	112.38
501.22	100.38
501.437	100.38
501.654	107.38
501.871	154.38
502.088	110.38
502.305	91.38
502.522	99.38
502.739	100.38
502.956	94.38
503.172	100.38
503.389	122.38
503.606	150.38
503.823	125.38
504.04	103.38
504.256	85.38
504.473	99.38
504.69	94.38
504.907	103.38
505.123	94.38
505.34	91.38
505.557	100.38
505.773	71.38
505.99	90.38
506.207	95.38
506.423	96.38
506.64	91.38
506.856	94.38
507.073	74.38
507.289	113.38
507.506	121.38
507.722	181.38
507.939	157.38
508.155	108.38
508.372	96.38
508.588	92.38
508.805	97.38
509.021	118.38
509.238	108.38
509.454	108.38
509.67	126.38
509.887	116.38
510.103	167.38
510.319	292.38
510.536	1272.38
