Data from Circ_1995_H10_HRD10591_00053.txt Node
Date: Wed Jan 03 11:36:57 EST 2024
User: Yrep
Spectrometer: HR+D1059
Trigger mode: 1
Integration Time (sec): 1.000000E-1
Scans to average: 1
Electric dark correction enabled: true
Nonlinearity correction enabled: false
Boxcar width: 0
XAxis mode: Wavelengths
Number of Pixels in Spectrum: 2048
>>>>>Begin Spectral Data<<<<<
223.165	-21.5
223.4	-21.5
223.635	-21.5
223.869	-21.5
224.104	-19.5
224.338	-11.5
224.573	-12.5
224.808	-9.5
225.042	2.5
225.277	-9.5
225.511	-3.5
225.746	20.5
225.98	6.5
226.215	14.5
226.449	11.5
226.683	11.5
226.918	19.5
227.152	22.5
227.387	16.5
227.621	28.5
227.856	47.5
228.09	55.5
228.324	50.5
228.559	50.5
228.793	40.5
229.027	59.5
229.262	70.5
229.496	90.5
229.73	94.5
229.964	98.5
230.199	71.5
230.433	78.5
230.667	72.5
230.901	70.5
231.136	73.5
231.37	76.5
231.604	80.5
231.838	78.5
232.072	71.5
232.306	76.5
232.541	76.5
232.775	85.5
233.009	90.5
233.243	59.5
233.477	82.5
233.711	66.5
233.945	84.5
234.179	78.5
234.413	78.5
234.647	79.5
234.881	95.5
235.115	66.5
235.349	74.5
235.583	78.5
235.817	85.5
236.051	77.5
236.285	63.5
236.519	76.5
236.753	75.5
236.987	70.5
237.221	91.5
237.455	93.5
237.689	69.5
237.922	77.5
238.156	72.5
238.39	71.5
238.624	73.5
238.858	70.5
239.091	66.5
239.325	70.5
239.559	72.5
239.793	93.5
240.027	83.5
240.26	70.5
240.494	84.5
240.728	74.5
240.961	62.5
241.195	84.5
241.429	66.5
241.662	79.5
241.896	78.5
242.13	74.5
242.363	68.5
242.597	74.5
242.83	82.5
243.064	79.5
243.298	81.5
243.531	78.5
243.765	66.5
243.998	70.5
244.232	84.5
244.465	80.5
244.699	71.5
244.932	85.5
245.166	72.5
245.399	64.5
245.633	79.5
245.866	74.5
246.099	71.5
246.333	68.5
246.566	75.5
246.8	83.5
247.033	76.5
247.266	68.5
247.5	71.5
247.733	80.5
247.966	76.5
248.2	80.5
248.433	74.5
248.666	84.5
248.899	76.5
249.133	80.5
249.366	120.5
249.599	104.5
249.832	86.5
250.066	97.5
250.299	87.5
250.532	82.5
250.765	64.5
250.998	76.5
251.231	85.5
251.465	80.5
251.698	90.5
251.931	86.5
252.164	62.5
252.397	77.5
252.63	61.5
252.863	77.5
253.096	66.5
253.329	99.5
253.562	85.5
253.795	76.5
254.028	74.5
254.261	61.5
254.494	68.5
254.727	84.5
254.96	80.5
255.193	86.5
255.426	79.5
255.659	80.5
255.892	83.5
256.124	93.5
256.357	85.5
256.59	85.5
256.823	86.5
257.056	93.5
257.289	88.5
257.521	92.5
257.754	83.5
257.987	93.5
258.22	93.5
258.452	103.5
258.685	102.5
258.918	67.5
259.151	70.5
259.383	83.5
259.616	68.5
259.849	82.5
260.081	94.5
260.314	80.5
260.547	91.5
260.779	95.5
261.012	116.5
261.244	107.5
261.477	95.5
261.71	91.5
261.942	144.5
262.175	158.5
262.407	89.5
262.64	85.5
262.872	83.5
263.105	69.5
263.337	88.5
263.57	86.5
263.802	79.5
264.035	78.5
264.267	69.5
264.499	80.5
264.732	68.5
264.964	82.5
265.197	78.5
265.429	82.5
265.661	98.5
265.894	74.5
266.126	75.5
266.358	97.5
266.591	80.5
266.823	79.5
267.055	77.5
267.287	74.5
267.52	82.5
267.752	98.5
267.984	81.5
268.216	87.5
268.448	92.5
268.681	91.5
268.913	84.5
269.145	78.5
269.377	80.5
269.609	70.5
269.841	64.5
270.073	91.5
270.306	86.5
270.538	85.5
270.77	66.5
271.002	79.5
271.234	89.5
271.466	107.5
271.698	85.5
271.93	78.5
272.162	87.5
272.394	82.5
272.626	86.5
272.858	82.5
273.09	89.5
273.322	90.5
273.553	69.5
273.785	76.5
274.017	83.5
274.249	70.5
274.481	80.5
274.713	84.5
274.945	100.5
275.176	92.5
275.408	105.5
275.64	109.5
275.872	123.5
276.104	92.5
276.335	110.5
276.567	122.5
276.799	160.5
277.031	208.5
277.262	211.5
277.494	145.5
277.726	89.5
277.957	100.5
278.189	91.5
278.421	89.5
278.652	78.5
278.884	98.5
279.115	100.5
279.347	78.5
279.579	118.5
279.81	128.5
280.042	222.5
280.273	303.5
280.505	204.5
280.736	119.5
280.968	88.5
281.199	81.5
281.431	88.5
281.662	85.5
281.894	93.5
282.125	110.5
282.356	130.5
282.588	162.5
282.819	142.5
283.051	104.5
283.282	77.5
283.513	81.5
283.745	88.5
283.976	80.5
284.207	73.5
284.439	77.5
284.67	78.5
284.901	74.5
285.132	82.5
285.364	72.5
285.595	94.5
285.826	88.5
286.057	92.5
286.288	85.5
286.52	94.5
286.751	92.5
286.982	79.5
287.213	86.5
287.444	92.5
287.675	85.5
287.906	95.5
288.138	87.5
288.369	80.5
288.6	104.5
288.831	92.5
289.062	90.5
289.293	79.5
289.524	89.5
289.755	67.5
289.986	71.5
290.217	88.5
290.448	86.5
290.679	91.5
290.91	98.5
291.141	105.5
291.371	84.5
291.602	91.5
291.833	79.5
292.064	83.5
292.295	86.5
292.526	97.5
292.757	91.5
292.987	92.5
293.218	91.5
293.449	75.5
293.68	84.5
293.91	81.5
294.141	74.5
294.372	98.5
294.603	78.5
294.833	77.5
295.064	70.5
295.295	89.5
295.525	106.5
295.756	107.5
295.987	134.5
296.217	170.5
296.448	150.5
296.679	85.5
296.909	85.5
297.14	97.5
297.37	82.5
297.601	78.5
297.831	83.5
298.062	94.5
298.292	85.5
298.523	87.5
298.753	78.5
298.984	87.5
299.214	93.5
299.445	83.5
299.675	94.5
299.905	95.5
300.136	92.5
300.366	89.5
300.597	94.5
300.827	100.5
301.057	101.5
301.288	103.5
301.518	114.5
301.748	92.5
301.979	110.5
302.209	94.5
302.439	90.5
302.669	86.5
302.9	93.5
303.13	86.5
303.36	125.5
303.59	126.5
303.82	158.5
304.051	101.5
304.281	84.5
304.511	87.5
304.741	87.5
304.971	93.5
305.201	91.5
305.431	95.5
305.661	90.5
305.891	96.5
306.121	94.5
306.352	110.5
306.582	134.5
306.812	113.5
307.042	125.5
307.272	172.5
307.502	227.5
307.731	180.5
307.961	122.5
308.191	102.5
308.421	89.5
308.651	94.5
308.881	95.5
309.111	106.5
309.341	93.5
309.571	89.5
309.8	93.5
310.03	102.5
310.26	87.5
310.49	94.5
310.72	116.5
310.949	127.5
311.179	119.5
311.409	96.5
311.639	85.5
311.868	92.5
312.098	93.5
312.328	96.5
312.557	119.5
312.787	112.5
313.017	121.5
313.246	84.5
313.476	90.5
313.706	84.5
313.935	110.5
314.165	106.5
314.394	113.5
314.624	110.5
314.853	103.5
315.083	103.5
315.312	83.5
315.542	105.5
315.771	104.5
316.001	88.5
316.23	83.5
316.46	92.5
316.689	90.5
316.919	81.5
317.148	92.5
317.377	94.5
317.607	103.5
317.836	94.5
318.065	82.5
318.295	87.5
318.524	89.5
318.753	83.5
318.983	85.5
319.212	105.5
319.441	126.5
319.67	111.5
319.9	92.5
320.129	94.5
320.358	90.5
320.587	92.5
320.816	107.5
321.046	103.5
321.275	101.5
321.504	97.5
321.733	88.5
321.962	108.5
322.191	116.5
322.42	122.5
322.649	102.5
322.878	116.5
323.108	142.5
323.337	136.5
323.566	154.5
323.795	188.5
324.024	256.5
324.253	519.5
324.482	1140.5
324.71	2325.5
324.939	3140.5
325.168	1118.5
325.397	313.5
325.626	180.5
325.855	154.5
326.084	131.5
326.313	150.5
326.542	166.5
326.77	282.5
326.999	534.5
327.228	1170.5
327.457	2203.5
327.686	1790.5
327.914	603.5
328.143	627.5
328.372	813.5
328.6	455.5
328.829	212.5
329.058	190.5
329.287	214.5
329.515	186.5
329.744	286.5
329.972	597.5
330.201	1250.5
330.43	1832.5
330.658	788.5
330.887	326.5
331.115	201.5
331.344	124.5
331.572	119.5
331.801	122.5
332.03	124.5
332.258	115.5
332.486	108.5
332.715	118.5
332.943	105.5
333.172	148.5
333.4	142.5
333.629	163.5
333.857	272.5
334.085	523.5
334.314	1118.5
334.542	2212.5
334.771	2062.5
334.999	514.5
335.227	196.5
335.455	123.5
335.684	102.5
335.912	109.5
336.14	116.5
336.369	122.5
336.597	110.5
336.825	104.5
337.053	103.5
337.281	88.5
337.51	111.5
337.738	98.5
337.966	87.5
338.194	114.5
338.422	100.5
338.65	92.5
338.878	84.5
339.106	99.5
339.334	99.5
339.562	100.5
339.79	83.5
340.018	93.5
340.246	94.5
340.474	102.5
340.702	100.5
340.93	97.5
341.158	82.5
341.386	89.5
341.614	107.5
341.842	82.5
342.07	95.5
342.298	88.5
342.526	75.5
342.754	76.5
342.981	90.5
343.209	92.5
343.437	102.5
343.665	85.5
343.893	94.5
344.12	86.5
344.348	77.5
344.576	94.5
344.804	86.5
345.031	113.5
345.259	120.5
345.487	94.5
345.714	98.5
345.942	82.5
346.17	75.5
346.397	82.5
346.625	103.5
346.853	101.5
347.08	101.5
347.308	106.5
347.535	108.5
347.763	104.5
347.99	102.5
348.218	110.5
348.445	123.5
348.673	106.5
348.9	111.5
349.128	99.5
349.355	95.5
349.583	91.5
349.81	86.5
350.037	95.5
350.265	91.5
350.492	106.5
350.72	99.5
350.947	99.5
351.174	118.5
351.402	123.5
351.629	115.5
351.856	109.5
352.083	104.5
352.311	120.5
352.538	137.5
352.765	119.5
352.992	122.5
353.22	131.5
353.447	97.5
353.674	98.5
353.901	96.5
354.128	92.5
354.355	93.5
354.583	96.5
354.81	87.5
355.037	100.5
355.264	83.5
355.491	74.5
355.718	86.5
355.945	95.5
356.172	74.5
356.399	99.5
356.626	86.5
356.853	82.5
357.08	88.5
357.307	87.5
357.534	81.5
357.761	79.5
357.988	85.5
358.215	80.5
358.441	89.5
358.668	98.5
358.895	92.5
359.122	89.5
359.349	99.5
359.576	90.5
359.802	124.5
360.029	158.5
360.256	144.5
360.483	128.5
360.709	91.5
360.936	100.5
361.163	87.5
361.39	97.5
361.616	95.5
361.843	102.5
362.07	115.5
362.296	91.5
362.523	105.5
362.749	94.5
362.976	89.5
363.203	99.5
363.429	95.5
363.656	86.5
363.882	88.5
364.109	90.5
364.335	80.5
364.562	88.5
364.788	88.5
365.015	91.5
365.241	99.5
365.468	118.5
365.694	106.5
365.92	107.5
366.147	96.5
366.373	85.5
366.599	110.5
366.826	77.5
367.052	86.5
367.278	107.5
367.505	105.5
367.731	91.5
367.957	99.5
368.184	99.5
368.41	95.5
368.636	122.5
368.862	130.5
369.089	126.5
369.315	105.5
369.541	85.5
369.767	93.5
369.993	87.5
370.219	87.5
370.445	88.5
370.672	89.5
370.898	94.5
371.124	86.5
371.35	73.5
371.576	100.5
371.802	93.5
372.028	75.5
372.254	77.5
372.48	93.5
372.706	101.5
372.932	88.5
373.158	78.5
373.384	95.5
373.61	88.5
373.835	81.5
374.061	86.5
374.287	95.5
374.513	100.5
374.739	91.5
374.965	79.5
375.191	92.5
375.416	87.5
375.642	92.5
375.868	94.5
376.094	76.5
376.319	82.5
376.545	92.5
376.771	84.5
376.997	85.5
377.222	89.5
377.448	91.5
377.674	80.5
377.899	79.5
378.125	100.5
378.35	75.5
378.576	85.5
378.802	98.5
379.027	84.5
379.253	82.5
379.478	86.5
379.704	87.5
379.929	87.5
380.155	93.5
380.38	96.5
380.606	84.5
380.831	86.5
381.057	102.5
381.282	95.5
381.507	88.5
381.733	86.5
381.958	102.5
382.184	92.5
382.409	88.5
382.634	114.5
382.86	103.5
383.085	98.5
383.31	99.5
383.535	96.5
383.761	99.5
383.986	92.5
384.211	93.5
384.436	91.5
384.662	101.5
384.887	89.5
385.112	93.5
385.337	99.5
385.562	106.5
385.787	115.5
386.013	109.5
386.238	118.5
386.463	102.5
386.688	113.5
386.913	87.5
387.138	101.5
387.363	95.5
387.588	84.5
387.813	96.5
388.038	104.5
388.263	105.5
388.488	108.5
388.713	100.5
388.938	96.5
389.163	92.5
389.387	77.5
389.612	94.5
389.837	88.5
390.062	87.5
390.287	76.5
390.512	89.5
390.736	71.5
390.961	90.5
391.186	82.5
391.411	89.5
391.636	90.5
391.86	80.5
392.085	85.5
392.31	92.5
392.534	102.5
392.759	96.5
392.984	79.5
393.208	92.5
393.433	86.5
393.658	83.5
393.882	78.5
394.107	91.5
394.331	79.5
394.556	93.5
394.78	79.5
395.005	92.5
395.229	80.5
395.454	79.5
395.678	75.5
395.903	84.5
396.127	88.5
396.352	90.5
396.576	62.5
396.801	85.5
397.025	79.5
397.249	83.5
397.474	96.5
397.698	86.5
397.922	97.5
398.147	91.5
398.371	89.5
398.595	82.5
398.82	102.5
399.044	84.5
399.268	80.5
399.492	92.5
399.717	85.5
399.941	86.5
400.165	87.5
400.389	92.5
400.613	84.5
400.837	94.5
401.062	83.5
401.286	91.5
401.51	89.5
401.734	102.5
401.958	93.5
402.182	145.5
402.406	229.5
402.63	170.5
402.854	105.5
403.078	95.5
403.302	88.5
403.526	84.5
403.75	83.5
403.974	73.5
404.198	83.5
404.422	90.5
404.645	96.5
404.869	91.5
405.093	117.5
405.317	150.5
405.541	144.5
405.765	104.5
405.988	130.5
406.212	227.5
406.436	356.5
406.66	242.5
406.883	112.5
407.107	107.5
407.331	94.5
407.555	112.5
407.778	120.5
408.002	79.5
408.226	88.5
408.449	100.5
408.673	97.5
408.896	110.5
409.12	115.5
409.344	95.5
409.567	90.5
409.791	76.5
410.014	91.5
410.238	99.5
410.461	95.5
410.685	95.5
410.908	96.5
411.132	102.5
411.355	107.5
411.578	93.5
411.802	91.5
412.025	86.5
412.249	100.5
412.472	116.5
412.695	135.5
412.919	103.5
413.142	95.5
413.365	86.5
413.589	96.5
413.812	76.5
414.035	94.5
414.258	81.5
414.482	90.5
414.705	77.5
414.928	89.5
415.151	88.5
415.374	78.5
415.597	68.5
415.821	79.5
416.044	74.5
416.267	94.5
416.49	78.5
416.713	82.5
416.936	87.5
417.159	76.5
417.382	98.5
417.605	102.5
417.828	102.5
418.051	98.5
418.274	95.5
418.497	87.5
418.72	102.5
418.943	90.5
419.166	100.5
419.389	83.5
419.611	91.5
419.834	84.5
420.057	86.5
420.28	85.5
420.503	79.5
420.726	84.5
420.948	106.5
421.171	93.5
421.394	94.5
421.617	94.5
421.839	93.5
422.062	100.5
422.285	105.5
422.507	83.5
422.73	94.5
422.953	87.5
423.175	86.5
423.398	88.5
423.621	84.5
423.843	97.5
424.066	84.5
424.288	71.5
424.511	95.5
424.733	119.5
424.956	120.5
425.178	112.5
425.401	105.5
425.623	92.5
425.846	82.5
426.068	108.5
426.291	109.5
426.513	104.5
426.735	96.5
426.958	101.5
427.18	123.5
427.402	177.5
427.625	271.5
427.847	248.5
428.069	232.5
428.292	133.5
428.514	91.5
428.736	86.5
428.958	107.5
429.181	96.5
429.403	86.5
429.625	95.5
429.847	94.5
430.069	102.5
430.292	98.5
430.514	85.5
430.736	68.5
430.958	93.5
431.18	77.5
431.402	82.5
431.624	86.5
431.846	73.5
432.068	73.5
432.29	74.5
432.512	94.5
432.734	73.5
432.956	98.5
433.178	93.5
433.4	104.5
433.622	90.5
433.844	91.5
434.066	88.5
434.287	91.5
434.509	88.5
434.731	85.5
434.953	88.5
435.175	98.5
435.397	100.5
435.618	87.5
435.84	102.5
436.062	147.5
436.284	134.5
436.505	120.5
436.727	100.5
436.949	100.5
437.17	90.5
437.392	88.5
437.614	95.5
437.835	129.5
438.057	160.5
438.278	115.5
438.5	114.5
438.721	133.5
438.943	113.5
439.165	105.5
439.386	80.5
439.608	88.5
439.829	104.5
440.05	154.5
440.272	182.5
440.493	132.5
440.715	86.5
440.936	87.5
441.158	100.5
441.379	80.5
441.6	83.5
441.822	105.5
442.043	111.5
442.264	115.5
442.486	117.5
442.707	106.5
442.928	112.5
443.149	180.5
443.371	167.5
443.592	133.5
443.813	116.5
444.034	122.5
444.255	93.5
444.476	82.5
444.698	94.5
444.919	94.5
445.14	117.5
445.361	112.5
445.582	142.5
445.803	194.5
446.024	157.5
446.245	161.5
446.466	131.5
446.687	85.5
446.908	84.5
447.129	93.5
447.35	93.5
447.571	95.5
447.792	109.5
448.013	112.5
448.234	130.5
448.455	100.5
448.675	132.5
448.896	130.5
449.117	108.5
449.338	111.5
449.559	154.5
449.779	165.5
450	102.5
450.221	91.5
450.442	94.5
450.662	100.5
450.883	125.5
451.104	155.5
451.324	108.5
451.545	100.5
451.766	76.5
451.986	68.5
452.207	88.5
452.428	93.5
452.648	106.5
452.869	133.5
453.089	146.5
453.31	153.5
453.53	103.5
453.751	106.5
453.971	128.5
454.192	132.5
454.412	97.5
454.633	94.5
454.853	86.5
455.073	74.5
455.294	100.5
455.514	107.5
455.734	91.5
455.955	82.5
456.175	91.5
456.395	78.5
456.616	70.5
456.836	75.5
457.056	79.5
457.276	82.5
457.497	83.5
457.717	89.5
457.937	92.5
458.157	93.5
458.377	93.5
458.598	130.5
458.818	231.5
459.038	261.5
459.258	147.5
459.478	95.5
459.698	85.5
459.918	76.5
460.138	71.5
460.358	80.5
460.578	85.5
460.798	94.5
461.018	87.5
461.238	83.5
461.458	79.5
461.678	83.5
461.898	70.5
462.118	87.5
462.338	86.5
462.558	86.5
462.777	88.5
462.997	98.5
463.217	110.5
463.437	98.5
463.657	79.5
463.876	100.5
464.096	81.5
464.316	94.5
464.536	98.5
464.755	108.5
464.975	142.5
465.195	249.5
465.414	243.5
465.634	97.5
465.854	83.5
466.073	81.5
466.293	94.5
466.512	113.5
466.732	99.5
466.951	85.5
467.171	96.5
467.391	102.5
467.61	158.5
467.829	232.5
468.049	707.5
468.268	1083.5
468.488	271.5
468.707	118.5
468.927	96.5
469.146	88.5
469.365	91.5
469.585	83.5
469.804	105.5
470.023	116.5
470.243	97.5
470.462	135.5
470.681	134.5
470.901	109.5
471.12	106.5
471.339	107.5
471.558	120.5
471.777	177.5
471.997	343.5
472.216	1411.5
472.435	3287.5
472.654	713.5
472.873	166.5
473.092	112.5
473.311	96.5
473.53	79.5
473.749	87.5
473.968	106.5
474.187	131.5
474.406	117.5
474.625	82.5
474.844	88.5
475.063	80.5
475.282	90.5
475.501	91.5
475.72	91.5
475.939	80.5
476.158	87.5
476.377	80.5
476.596	96.5
476.814	103.5
477.033	93.5
477.252	91.5
477.471	86.5
477.69	83.5
477.908	82.5
478.127	76.5
478.346	86.5
478.564	97.5
478.783	102.5
479.002	112.5
479.22	112.5
479.439	136.5
479.658	146.5
479.876	127.5
480.095	125.5
480.313	139.5
480.532	174.5
480.751	326.5
480.969	1246.5
481.188	5530.5
481.406	3076.5
481.624	408.5
481.843	158.5
482.061	121.5
482.28	98.5
482.498	85.5
482.717	107.5
482.935	101.5
483.153	92.5
483.372	84.5
483.59	76.5
483.808	79.5
484.027	88.5
484.245	87.5
484.463	92.5
484.681	92.5
484.9	92.5
485.118	106.5
485.336	106.5
485.554	100.5
485.772	103.5
485.99	114.5
486.209	106.5
486.427	103.5
486.645	107.5
486.863	113.5
487.081	117.5
487.299	112.5
487.517	90.5
487.735	94.5
487.953	109.5
488.171	91.5
488.389	95.5
488.607	108.5
488.825	95.5
489.043	87.5
489.261	96.5
489.479	90.5
489.696	95.5
489.914	92.5
490.132	71.5
490.35	80.5
490.568	85.5
490.786	92.5
491.003	90.5
491.221	92.5
491.439	107.5
491.657	97.5
491.874	82.5
492.092	76.5
492.31	80.5
492.527	94.5
492.745	101.5
492.963	83.5
493.18	89.5
493.398	90.5
493.615	82.5
493.833	86.5
494.05	101.5
494.268	95.5
494.485	102.5
494.703	84.5
494.92	72.5
495.138	73.5
495.355	86.5
495.573	91.5
495.79	100.5
496.008	84.5
496.225	95.5
496.442	71.5
496.66	90.5
496.877	93.5
497.094	86.5
497.312	94.5
497.529	81.5
497.746	86.5
497.963	82.5
498.181	96.5
498.398	88.5
498.615	108.5
498.832	111.5
499.049	94.5
499.267	87.5
499.484	90.5
499.701	94.5
499.918	92.5
500.135	91.5
500.352	97.5
500.569	91.5
500.786	85.5
501.003	80.5
501.22	94.5
501.437	84.5
501.654	117.5
501.871	131.5
502.088	96.5
502.305	101.5
502.522	85.5
502.739	92.5
502.956	93.5
503.172	76.5
503.389	103.5
503.606	122.5
503.823	127.5
504.04	98.5
504.256	102.5
504.473	86.5
504.69	87.5
504.907	88.5
505.123	88.5
505.34	102.5
505.557	94.5
505.773	82.5
505.99	74.5
506.207	99.5
506.423	84.5
506.64	83.5
506.856	90.5
507.073	93.5
507.289	90.5
507.506	82.5
507.722	134.5
507.939	144.5
508.155	94.5
508.372	84.5
508.588	84.5
508.805	93.5
509.021	109.5
509.238	104.5
509.454	103.5
509.67	120.5
509.887	100.5
510.103	147.5
510.319	278.5
510.536	1048.5
510.752	3702.5
510.968	962.5
511.184	194.5
511.401	153.5
511.617	111.5
511.833	113.5
512.049	101.5
512.265	104.5
512.481	89.5
512.698	87.5
512.914	85.5
513.13	97.5
513.346	95.5
513.562	99.5
513.778	114.5
513.994	108.5
514.21	118.5
514.426	134.5
514.642	174.5
514.858	156.5
515.074	250.5
515.29	813.5
515.506	3062.5
515.721	1058.5
515.937	230.5
516.153	126.5
516.369	109.5
516.585	95.5
516.801	101.5
517.016	90.5
517.232	94.5
517.448	103.5
517.664	109.5
517.879	96.5
518.095	106.5
518.311	121.5
518.527	107.5
518.742	85.5
518.958	94.5
519.173	85.5
519.389	90.5
519.605	92.5
519.82	107.5
520.036	108.5
520.251	167.5
520.467	132.5
520.682	114.5
520.898	124.5
521.113	136.5
521.329	197.5
521.544	346.5
521.76	1102.5
521.975	5175.5
522.19	2976.5
522.406	571.5
522.621	175.5
522.836	119.5
523.052	91.5
523.267	91.5
523.482	103.5
523.698	105.5
523.913	146.5
524.128	127.5
524.343	108.5
524.559	95.5
524.774	97.5
524.989	91.5
525.204	116.5
525.419	122.5
525.634	97.5
525.849	84.5
526.064	96.5
526.28	101.5
526.495	86.5
526.71	88.5
526.925	92.5
527.14	96.5
527.355	81.5
527.57	92.5
527.785	79.5
527.999	93.5
528.214	77.5
528.429	98.5
528.644	104.5
528.859	93.5
529.074	88.5
529.289	154.5
529.503	312.5
529.718	121.5
529.933	97.5
530.148	88.5
530.363	82.5
530.577	78.5
530.792	101.5
531.007	91.5
531.221	101.5
531.436	93.5
531.651	92.5
531.865	84.5
532.08	85.5
532.295	83.5
532.509	92.5
532.724	103.5
