Data from Circ_1995_H10_HRD10591_00086.txt Node
Date: Wed Jan 03 11:37:03 EST 2024
User: Yrep
Spectrometer: HR+D1059
Trigger mode: 1
Integration Time (sec): 1.000000E-1
Scans to average: 1
Electric dark correction enabled: true
Nonlinearity correction enabled: false
Boxcar width: 0
XAxis mode: Wavelengths
Number of Pixels in Spectrum: 2048
>>>>>Begin Spectral Data<<<<<
223.165	-28.62
223.4	-28.62
223.635	-28.62
223.869	-21.62
224.104	-11.62
224.338	-19.62
224.573	-17.62
224.808	-3.62
225.042	-0.62
225.277	-21.62
225.511	-11.62
225.746	0.38
225.98	12.38
226.215	18.38
226.449	15.38
226.683	20.38
226.918	19.38
227.152	50.38
227.387	39.38
227.621	49.38
227.856	33.38
228.09	43.38
228.324	65.38
228.559	53.38
228.793	169.38
229.027	474.38
229.262	544.38
229.496	651.38
229.73	875.38
229.964	874.38
230.199	612.38
230.433	540.38
230.667	522.38
230.901	505.38
231.136	485.38
231.37	491.38
231.604	511.38
231.838	490.38
232.072	528.38
232.306	520.38
232.541	512.38
232.775	514.38
233.009	520.38
233.243	518.38
233.477	547.38
233.711	556.38
233.945	550.38
234.179	555.38
234.413	569.38
234.647	567.38
234.881	569.38
235.115	603.38
235.349	607.38
235.583	636.38
235.817	645.38
236.051	698.38
236.285	659.38
236.519	661.38
236.753	785.38
236.987	957.38
237.221	1496.38
237.455	1590.38
237.689	928.38
237.922	799.38
238.156	766.38
238.39	768.38
238.624	733.38
238.858	739.38
239.091	761.38
239.325	745.38
239.559	786.38
239.793	834.38
240.027	844.38
240.26	1019.38
240.494	1068.38
240.728	1000.38
240.961	988.38
241.195	902.38
241.429	857.38
241.662	866.38
241.896	886.38
242.13	913.38
242.363	893.38
242.597	926.38
242.83	960.38
243.064	964.38
243.298	957.38
243.531	941.38
243.765	945.38
243.998	988.38
244.232	1036.38
244.465	1037.38
244.699	1025.38
244.932	1048.38
245.166	1091.38
245.399	1069.38
245.633	1054.38
245.866	1080.38
246.099	1107.38
246.333	1125.38
246.566	1121.38
246.8	1124.38
247.033	1197.38
247.266	1214.38
247.5	1263.38
247.733	1352.38
247.966	1283.38
248.2	1331.38
248.433	1389.38
248.666	1439.38
248.899	1601.38
249.133	1704.38
249.366	1748.38
249.599	1684.38
249.832	1745.38
250.066	2055.38
250.299	2836.38
250.532	3800.38
250.765	3422.38
250.998	2747.38
251.231	2247.38
251.465	1941.38
251.698	1835.38
251.931	1759.38
252.164	1709.38
252.397	1708.38
252.63	1717.38
252.863	1784.38
253.096	1919.38
253.329	1959.38
253.562	1879.38
253.795	1828.38
254.028	1833.38
254.261	1963.38
254.494	2176.38
254.727	2513.38
254.96	2555.38
255.193	2512.38
255.426	2625.38
255.659	3391.38
255.892	5269.38
256.124	6959.38
256.357	5446.38
256.59	3746.38
256.823	2925.38
257.056	2541.38
257.289	2367.38
257.521	2283.38
257.754	2154.38
257.987	2121.38
258.22	2069.38
258.452	2085.38
258.685	1991.38
258.918	2009.38
259.151	2007.38
259.383	2062.38
259.616	1994.38
259.849	2093.38
260.081	2235.38
260.314	2379.38
260.547	2290.38
260.779	2157.38
261.012	2174.38
261.244	2124.38
261.477	2035.38
261.71	2035.38
261.942	2172.38
262.175	2232.38
262.407	2057.38
262.64	1945.38
262.872	1962.38
263.105	1956.38
263.337	1916.38
263.57	1966.38
263.802	1947.38
264.035	1949.38
264.267	1979.38
264.499	1909.38
264.732	1953.38
264.964	2003.38
265.197	1964.38
265.429	2011.38
265.661	1992.38
265.894	2039.38
266.126	2061.38
266.358	2028.38
266.591	2087.38
266.823	2129.38
267.055	2124.38
267.287	2153.38
267.52	2113.38
267.752	2107.38
267.984	2108.38
268.216	2192.38
268.448	2219.38
268.681	2281.38
268.913	2403.38
269.145	2569.38
269.377	2554.38
269.609	2427.38
269.841	2450.38
270.073	2603.38
270.306	2872.38
270.538	2997.38
270.77	2782.38
271.002	2686.38
271.234	2665.38
271.466	2890.38
271.698	2976.38
271.93	3001.38
272.162	2980.38
272.394	2862.38
272.626	2768.38
272.858	2645.38
273.09	2607.38
273.322	2601.38
273.553	2552.38
273.785	2633.38
274.017	2635.38
274.249	2641.38
274.481	2713.38
274.713	2733.38
274.945	2751.38
275.176	2823.38
275.408	2814.38
275.64	2940.38
275.872	3086.38
276.104	3049.38
276.335	3035.38
276.567	3217.38
276.799	3524.38
277.031	4051.38
277.262	4414.38
277.494	4065.38
277.726	3535.38
277.957	3310.38
278.189	3178.38
278.421	3092.38
278.652	3076.38
278.884	3116.38
279.115	3056.38
279.347	3126.38
279.579	3227.38
279.81	3475.38
280.042	3951.38
280.273	4446.38
280.505	4151.38
280.736	3615.38
280.968	3351.38
281.199	3201.38
281.431	3181.38
281.662	3143.38
281.894	3103.38
282.125	3092.38
282.356	3305.38
282.588	3465.38
282.819	3257.38
283.051	3096.38
283.282	2975.38
283.513	3036.38
283.745	3056.38
283.976	3083.38
284.207	3072.38
284.439	3051.38
284.67	3015.38
284.901	2988.38
285.132	3056.38
285.364	3041.38
285.595	3084.38
285.826	3118.38
286.057	3129.38
286.288	3106.38
286.52	3100.38
286.751	3132.38
286.982	3121.38
287.213	3144.38
287.444	3175.38
287.675	3200.38
287.906	3337.38
288.138	3341.38
288.369	3320.38
288.6	3338.38
288.831	3301.38
289.062	3277.38
289.293	3277.38
289.524	3255.38
289.755	3163.38
289.986	3200.38
290.217	3143.38
290.448	3216.38
290.679	3204.38
290.91	3225.38
291.141	3175.38
291.371	3161.38
291.602	3175.38
291.833	3095.38
292.064	3094.38
292.295	3124.38
292.526	3170.38
292.757	3146.38
292.987	3122.38
293.218	3123.38
293.449	3188.38
293.68	3155.38
293.91	3165.38
294.141	3136.38
294.372	3152.38
294.603	3161.38
294.833	3191.38
295.064	3221.38
295.295	3181.38
295.525	3194.38
295.756	3267.38
295.987	3420.38
296.217	3639.38
296.448	3535.38
296.679	3283.38
296.909	3229.38
297.14	3298.38
297.37	3281.38
297.601	3342.38
297.831	3361.38
298.062	3326.38
298.292	3337.38
298.523	3473.38
298.753	3437.38
298.984	3403.38
299.214	3415.38
299.445	3419.38
299.675	3519.38
299.905	3540.38
300.136	3433.38
300.366	3465.38
300.597	3494.38
300.827	3586.38
301.057	3694.38
301.288	3825.38
301.518	3743.38
301.748	3736.38
301.979	3865.38
302.209	3835.38
302.439	3768.38
302.669	3724.38
302.9	3675.38
303.13	3704.38
303.36	3826.38
303.59	4041.38
303.82	4187.38
304.051	3903.38
304.281	3775.38
304.511	3652.38
304.741	3715.38
304.971	3652.38
305.201	3653.38
305.431	3673.38
305.661	3584.38
305.891	3581.38
306.121	3631.38
306.352	3717.38
306.582	3792.38
306.812	3763.38
307.042	3940.38
307.272	4262.38
307.502	4480.38
307.731	4271.38
307.961	4001.38
308.191	3792.38
308.421	3786.38
308.651	3720.38
308.881	3741.38
309.111	3787.38
309.341	3710.38
309.571	3889.38
309.8	3968.38
310.03	4106.38
310.26	4210.38
310.49	4036.38
310.72	4255.38
310.949	4381.38
311.179	4321.38
311.409	4121.38
311.639	4121.38
311.868	4158.38
312.098	4171.38
312.328	4289.38
312.557	4469.38
312.787	4616.38
313.017	4464.38
313.246	4228.38
313.476	4174.38
313.706	4248.38
313.935	4394.38
314.165	4511.38
314.394	4536.38
314.624	4468.38
314.853	4263.38
315.083	4183.38
315.312	4118.38
315.542	4159.38
315.771	4089.38
316.001	4126.38
316.23	4130.38
316.46	4124.38
316.689	4202.38
316.919	4267.38
317.148	4315.38
317.377	4338.38
317.607	4344.38
317.836	4195.38
318.065	4187.38
318.295	4191.38
318.524	4162.38
318.753	4188.38
318.983	4173.38
319.212	4174.38
319.441	4383.38
319.67	4371.38
319.9	4181.38
320.129	4247.38
320.358	4273.38
320.587	4363.38
320.816	4381.38
321.046	4450.38
321.275	4365.38
321.504	4440.38
321.733	4476.38
321.962	4603.38
322.191	4729.38
322.42	4865.38
322.649	5015.38
322.878	5192.38
323.108	5289.38
323.337	5627.38
323.566	5829.38
323.795	6266.38
324.024	6983.38
324.253	9567.38
324.482	13908.38
324.71	15621.38
324.939	15621.38
325.168	14825.38
325.397	8145.38
325.626	6651.38
325.855	6170.38
326.084	6071.38
326.313	6187.38
326.542	6489.38
326.77	7497.38
326.999	9657.38
327.228	13689.38
327.457	15621.38
327.686	15621.38
327.914	13413.38
328.143	13314.38
328.372	14188.38
328.6	11299.38
328.829	9111.38
329.058	9159.38
329.287	9416.38
329.515	9739.38
329.744	11572.38
329.972	14666.38
330.201	15621.38
330.43	15621.38
330.658	15432.38
330.887	11593.38
331.115	9377.38
331.344	7990.38
331.572	7513.38
331.801	7605.38
332.03	7543.38
332.258	7323.38
332.486	7323.38
332.715	7651.38
332.943	8059.38
333.172	8551.38
333.4	9304.38
333.629	10458.38
333.857	12718.38
334.085	15285.38
334.314	15621.38
334.542	15621.38
334.771	15621.38
334.999	14897.38
335.227	10768.38
335.455	8894.38
335.684	7886.38
335.912	7350.38
336.14	6979.38
336.369	6711.38
336.597	6656.38
336.825	6461.38
337.053	6185.38
337.281	5928.38
337.51	5859.38
337.738	5785.38
337.966	5763.38
338.194	5663.38
338.422	5579.38
338.65	5370.38
338.878	5388.38
339.106	5246.38
339.334	5246.38
339.562	5145.38
339.79	5061.38
340.018	5112.38
340.246	5103.38
340.474	5115.38
340.702	4965.38
340.93	4997.38
341.158	4962.38
341.386	4977.38
341.614	5092.38
341.842	4919.38
342.07	4882.38
342.298	4871.38
342.526	4785.38
342.754	4747.38
342.981	4736.38
343.209	4823.38
343.437	5016.38
343.665	5274.38
343.893	5476.38
344.12	5540.38
344.348	5359.38
344.576	5194.38
344.804	5215.38
345.031	5175.38
345.259	5153.38
345.487	4970.38
345.714	4831.38
345.942	4672.38
346.17	4644.38
346.397	4690.38
346.625	4623.38
346.853	4653.38
347.08	4660.38
347.308	4731.38
347.535	4789.38
347.763	4850.38
347.99	4758.38
348.218	4745.38
348.445	4979.38
348.673	4783.38
348.9	4683.38
349.128	4546.38
349.355	4448.38
349.583	4501.38
349.81	4496.38
350.037	4488.38
350.265	4490.38
350.492	4479.38
350.72	4448.38
350.947	4568.38
351.174	4677.38
351.402	4793.38
351.629	4732.38
351.856	4717.38
352.083	4775.38
352.311	4875.38
352.538	4884.38
352.765	4811.38
352.992	4649.38
353.22	4623.38
353.447	4567.38
353.674	4520.38
353.901	4423.38
354.128	4411.38
354.355	4325.38
354.583	4409.38
354.81	4384.38
355.037	4370.38
355.264	4350.38
355.491	4311.38
355.718	4304.38
355.945	4281.38
356.172	4222.38
356.399	4271.38
356.626	4300.38
356.853	4301.38
357.08	4283.38
357.307	4308.38
357.534	4279.38
357.761	4363.38
357.988	4296.38
358.215	4337.38
358.441	4316.38
358.668	4287.38
358.895	4419.38
359.122	4485.38
359.349	4504.38
359.576	4722.38
359.802	4984.38
360.029	5312.38
360.256	5271.38
360.483	4943.38
360.709	4620.38
360.936	4574.38
361.163	4627.38
361.39	4697.38
361.616	4707.38
361.843	4556.38
362.07	4626.38
362.296	4697.38
362.523	4595.38
362.749	4549.38
362.976	4526.38
363.203	4513.38
363.429	4451.38
363.656	4507.38
363.882	4476.38
364.109	4387.38
364.335	4459.38
364.562	4465.38
364.788	4381.38
365.015	4503.38
365.241	4437.38
365.468	4446.38
365.694	4583.38
365.92	4484.38
366.147	4419.38
366.373	4396.38
366.599	4403.38
366.826	4346.38
367.052	4317.38
367.278	4377.38
367.505	4494.38
367.731	4496.38
367.957	4496.38
368.184	4474.38
368.41	4611.38
368.636	4675.38
368.862	4659.38
369.089	4501.38
369.315	4508.38
369.541	4518.38
369.767	4530.38
369.993	4532.38
370.219	4535.38
370.445	4471.38
370.672	4537.38
370.898	4529.38
371.124	4573.38
371.35	4615.38
371.576	4624.38
371.802	4567.38
372.028	4557.38
372.254	4536.38
372.48	4587.38
372.706	4709.38
372.932	4691.38
373.158	4700.38
373.384	4648.38
373.61	4635.38
373.835	4615.38
374.061	4682.38
374.287	4753.38
374.513	4791.38
374.739	4903.38
374.965	4944.38
375.191	4951.38
375.416	4873.38
375.642	4751.38
375.868	4785.38
376.094	4667.38
376.319	4624.38
376.545	4512.38
376.771	4596.38
376.997	4568.38
377.222	4578.38
377.448	4540.38
377.674	4523.38
377.899	4473.38
378.125	4483.38
378.35	4434.38
378.576	4493.38
378.802	4455.38
379.027	4518.38
379.253	4528.38
379.478	4554.38
379.704	4456.38
379.929	4548.38
380.155	4576.38
380.38	4572.38
380.606	4653.38
380.831	4585.38
381.057	4599.38
381.282	4638.38
381.507	4570.38
381.733	4645.38
381.958	4668.38
382.184	4664.38
382.409	4845.38
382.634	4787.38
382.86	4811.38
383.085	4868.38
383.31	4958.38
383.535	4971.38
383.761	5008.38
383.986	5083.38
384.211	5145.38
384.436	5213.38
384.662	5276.38
384.887	5314.38
385.112	5317.38
385.337	5404.38
385.562	5479.38
385.787	5456.38
386.013	5553.38
386.238	5582.38
386.463	5529.38
386.688	5458.38
386.913	5349.38
387.138	5338.38
387.363	5386.38
387.588	5303.38
387.813	5389.38
388.038	5343.38
388.263	5410.38
388.488	5367.38
388.713	5341.38
388.938	5307.38
389.163	5355.38
389.387	5344.38
389.612	5275.38
389.837	5296.38
390.062	5187.38
390.287	5375.38
390.512	5218.38
390.736	5331.38
390.961	5440.38
391.186	5414.38
391.411	5691.38
391.636	5785.38
391.86	5943.38
392.085	5913.38
392.31	5858.38
392.534	5785.38
392.759	5756.38
392.984	5574.38
393.208	5567.38
393.433	5511.38
393.658	5531.38
393.882	5559.38
394.107	5559.38
394.331	5619.38
394.556	5653.38
394.78	5696.38
395.005	5716.38
395.229	5740.38
395.454	5917.38
395.678	6084.38
395.903	6053.38
396.127	6136.38
396.352	5910.38
396.576	5707.38
396.801	5715.38
397.025	5844.38
397.249	5992.38
397.474	6010.38
397.698	6093.38
397.922	6252.38
398.147	6417.38
398.371	6421.38
398.595	6493.38
398.82	6865.38
399.044	7389.38
399.268	8040.38
399.492	9073.38
399.717	9704.38
399.941	9413.38
400.165	8962.38
400.389	8320.38
400.613	7480.38
400.837	7134.38
401.062	6951.38
401.286	6893.38
401.51	6752.38
401.734	6849.38
401.958	6949.38
402.182	7032.38
402.406	7170.38
402.63	7341.38
402.854	7378.38
403.078	7371.38
403.302	7563.38
403.526	7691.38
403.75	7728.38
403.974	7853.38
404.198	7933.38
404.422	8127.38
404.645	8357.38
404.869	8612.38
405.093	9380.38
405.317	10066.38
405.541	9851.38
405.765	8844.38
405.988	8403.38
406.212	8365.38
406.436	8557.38
406.66	8461.38
406.883	8243.38
407.107	8819.38
407.331	9229.38
407.555	9739.38
407.778	9330.38
408.002	8613.38
408.226	8251.38
408.449	8105.38
408.673	8029.38
408.896	8117.38
409.12	8269.38
409.344	7777.38
409.567	7459.38
409.791	7507.38
410.014	7311.38
410.238	7303.38
410.461	7461.38
410.685	7428.38
410.908	7494.38
411.132	7651.38
411.355	7918.38
411.578	7482.38
411.802	7536.38
412.025	7771.38
412.249	8420.38
412.472	9268.38
412.695	9985.38
412.919	9212.38
413.142	8631.38
413.365	8064.38
413.589	7628.38
413.812	7416.38
414.035	7148.38
414.258	7167.38
414.482	7197.38
414.705	7072.38
414.928	6892.38
415.151	6904.38
415.374	6850.38
415.597	6788.38
415.821	6720.38
416.044	6820.38
416.267	6807.38
416.49	6786.38
416.713	6593.38
416.936	6743.38
417.159	6839.38
417.382	7187.38
417.605	7390.38
417.828	7536.38
418.051	7257.38
418.274	6914.38
418.497	6780.38
418.72	6949.38
418.943	6899.38
419.166	7409.38
419.389	7869.38
419.611	7954.38
419.834	8051.38
420.057	8266.38
420.28	8785.38
420.503	8519.38
420.726	8091.38
420.948	7909.38
421.171	8070.38
421.394	7681.38
421.617	7161.38
421.839	7151.38
422.062	7039.38
422.285	7252.38
422.507	7887.38
422.73	8345.38
422.953	7594.38
423.175	7258.38
423.398	7319.38
423.621	7343.38
423.843	7562.38
424.066	7406.38
424.288	7375.38
424.511	7577.38
424.733	8089.38
424.956	8606.38
425.178	8082.38
425.401	8183.38
425.623	8108.38
425.846	7119.38
426.068	7021.38
426.291	6897.38
426.513	6887.38
426.735	7073.38
426.958	7556.38
427.18	8560.38
427.402	10025.38
427.625	10873.38
427.847	10434.38
428.069	9986.38
428.292	8184.38
428.514	7104.38
428.736	6672.38
428.958	6536.38
429.181	6227.38
429.403	6259.38
429.625	6367.38
429.847	6634.38
430.069	7349.38
430.292	6739.38
430.514	6177.38
430.736	6164.38
430.958	6028.38
431.18	5987.38
431.402	5989.38
431.624	5983.38
431.846	6004.38
432.068	6074.38
432.29	6154.38
432.512	6014.38
432.734	6090.38
432.956	6083.38
433.178	6159.38
433.4	6156.38
433.622	5972.38
433.844	6077.38
434.066	6012.38
434.287	6143.38
434.509	6340.38
434.731	6522.38
434.953	6567.38
435.175	6813.38
435.397	6919.38
435.618	6806.38
435.84	7291.38
436.062	8329.38
436.284	8038.38
436.505	6790.38
436.727	6517.38
436.949	6262.38
437.17	6112.38
437.392	6067.38
437.614	6274.38
437.835	6780.38
438.057	7965.38
438.278	8359.38
438.5	8130.38
438.721	9123.38
438.943	7853.38
439.165	6625.38
439.386	6464.38
439.608	6540.38
439.829	6807.38
440.05	7342.38
440.272	7778.38
440.493	6800.38
440.715	6471.38
440.936	6337.38
441.158	6247.38
441.379	6482.38
441.6	6843.38
441.822	7161.38
442.043	7579.38
442.264	8371.38
442.486	8035.38
442.707	7255.38
442.928	7131.38
443.149	7351.38
443.371	7679.38
443.592	8197.38
443.813	9237.38
444.034	9007.38
444.255	7602.38
444.476	7421.38
444.698	7565.38
444.919	7731.38
445.14	7538.38
445.361	7669.38
445.582	7978.38
445.803	8815.38
446.024	9584.38
446.245	9023.38
446.466	7852.38
446.687	6771.38
446.908	6377.38
447.129	6007.38
447.35	5897.38
447.571	5828.38
447.792	5841.38
448.013	5938.38
448.234	6155.38
448.455	6817.38
448.675	8178.38
448.896	8724.38
449.117	6966.38
449.338	7361.38
449.559	8829.38
449.779	9022.38
450	6712.38
450.221	6055.38
450.442	5812.38
450.662	5791.38
450.883	6003.38
451.104	6196.38
451.324	5905.38
451.545	5628.38
451.766	5505.38
451.986	5334.38
452.207	5313.38
452.428	5284.38
452.648	5337.38
452.869	5476.38
453.089	5498.38
453.31	5611.38
453.53	5373.38
453.751	5334.38
453.971	5435.38
454.192	5730.38
454.412	5343.38
454.633	5207.38
454.853	5210.38
455.073	5244.38
455.294	5674.38
455.514	6236.38
455.734	5619.38
455.955	5019.38
456.175	4997.38
456.395	4944.38
456.616	4943.38
456.836	5006.38
457.056	4935.38
457.276	4943.38
457.497	5130.38
457.717	5043.38
457.937	5175.38
458.157	5197.38
458.377	5349.38
458.598	5827.38
458.818	6828.38
459.038	7740.38
459.258	7325.38
459.478	6339.38
459.698	6162.38
459.918	6226.38
460.138	6293.38
460.358	6514.38
460.578	6594.38
460.798	6636.38
461.018	6649.38
461.238	6450.38
461.458	6526.38
461.678	6464.38
461.898	6569.38
462.118	6602.38
462.338	7015.38
462.558	7113.38
462.777	7357.38
462.997	8026.38
463.217	8385.38
463.437	8123.38
463.657	7540.38
463.876	7453.38
464.096	7483.38
464.316	7519.38
464.536	7586.38
464.755	7424.38
464.975	7359.38
465.195	7993.38
465.414	8284.38
465.634	6915.38
465.854	6395.38
466.073	6110.38
466.293	5885.38
466.512	5821.38
466.732	5704.38
466.951	5711.38
467.171	5799.38
467.391	6001.38
467.61	6313.38
467.829	6938.38
468.049	9525.38
468.268	12325.38
468.488	8355.38
468.707	6740.38
468.927	6256.38
469.146	6023.38
469.365	6016.38
469.585	5949.38
469.804	6131.38
470.023	6268.38
470.243	6184.38
470.462	6270.38
470.681	6572.38
470.901	6318.38
471.12	6278.38
471.339	6279.38
471.558	6497.38
471.777	6887.38
471.997	8169.38
472.216	13608.38
472.435	15621.38
472.654	14924.38
472.873	9749.38
473.092	8156.38
473.311	7367.38
473.53	6934.38
473.749	6778.38
473.968	7151.38
474.187	8187.38
474.406	7309.38
474.625	6256.38
474.844	6018.38
475.063	5890.38
475.282	5854.38
475.501	5970.38
475.72	5983.38
475.939	5917.38
476.158	5982.38
476.377	6000.38
476.596	5933.38
476.814	6189.38
477.033	6167.38
477.252	6241.38
477.471	6313.38
477.69	6462.38
477.908	6502.38
478.127	6713.38
478.346	6713.38
478.564	6896.38
478.783	6974.38
479.002	7259.38
479.22	7173.38
479.439	7468.38
479.658	7811.38
479.876	7879.38
480.095	8299.38
480.313	8829.38
480.532	9300.38
480.751	10494.38
480.969	14804.38
481.188	15621.38
481.406	15621.38
481.624	15621.38
481.843	12515.38
482.061	10733.38
482.28	9597.38
482.498	8860.38
482.717	8517.38
482.935	8055.38
483.153	7851.38
483.372	7693.38
483.59	7482.38
483.808	7374.38
484.027	7349.38
484.245	7376.38
484.463	7192.38
484.681	7337.38
484.9	7394.38
485.118	7330.38
485.336	7383.38
485.554	7410.38
485.772	7386.38
485.99	7397.38
486.209	7401.38
486.427	7484.38
486.645	7597.38
486.863	7792.38
487.081	7710.38
487.299	7519.38
