Data from Circ_1995_H10_HRD10591_00009.txt Node
Date: Wed Jan 03 11:36:48 EST 2024
User: Yrep
Spectrometer: HR+D1059
Trigger mode: 1
Integration Time (sec): 1.000000E-1
Scans to average: 1
Electric dark correction enabled: true
Nonlinearity correction enabled: false
Boxcar width: 0
XAxis mode: Wavelengths
Number of Pixels in Spectrum: 2048
>>>>>Begin Spectral Data<<<<<
223.165	-27.94
223.4	-27.94
223.635	-27.94
223.869	-10.94
224.104	-16.94
224.338	-12.94
224.573	-3.94
224.808	-9.94
225.042	8.06
225.277	-13.94
225.511	-4.94
225.746	10.06
225.98	-11.94
226.215	1.06
226.449	17.06
226.683	11.06
226.918	23.06
227.152	43.06
227.387	33.06
227.621	34.06
227.856	43.06
228.09	61.06
228.324	38.06
228.559	52.06
228.793	47.06
229.027	57.06
229.262	61.06
229.496	75.06
229.73	87.06
229.964	89.06
230.199	56.06
230.433	78.06
230.667	80.06
230.901	58.06
231.136	85.06
231.37	84.06
231.604	69.06
231.838	74.06
232.072	71.06
232.306	67.06
232.541	71.06
232.775	74.06
233.009	78.06
233.243	75.06
233.477	79.06
233.711	71.06
233.945	76.06
234.179	71.06
234.413	73.06
234.647	75.06
234.881	72.06
235.115	77.06
235.349	75.06
235.583	81.06
235.817	86.06
236.051	77.06
236.285	70.06
236.519	83.06
236.753	69.06
236.987	80.06
237.221	88.06
237.455	90.06
237.689	75.06
237.922	64.06
238.156	71.06
238.39	60.06
238.624	76.06
238.858	71.06
239.091	70.06
239.325	80.06
239.559	73.06
239.793	68.06
240.027	72.06
240.26	70.06
240.494	76.06
240.728	69.06
240.961	77.06
241.195	74.06
241.429	75.06
241.662	71.06
241.896	81.06
242.13	75.06
242.363	81.06
242.597	75.06
242.83	64.06
243.064	75.06
243.298	71.06
243.531	64.06
243.765	65.06
243.998	63.06
244.232	91.06
244.465	81.06
244.699	76.06
244.932	81.06
245.166	67.06
245.399	87.06
245.633	91.06
245.866	72.06
246.099	75.06
246.333	80.06
246.566	69.06
246.8	64.06
247.033	65.06
247.266	68.06
247.5	90.06
247.733	79.06
247.966	81.06
248.2	76.06
248.433	69.06
248.666	69.06
248.899	79.06
249.133	83.06
249.366	97.06
249.599	92.06
249.832	89.06
250.066	90.06
250.299	80.06
250.532	77.06
250.765	89.06
250.998	75.06
251.231	84.06
251.465	60.06
251.698	74.06
251.931	90.06
252.164	77.06
252.397	83.06
252.63	89.06
252.863	87.06
253.096	69.06
253.329	83.06
253.562	77.06
253.795	86.06
254.028	71.06
254.261	73.06
254.494	71.06
254.727	83.06
254.96	77.06
255.193	58.06
255.426	87.06
255.659	75.06
255.892	86.06
256.124	95.06
256.357	80.06
256.59	82.06
256.823	67.06
257.056	81.06
257.289	84.06
257.521	93.06
257.754	73.06
257.987	86.06
258.22	83.06
258.452	92.06
258.685	78.06
258.918	79.06
259.151	80.06
259.383	71.06
259.616	78.06
259.849	87.06
260.081	89.06
260.314	82.06
260.547	84.06
260.779	77.06
261.012	105.06
261.244	87.06
261.477	90.06
261.71	94.06
261.942	122.06
262.175	122.06
262.407	79.06
262.64	77.06
262.872	74.06
263.105	96.06
263.337	78.06
263.57	87.06
263.802	72.06
264.035	83.06
264.267	97.06
264.499	76.06
264.732	71.06
264.964	70.06
265.197	69.06
265.429	85.06
265.661	73.06
265.894	79.06
266.126	77.06
266.358	80.06
266.591	67.06
266.823	81.06
267.055	83.06
267.287	60.06
267.52	89.06
267.752	85.06
267.984	77.06
268.216	66.06
268.448	93.06
268.681	88.06
268.913	75.06
269.145	80.06
269.377	83.06
269.609	74.06
269.841	70.06
270.073	77.06
270.306	79.06
270.538	71.06
270.77	81.06
271.002	79.06
271.234	88.06
271.466	88.06
271.698	86.06
271.93	87.06
272.162	88.06
272.394	81.06
272.626	87.06
272.858	78.06
273.09	90.06
273.322	80.06
273.553	81.06
273.785	76.06
274.017	79.06
274.249	85.06
274.481	79.06
274.713	90.06
274.945	73.06
275.176	81.06
275.408	89.06
275.64	91.06
275.872	101.06
276.104	87.06
276.335	96.06
276.567	110.06
276.799	134.06
277.031	134.06
277.262	156.06
277.494	127.06
277.726	96.06
277.957	93.06
278.189	96.06
278.421	94.06
278.652	76.06
278.884	96.06
279.115	93.06
279.347	90.06
279.579	97.06
279.81	106.06
280.042	158.06
280.273	197.06
280.505	154.06
280.736	92.06
280.968	76.06
281.199	77.06
281.431	90.06
281.662	84.06
281.894	73.06
282.125	98.06
282.356	128.06
282.588	162.06
282.819	119.06
283.051	79.06
283.282	87.06
283.513	85.06
283.745	84.06
283.976	88.06
284.207	81.06
284.439	98.06
284.67	99.06
284.901	79.06
285.132	90.06
285.364	89.06
285.595	83.06
285.826	89.06
286.057	92.06
286.288	83.06
286.52	74.06
286.751	80.06
286.982	79.06
287.213	79.06
287.444	83.06
287.675	76.06
287.906	95.06
288.138	74.06
288.369	78.06
288.6	103.06
288.831	90.06
289.062	86.06
289.293	88.06
289.524	90.06
289.755	71.06
289.986	80.06
290.217	95.06
290.448	86.06
290.679	84.06
290.91	78.06
291.141	80.06
291.371	78.06
291.602	85.06
291.833	92.06
292.064	84.06
292.295	94.06
292.526	89.06
292.757	89.06
292.987	71.06
293.218	79.06
293.449	86.06
293.68	92.06
293.91	85.06
294.141	84.06
294.372	84.06
294.603	79.06
294.833	88.06
295.064	85.06
295.295	92.06
295.525	87.06
295.756	99.06
295.987	117.06
296.217	138.06
296.448	128.06
296.679	97.06
296.909	86.06
297.14	78.06
297.37	69.06
297.601	81.06
297.831	80.06
298.062	102.06
298.292	83.06
298.523	105.06
298.753	94.06
298.984	84.06
299.214	82.06
299.445	76.06
299.675	87.06
299.905	96.06
300.136	95.06
300.366	93.06
300.597	83.06
300.827	95.06
301.057	92.06
301.288	104.06
301.518	99.06
301.748	84.06
301.979	110.06
302.209	84.06
302.439	84.06
302.669	91.06
302.9	82.06
303.13	100.06
303.36	88.06
303.59	118.06
303.82	117.06
304.051	95.06
304.281	83.06
304.511	87.06
304.741	75.06
304.971	93.06
305.201	90.06
305.431	90.06
305.661	93.06
305.891	87.06
306.121	93.06
306.352	103.06
306.582	109.06
306.812	99.06
307.042	117.06
307.272	122.06
307.502	157.06
307.731	140.06
307.961	114.06
308.191	84.06
308.421	87.06
308.651	104.06
308.881	81.06
309.111	88.06
309.341	93.06
309.571	101.06
309.8	87.06
310.03	92.06
310.26	81.06
310.49	105.06
310.72	105.06
310.949	120.06
311.179	105.06
311.409	79.06
311.639	74.06
311.868	92.06
312.098	94.06
312.328	97.06
312.557	111.06
312.787	101.06
313.017	112.06
313.246	103.06
313.476	93.06
313.706	103.06
313.935	87.06
314.165	112.06
314.394	105.06
314.624	98.06
314.853	99.06
315.083	92.06
315.312	85.06
315.542	84.06
315.771	85.06
316.001	89.06
316.23	91.06
316.46	83.06
316.689	80.06
316.919	101.06
317.148	106.06
317.377	81.06
317.607	102.06
317.836	71.06
318.065	81.06
318.295	97.06
318.524	94.06
318.753	92.06
318.983	80.06
319.212	92.06
319.441	101.06
319.67	120.06
319.9	94.06
320.129	80.06
320.358	87.06
320.587	100.06
320.816	86.06
321.046	101.06
321.275	95.06
321.504	95.06
321.733	95.06
321.962	92.06
322.191	113.06
322.42	112.06
322.649	106.06
322.878	99.06
323.108	124.06
323.337	122.06
323.566	129.06
323.795	159.06
324.024	204.06
324.253	413.06
324.482	903.06
324.71	1907.06
324.939	2464.06
325.168	917.06
325.397	277.06
325.626	148.06
325.855	147.06
326.084	128.06
326.313	142.06
326.542	158.06
326.77	234.06
326.999	469.06
327.228	1003.06
327.457	1860.06
327.686	1487.06
327.914	473.06
328.143	392.06
328.372	506.06
328.6	306.06
328.829	153.06
329.058	149.06
329.287	149.06
329.515	130.06
329.744	186.06
329.972	320.06
330.201	647.06
330.43	1016.06
330.658	471.06
330.887	237.06
331.115	153.06
331.344	118.06
331.572	106.06
331.801	109.06
332.03	121.06
332.258	114.06
332.486	94.06
332.715	97.06
332.943	108.06
333.172	109.06
333.4	113.06
333.629	140.06
333.857	184.06
334.085	330.06
334.314	614.06
334.542	1211.06
334.771	1167.06
334.999	337.06
335.227	147.06
335.455	110.06
335.684	114.06
335.912	94.06
336.14	86.06
336.369	96.06
336.597	92.06
336.825	91.06
337.053	90.06
337.281	93.06
337.51	96.06
337.738	103.06
337.966	91.06
338.194	95.06
338.422	80.06
338.65	91.06
338.878	92.06
339.106	95.06
339.334	91.06
339.562	84.06
339.79	86.06
340.018	81.06
340.246	103.06
340.474	89.06
340.702	92.06
340.93	84.06
341.158	105.06
341.386	98.06
341.614	87.06
341.842	93.06
342.07	95.06
342.298	81.06
342.526	95.06
342.754	86.06
342.981	83.06
343.209	91.06
343.437	93.06
343.665	77.06
343.893	92.06
344.12	73.06
344.348	89.06
344.576	91.06
344.804	91.06
345.031	97.06
345.259	102.06
345.487	93.06
345.714	88.06
345.942	83.06
346.17	88.06
346.397	81.06
346.625	95.06
346.853	94.06
347.08	91.06
347.308	88.06
347.535	96.06
347.763	92.06
347.99	101.06
348.218	99.06
348.445	116.06
348.673	97.06
348.9	100.06
349.128	107.06
349.355	88.06
349.583	95.06
349.81	93.06
350.037	91.06
350.265	85.06
350.492	96.06
350.72	95.06
350.947	107.06
351.174	108.06
351.402	108.06
351.629	98.06
351.856	102.06
352.083	94.06
352.311	93.06
352.538	114.06
352.765	116.06
352.992	110.06
353.22	111.06
353.447	88.06
353.674	88.06
353.901	102.06
354.128	115.06
354.355	97.06
354.583	97.06
354.81	85.06
355.037	93.06
355.264	85.06
355.491	78.06
355.718	91.06
355.945	89.06
356.172	102.06
356.399	95.06
356.626	95.06
356.853	91.06
357.08	84.06
357.307	94.06
357.534	76.06
357.761	83.06
357.988	81.06
358.215	92.06
358.441	87.06
358.668	97.06
358.895	91.06
359.122	108.06
359.349	94.06
359.576	90.06
359.802	103.06
360.029	124.06
360.256	109.06
360.483	103.06
360.709	85.06
360.936	104.06
361.163	84.06
361.39	104.06
361.616	81.06
361.843	95.06
362.07	111.06
362.296	95.06
362.523	100.06
362.749	82.06
362.976	89.06
363.203	80.06
363.429	85.06
363.656	94.06
363.882	98.06
364.109	91.06
364.335	85.06
364.562	91.06
364.788	95.06
365.015	90.06
365.241	92.06
365.468	112.06
365.694	97.06
365.92	96.06
366.147	95.06
366.373	95.06
366.599	90.06
366.826	96.06
367.052	99.06
367.278	83.06
367.505	102.06
367.731	101.06
367.957	95.06
368.184	98.06
368.41	103.06
368.636	116.06
368.862	124.06
369.089	123.06
369.315	74.06
369.541	77.06
369.767	81.06
369.993	84.06
370.219	84.06
370.445	91.06
370.672	95.06
370.898	88.06
371.124	88.06
371.35	92.06
371.576	84.06
371.802	84.06
372.028	85.06
372.254	86.06
372.48	73.06
372.706	87.06
372.932	80.06
373.158	78.06
373.384	86.06
373.61	110.06
373.835	92.06
374.061	71.06
374.287	95.06
374.513	102.06
374.739	87.06
374.965	72.06
375.191	75.06
375.416	55.06
375.642	85.06
375.868	77.06
376.094	80.06
376.319	92.06
376.545	96.06
376.771	87.06
376.997	90.06
377.222	100.06
377.448	92.06
377.674	85.06
377.899	102.06
378.125	86.06
378.35	91.06
378.576	92.06
378.802	76.06
379.027	83.06
379.253	103.06
379.478	89.06
379.704	88.06
379.929	95.06
380.155	96.06
380.38	107.06
380.606	103.06
380.831	105.06
381.057	92.06
381.282	92.06
381.507	97.06
381.733	97.06
381.958	100.06
382.184	111.06
382.409	109.06
382.634	101.06
382.86	98.06
383.085	108.06
383.31	109.06
383.535	105.06
383.761	103.06
383.986	115.06
384.211	105.06
384.436	118.06
384.662	109.06
384.887	107.06
385.112	120.06
385.337	104.06
385.562	103.06
385.787	126.06
386.013	129.06
386.238	133.06
386.463	117.06
386.688	124.06
386.913	109.06
387.138	114.06
387.363	125.06
387.588	99.06
387.813	112.06
388.038	126.06
388.263	135.06
388.488	138.06
388.713	103.06
388.938	77.06
389.163	74.06
389.387	83.06
389.612	75.06
389.837	85.06
390.062	93.06
390.287	89.06
390.512	103.06
390.736	95.06
390.961	87.06
391.186	84.06
391.411	83.06
391.636	102.06
391.86	87.06
392.085	98.06
392.31	92.06
392.534	84.06
392.759	72.06
392.984	86.06
393.208	66.06
393.433	63.06
393.658	82.06
393.882	79.06
394.107	79.06
394.331	78.06
394.556	89.06
394.78	75.06
395.005	101.06
395.229	75.06
395.454	72.06
395.678	96.06
395.903	81.06
396.127	87.06
396.352	91.06
396.576	79.06
396.801	85.06
397.025	90.06
397.249	73.06
397.474	91.06
397.698	88.06
397.922	79.06
398.147	103.06
398.371	84.06
398.595	84.06
398.82	91.06
399.044	98.06
399.268	64.06
399.492	69.06
399.717	76.06
399.941	74.06
400.165	72.06
400.389	86.06
400.613	86.06
400.837	78.06
401.062	86.06
401.286	79.06
401.51	94.06
401.734	83.06
401.958	91.06
402.182	128.06
402.406	191.06
402.63	143.06
402.854	93.06
403.078	88.06
403.302	79.06
403.526	87.06
403.75	93.06
403.974	76.06
404.198	90.06
404.422	79.06
404.645	81.06
404.869	84.06
405.093	99.06
405.317	109.06
405.541	115.06
405.765	102.06
405.988	107.06
406.212	177.06
406.436	273.06
406.66	166.06
406.883	103.06
407.107	84.06
407.331	91.06
407.555	107.06
407.778	90.06
408.002	92.06
408.226	89.06
408.449	87.06
408.673	95.06
408.896	89.06
409.12	95.06
409.344	92.06
409.567	89.06
409.791	71.06
410.014	95.06
410.238	84.06
410.461	88.06
410.685	101.06
410.908	78.06
411.132	86.06
411.355	96.06
411.578	94.06
411.802	76.06
412.025	101.06
412.249	96.06
412.472	108.06
412.695	111.06
412.919	112.06
413.142	89.06
413.365	80.06
413.589	95.06
413.812	87.06
414.035	92.06
414.258	103.06
414.482	83.06
414.705	100.06
414.928	71.06
415.151	99.06
415.374	95.06
415.597	90.06
415.821	88.06
416.044	85.06
416.267	96.06
416.49	67.06
416.713	89.06
416.936	85.06
417.159	79.06
417.382	103.06
417.605	97.06
417.828	108.06
418.051	87.06
418.274	97.06
418.497	78.06
418.72	81.06
418.943	77.06
419.166	107.06
419.389	93.06
419.611	89.06
419.834	91.06
420.057	82.06
420.28	93.06
420.503	77.06
420.726	94.06
420.948	87.06
421.171	93.06
421.394	91.06
421.617	92.06
421.839	91.06
422.062	97.06
422.285	78.06
422.507	99.06
422.73	105.06
422.953	83.06
423.175	94.06
423.398	90.06
423.621	86.06
423.843	84.06
424.066	75.06
424.288	91.06
424.511	83.06
424.733	94.06
424.956	108.06
425.178	96.06
425.401	100.06
425.623	95.06
425.846	80.06
426.068	87.06
426.291	93.06
426.513	102.06
426.735	93.06
426.958	89.06
427.18	115.06
427.402	149.06
427.625	206.06
427.847	206.06
428.069	180.06
428.292	117.06
428.514	75.06
428.736	87.06
428.958	83.06
429.181	97.06
429.403	101.06
429.625	76.06
429.847	112.06
430.069	106.06
430.292	110.06
430.514	78.06
430.736	102.06
430.958	91.06
431.18	89.06
431.402	85.06
431.624	84.06
431.846	76.06
432.068	93.06
432.29	84.06
432.512	85.06
432.734	79.06
432.956	89.06
433.178	97.06
433.4	99.06
433.622	92.06
433.844	90.06
434.066	97.06
434.287	97.06
434.509	81.06
434.731	80.06
434.953	88.06
435.175	84.06
435.397	93.06
435.618	103.06
435.84	112.06
436.062	115.06
436.284	118.06
436.505	98.06
436.727	82.06
436.949	89.06
437.17	91.06
437.392	75.06
437.614	88.06
437.835	102.06
438.057	131.06
438.278	118.06
438.5	107.06
438.721	119.06
438.943	85.06
439.165	103.06
439.386	96.06
439.608	98.06
439.829	105.06
440.05	124.06
440.272	147.06
440.493	97.06
440.715	75.06
440.936	84.06
441.158	88.06
441.379	87.06
441.6	118.06
441.822	96.06
442.043	93.06
442.264	104.06
442.486	98.06
442.707	83.06
442.928	115.06
443.149	151.06
443.371	147.06
443.592	106.06
443.813	118.06
444.034	108.06
444.255	100.06
444.476	81.06
444.698	87.06
444.919	96.06
445.14	133.06
445.361	122.06
445.582	122.06
445.803	156.06
446.024	152.06
446.245	139.06
446.466	124.06
446.687	84.06
446.908	100.06
447.129	79.06
447.35	78.06
447.571	85.06
447.792	94.06
448.013	92.06
448.234	115.06
448.455	95.06
448.675	110.06
448.896	116.06
449.117	95.06
449.338	105.06
449.559	122.06
449.779	126.06
450	91.06
450.221	87.06
450.442	92.06
450.662	96.06
450.883	109.06
451.104	124.06
451.324	97.06
451.545	95.06
451.766	84.06
451.986	82.06
452.207	98.06
452.428	105.06
452.648	98.06
452.869	125.06
453.089	113.06
453.31	142.06
453.53	88.06
453.751	98.06
453.971	97.06
454.192	105.06
454.412	89.06
454.633	92.06
454.853	89.06
455.073	89.06
455.294	102.06
455.514	92.06
455.734	84.06
455.955	99.06
456.175	72.06
456.395	93.06
456.616	86.06
456.836	87.06
457.056	86.06
457.276	80.06
457.497	85.06
457.717	93.06
457.937	91.06
458.157	76.06
458.377	85.06
458.598	108.06
458.818	173.06
459.038	193.06
459.258	143.06
459.478	87.06
459.698	82.06
459.918	82.06
460.138	74.06
460.358	87.06
460.578	71.06
460.798	83.06
461.018	98.06
461.238	76.06
461.458	83.06
461.678	89.06
461.898	75.06
462.118	82.06
462.338	92.06
462.558	101.06
462.777	85.06
462.997	89.06
463.217	96.06
463.437	93.06
463.657	81.06
463.876	72.06
464.096	94.06
464.316	92.06
464.536	78.06
464.755	95.06
464.975	96.06
465.195	188.06
465.414	195.06
465.634	100.06
465.854	94.06
466.073	90.06
466.293	91.06
466.512	84.06
466.732	88.06
466.951	94.06
467.171	87.06
467.391	97.06
467.61	103.06
467.829	175.06
468.049	406.06
468.268	625.06
468.488	184.06
468.707	109.06
468.927	84.06
469.146	91.06
469.365	78.06
469.585	96.06
469.804	102.06
470.023	109.06
470.243	95.06
470.462	104.06
470.681	113.06
470.901	103.06
471.12	94.06
471.339	91.06
471.558	102.06
471.777	128.06
471.997	221.06
472.216	788.06
472.435	1825.06
472.654	452.06
472.873	143.06
473.092	109.06
473.311	88.06
473.53	86.06
473.749	97.06
473.968	99.06
474.187	112.06
474.406	95.06
474.625	95.06
474.844	95.06
475.063	90.06
475.282	83.06
475.501	73.06
475.72	92.06
475.939	86.06
476.158	97.06
476.377	90.06
476.596	97.06
476.814	100.06
477.033	91.06
477.252	98.06
477.471	79.06
477.69	101.06
477.908	103.06
478.127	94.06
478.346	77.06
478.564	86.06
478.783	97.06
479.002	100.06
479.22	100.06
479.439	112.06
479.658	134.06
479.876	107.06
480.095	104.06
480.313	120.06
480.532	133.06
480.751	217.06
480.969	715.06
481.188	3111.06
481.406	1806.06
481.624	289.06
481.843	114.06
482.061	94.06
482.28	86.06
482.498	88.06
482.717	80.06
482.935	91.06
483.153	77.06
483.372	84.06
483.59	91.06
483.808	96.06
484.027	91.06
484.245	88.06
484.463	89.06
484.681	98.06
484.9	94.06
485.118	96.06
485.336	104.06
485.554	106.06
485.772	103.06
485.99	101.06
486.209	111.06
486.427	116.06
486.645	115.06
486.863	110.06
487.081	108.06
487.299	111.06
487.517	86.06
487.735	79.06
487.953	87.06
488.171	85.06
488.389	104.06
488.607	101.06
488.825	86.06
489.043	92.06
489.261	90.06
489.479	84.06
489.696	93.06
489.914	70.06
490.132	85.06
490.35	78.06
490.568	83.06
490.786	89.06
491.003	97.06
491.221	94.06
491.439	100.06
491.657	89.06
491.874	102.06
492.092	82.06
492.31	92.06
492.527	92.06
492.745	81.06
492.963	94.06
493.18	88.06
493.398	94.06
493.615	88.06
493.833	84.06
494.05	72.06
494.268	89.06
494.485	91.06
494.703	88.06
494.92	93.06
495.138	95.06
495.355	79.06
495.573	94.06
495.79	78.06
496.008	86.06
496.225	84.06
496.442	88.06
496.66	86.06
496.877	92.06
497.094	89.06
497.312	88.06
497.529	94.06
497.746	69.06
497.963	85.06
498.181	81.06
498.398	96.06
498.615	110.06
498.832	100.06
499.049	74.06
499.267	82.06
499.484	86.06
499.701	96.06
499.918	81.06
500.135	85.06
500.352	97.06
500.569	91.06
500.786	88.06
501.003	97.06
501.22	96.06
501.437	101.06
501.654	107.06
501.871	126.06
502.088	89.06
502.305	101.06
502.522	79.06
502.739	89.06
502.956	90.06
503.172	108.06
503.389	93.06
503.606	115.06
503.823	89.06
504.04	95.06
504.256	85.06
504.473	102.06
504.69	90.06
504.907	88.06
505.123	92.06
505.34	90.06
505.557	90.06
505.773	100.06
505.99	91.06
506.207	84.06
506.423	93.06
506.64	104.06
506.856	78.06
507.073	86.06
507.289	96.06
507.506	85.06
507.722	123.06
507.939	126.06
508.155	92.06
508.372	88.06
508.588	95.06
508.805	99.06
509.021	93.06
509.238	101.06
509.454	97.06
509.67	103.06
509.887	101.06
510.103	116.06
510.319	213.06
510.536	752.06
510.752	2641.06
510.968	721.06
511.184	166.06
511.401	116.06
511.617	109.06
511.833	84.06
512.049	97.06
512.265	82.06
512.481	67.06
512.698	81.06
512.914	92.06
513.13	97.06
513.346	83.06
513.562	85.06
513.778	115.06
513.994	101.06
514.21	100.06
514.426	123.06
514.642	131.06
514.858	138.06
