Data from Circ_1995_H10_HRD10591_00100.txt Node
Date: Wed Jan 03 11:37:06 EST 2024
User: Yrep
Spectrometer: HR+D1059
Trigger mode: 1
Integration Time (sec): 1.000000E-1
Scans to average: 1
Electric dark correction enabled: true
Nonlinearity correction enabled: false
Boxcar width: 0
XAxis mode: Wavelengths
Number of Pixels in Spectrum: 2048
>>>>>Begin Spectral Data<<<<<
223.165	-15.62
223.4	-15.62
223.635	-15.62
223.869	-17.62
224.104	-21.62
224.338	-10.62
224.573	-2.62
224.808	-3.62
225.042	-6.62
225.277	-5.62
225.511	-17.62
225.746	-0.62
225.98	9.38
226.215	9.38
226.449	26.38
226.683	18.38
226.918	21.38
227.152	17.38
227.387	31.38
227.621	37.38
227.856	48.38
228.09	61.38
228.324	49.38
228.559	51.38
228.793	67.38
229.027	74.38
229.262	79.38
229.496	76.38
229.73	107.38
229.964	98.38
230.199	85.38
230.433	75.38
230.667	80.38
230.901	73.38
231.136	85.38
231.37	87.38
231.604	87.38
231.838	92.38
232.072	75.38
232.306	100.38
232.541	74.38
232.775	85.38
233.009	79.38
233.243	79.38
233.477	74.38
233.711	82.38
233.945	85.38
234.179	72.38
234.413	75.38
234.647	76.38
234.881	67.38
235.115	68.38
235.349	63.38
235.583	83.38
235.817	74.38
236.051	92.38
236.285	71.38
236.519	84.38
236.753	76.38
236.987	88.38
237.221	91.38
237.455	90.38
237.689	68.38
237.922	72.38
238.156	87.38
238.39	80.38
238.624	80.38
238.858	80.38
239.091	88.38
239.325	94.38
239.559	90.38
239.793	103.38
240.027	76.38
240.26	100.38
240.494	88.38
240.728	84.38
240.961	73.38
241.195	61.38
241.429	80.38
241.662	75.38
241.896	83.38
242.13	84.38
242.363	78.38
242.597	72.38
242.83	81.38
243.064	86.38
243.298	80.38
243.531	100.38
243.765	91.38
243.998	86.38
244.232	84.38
244.465	90.38
244.699	78.38
244.932	88.38
245.166	79.38
245.399	87.38
245.633	76.38
245.866	78.38
246.099	83.38
246.333	80.38
246.566	75.38
246.8	81.38
247.033	101.38
247.266	68.38
247.5	76.38
247.733	93.38
247.966	81.38
248.2	92.38
248.433	88.38
248.666	94.38
248.899	88.38
249.133	90.38
249.366	99.38
249.599	111.38
249.832	91.38
250.066	84.38
250.299	98.38
250.532	93.38
250.765	104.38
250.998	71.38
251.231	79.38
251.465	92.38
251.698	80.38
251.931	88.38
252.164	83.38
252.397	86.38
252.63	75.38
252.863	80.38
253.096	84.38
253.329	93.38
253.562	79.38
253.795	84.38
254.028	84.38
254.261	107.38
254.494	88.38
254.727	78.38
254.96	77.38
255.193	81.38
255.426	83.38
255.659	82.38
255.892	92.38
256.124	93.38
256.357	88.38
256.59	87.38
256.823	79.38
257.056	94.38
257.289	98.38
257.521	92.38
257.754	99.38
257.987	97.38
258.22	108.38
258.452	117.38
258.685	104.38
258.918	88.38
259.151	97.38
259.383	98.38
259.616	75.38
259.849	90.38
260.081	73.38
260.314	83.38
260.547	95.38
260.779	112.38
261.012	132.38
261.244	133.38
261.477	115.38
261.71	104.38
261.942	140.38
262.175	162.38
262.407	98.38
262.64	84.38
262.872	88.38
263.105	91.38
263.337	77.38
263.57	88.38
263.802	96.38
264.035	78.38
264.267	75.38
264.499	82.38
264.732	78.38
264.964	89.38
265.197	80.38
265.429	85.38
265.661	99.38
265.894	91.38
266.126	95.38
266.358	77.38
266.591	84.38
266.823	80.38
267.055	92.38
267.287	95.38
267.52	92.38
267.752	82.38
267.984	91.38
268.216	87.38
268.448	101.38
268.681	91.38
268.913	95.38
269.145	107.38
269.377	94.38
269.609	85.38
269.841	73.38
270.073	74.38
270.306	92.38
270.538	83.38
270.77	83.38
271.002	89.38
271.234	93.38
271.466	92.38
271.698	87.38
271.93	89.38
272.162	77.38
272.394	80.38
272.626	100.38
272.858	72.38
273.09	74.38
273.322	74.38
273.553	79.38
273.785	75.38
274.017	93.38
274.249	91.38
274.481	80.38
274.713	85.38
274.945	95.38
275.176	104.38
275.408	115.38
275.64	132.38
275.872	156.38
276.104	121.38
276.335	129.38
276.567	144.38
276.799	192.38
277.031	265.38
277.262	313.38
277.494	234.38
277.726	128.38
277.957	94.38
278.189	101.38
278.421	92.38
278.652	94.38
278.884	101.38
279.115	99.38
279.347	108.38
279.579	126.38
279.81	175.38
280.042	329.38
280.273	444.38
280.505	281.38
280.736	139.38
280.968	95.38
281.199	93.38
281.431	87.38
281.662	92.38
281.894	97.38
282.125	115.38
282.356	147.38
282.588	202.38
282.819	140.38
283.051	93.38
283.282	103.38
283.513	84.38
283.745	87.38
283.976	98.38
284.207	95.38
284.439	86.38
284.67	83.38
284.901	82.38
285.132	84.38
285.364	83.38
285.595	83.38
285.826	83.38
286.057	94.38
286.288	85.38
286.52	94.38
286.751	95.38
286.982	96.38
287.213	89.38
287.444	91.38
287.675	84.38
287.906	87.38
288.138	79.38
288.369	107.38
288.6	111.38
288.831	96.38
289.062	89.38
289.293	96.38
289.524	85.38
289.755	66.38
289.986	81.38
290.217	99.38
290.448	88.38
290.679	84.38
290.91	81.38
291.141	93.38
291.371	103.38
291.602	90.38
291.833	95.38
292.064	99.38
292.295	99.38
292.526	91.38
292.757	99.38
292.987	90.38
293.218	97.38
293.449	99.38
293.68	104.38
293.91	97.38
294.141	122.38
294.372	91.38
294.603	82.38
294.833	72.38
295.064	87.38
295.295	95.38
295.525	94.38
295.756	113.38
295.987	123.38
296.217	170.38
296.448	185.38
296.679	99.38
296.909	104.38
297.14	75.38
297.37	93.38
297.601	92.38
297.831	82.38
298.062	105.38
298.292	93.38
298.523	99.38
298.753	92.38
298.984	101.38
299.214	92.38
299.445	93.38
299.675	89.38
299.905	107.38
300.136	88.38
300.366	99.38
300.597	101.38
300.827	100.38
301.057	117.38
301.288	125.38
301.518	110.38
301.748	107.38
301.979	123.38
302.209	108.38
302.439	105.38
302.669	82.38
302.9	94.38
303.13	105.38
303.36	126.38
303.59	167.38
303.82	189.38
304.051	130.38
304.281	99.38
304.511	99.38
304.741	100.38
304.971	97.38
305.201	93.38
305.431	81.38
305.661	89.38
305.891	108.38
306.121	91.38
306.352	117.38
306.582	139.38
306.812	113.38
307.042	157.38
307.272	225.38
307.502	267.38
307.731	217.38
307.961	155.38
308.191	112.38
308.421	100.38
308.651	104.38
308.881	99.38
309.111	97.38
309.341	111.38
309.571	113.38
309.8	105.38
310.03	119.38
310.26	120.38
310.49	108.38
310.72	109.38
310.949	121.38
311.179	129.38
311.409	104.38
311.639	110.38
311.868	122.38
312.098	102.38
312.328	101.38
312.557	123.38
312.787	158.38
313.017	122.38
313.246	90.38
313.476	96.38
313.706	113.38
313.935	111.38
314.165	115.38
314.394	145.38
314.624	107.38
314.853	116.38
315.083	99.38
315.312	107.38
315.542	98.38
315.771	90.38
316.001	96.38
316.23	92.38
316.46	87.38
316.689	105.38
316.919	101.38
317.148	100.38
317.377	93.38
317.607	106.38
317.836	110.38
318.065	105.38
318.295	105.38
318.524	104.38
318.753	103.38
318.983	102.38
319.212	105.38
319.441	137.38
319.67	140.38
319.9	112.38
320.129	103.38
320.358	91.38
320.587	99.38
320.816	119.38
321.046	131.38
321.275	106.38
321.504	104.38
321.733	111.38
321.962	116.38
322.191	115.38
322.42	130.38
322.649	138.38
322.878	132.38
323.108	168.38
323.337	157.38
323.566	173.38
323.795	208.38
324.024	272.38
324.253	578.38
324.482	1259.38
324.71	2605.38
324.939	3512.38
325.168	1261.38
325.397	356.38
325.626	203.38
325.855	155.38
326.084	188.38
326.313	163.38
326.542	213.38
326.77	315.38
326.999	614.38
327.228	1307.38
327.457	2414.38
327.686	1990.38
327.914	759.38
328.143	859.38
328.372	1162.38
328.6	609.38
328.829	262.38
329.058	236.38
329.287	263.38
329.515	253.38
329.744	384.38
329.972	794.38
330.201	1739.38
330.43	2607.38
330.658	1098.38
330.887	431.38
331.115	251.38
331.344	161.38
331.572	136.38
331.801	164.38
332.03	156.38
332.258	139.38
332.486	128.38
332.715	116.38
332.943	126.38
333.172	160.38
333.4	171.38
333.629	220.38
333.857	320.38
334.085	668.38
334.314	1544.38
334.542	3134.38
334.771	2996.38
334.999	717.38
335.227	247.38
335.455	141.38
335.684	145.38
335.912	115.38
336.14	115.38
336.369	111.38
336.597	123.38
336.825	128.38
337.053	94.38
337.281	116.38
337.51	97.38
337.738	112.38
337.966	112.38
338.194	106.38
338.422	114.38
338.65	112.38
338.878	110.38
339.106	100.38
339.334	117.38
339.562	88.38
339.79	119.38
340.018	107.38
340.246	100.38
340.474	117.38
340.702	118.38
340.93	111.38
341.158	116.38
341.386	109.38
341.614	119.38
341.842	112.38
342.07	89.38
342.298	90.38
342.526	79.38
342.754	98.38
342.981	87.38
343.209	108.38
343.437	102.38
343.665	87.38
343.893	93.38
344.12	98.38
344.348	93.38
344.576	98.38
344.804	87.38
345.031	107.38
345.259	117.38
345.487	113.38
345.714	105.38
345.942	99.38
346.17	92.38
346.397	94.38
346.625	108.38
346.853	106.38
347.08	89.38
347.308	101.38
347.535	103.38
347.763	125.38
347.99	111.38
348.218	121.38
348.445	125.38
348.673	122.38
348.9	105.38
349.128	106.38
349.355	109.38
349.583	104.38
349.81	95.38
350.037	99.38
350.265	101.38
350.492	109.38
350.72	107.38
350.947	116.38
351.174	130.38
351.402	128.38
351.629	122.38
351.856	124.38
352.083	118.38
352.311	140.38
352.538	132.38
352.765	142.38
352.992	146.38
353.22	127.38
353.447	121.38
353.674	103.38
353.901	106.38
354.128	96.38
354.355	95.38
354.583	117.38
354.81	96.38
355.037	98.38
355.264	96.38
355.491	99.38
355.718	107.38
355.945	99.38
356.172	92.38
356.399	96.38
356.626	97.38
356.853	94.38
357.08	96.38
357.307	95.38
357.534	80.38
357.761	103.38
357.988	89.38
358.215	83.38
358.441	98.38
358.668	112.38
358.895	100.38
359.122	95.38
359.349	98.38
359.576	112.38
359.802	141.38
360.029	175.38
360.256	143.38
360.483	133.38
360.709	103.38
360.936	96.38
361.163	93.38
361.39	116.38
361.616	107.38
361.843	104.38
362.07	105.38
362.296	116.38
362.523	106.38
362.749	95.38
362.976	101.38
363.203	95.38
363.429	92.38
363.656	94.38
363.882	96.38
364.109	98.38
364.335	107.38
364.562	95.38
364.788	101.38
365.015	112.38
365.241	105.38
365.468	137.38
365.694	131.38
365.92	116.38
366.147	98.38
366.373	98.38
366.599	96.38
366.826	107.38
367.052	100.38
367.278	91.38
367.505	98.38
367.731	100.38
367.957	103.38
368.184	103.38
368.41	116.38
368.636	140.38
368.862	147.38
369.089	133.38
369.315	110.38
369.541	96.38
369.767	119.38
369.993	105.38
370.219	92.38
370.445	98.38
370.672	93.38
370.898	90.38
371.124	77.38
371.35	93.38
371.576	92.38
371.802	82.38
372.028	104.38
372.254	97.38
372.48	84.38
372.706	95.38
372.932	93.38
373.158	101.38
373.384	87.38
373.61	98.38
373.835	101.38
374.061	96.38
374.287	103.38
374.513	100.38
374.739	86.38
374.965	88.38
375.191	85.38
375.416	89.38
375.642	83.38
375.868	96.38
376.094	93.38
376.319	82.38
376.545	92.38
376.771	99.38
376.997	98.38
377.222	100.38
377.448	93.38
377.674	95.38
377.899	89.38
378.125	93.38
378.35	101.38
378.576	101.38
378.802	87.38
379.027	87.38
379.253	82.38
379.478	91.38
379.704	89.38
379.929	106.38
380.155	90.38
380.38	114.38
380.606	103.38
380.831	101.38
381.057	111.38
381.282	106.38
381.507	94.38
381.733	94.38
381.958	90.38
382.184	83.38
382.409	94.38
382.634	107.38
382.86	114.38
383.085	110.38
383.31	99.38
383.535	98.38
383.761	105.38
383.986	103.38
384.211	95.38
384.436	101.38
384.662	93.38
384.887	99.38
385.112	89.38
385.337	105.38
385.562	103.38
385.787	106.38
386.013	117.38
386.238	140.38
386.463	110.38
386.688	109.38
386.913	92.38
387.138	108.38
387.363	116.38
387.588	102.38
387.813	90.38
388.038	92.38
388.263	121.38
388.488	100.38
388.713	96.38
388.938	96.38
389.163	101.38
389.387	94.38
389.612	91.38
389.837	85.38
390.062	105.38
390.287	89.38
390.512	88.38
390.736	89.38
390.961	93.38
391.186	88.38
391.411	85.38
391.636	89.38
391.86	77.38
392.085	98.38
392.31	97.38
392.534	91.38
392.759	99.38
392.984	92.38
393.208	88.38
393.433	112.38
393.658	100.38
393.882	99.38
394.107	91.38
394.331	88.38
394.556	84.38
394.78	88.38
395.005	89.38
395.229	101.38
395.454	107.38
395.678	74.38
395.903	92.38
396.127	95.38
396.352	91.38
396.576	97.38
396.801	87.38
397.025	111.38
397.249	89.38
397.474	110.38
397.698	99.38
397.922	81.38
398.147	93.38
398.371	90.38
398.595	87.38
398.82	87.38
399.044	95.38
399.268	93.38
399.492	98.38
399.717	91.38
399.941	93.38
400.165	83.38
400.389	101.38
400.613	91.38
400.837	105.38
401.062	92.38
401.286	98.38
401.51	84.38
401.734	98.38
401.958	130.38
402.182	162.38
402.406	242.38
402.63	172.38
402.854	107.38
403.078	93.38
403.302	93.38
403.526	97.38
403.75	90.38
403.974	88.38
404.198	82.38
404.422	100.38
404.645	101.38
404.869	111.38
405.093	144.38
405.317	168.38
405.541	171.38
405.765	151.38
405.988	156.38
406.212	245.38
406.436	410.38
406.66	266.38
406.883	144.38
407.107	123.38
407.331	109.38
407.555	120.38
407.778	121.38
408.002	84.38
408.226	111.38
408.449	94.38
408.673	88.38
408.896	111.38
409.12	105.38
409.344	97.38
409.567	93.38
409.791	87.38
410.014	96.38
410.238	92.38
410.461	85.38
410.685	95.38
410.908	114.38
411.132	111.38
411.355	103.38
411.578	93.38
411.802	98.38
412.025	101.38
412.249	116.38
412.472	137.38
412.695	155.38
412.919	116.38
413.142	101.38
413.365	89.38
413.589	80.38
413.812	97.38
414.035	104.38
414.258	101.38
414.482	94.38
414.705	94.38
414.928	81.38
415.151	95.38
415.374	95.38
415.597	89.38
415.821	88.38
416.044	97.38
416.267	105.38
416.49	101.38
416.713	93.38
416.936	96.38
417.159	108.38
417.382	112.38
417.605	125.38
417.828	131.38
418.051	124.38
418.274	98.38
418.497	101.38
418.72	104.38
418.943	86.38
419.166	80.38
419.389	96.38
419.611	97.38
419.834	88.38
420.057	104.38
420.28	94.38
420.503	100.38
420.726	108.38
420.948	105.38
421.171	108.38
421.394	126.38
421.617	88.38
421.839	93.38
422.062	96.38
422.285	109.38
422.507	106.38
422.73	123.38
422.953	104.38
423.175	68.38
423.398	86.38
423.621	95.38
423.843	93.38
424.066	100.38
424.288	97.38
424.511	95.38
424.733	116.38
424.956	128.38
425.178	111.38
425.401	116.38
425.623	123.38
425.846	107.38
426.068	106.38
426.291	111.38
426.513	104.38
426.735	107.38
426.958	104.38
427.18	130.38
427.402	221.38
427.625	353.38
427.847	304.38
428.069	276.38
428.292	152.38
428.514	105.38
428.736	104.38
428.958	101.38
429.181	99.38
429.403	101.38
429.625	100.38
429.847	108.38
430.069	121.38
430.292	113.38
430.514	84.38
430.736	97.38
430.958	84.38
431.18	93.38
431.402	89.38
431.624	96.38
431.846	75.38
432.068	89.38
432.29	97.38
432.512	98.38
432.734	86.38
432.956	92.38
433.178	105.38
433.4	98.38
433.622	85.38
433.844	89.38
434.066	91.38
434.287	91.38
434.509	107.38
434.731	99.38
434.953	101.38
435.175	97.38
435.397	101.38
435.618	106.38
435.84	118.38
436.062	151.38
436.284	148.38
436.505	119.38
436.727	107.38
436.949	106.38
437.17	99.38
437.392	94.38
437.614	90.38
437.835	138.38
438.057	171.38
438.278	144.38
438.5	129.38
438.721	158.38
438.943	108.38
439.165	87.38
439.386	107.38
439.608	117.38
439.829	137.38
440.05	188.38
440.272	226.38
440.493	136.38
440.715	93.38
440.936	103.38
441.158	101.38
441.379	82.38
441.6	106.38
441.822	130.38
442.043	116.38
442.264	108.38
442.486	135.38
442.707	105.38
442.928	140.38
443.149	208.38
443.371	214.38
443.592	154.38
443.813	145.38
444.034	136.38
444.255	97.38
444.476	95.38
444.698	91.38
444.919	92.38
445.14	145.38
445.361	141.38
445.582	155.38
445.803	220.38
446.024	208.38
446.245	195.38
446.466	141.38
446.687	100.38
446.908	95.38
447.129	102.38
447.35	95.38
447.571	110.38
447.792	133.38
448.013	98.38
448.234	145.38
448.455	123.38
448.675	137.38
448.896	155.38
449.117	123.38
449.338	121.38
449.559	167.38
449.779	159.38
450	105.38
450.221	83.38
450.442	97.38
450.662	121.38
450.883	160.38
451.104	157.38
451.324	126.38
451.545	88.38
451.766	111.38
451.986	81.38
452.207	94.38
452.428	111.38
452.648	125.38
452.869	155.38
453.089	162.38
453.31	186.38
453.53	113.38
453.751	113.38
453.971	132.38
454.192	166.38
454.412	112.38
454.633	91.38
454.853	91.38
455.073	84.38
455.294	106.38
455.514	144.38
455.734	109.38
455.955	92.38
456.175	85.38
456.395	76.38
456.616	99.38
456.836	100.38
457.056	85.38
457.276	87.38
457.497	92.38
457.717	90.38
457.937	98.38
458.157	79.38
458.377	110.38
458.598	152.38
458.818	283.38
459.038	290.38
459.258	187.38
459.478	105.38
459.698	104.38
459.918	106.38
460.138	89.38
460.358	98.38
460.578	90.38
460.798	101.38
461.018	109.38
461.238	97.38
461.458	87.38
461.678	106.38
461.898	92.38
462.118	82.38
462.338	92.38
462.558	89.38
462.777	101.38
462.997	119.38
463.217	144.38
463.437	111.38
463.657	102.38
463.876	91.38
464.096	105.38
464.316	104.38
464.536	119.38
464.755	104.38
464.975	155.38
465.195	308.38
465.414	327.38
465.634	137.38
465.854	116.38
466.073	95.38
466.293	96.38
466.512	100.38
466.732	96.38
466.951	91.38
467.171	110.38
467.391	145.38
467.61	205.38
467.829	317.38
468.049	987.38
468.268	1574.38
468.488	350.38
468.707	149.38
468.927	107.38
469.146	98.38
469.365	103.38
469.585	96.38
469.804	127.38
470.023	132.38
470.243	122.38
470.462	128.38
470.681	169.38
470.901	122.38
471.12	107.38
471.339	121.38
471.558	137.38
471.777	196.38
471.997	469.38
472.216	1898.38
472.435	4596.38
472.654	996.38
472.873	211.38
473.092	140.38
473.311	114.38
473.53	107.38
473.749	100.38
473.968	125.38
474.187	143.38
474.406	118.38
474.625	87.38
474.844	96.38
475.063	98.38
475.282	95.38
475.501	88.38
475.72	96.38
475.939	96.38
476.158	94.38
476.377	94.38
476.596	87.38
476.814	108.38
477.033	108.38
477.252	100.38
477.471	89.38
477.69	94.38
477.908	116.38
478.127	115.38
478.346	100.38
478.564	104.38
478.783	127.38
479.002	132.38
479.22	126.38
479.439	152.38
479.658	159.38
479.876	171.38
480.095	151.38
480.313	174.38
480.532	205.38
480.751	413.38
480.969	1642.38
481.188	7509.38
481.406	4308.38
481.624	564.38
481.843	192.38
482.061	127.38
482.28	108.38
482.498	115.38
482.717	99.38
482.935	104.38
483.153	89.38
483.372	100.38
483.59	89.38
483.808	101.38
484.027	101.38
484.245	107.38
484.463	101.38
484.681	114.38
484.9	97.38
485.118	101.38
485.336	93.38
485.554	113.38
485.772	118.38
485.99	124.38
486.209	118.38
486.427	129.38
486.645	128.38
486.863	133.38
487.081	121.38
487.299	101.38
487.517	100.38
487.735	84.38
487.953	101.38
488.171	91.38
488.389	103.38
488.607	106.38
488.825	105.38
489.043	99.38
489.261	98.38
489.479	83.38
489.696	95.38
489.914	96.38
490.132	101.38
490.35	100.38
490.568	96.38
490.786	98.38
491.003	101.38
491.221	103.38
491.439	105.38
491.657	96.38
491.874	96.38
492.092	92.38
492.31	98.38
492.527	103.38
492.745	104.38
492.963	81.38
493.18	108.38
493.398	102.38
493.615	109.38
493.833	99.38
494.05	87.38
494.268	98.38
494.485	105.38
494.703	96.38
494.92	111.38
495.138	94.38
495.355	104.38
495.573	106.38
495.79	91.38
496.008	106.38
496.225	92.38
496.442	98.38
496.66	107.38
496.877	93.38
497.094	112.38
497.312	97.38
497.529	98.38
497.746	95.38
497.963	102.38
498.181	92.38
498.398	99.38
498.615	123.38
498.832	122.38
499.049	90.38
499.267	94.38
499.484	92.38
499.701	95.38
499.918	72.38
500.135	97.38
500.352	96.38
500.569	110.38
500.786	100.38
501.003	88.38
501.22	99.38
501.437	79.38
501.654	112.38
501.871	154.38
502.088	106.38
502.305	87.38
502.522	92.38
502.739	103.38
502.956	100.38
503.172	103.38
503.389	107.38
503.606	130.38
503.823	117.38
504.04	96.38
504.256	104.38
504.473	97.38
504.69	104.38
504.907	97.38
505.123	110.38
505.34	95.38
505.557	99.38
505.773	104.38
505.99	89.38
506.207	96.38
506.423	91.38
506.64	96.38
506.856	89.38
507.073	94.38
507.289	105.38
507.506	122.38
507.722	147.38
507.939	179.38
508.155	113.38
508.372	102.38
508.588	95.38
508.805	97.38
509.021	102.38
509.238	125.38
509.454	114.38
509.67	128.38
509.887	122.38
510.103	155.38
510.319	295.38
510.536	1120.38
