Data from Circ_1995_H10_HRD10591_00048.txt Node
Date: Wed Jan 03 11:36:56 EST 2024
User: Yrep
Spectrometer: HR+D1059
Trigger mode: 1
Integration Time (sec): 1.000000E-1
Scans to average: 1
Electric dark correction enabled: true
Nonlinearity correction enabled: false
Boxcar width: 0
XAxis mode: Wavelengths
Number of Pixels in Spectrum: 2048
>>>>>Begin Spectral Data<<<<<
223.165	-19.38
223.4	-19.38
223.635	-19.38
223.869	-18.38
224.104	-21.38
224.338	-16.38
224.573	-17.38
224.808	-15.38
225.042	-1.38
225.277	-5.38
225.511	-3.38
225.746	13.62
225.98	18.62
226.215	7.62
226.449	14.62
226.683	14.62
226.918	30.62
227.152	18.62
227.387	22.62
227.621	34.62
227.856	48.62
228.09	46.62
228.324	59.62
228.559	55.62
228.793	50.62
229.027	78.62
229.262	69.62
229.496	90.62
229.73	110.62
229.964	93.62
230.199	65.62
230.433	68.62
230.667	89.62
230.901	88.62
231.136	68.62
231.37	94.62
231.604	71.62
231.838	68.62
232.072	66.62
232.306	72.62
232.541	79.62
232.775	89.62
233.009	61.62
233.243	83.62
233.477	82.62
233.711	77.62
233.945	75.62
234.179	83.62
234.413	76.62
234.647	69.62
234.881	74.62
235.115	81.62
235.349	74.62
235.583	78.62
235.817	78.62
236.051	80.62
236.285	78.62
236.519	80.62
236.753	83.62
236.987	80.62
237.221	95.62
237.455	88.62
237.689	85.62
237.922	81.62
238.156	78.62
238.39	64.62
238.624	83.62
238.858	87.62
239.091	79.62
239.325	72.62
239.559	94.62
239.793	89.62
240.027	71.62
240.26	69.62
240.494	73.62
240.728	69.62
240.961	66.62
241.195	77.62
241.429	70.62
241.662	82.62
241.896	65.62
242.13	79.62
242.363	77.62
242.597	87.62
242.83	78.62
243.064	93.62
243.298	78.62
243.531	83.62
243.765	70.62
243.998	64.62
244.232	78.62
244.465	90.62
244.699	73.62
244.932	79.62
245.166	86.62
245.399	87.62
245.633	80.62
245.866	79.62
246.099	71.62
246.333	76.62
246.566	81.62
246.8	80.62
247.033	79.62
247.266	85.62
247.5	86.62
247.733	73.62
247.966	68.62
248.2	75.62
248.433	67.62
248.666	71.62
248.899	88.62
249.133	99.62
249.366	109.62
249.599	121.62
249.832	74.62
250.066	96.62
250.299	91.62
250.532	90.62
250.765	74.62
250.998	81.62
251.231	82.62
251.465	99.62
251.698	85.62
251.931	90.62
252.164	99.62
252.397	85.62
252.63	92.62
252.863	84.62
253.096	72.62
253.329	81.62
253.562	71.62
253.795	82.62
254.028	87.62
254.261	70.62
254.494	67.62
254.727	89.62
254.96	79.62
255.193	85.62
255.426	76.62
255.659	91.62
255.892	86.62
256.124	106.62
256.357	87.62
256.59	95.62
256.823	81.62
257.056	76.62
257.289	86.62
257.521	97.62
257.754	89.62
257.987	73.62
258.22	98.62
258.452	113.62
258.685	99.62
258.918	87.62
259.151	89.62
259.383	88.62
259.616	85.62
259.849	86.62
260.081	78.62
260.314	85.62
260.547	101.62
260.779	102.62
261.012	119.62
261.244	118.62
261.477	102.62
261.71	108.62
261.942	140.62
262.175	163.62
262.407	98.62
262.64	97.62
262.872	91.62
263.105	73.62
263.337	81.62
263.57	88.62
263.802	85.62
264.035	79.62
264.267	69.62
264.499	86.62
264.732	79.62
264.964	85.62
265.197	90.62
265.429	90.62
265.661	89.62
265.894	86.62
266.126	79.62
266.358	80.62
266.591	83.62
266.823	88.62
267.055	84.62
267.287	75.62
267.52	91.62
267.752	88.62
267.984	84.62
268.216	97.62
268.448	81.62
268.681	89.62
268.913	76.62
269.145	72.62
269.377	77.62
269.609	85.62
269.841	93.62
270.073	81.62
270.306	77.62
270.538	74.62
270.77	94.62
271.002	82.62
271.234	82.62
271.466	91.62
271.698	79.62
271.93	89.62
272.162	77.62
272.394	89.62
272.626	98.62
272.858	84.62
273.09	93.62
273.322	82.62
273.553	85.62
273.785	86.62
274.017	88.62
274.249	81.62
274.481	76.62
274.713	82.62
274.945	93.62
275.176	99.62
275.408	93.62
275.64	124.62
275.872	148.62
276.104	126.62
276.335	122.62
276.567	134.62
276.799	177.62
277.031	204.62
277.262	267.62
277.494	186.62
277.726	115.62
277.957	102.62
278.189	92.62
278.421	91.62
278.652	93.62
278.884	93.62
279.115	87.62
279.347	91.62
279.579	107.62
279.81	155.62
280.042	250.62
280.273	355.62
280.505	237.62
280.736	122.62
280.968	93.62
281.199	90.62
281.431	99.62
281.662	78.62
281.894	94.62
282.125	109.62
282.356	150.62
282.588	205.62
282.819	154.62
283.051	94.62
283.282	85.62
283.513	83.62
283.745	102.62
283.976	96.62
284.207	78.62
284.439	85.62
284.67	92.62
284.901	80.62
285.132	82.62
285.364	84.62
285.595	90.62
285.826	77.62
286.057	98.62
286.288	94.62
286.52	87.62
286.751	90.62
286.982	87.62
287.213	85.62
287.444	82.62
287.675	102.62
287.906	88.62
288.138	85.62
288.369	86.62
288.6	79.62
288.831	80.62
289.062	100.62
289.293	86.62
289.524	98.62
289.755	93.62
289.986	89.62
290.217	80.62
290.448	94.62
290.679	75.62
290.91	78.62
291.141	83.62
291.371	82.62
291.602	81.62
291.833	101.62
292.064	77.62
292.295	81.62
292.526	93.62
292.757	78.62
292.987	88.62
293.218	98.62
293.449	86.62
293.68	101.62
293.91	83.62
294.141	98.62
294.372	100.62
294.603	81.62
294.833	83.62
295.064	90.62
295.295	97.62
295.525	97.62
295.756	114.62
295.987	145.62
296.217	175.62
296.448	161.62
296.679	104.62
296.909	91.62
297.14	91.62
297.37	78.62
297.601	83.62
297.831	89.62
298.062	102.62
298.292	97.62
298.523	83.62
298.753	82.62
298.984	92.62
299.214	89.62
299.445	90.62
299.675	92.62
299.905	106.62
300.136	99.62
300.366	95.62
300.597	93.62
300.827	89.62
301.057	103.62
301.288	113.62
301.518	121.62
301.748	106.62
301.979	114.62
302.209	118.62
302.439	91.62
302.669	89.62
302.9	98.62
303.13	97.62
303.36	112.62
303.59	151.62
303.82	169.62
304.051	118.62
304.281	91.62
304.511	93.62
304.741	83.62
304.971	94.62
305.201	77.62
305.431	91.62
305.661	93.62
305.891	93.62
306.121	112.62
306.352	121.62
306.582	124.62
306.812	123.62
307.042	151.62
307.272	186.62
307.502	222.62
307.731	185.62
307.961	152.62
308.191	103.62
308.421	97.62
308.651	88.62
308.881	96.62
309.111	97.62
309.341	88.62
309.571	99.62
309.8	104.62
310.03	119.62
310.26	111.62
310.49	104.62
310.72	124.62
310.949	134.62
311.179	118.62
311.409	109.62
311.639	102.62
311.868	108.62
312.098	113.62
312.328	103.62
312.557	130.62
312.787	138.62
313.017	124.62
313.246	98.62
313.476	93.62
313.706	101.62
313.935	105.62
314.165	127.62
314.394	127.62
314.624	119.62
314.853	91.62
315.083	82.62
315.312	89.62
315.542	85.62
315.771	92.62
316.001	78.62
316.23	85.62
316.46	91.62
316.689	99.62
316.919	108.62
317.148	107.62
317.377	102.62
317.607	105.62
317.836	102.62
318.065	95.62
318.295	90.62
318.524	107.62
318.753	99.62
318.983	92.62
319.212	91.62
319.441	118.62
319.67	126.62
319.9	108.62
320.129	96.62
320.358	103.62
320.587	106.62
320.816	101.62
321.046	114.62
321.275	101.62
321.504	105.62
321.733	105.62
321.962	107.62
322.191	112.62
322.42	121.62
322.649	134.62
322.878	123.62
323.108	126.62
323.337	160.62
323.566	161.62
323.795	204.62
324.024	280.62
324.253	601.62
324.482	1344.62
324.71	2794.62
324.939	3758.62
325.168	1357.62
325.397	361.62
325.626	197.62
325.855	160.62
326.084	158.62
326.313	170.62
326.542	186.62
326.77	332.62
326.999	640.62
327.228	1397.62
327.457	2661.62
327.686	2181.62
327.914	721.62
328.143	746.62
328.372	1009.62
328.6	555.62
328.829	237.62
329.058	231.62
329.287	244.62
329.515	209.62
329.744	329.62
329.972	691.62
330.201	1484.62
330.43	2239.62
330.658	961.62
330.887	392.62
331.115	251.62
331.344	142.62
331.572	129.62
331.801	145.62
332.03	155.62
332.258	119.62
332.486	109.62
332.715	119.62
332.943	128.62
333.172	133.62
333.4	138.62
333.629	193.62
333.857	296.62
334.085	595.62
334.314	1301.62
334.542	2731.62
334.771	2564.62
334.999	616.62
335.227	225.62
335.455	143.62
335.684	128.62
335.912	112.62
336.14	109.62
336.369	115.62
336.597	121.62
336.825	112.62
337.053	109.62
337.281	103.62
337.51	110.62
337.738	106.62
337.966	107.62
338.194	113.62
338.422	105.62
338.65	97.62
338.878	115.62
339.106	110.62
339.334	99.62
339.562	102.62
339.79	101.62
340.018	113.62
340.246	105.62
340.474	111.62
340.702	104.62
340.93	105.62
341.158	89.62
341.386	102.62
341.614	106.62
341.842	96.62
342.07	97.62
342.298	93.62
342.526	86.62
342.754	98.62
342.981	96.62
343.209	94.62
343.437	97.62
343.665	80.62
343.893	87.62
344.12	92.62
344.348	90.62
344.576	100.62
344.804	108.62
345.031	116.62
345.259	114.62
345.487	99.62
345.714	96.62
345.942	105.62
346.17	98.62
346.397	95.62
346.625	92.62
346.853	95.62
347.08	97.62
347.308	94.62
347.535	102.62
347.763	99.62
347.99	112.62
348.218	112.62
348.445	121.62
348.673	124.62
348.9	94.62
349.128	107.62
349.355	98.62
349.583	107.62
349.81	93.62
350.037	95.62
350.265	99.62
350.492	108.62
350.72	104.62
350.947	98.62
351.174	117.62
351.402	139.62
351.629	119.62
351.856	107.62
352.083	115.62
352.311	110.62
352.538	121.62
352.765	134.62
352.992	116.62
353.22	122.62
353.447	116.62
353.674	105.62
353.901	101.62
354.128	94.62
354.355	84.62
354.583	98.62
354.81	101.62
355.037	84.62
355.264	81.62
355.491	85.62
355.718	87.62
355.945	88.62
356.172	89.62
356.399	93.62
356.626	95.62
356.853	88.62
357.08	81.62
357.307	75.62
357.534	102.62
357.761	92.62
357.988	109.62
358.215	93.62
358.441	97.62
358.668	93.62
358.895	95.62
359.122	96.62
359.349	94.62
359.576	97.62
359.802	130.62
360.029	167.62
360.256	161.62
360.483	129.62
360.709	88.62
360.936	103.62
361.163	101.62
361.39	101.62
361.616	99.62
361.843	104.62
362.07	116.62
362.296	110.62
362.523	97.62
362.749	99.62
362.976	88.62
363.203	86.62
363.429	90.62
363.656	108.62
363.882	106.62
364.109	96.62
364.335	99.62
364.562	91.62
364.788	89.62
365.015	98.62
365.241	118.62
365.468	121.62
365.694	131.62
365.92	113.62
366.147	98.62
366.373	85.62
366.599	103.62
366.826	96.62
367.052	85.62
367.278	95.62
367.505	95.62
367.731	109.62
367.957	108.62
368.184	97.62
368.41	102.62
368.636	119.62
368.862	153.62
369.089	98.62
369.315	118.62
369.541	103.62
369.767	103.62
369.993	103.62
370.219	85.62
370.445	84.62
370.672	89.62
370.898	85.62
371.124	108.62
371.35	85.62
371.576	83.62
371.802	92.62
372.028	75.62
372.254	87.62
372.48	83.62
372.706	90.62
372.932	95.62
373.158	69.62
373.384	82.62
373.61	96.62
373.835	86.62
374.061	99.62
374.287	99.62
374.513	84.62
374.739	99.62
374.965	87.62
375.191	86.62
375.416	87.62
375.642	86.62
375.868	88.62
376.094	94.62
376.319	96.62
376.545	86.62
376.771	95.62
376.997	90.62
377.222	78.62
377.448	95.62
377.674	97.62
377.899	89.62
378.125	99.62
378.35	99.62
378.576	105.62
378.802	89.62
379.027	91.62
379.253	87.62
379.478	101.62
379.704	96.62
379.929	97.62
380.155	101.62
380.38	95.62
380.606	86.62
380.831	85.62
381.057	97.62
381.282	91.62
381.507	82.62
381.733	107.62
381.958	94.62
382.184	102.62
382.409	107.62
382.634	101.62
382.86	98.62
383.085	94.62
383.31	100.62
383.535	99.62
383.761	104.62
383.986	94.62
384.211	95.62
384.436	99.62
384.662	101.62
384.887	88.62
385.112	110.62
385.337	97.62
385.562	109.62
385.787	95.62
386.013	125.62
386.238	120.62
386.463	109.62
386.688	96.62
386.913	103.62
387.138	103.62
387.363	100.62
387.588	105.62
387.813	112.62
388.038	109.62
388.263	106.62
388.488	116.62
388.713	92.62
388.938	99.62
389.163	85.62
389.387	82.62
389.612	91.62
389.837	90.62
390.062	88.62
390.287	76.62
390.512	82.62
390.736	86.62
390.961	94.62
391.186	83.62
391.411	98.62
391.636	77.62
391.86	69.62
392.085	94.62
392.31	77.62
392.534	83.62
392.759	76.62
392.984	73.62
393.208	90.62
393.433	86.62
393.658	81.62
393.882	84.62
394.107	87.62
394.331	86.62
394.556	85.62
394.78	95.62
395.005	84.62
395.229	65.62
395.454	89.62
395.678	98.62
395.903	96.62
396.127	87.62
396.352	87.62
396.576	76.62
396.801	88.62
397.025	90.62
397.249	94.62
397.474	85.62
397.698	82.62
397.922	83.62
398.147	89.62
398.371	79.62
398.595	90.62
398.82	81.62
399.044	90.62
399.268	90.62
399.492	90.62
399.717	101.62
399.941	88.62
400.165	94.62
400.389	86.62
400.613	96.62
400.837	88.62
401.062	78.62
401.286	109.62
401.51	96.62
401.734	99.62
401.958	112.62
402.182	153.62
402.406	228.62
402.63	157.62
402.854	122.62
403.078	94.62
403.302	89.62
403.526	77.62
403.75	91.62
403.974	93.62
404.198	88.62
404.422	89.62
404.645	101.62
404.869	111.62
405.093	131.62
405.317	142.62
405.541	158.62
405.765	131.62
405.988	149.62
406.212	240.62
406.436	370.62
406.66	252.62
406.883	140.62
407.107	120.62
407.331	112.62
407.555	115.62
407.778	107.62
408.002	95.62
408.226	79.62
408.449	105.62
408.673	96.62
408.896	95.62
409.12	104.62
409.344	100.62
409.567	98.62
409.791	94.62
410.014	95.62
410.238	90.62
410.461	94.62
410.685	99.62
410.908	102.62
411.132	115.62
411.355	117.62
411.578	95.62
411.802	98.62
412.025	99.62
412.249	111.62
412.472	130.62
412.695	145.62
412.919	117.62
413.142	105.62
413.365	80.62
413.589	83.62
413.812	94.62
414.035	106.62
414.258	65.62
414.482	97.62
414.705	95.62
414.928	93.62
415.151	91.62
415.374	81.62
415.597	79.62
415.821	100.62
416.044	106.62
416.267	102.62
416.49	95.62
416.713	98.62
416.936	77.62
417.159	82.62
417.382	98.62
417.605	110.62
417.828	117.62
418.051	115.62
418.274	77.62
418.497	75.62
418.72	81.62
418.943	95.62
419.166	82.62
419.389	88.62
419.611	105.62
419.834	104.62
420.057	96.62
420.28	108.62
420.503	85.62
420.726	93.62
420.948	96.62
421.171	102.62
421.394	110.62
421.617	98.62
421.839	94.62
422.062	86.62
422.285	96.62
422.507	114.62
422.73	106.62
422.953	86.62
423.175	82.62
423.398	96.62
423.621	96.62
423.843	79.62
424.066	72.62
424.288	95.62
424.511	86.62
424.733	123.62
424.956	125.62
425.178	119.62
425.401	125.62
425.623	96.62
425.846	103.62
426.068	106.62
426.291	91.62
426.513	92.62
426.735	102.62
426.958	112.62
427.18	137.62
427.402	206.62
427.625	315.62
427.847	317.62
428.069	299.62
428.292	159.62
428.514	96.62
428.736	109.62
428.958	88.62
429.181	95.62
429.403	101.62
429.625	95.62
429.847	100.62
430.069	121.62
430.292	102.62
430.514	76.62
430.736	85.62
430.958	100.62
431.18	86.62
431.402	83.62
431.624	92.62
431.846	86.62
432.068	90.62
432.29	79.62
432.512	101.62
432.734	87.62
432.956	86.62
433.178	108.62
433.4	105.62
433.622	99.62
433.844	81.62
434.066	88.62
434.287	82.62
434.509	99.62
434.731	98.62
434.953	89.62
435.175	76.62
435.397	102.62
435.618	98.62
435.84	119.62
436.062	153.62
436.284	135.62
436.505	110.62
436.727	107.62
436.949	91.62
437.17	106.62
437.392	112.62
437.614	114.62
437.835	128.62
438.057	176.62
438.278	144.62
438.5	125.62
438.721	159.62
438.943	110.62
439.165	90.62
439.386	97.62
439.608	107.62
439.829	112.62
440.05	171.62
440.272	226.62
440.493	130.62
440.715	99.62
440.936	103.62
441.158	76.62
441.379	98.62
441.6	104.62
441.822	117.62
442.043	124.62
442.264	121.62
442.486	117.62
442.707	109.62
442.928	134.62
443.149	207.62
443.371	217.62
443.592	154.62
443.813	150.62
444.034	127.62
444.255	107.62
444.476	99.62
444.698	104.62
444.919	86.62
445.14	136.62
445.361	153.62
445.582	154.62
445.803	233.62
446.024	197.62
446.245	195.62
446.466	160.62
446.687	107.62
446.908	99.62
447.129	103.62
447.35	94.62
447.571	99.62
447.792	106.62
448.013	115.62
448.234	139.62
448.455	138.62
448.675	131.62
448.896	165.62
449.117	126.62
449.338	93.62
449.559	143.62
449.779	170.62
450	105.62
450.221	82.62
450.442	94.62
450.662	105.62
450.883	145.62
451.104	170.62
451.324	110.62
451.545	111.62
451.766	94.62
451.986	109.62
452.207	89.62
452.428	85.62
452.648	107.62
452.869	140.62
453.089	153.62
453.31	172.62
453.53	111.62
453.751	104.62
453.971	113.62
454.192	162.62
454.412	117.62
454.633	101.62
454.853	95.62
455.073	98.62
455.294	101.62
455.514	117.62
455.734	95.62
455.955	90.62
456.175	84.62
456.395	90.62
456.616	98.62
456.836	88.62
457.056	87.62
457.276	96.62
457.497	98.62
457.717	96.62
457.937	91.62
458.157	95.62
458.377	116.62
458.598	149.62
458.818	251.62
459.038	277.62
459.258	166.62
459.478	95.62
459.698	104.62
459.918	75.62
460.138	89.62
460.358	95.62
460.578	94.62
460.798	96.62
461.018	110.62
461.238	95.62
461.458	89.62
461.678	89.62
461.898	78.62
462.118	96.62
462.338	92.62
462.558	90.62
462.777	90.62
462.997	103.62
463.217	134.62
463.437	111.62
463.657	99.62
463.876	96.62
464.096	83.62
464.316	102.62
464.536	96.62
464.755	109.62
464.975	154.62
465.195	295.62
465.414	293.62
465.634	124.62
465.854	94.62
466.073	100.62
466.293	91.62
466.512	85.62
466.732	83.62
466.951	78.62
467.171	104.62
467.391	103.62
467.61	185.62
467.829	275.62
468.049	827.62
468.268	1285.62
468.488	295.62
468.707	133.62
468.927	99.62
469.146	109.62
469.365	93.62
469.585	97.62
469.804	111.62
470.023	129.62
470.243	103.62
470.462	139.62
470.681	161.62
470.901	122.62
471.12	108.62
471.339	128.62
471.558	148.62
471.777	181.62
471.997	393.62
472.216	1561.62
472.435	3836.62
472.654	841.62
472.873	213.62
473.092	125.62
473.311	97.62
473.53	104.62
473.749	110.62
473.968	114.62
474.187	128.62
474.406	112.62
474.625	95.62
474.844	103.62
475.063	84.62
475.282	81.62
475.501	95.62
475.72	105.62
475.939	93.62
476.158	94.62
476.377	98.62
476.596	88.62
476.814	105.62
477.033	89.62
477.252	112.62
477.471	94.62
477.69	107.62
477.908	96.62
478.127	92.62
478.346	93.62
478.564	105.62
478.783	123.62
479.002	122.62
479.22	114.62
479.439	142.62
479.658	159.62
479.876	143.62
480.095	135.62
480.313	160.62
480.532	203.62
480.751	365.62
480.969	1417.62
481.188	6419.62
481.406	3649.62
481.624	503.62
481.843	173.62
482.061	118.62
482.28	111.62
482.498	98.62
482.717	101.62
482.935	104.62
483.153	97.62
483.372	93.62
483.59	84.62
483.808	81.62
484.027	77.62
484.245	87.62
484.463	108.62
484.681	93.62
484.9	94.62
485.118	86.62
485.336	87.62
485.554	88.62
485.772	93.62
485.99	97.62
486.209	102.62
486.427	109.62
486.645	123.62
486.863	147.62
487.081	114.62
487.299	115.62
487.517	111.62
487.735	104.62
487.953	101.62
488.171	106.62
488.389	114.62
488.607	102.62
488.825	94.62
489.043	94.62
489.261	94.62
489.479	82.62
489.696	88.62
489.914	91.62
490.132	90.62
490.35	97.62
490.568	97.62
490.786	93.62
491.003	110.62
491.221	90.62
491.439	96.62
491.657	108.62
491.874	103.62
492.092	88.62
492.31	97.62
492.527	114.62
492.745	98.62
492.963	89.62
493.18	101.62
493.398	87.62
493.615	115.62
493.833	98.62
494.05	103.62
494.268	84.62
494.485	86.62
494.703	84.62
494.92	87.62
495.138	84.62
495.355	95.62
495.573	91.62
495.79	95.62
496.008	97.62
496.225	90.62
496.442	90.62
496.66	104.62
496.877	82.62
497.094	80.62
497.312	81.62
497.529	93.62
497.746	91.62
497.963	96.62
498.181	91.62
498.398	105.62
498.615	116.62
498.832	105.62
499.049	101.62
499.267	91.62
499.484	82.62
499.701	98.62
499.918	89.62
500.135	93.62
500.352	93.62
500.569	95.62
500.786	105.62
501.003	83.62
501.22	85.62
501.437	97.62
501.654	110.62
501.871	153.62
502.088	104.62
502.305	87.62
502.522	97.62
502.739	90.62
502.956	109.62
503.172	94.62
503.389	94.62
503.606	131.62
503.823	114.62
504.04	88.62
504.256	92.62
504.473	78.62
504.69	95.62
504.907	96.62
505.123	90.62
505.34	91.62
505.557	94.62
505.773	96.62
505.99	95.62
506.207	93.62
506.423	86.62
506.64	96.62
506.856	92.62
507.073	80.62
507.289	102.62
507.506	114.62
507.722	132.62
507.939	157.62
508.155	116.62
508.372	86.62
508.588	96.62
508.805	101.62
509.021	97.62
509.238	105.62
509.454	106.62
509.67	119.62
509.887	119.62
510.103	160.62
510.319	282.62
510.536	1016.62
510.752	3760.62
510.968	985.62
511.184	196.62
511.401	124.62
511.617	108.62
511.833	106.62
512.049	114.62
512.265	108.62
