Data from Circ_1995_H10_HRD10591_00035.txt Node
Date: Wed Jan 03 11:36:53 EST 2024
User: Yrep
Spectrometer: HR+D1059
Trigger mode: 1
Integration Time (sec): 1.000000E-1
Scans to average: 1
Electric dark correction enabled: true
Nonlinearity correction enabled: false
Boxcar width: 0
XAxis mode: Wavelengths
Number of Pixels in Spectrum: 2048
>>>>>Begin Spectral Data<<<<<
223.165	-30.25
223.4	-30.25
223.635	-30.25
223.869	-18.25
224.104	-11.25
224.338	-6.25
224.573	-6.25
224.808	-10.25
225.042	-3.25
225.277	-7.25
225.511	-16.25
225.746	-4.25
225.98	9.75
226.215	16.75
226.449	17.75
226.683	13.75
226.918	25.75
227.152	29.75
227.387	35.75
227.621	16.75
227.856	47.75
228.09	27.75
228.324	63.75
228.559	64.75
228.793	63.75
229.027	58.75
229.262	80.75
229.496	91.75
229.73	101.75
229.964	113.75
230.199	76.75
230.433	89.75
230.667	107.75
230.901	94.75
231.136	85.75
231.37	85.75
231.604	94.75
231.838	95.75
232.072	84.75
232.306	96.75
232.541	77.75
232.775	67.75
233.009	73.75
233.243	79.75
233.477	72.75
233.711	81.75
233.945	77.75
234.179	78.75
234.413	82.75
234.647	85.75
234.881	72.75
235.115	80.75
235.349	85.75
235.583	71.75
235.817	84.75
236.051	77.75
236.285	83.75
236.519	77.75
236.753	82.75
236.987	75.75
237.221	107.75
237.455	98.75
237.689	82.75
237.922	80.75
238.156	84.75
238.39	79.75
238.624	89.75
238.858	79.75
239.091	83.75
239.325	90.75
239.559	88.75
239.793	82.75
240.027	82.75
240.26	78.75
240.494	95.75
240.728	82.75
240.961	74.75
241.195	82.75
241.429	75.75
241.662	98.75
241.896	65.75
242.13	86.75
242.363	78.75
242.597	67.75
242.83	73.75
243.064	61.75
243.298	60.75
243.531	71.75
243.765	77.75
243.998	61.75
244.232	88.75
244.465	95.75
244.699	69.75
244.932	76.75
245.166	85.75
245.399	83.75
245.633	83.75
245.866	69.75
246.099	87.75
246.333	89.75
246.566	88.75
246.8	96.75
247.033	81.75
247.266	84.75
247.5	81.75
247.733	89.75
247.966	95.75
248.2	79.75
248.433	75.75
248.666	77.75
248.899	90.75
249.133	94.75
249.366	115.75
249.599	108.75
249.832	86.75
250.066	83.75
250.299	91.75
250.532	94.75
250.765	81.75
250.998	83.75
251.231	76.75
251.465	86.75
251.698	97.75
251.931	85.75
252.164	86.75
252.397	86.75
252.63	75.75
252.863	72.75
253.096	84.75
253.329	76.75
253.562	97.75
253.795	86.75
254.028	75.75
254.261	64.75
254.494	77.75
254.727	84.75
254.96	93.75
255.193	95.75
255.426	85.75
255.659	94.75
255.892	95.75
256.124	101.75
256.357	97.75
256.59	84.75
256.823	90.75
257.056	90.75
257.289	109.75
257.521	102.75
257.754	87.75
257.987	101.75
258.22	109.75
258.452	107.75
258.685	108.75
258.918	94.75
259.151	100.75
259.383	91.75
259.616	84.75
259.849	79.75
260.081	95.75
260.314	83.75
260.547	89.75
260.779	95.75
261.012	135.75
261.244	118.75
261.477	113.75
261.71	118.75
261.942	156.75
262.175	173.75
262.407	97.75
262.64	97.75
262.872	96.75
263.105	79.75
263.337	89.75
263.57	87.75
263.802	87.75
264.035	79.75
264.267	97.75
264.499	83.75
264.732	96.75
264.964	62.75
265.197	89.75
265.429	84.75
265.661	88.75
265.894	92.75
266.126	92.75
266.358	84.75
266.591	92.75
266.823	80.75
267.055	76.75
267.287	82.75
267.52	81.75
267.752	92.75
267.984	87.75
268.216	89.75
268.448	92.75
268.681	103.75
268.913	98.75
269.145	80.75
269.377	75.75
269.609	75.75
269.841	81.75
270.073	103.75
270.306	80.75
270.538	83.75
270.77	83.75
271.002	85.75
271.234	92.75
271.466	106.75
271.698	92.75
271.93	86.75
272.162	94.75
272.394	91.75
272.626	92.75
272.858	87.75
273.09	87.75
273.322	92.75
273.553	102.75
273.785	90.75
274.017	93.75
274.249	78.75
274.481	79.75
274.713	104.75
274.945	109.75
275.176	98.75
275.408	107.75
275.64	131.75
275.872	152.75
276.104	124.75
276.335	111.75
276.567	103.75
276.799	192.75
277.031	242.75
277.262	275.75
277.494	201.75
277.726	117.75
277.957	94.75
278.189	98.75
278.421	96.75
278.652	90.75
278.884	108.75
279.115	99.75
279.347	111.75
279.579	115.75
279.81	155.75
280.042	248.75
280.273	374.75
280.505	252.75
280.736	113.75
280.968	93.75
281.199	79.75
281.431	101.75
281.662	100.75
281.894	87.75
282.125	116.75
282.356	157.75
282.588	207.75
282.819	150.75
283.051	100.75
283.282	87.75
283.513	79.75
283.745	104.75
283.976	94.75
284.207	94.75
284.439	93.75
284.67	85.75
284.901	90.75
285.132	95.75
285.364	86.75
285.595	80.75
285.826	88.75
286.057	99.75
286.288	87.75
286.52	89.75
286.751	92.75
286.982	75.75
287.213	90.75
287.444	100.75
287.675	84.75
287.906	96.75
288.138	99.75
288.369	104.75
288.6	101.75
288.831	84.75
289.062	98.75
289.293	100.75
289.524	97.75
289.755	89.75
289.986	97.75
290.217	103.75
290.448	86.75
290.679	83.75
290.91	88.75
291.141	90.75
291.371	94.75
291.602	94.75
291.833	96.75
292.064	98.75
292.295	88.75
292.526	101.75
292.757	95.75
292.987	88.75
293.218	88.75
293.449	77.75
293.68	95.75
293.91	89.75
294.141	92.75
294.372	91.75
294.603	87.75
294.833	68.75
295.064	87.75
295.295	91.75
295.525	101.75
295.756	117.75
295.987	145.75
296.217	201.75
296.448	170.75
296.679	114.75
296.909	100.75
297.14	96.75
297.37	83.75
297.601	103.75
297.831	97.75
298.062	99.75
298.292	93.75
298.523	89.75
298.753	100.75
298.984	107.75
299.214	93.75
299.445	95.75
299.675	95.75
299.905	97.75
300.136	96.75
300.366	92.75
300.597	98.75
300.827	111.75
301.057	107.75
301.288	146.75
301.518	107.75
301.748	97.75
301.979	132.75
302.209	107.75
302.439	107.75
302.669	104.75
302.9	92.75
303.13	111.75
303.36	122.75
303.59	156.75
303.82	187.75
304.051	113.75
304.281	107.75
304.511	92.75
304.741	80.75
304.971	87.75
305.201	78.75
305.431	94.75
305.661	113.75
305.891	103.75
306.121	108.75
306.352	122.75
306.582	132.75
306.812	99.75
307.042	153.75
307.272	215.75
307.502	232.75
307.731	214.75
307.961	141.75
308.191	102.75
308.421	95.75
308.651	106.75
308.881	123.75
309.111	99.75
309.341	107.75
309.571	123.75
309.8	112.75
310.03	106.75
310.26	126.75
310.49	101.75
310.72	128.75
310.949	139.75
311.179	118.75
311.409	97.75
311.639	108.75
311.868	114.75
312.098	100.75
312.328	113.75
312.557	114.75
312.787	146.75
313.017	110.75
313.246	106.75
313.476	107.75
313.706	109.75
313.935	100.75
314.165	126.75
314.394	133.75
314.624	118.75
314.853	116.75
315.083	94.75
315.312	93.75
315.542	94.75
315.771	95.75
316.001	93.75
316.23	100.75
316.46	105.75
316.689	96.75
316.919	108.75
317.148	118.75
317.377	96.75
317.607	114.75
317.836	106.75
318.065	84.75
318.295	84.75
318.524	99.75
318.753	99.75
318.983	104.75
319.212	125.75
319.441	133.75
319.67	138.75
319.9	105.75
320.129	88.75
320.358	93.75
320.587	108.75
320.816	115.75
321.046	124.75
321.275	101.75
321.504	114.75
321.733	101.75
321.962	115.75
322.191	113.75
322.42	130.75
322.649	147.75
322.878	134.75
323.108	161.75
323.337	167.75
323.566	176.75
323.795	221.75
324.024	303.75
324.253	601.75
324.482	1345.75
324.71	2827.75
324.939	3849.75
325.168	1351.75
325.397	379.75
325.626	200.75
325.855	153.75
326.084	165.75
326.313	175.75
326.542	215.75
326.77	329.75
326.999	660.75
327.228	1416.75
327.457	2617.75
327.686	2155.75
327.914	768.75
328.143	791.75
328.372	1058.75
328.6	565.75
328.829	237.75
329.058	245.75
329.287	267.75
329.515	239.75
329.744	340.75
329.972	691.75
330.201	1537.75
330.43	2313.75
330.658	977.75
330.887	423.75
331.115	263.75
331.344	143.75
331.572	145.75
331.801	146.75
332.03	149.75
332.258	132.75
332.486	122.75
332.715	112.75
332.943	133.75
333.172	147.75
333.4	157.75
333.629	208.75
333.857	297.75
334.085	635.75
334.314	1335.75
334.542	2785.75
334.771	2667.75
334.999	652.75
335.227	225.75
335.455	131.75
335.684	127.75
335.912	115.75
336.14	118.75
336.369	135.75
336.597	127.75
336.825	102.75
337.053	110.75
337.281	96.75
337.51	96.75
337.738	105.75
337.966	114.75
338.194	115.75
338.422	112.75
338.65	109.75
338.878	98.75
339.106	92.75
339.334	94.75
339.562	93.75
339.79	96.75
340.018	104.75
340.246	116.75
340.474	125.75
340.702	126.75
340.93	104.75
341.158	107.75
341.386	96.75
341.614	118.75
341.842	111.75
342.07	101.75
342.298	91.75
342.526	98.75
342.754	105.75
342.981	96.75
343.209	99.75
343.437	111.75
343.665	99.75
343.893	94.75
344.12	92.75
344.348	95.75
344.576	95.75
344.804	80.75
345.031	111.75
345.259	107.75
345.487	116.75
345.714	119.75
345.942	105.75
346.17	99.75
346.397	81.75
346.625	95.75
346.853	109.75
347.08	96.75
347.308	106.75
347.535	121.75
347.763	120.75
347.99	121.75
348.218	106.75
348.445	147.75
348.673	124.75
348.9	92.75
349.128	115.75
349.355	106.75
349.583	103.75
349.81	101.75
350.037	100.75
350.265	96.75
350.492	97.75
350.72	112.75
350.947	113.75
351.174	122.75
351.402	151.75
351.629	118.75
351.856	113.75
352.083	129.75
352.311	129.75
352.538	139.75
352.765	143.75
352.992	125.75
353.22	122.75
353.447	124.75
353.674	111.75
353.901	97.75
354.128	102.75
354.355	107.75
354.583	89.75
354.81	106.75
355.037	103.75
355.264	99.75
355.491	86.75
355.718	88.75
355.945	98.75
356.172	88.75
356.399	102.75
356.626	105.75
356.853	78.75
357.08	100.75
357.307	99.75
357.534	78.75
357.761	89.75
357.988	103.75
358.215	95.75
358.441	100.75
358.668	89.75
358.895	80.75
359.122	92.75
359.349	100.75
359.576	110.75
359.802	127.75
360.029	180.75
360.256	183.75
360.483	125.75
360.709	100.75
360.936	91.75
361.163	99.75
361.39	108.75
361.616	112.75
361.843	103.75
362.07	128.75
362.296	134.75
362.523	98.75
362.749	110.75
362.976	99.75
363.203	105.75
363.429	84.75
363.656	103.75
363.882	111.75
364.109	109.75
364.335	97.75
364.562	109.75
364.788	92.75
365.015	112.75
365.241	103.75
365.468	136.75
365.694	132.75
365.92	116.75
366.147	107.75
366.373	96.75
366.599	104.75
366.826	91.75
367.052	97.75
367.278	96.75
367.505	97.75
367.731	98.75
367.957	99.75
368.184	96.75
368.41	99.75
368.636	137.75
368.862	155.75
369.089	135.75
369.315	97.75
369.541	115.75
369.767	101.75
369.993	121.75
370.219	110.75
370.445	107.75
370.672	79.75
370.898	92.75
371.124	99.75
371.35	98.75
371.576	95.75
371.802	92.75
372.028	96.75
372.254	93.75
372.48	101.75
372.706	68.75
372.932	86.75
373.158	85.75
373.384	93.75
373.61	103.75
373.835	95.75
374.061	95.75
374.287	101.75
374.513	84.75
374.739	104.75
374.965	99.75
375.191	99.75
375.416	99.75
375.642	95.75
375.868	87.75
376.094	103.75
376.319	83.75
376.545	94.75
376.771	93.75
376.997	91.75
377.222	100.75
377.448	96.75
377.674	92.75
377.899	83.75
378.125	104.75
378.35	98.75
378.576	96.75
378.802	97.75
379.027	86.75
379.253	93.75
379.478	100.75
379.704	97.75
379.929	83.75
380.155	104.75
380.38	104.75
380.606	104.75
380.831	95.75
381.057	96.75
381.282	108.75
381.507	105.75
381.733	106.75
381.958	103.75
382.184	105.75
382.409	93.75
382.634	102.75
382.86	111.75
383.085	106.75
383.31	123.75
383.535	90.75
383.761	105.75
383.986	105.75
384.211	100.75
384.436	98.75
384.662	108.75
384.887	120.75
385.112	112.75
385.337	120.75
385.562	109.75
385.787	118.75
386.013	135.75
386.238	145.75
386.463	127.75
386.688	102.75
386.913	116.75
387.138	112.75
387.363	99.75
387.588	97.75
387.813	113.75
388.038	119.75
388.263	122.75
388.488	135.75
388.713	114.75
388.938	115.75
389.163	99.75
389.387	80.75
389.612	90.75
389.837	95.75
390.062	92.75
390.287	81.75
390.512	101.75
390.736	87.75
390.961	88.75
391.186	107.75
391.411	93.75
391.636	91.75
391.86	96.75
392.085	73.75
392.31	76.75
392.534	87.75
392.759	93.75
392.984	90.75
393.208	86.75
393.433	88.75
393.658	93.75
393.882	85.75
394.107	91.75
394.331	93.75
394.556	68.75
394.78	91.75
395.005	87.75
395.229	94.75
395.454	103.75
395.678	101.75
395.903	85.75
396.127	98.75
396.352	98.75
396.576	90.75
396.801	95.75
397.025	74.75
397.249	96.75
397.474	99.75
397.698	94.75
397.922	96.75
398.147	92.75
398.371	77.75
398.595	94.75
398.82	88.75
399.044	89.75
399.268	83.75
399.492	89.75
399.717	101.75
399.941	86.75
400.165	105.75
400.389	105.75
400.613	96.75
400.837	95.75
401.062	93.75
401.286	104.75
401.51	91.75
401.734	117.75
401.958	125.75
402.182	171.75
402.406	264.75
402.63	179.75
402.854	114.75
403.078	105.75
403.302	88.75
403.526	92.75
403.75	105.75
403.974	90.75
404.198	86.75
404.422	102.75
404.645	96.75
404.869	118.75
405.093	128.75
405.317	160.75
405.541	159.75
405.765	145.75
405.988	161.75
406.212	281.75
406.436	433.75
406.66	277.75
406.883	155.75
407.107	129.75
407.331	127.75
407.555	120.75
407.778	119.75
408.002	103.75
408.226	95.75
408.449	88.75
408.673	100.75
408.896	114.75
409.12	107.75
409.344	97.75
409.567	88.75
409.791	92.75
410.014	101.75
410.238	91.75
410.461	92.75
410.685	101.75
410.908	95.75
411.132	112.75
411.355	91.75
411.578	95.75
411.802	84.75
412.025	101.75
412.249	111.75
412.472	139.75
412.695	144.75
412.919	113.75
413.142	113.75
413.365	85.75
413.589	81.75
413.812	106.75
414.035	107.75
414.258	89.75
414.482	109.75
414.705	85.75
414.928	105.75
415.151	98.75
415.374	81.75
415.597	92.75
415.821	93.75
416.044	94.75
416.267	101.75
416.49	97.75
416.713	82.75
416.936	103.75
417.159	91.75
417.382	106.75
417.605	94.75
417.828	127.75
418.051	101.75
418.274	89.75
418.497	86.75
418.72	94.75
418.943	96.75
419.166	89.75
419.389	102.75
419.611	102.75
419.834	104.75
420.057	109.75
420.28	114.75
420.503	92.75
420.726	96.75
420.948	103.75
421.171	122.75
421.394	95.75
421.617	95.75
421.839	82.75
422.062	99.75
422.285	90.75
422.507	115.75
422.73	123.75
422.953	100.75
423.175	95.75
423.398	104.75
423.621	92.75
423.843	77.75
424.066	101.75
424.288	95.75
424.511	108.75
424.733	121.75
424.956	145.75
425.178	125.75
425.401	123.75
425.623	122.75
425.846	97.75
426.068	108.75
426.291	103.75
426.513	96.75
426.735	91.75
426.958	101.75
427.18	134.75
427.402	220.75
427.625	337.75
427.847	321.75
428.069	271.75
428.292	159.75
428.514	118.75
428.736	96.75
428.958	91.75
429.181	95.75
429.403	105.75
429.625	101.75
429.847	107.75
430.069	124.75
430.292	108.75
430.514	91.75
430.736	91.75
430.958	79.75
431.18	92.75
431.402	72.75
431.624	83.75
431.846	79.75
432.068	95.75
432.29	88.75
432.512	91.75
432.734	77.75
432.956	101.75
433.178	94.75
433.4	107.75
433.622	105.75
433.844	98.75
434.066	100.75
434.287	88.75
434.509	103.75
434.731	99.75
434.953	94.75
435.175	96.75
435.397	86.75
435.618	100.75
435.84	124.75
436.062	158.75
436.284	149.75
436.505	121.75
436.727	107.75
436.949	91.75
437.17	99.75
437.392	86.75
437.614	92.75
437.835	160.75
438.057	179.75
438.278	148.75
438.5	130.75
438.721	157.75
438.943	116.75
439.165	93.75
439.386	72.75
439.608	98.75
439.829	117.75
440.05	184.75
440.272	224.75
440.493	125.75
440.715	100.75
440.936	91.75
441.158	88.75
441.379	98.75
441.6	99.75
441.822	104.75
442.043	124.75
442.264	128.75
442.486	138.75
442.707	105.75
442.928	142.75
443.149	217.75
443.371	208.75
443.592	152.75
443.813	141.75
444.034	124.75
444.255	104.75
444.476	111.75
444.698	92.75
444.919	91.75
445.14	141.75
445.361	151.75
445.582	156.75
445.803	229.75
446.024	221.75
446.245	199.75
446.466	139.75
446.687	107.75
446.908	95.75
447.129	100.75
447.35	104.75
447.571	114.75
447.792	116.75
448.013	112.75
448.234	132.75
448.455	119.75
448.675	153.75
448.896	162.75
449.117	127.75
449.338	127.75
449.559	159.75
449.779	195.75
450	132.75
450.221	107.75
450.442	97.75
450.662	115.75
450.883	162.75
451.104	145.75
451.324	120.75
451.545	105.75
451.766	96.75
451.986	100.75
452.207	111.75
452.428	98.75
452.648	131.75
452.869	148.75
453.089	174.75
453.31	170.75
453.53	112.75
453.751	104.75
453.971	138.75
454.192	171.75
454.412	114.75
454.633	100.75
454.853	101.75
455.073	114.75
455.294	88.75
455.514	119.75
455.734	107.75
455.955	92.75
456.175	87.75
456.395	85.75
456.616	89.75
456.836	73.75
457.056	84.75
457.276	101.75
457.497	89.75
457.717	83.75
457.937	91.75
458.157	95.75
458.377	110.75
458.598	149.75
458.818	282.75
459.038	319.75
459.258	190.75
459.478	111.75
459.698	93.75
459.918	85.75
460.138	90.75
460.358	86.75
460.578	90.75
460.798	95.75
461.018	90.75
461.238	79.75
461.458	83.75
461.678	88.75
461.898	91.75
462.118	96.75
462.338	88.75
462.558	88.75
462.777	93.75
462.997	120.75
463.217	119.75
463.437	109.75
463.657	99.75
463.876	89.75
464.096	96.75
464.316	109.75
464.536	122.75
464.755	125.75
464.975	161.75
465.195	324.75
465.414	320.75
465.634	132.75
465.854	109.75
466.073	101.75
466.293	84.75
466.512	97.75
466.732	98.75
466.951	101.75
467.171	109.75
467.391	131.75
467.61	191.75
467.829	291.75
468.049	852.75
468.268	1388.75
468.488	318.75
468.707	125.75
468.927	105.75
469.146	97.75
469.365	118.75
469.585	110.75
469.804	129.75
470.023	142.75
470.243	98.75
470.462	150.75
470.681	180.75
470.901	124.75
471.12	103.75
471.339	118.75
471.558	141.75
471.777	208.75
471.997	423.75
472.216	1609.75
472.435	3931.75
472.654	853.75
472.873	213.75
473.092	125.75
473.311	110.75
473.53	90.75
473.749	100.75
473.968	117.75
474.187	137.75
474.406	115.75
474.625	102.75
474.844	94.75
475.063	93.75
475.282	99.75
475.501	84.75
475.72	92.75
475.939	91.75
476.158	91.75
476.377	89.75
476.596	98.75
476.814	110.75
477.033	118.75
477.252	106.75
477.471	105.75
477.69	98.75
477.908	95.75
478.127	98.75
478.346	97.75
478.564	108.75
478.783	128.75
479.002	128.75
479.22	112.75
479.439	136.75
479.658	163.75
479.876	139.75
480.095	133.75
480.313	173.75
480.532	212.75
480.751	389.75
480.969	1427.75
481.188	6495.75
481.406	3803.75
481.624	506.75
481.843	162.75
482.061	115.75
482.28	111.75
482.498	125.75
482.717	113.75
482.935	99.75
483.153	89.75
483.372	97.75
483.59	98.75
483.808	99.75
484.027	98.75
484.245	107.75
484.463	103.75
484.681	103.75
484.9	100.75
485.118	106.75
485.336	99.75
485.554	100.75
485.772	123.75
485.99	105.75
486.209	113.75
486.427	119.75
486.645	152.75
486.863	160.75
487.081	124.75
487.299	107.75
487.517	105.75
487.735	102.75
487.953	104.75
488.171	85.75
488.389	102.75
488.607	109.75
488.825	105.75
489.043	97.75
489.261	91.75
489.479	104.75
489.696	93.75
489.914	92.75
490.132	95.75
490.35	84.75
490.568	92.75
490.786	95.75
491.003	93.75
491.221	105.75
491.439	101.75
491.657	92.75
491.874	111.75
492.092	101.75
492.31	101.75
492.527	92.75
492.745	103.75
492.963	100.75
493.18	103.75
493.398	113.75
493.615	93.75
493.833	91.75
494.05	101.75
494.268	92.75
494.485	89.75
494.703	90.75
494.92	89.75
495.138	95.75
495.355	87.75
495.573	96.75
495.79	95.75
496.008	91.75
496.225	119.75
496.442	88.75
496.66	93.75
496.877	91.75
497.094	109.75
497.312	92.75
497.529	90.75
497.746	116.75
497.963	114.75
498.181	109.75
498.398	108.75
498.615	121.75
498.832	123.75
499.049	105.75
499.267	96.75
499.484	87.75
499.701	101.75
499.918	101.75
500.135	90.75
500.352	84.75
500.569	99.75
500.786	93.75
501.003	103.75
501.22	90.75
501.437	83.75
501.654	105.75
501.871	161.75
502.088	116.75
502.305	94.75
502.522	91.75
502.739	92.75
502.956	101.75
503.172	102.75
503.389	123.75
503.606	125.75
503.823	127.75
504.04	95.75
504.256	91.75
504.473	95.75
504.69	76.75
504.907	88.75
505.123	85.75
505.34	105.75
505.557	106.75
505.773	90.75
505.99	75.75
506.207	101.75
506.423	100.75
506.64	96.75
506.856	91.75
507.073	108.75
507.289	91.75
507.506	91.75
507.722	172.75
507.939	161.75
508.155	115.75
508.372	101.75
508.588	95.75
508.805	94.75
509.021	113.75
509.238	108.75
509.454	107.75
509.67	119.75
509.887	98.75
510.103	139.75
510.319	265.75
510.536	1099.75
