Data from Circ_1995_H10_HRD10591_00018.txt Node
Date: Wed Jan 03 11:36:50 EST 2024
User: Yrep
Spectrometer: HR+D1059
Trigger mode: 1
Integration Time (sec): 1.000000E-1
Scans to average: 1
Electric dark correction enabled: true
Nonlinearity correction enabled: false
Boxcar width: 0
XAxis mode: Wavelengths
Number of Pixels in Spectrum: 2048
>>>>>Begin Spectral Data<<<<<
223.165	-11.75
223.4	-11.75
223.635	-11.75
223.869	-36.75
224.104	-27.75
224.338	-8.75
224.573	-11.75
224.808	0.25
225.042	0.25
225.277	-1.75
225.511	-7.75
225.746	9.25
225.98	18.25
226.215	0.25
226.449	-2.75
226.683	23.25
226.918	25.25
227.152	32.25
227.387	47.25
227.621	32.25
227.856	46.25
228.09	49.25
228.324	42.25
228.559	56.25
228.793	188.25
229.027	489.25
229.262	583.25
229.496	672.25
229.73	912.25
229.964	945.25
230.199	607.25
230.433	541.25
230.667	523.25
230.901	489.25
231.136	481.25
231.37	480.25
231.604	506.25
231.838	514.25
232.072	485.25
232.306	527.25
232.541	493.25
232.775	533.25
233.009	513.25
233.243	533.25
233.477	508.25
233.711	527.25
233.945	545.25
234.179	587.25
234.413	575.25
234.647	572.25
234.881	568.25
235.115	578.25
235.349	610.25
235.583	632.25
235.817	653.25
236.051	723.25
236.285	687.25
236.519	683.25
236.753	787.25
236.987	1016.25
237.221	1514.25
237.455	1605.25
237.689	960.25
237.922	799.25
238.156	793.25
238.39	740.25
238.624	730.25
238.858	749.25
239.091	735.25
239.325	759.25
239.559	778.25
239.793	806.25
240.027	872.25
240.26	1044.25
240.494	1103.25
240.728	1061.25
240.961	985.25
241.195	931.25
241.429	910.25
241.662	836.25
241.896	878.25
242.13	906.25
242.363	889.25
242.597	945.25
242.83	961.25
243.064	949.25
243.298	979.25
243.531	955.25
243.765	969.25
243.998	980.25
244.232	996.25
244.465	1031.25
244.699	1043.25
244.932	1040.25
245.166	1047.25
245.399	1049.25
245.633	1067.25
245.866	1060.25
246.099	1089.25
246.333	1084.25
246.566	1108.25
246.8	1127.25
247.033	1161.25
247.266	1229.25
247.5	1288.25
247.733	1353.25
247.966	1297.25
248.2	1315.25
248.433	1370.25
248.666	1403.25
248.899	1553.25
249.133	1732.25
249.366	1736.25
249.599	1687.25
249.832	1656.25
250.066	1924.25
250.299	2573.25
250.532	3479.25
250.765	3171.25
250.998	2683.25
251.231	2189.25
251.465	1879.25
251.698	1783.25
251.931	1711.25
252.164	1701.25
252.397	1700.25
252.63	1713.25
252.863	1806.25
253.096	1924.25
253.329	1951.25
253.562	1856.25
253.795	1826.25
254.028	1829.25
254.261	1899.25
254.494	2138.25
254.727	2576.25
254.96	2580.25
255.193	2410.25
255.426	2492.25
255.659	3134.25
255.892	4743.25
256.124	6329.25
256.357	4897.25
256.59	3496.25
256.823	2767.25
257.056	2381.25
257.289	2305.25
257.521	2203.25
257.754	2124.25
257.987	2041.25
258.22	1987.25
258.452	1985.25
258.685	1928.25
258.918	1944.25
259.151	1967.25
259.383	1973.25
259.616	2000.25
259.849	2071.25
260.081	2211.25
260.314	2426.25
260.547	2308.25
260.779	2124.25
261.012	2080.25
261.244	2081.25
261.477	1970.25
261.71	2000.25
261.942	2104.25
262.175	2153.25
262.407	2021.25
262.64	1895.25
262.872	1960.25
263.105	1949.25
263.337	1909.25
263.57	1941.25
263.802	1972.25
264.035	1930.25
264.267	1912.25
264.499	1925.25
264.732	1913.25
264.964	1947.25
265.197	1952.25
265.429	1961.25
265.661	1991.25
265.894	1961.25
266.126	2001.25
266.358	2024.25
266.591	2095.25
266.823	2118.25
267.055	2132.25
267.287	2139.25
267.52	2089.25
267.752	2123.25
267.984	2086.25
268.216	2144.25
268.448	2247.25
268.681	2341.25
268.913	2433.25
269.145	2534.25
269.377	2619.25
269.609	2455.25
269.841	2501.25
270.073	2611.25
270.306	2884.25
270.538	3024.25
270.77	2858.25
271.002	2682.25
271.234	2739.25
271.466	2907.25
271.698	3035.25
271.93	3073.25
272.162	2975.25
272.394	2889.25
272.626	2746.25
272.858	2627.25
273.09	2613.25
273.322	2563.25
273.553	2571.25
273.785	2569.25
274.017	2612.25
274.249	2615.25
274.481	2698.25
274.713	2688.25
274.945	2756.25
275.176	2783.25
275.408	2790.25
275.64	2876.25
275.872	2949.25
276.104	2910.25
276.335	2914.25
276.567	3069.25
276.799	3431.25
277.031	3889.25
277.262	4188.25
277.494	3779.25
277.726	3339.25
277.957	3230.25
278.189	3121.25
278.421	2988.25
278.652	3005.25
278.884	2951.25
279.115	2921.25
279.347	3026.25
279.579	3135.25
279.81	3326.25
280.042	3698.25
280.273	4098.25
280.505	3821.25
280.736	3422.25
280.968	3188.25
281.199	3124.25
281.431	3055.25
281.662	3035.25
281.894	3008.25
282.125	3069.25
282.356	3242.25
282.588	3515.25
282.819	3260.25
283.051	2959.25
283.282	2952.25
283.513	2979.25
283.745	3010.25
283.976	2997.25
284.207	3090.25
284.439	2991.25
284.67	2984.25
284.901	3032.25
285.132	2987.25
285.364	3047.25
285.595	3028.25
285.826	3064.25
286.057	3101.25
286.288	3097.25
286.52	3048.25
286.751	3056.25
286.982	3070.25
287.213	3082.25
287.444	3153.25
287.675	3200.25
287.906	3321.25
288.138	3331.25
288.369	3302.25
288.6	3264.25
288.831	3232.25
289.062	3259.25
289.293	3194.25
289.524	3211.25
289.755	3193.25
289.986	3138.25
290.217	3158.25
290.448	3123.25
290.679	3190.25
290.91	3126.25
291.141	3172.25
291.371	3173.25
291.602	3170.25
291.833	3129.25
292.064	3104.25
292.295	3167.25
292.526	3125.25
292.757	3167.25
292.987	3139.25
293.218	3106.25
293.449	3121.25
293.68	3157.25
293.91	3093.25
294.141	3123.25
294.372	3161.25
294.603	3183.25
294.833	3171.25
295.064	3164.25
295.295	3169.25
295.525	3184.25
295.756	3247.25
295.987	3362.25
296.217	3675.25
296.448	3537.25
296.679	3306.25
296.909	3270.25
297.14	3279.25
297.37	3339.25
297.601	3388.25
297.831	3326.25
298.062	3361.25
298.292	3423.25
298.523	3433.25
298.753	3428.25
298.984	3372.25
299.214	3454.25
299.445	3489.25
299.675	3492.25
299.905	3491.25
300.136	3480.25
300.366	3509.25
300.597	3492.25
300.827	3676.25
301.057	3708.25
301.288	3812.25
301.518	3716.25
301.748	3771.25
301.979	3836.25
302.209	3786.25
302.439	3753.25
302.669	3730.25
302.9	3695.25
303.13	3691.25
303.36	3884.25
303.59	4031.25
303.82	4029.25
304.051	3912.25
304.281	3755.25
304.511	3618.25
304.741	3615.25
304.971	3647.25
305.201	3613.25
305.431	3617.25
305.661	3661.25
305.891	3583.25
306.121	3625.25
306.352	3781.25
306.582	3767.25
306.812	3680.25
307.042	3810.25
307.272	4089.25
307.502	4258.25
307.731	4111.25
307.961	3886.25
308.191	3740.25
308.421	3757.25
308.651	3756.25
308.881	3712.25
309.111	3756.25
309.341	3785.25
309.571	3867.25
309.8	3991.25
310.03	4143.25
310.26	4144.25
310.49	4079.25
310.72	4322.25
310.949	4469.25
311.179	4319.25
311.409	4064.25
311.639	4139.25
311.868	4127.25
312.098	4204.25
312.328	4297.25
312.557	4620.25
312.787	4687.25
313.017	4460.25
313.246	4325.25
313.476	4189.25
313.706	4172.25
313.935	4340.25
314.165	4496.25
314.394	4526.25
314.624	4408.25
314.853	4300.25
315.083	4192.25
315.312	4212.25
315.542	4117.25
315.771	4109.25
316.001	4131.25
316.23	4099.25
316.46	4123.25
316.689	4139.25
316.919	4227.25
317.148	4373.25
317.377	4363.25
317.607	4341.25
317.836	4304.25
318.065	4135.25
318.295	4137.25
318.524	4247.25
318.753	4182.25
318.983	4205.25
319.212	4208.25
319.441	4277.25
319.67	4273.25
319.9	4199.25
320.129	4229.25
320.358	4245.25
320.587	4296.25
320.816	4401.25
321.046	4443.25
321.275	4384.25
321.504	4415.25
321.733	4475.25
321.962	4592.25
322.191	4717.25
322.42	4876.25
322.649	5040.25
322.878	5094.25
323.108	5246.25
323.337	5628.25
323.566	5800.25
323.795	6305.25
324.024	7024.25
324.253	9577.25
324.482	14031.25
324.71	15621.25
324.939	15621.25
325.168	15007.25
325.397	8062.25
325.626	6522.25
325.855	6107.25
326.084	5944.25
326.313	6051.25
326.542	6401.25
326.77	7410.25
326.999	9661.25
327.228	13742.25
327.457	15621.25
327.686	15621.25
327.914	12884.25
328.143	12213.25
328.372	13163.25
328.6	10442.25
328.829	8527.25
329.058	8715.25
329.287	8953.25
329.515	9009.25
329.744	10405.25
329.972	13606.25
330.201	15621.25
330.43	15621.25
330.658	14727.25
330.887	10841.25
331.115	8941.25
331.344	7524.25
331.572	7205.25
331.801	7239.25
332.03	7122.25
332.258	7028.25
332.486	6956.25
332.715	7174.25
332.943	7641.25
333.172	7983.25
333.4	8685.25
333.629	9679.25
333.857	11650.25
334.085	14341.25
334.314	15621.25
334.542	15621.25
334.771	15621.25
334.999	14155.25
335.227	9839.25
335.455	8327.25
335.684	7525.25
335.912	6959.25
336.14	6641.25
336.369	6502.25
336.597	6466.25
336.825	6276.25
337.053	5908.25
337.281	5888.25
337.51	5636.25
337.738	5658.25
337.966	5618.25
338.194	5614.25
338.422	5540.25
338.65	5349.25
338.878	5224.25
339.106	5188.25
339.334	5213.25
339.562	5118.25
339.79	5021.25
340.018	5037.25
340.246	5044.25
340.474	5082.25
340.702	5049.25
340.93	4988.25
341.158	4945.25
341.386	4994.25
341.614	5009.25
341.842	4950.25
342.07	4899.25
342.298	4880.25
342.526	4775.25
342.754	4714.25
342.981	4799.25
343.209	4876.25
343.437	5078.25
343.665	5268.25
343.893	5482.25
344.12	5499.25
344.348	5395.25
344.576	5252.25
344.804	5211.25
345.031	5252.25
345.259	5186.25
345.487	5005.25
345.714	4813.25
345.942	4735.25
346.17	4625.25
346.397	4657.25
346.625	4697.25
346.853	4665.25
347.08	4675.25
347.308	4753.25
347.535	4849.25
347.763	4887.25
347.99	4745.25
348.218	4804.25
348.445	4962.25
348.673	4773.25
348.9	4657.25
349.128	4549.25
349.355	4511.25
349.583	4465.25
349.81	4503.25
350.037	4503.25
350.265	4458.25
350.492	4528.25
350.72	4565.25
350.947	4588.25
351.174	4789.25
351.402	4880.25
351.629	4745.25
351.856	4762.25
352.083	4848.25
352.311	4884.25
352.538	4930.25
352.765	4819.25
352.992	4711.25
353.22	4634.25
353.447	4636.25
353.674	4460.25
353.901	4411.25
354.128	4332.25
354.355	4356.25
354.583	4399.25
354.81	4335.25
355.037	4304.25
355.264	4343.25
355.491	4272.25
355.718	4296.25
355.945	4275.25
356.172	4379.25
356.399	4283.25
356.626	4233.25
356.853	4368.25
357.08	4279.25
357.307	4324.25
357.534	4267.25
357.761	4340.25
357.988	4333.25
358.215	4337.25
358.441	4352.25
358.668	4344.25
358.895	4408.25
359.122	4469.25
359.349	4549.25
359.576	4715.25
359.802	5083.25
360.029	5387.25
360.256	5359.25
360.483	5008.25
360.709	4637.25
360.936	4606.25
361.163	4661.25
361.39	4790.25
361.616	4727.25
361.843	4695.25
362.07	4749.25
362.296	4754.25
362.523	4667.25
362.749	4690.25
362.976	4545.25
363.203	4512.25
363.429	4535.25
363.656	4548.25
363.882	4431.25
364.109	4423.25
364.335	4403.25
364.562	4416.25
364.788	4421.25
365.015	4464.25
365.241	4467.25
365.468	4473.25
365.694	4645.25
365.92	4631.25
366.147	4474.25
366.373	4479.25
366.599	4382.25
366.826	4335.25
367.052	4338.25
367.278	4458.25
367.505	4510.25
367.731	4473.25
367.957	4437.25
368.184	4452.25
368.41	4649.25
368.636	4739.25
368.862	4724.25
369.089	4589.25
369.315	4522.25
369.541	4521.25
369.767	4587.25
369.993	4572.25
370.219	4564.25
370.445	4595.25
370.672	4590.25
370.898	4543.25
371.124	4602.25
371.35	4661.25
371.576	4595.25
371.802	4599.25
372.028	4568.25
372.254	4543.25
372.48	4679.25
372.706	4748.25
372.932	4781.25
373.158	4709.25
373.384	4647.25
373.61	4617.25
373.835	4631.25
374.061	4651.25
374.287	4785.25
374.513	4801.25
374.739	4937.25
374.965	5040.25
375.191	5037.25
375.416	4959.25
375.642	4798.25
375.868	4743.25
376.094	4715.25
376.319	4727.25
376.545	4640.25
376.771	4563.25
376.997	4580.25
377.222	4636.25
377.448	4585.25
377.674	4501.25
377.899	4536.25
378.125	4545.25
378.35	4490.25
378.576	4509.25
378.802	4563.25
379.027	4626.25
379.253	4491.25
379.478	4538.25
379.704	4567.25
379.929	4596.25
380.155	4667.25
380.38	4616.25
380.606	4654.25
380.831	4571.25
381.057	4655.25
381.282	4608.25
381.507	4658.25
381.733	4729.25
381.958	4772.25
382.184	4777.25
382.409	4791.25
382.634	4832.25
382.86	4875.25
383.085	4931.25
383.31	4995.25
383.535	5016.25
383.761	5115.25
383.986	5162.25
384.211	5245.25
384.436	5273.25
384.662	5370.25
384.887	5419.25
385.112	5479.25
385.337	5592.25
385.562	5516.25
385.787	5579.25
386.013	5670.25
386.238	5674.25
386.463	5668.25
386.688	5571.25
386.913	5491.25
387.138	5496.25
387.363	5413.25
387.588	5398.25
387.813	5425.25
388.038	5352.25
388.263	5431.25
388.488	5452.25
388.713	5456.25
388.938	5402.25
389.163	5368.25
389.387	5346.25
389.612	5304.25
389.837	5348.25
390.062	5256.25
390.287	5337.25
390.512	5314.25
390.736	5456.25
390.961	5562.25
391.186	5614.25
391.411	5655.25
391.636	5833.25
391.86	5982.25
392.085	6080.25
392.31	6045.25
392.534	5822.25
392.759	5771.25
392.984	5643.25
393.208	5638.25
393.433	5553.25
393.658	5631.25
393.882	5581.25
394.107	5625.25
394.331	5778.25
394.556	5621.25
394.78	5732.25
395.005	5730.25
395.229	5741.25
395.454	6030.25
395.678	6082.25
395.903	6125.25
396.127	6198.25
396.352	5995.25
396.576	5807.25
396.801	5828.25
397.025	5915.25
397.249	5984.25
397.474	6140.25
397.698	6099.25
397.922	6260.25
398.147	6431.25
398.371	6560.25
398.595	6611.25
398.82	7023.25
399.044	7488.25
399.268	8085.25
399.492	9131.25
399.717	9799.25
399.941	9547.25
400.165	9032.25
400.389	8332.25
400.613	7652.25
400.837	7215.25
401.062	7051.25
401.286	6899.25
401.51	6945.25
401.734	6915.25
401.958	6969.25
402.182	7194.25
402.406	7288.25
402.63	7407.25
402.854	7451.25
403.078	7461.25
403.302	7637.25
403.526	7724.25
403.75	7838.25
403.974	7952.25
404.198	7980.25
404.422	8178.25
404.645	8396.25
404.869	8611.25
405.093	9380.25
405.317	10119.25
405.541	9860.25
405.765	8846.25
405.988	8274.25
406.212	8386.25
406.436	8542.25
406.66	8477.25
406.883	8357.25
407.107	8870.25
407.331	9360.25
407.555	9909.25
407.778	9484.25
408.002	8749.25
408.226	8370.25
408.449	8223.25
408.673	8161.25
408.896	8298.25
409.12	8375.25
409.344	7917.25
409.567	7563.25
409.791	7484.25
410.014	7454.25
410.238	7334.25
410.461	7392.25
410.685	7455.25
410.908	7563.25
411.132	7872.25
411.355	7936.25
411.578	7642.25
411.802	7451.25
412.025	7768.25
412.249	8437.25
412.472	9218.25
412.695	9980.25
412.919	9104.25
413.142	8393.25
413.365	8000.25
413.589	7661.25
413.812	7372.25
414.035	7106.25
414.258	7180.25
414.482	7185.25
414.705	7015.25
414.928	7042.25
415.151	6930.25
415.374	6907.25
415.597	6886.25
415.821	6798.25
416.044	6908.25
416.267	6764.25
416.49	6693.25
416.713	6600.25
416.936	6784.25
417.159	6873.25
417.382	7114.25
417.605	7373.25
417.828	7519.25
418.051	7321.25
418.274	6976.25
418.497	6855.25
418.72	7055.25
418.943	6965.25
419.166	7493.25
419.389	7809.25
419.611	7991.25
419.834	7963.25
420.057	8144.25
420.28	8649.25
420.503	8309.25
420.726	7994.25
420.948	7907.25
421.171	8014.25
421.394	7749.25
421.617	7172.25
421.839	7058.25
422.062	7157.25
422.285	7368.25
422.507	7908.25
422.73	8467.25
422.953	7763.25
423.175	7390.25
423.398	7417.25
423.621	7419.25
423.843	7665.25
424.066	7480.25
424.288	7457.25
424.511	7701.25
424.733	8251.25
424.956	8740.25
425.178	8214.25
425.401	8411.25
425.623	8193.25
425.846	7098.25
426.068	7021.25
426.291	7011.25
426.513	6924.25
426.735	7149.25
426.958	7699.25
427.18	8644.25
427.402	10172.25
427.625	10962.25
427.847	10378.25
428.069	10008.25
428.292	8133.25
428.514	7011.25
428.736	6697.25
428.958	6615.25
429.181	6283.25
429.403	6266.25
429.625	6421.25
429.847	6864.25
430.069	7333.25
430.292	6761.25
430.514	6236.25
430.736	6231.25
430.958	6088.25
431.18	6059.25
431.402	6031.25
431.624	6024.25
431.846	6065.25
432.068	5956.25
432.29	6246.25
432.512	6086.25
432.734	6189.25
432.956	6158.25
433.178	6226.25
433.4	6282.25
433.622	6066.25
433.844	6133.25
434.066	6077.25
434.287	6239.25
434.509	6388.25
434.731	6629.25
434.953	6801.25
435.175	6928.25
435.397	7041.25
435.618	7041.25
435.84	7536.25
436.062	8503.25
436.284	8286.25
436.505	6946.25
436.727	6684.25
436.949	6295.25
437.17	6105.25
437.392	6100.25
437.614	6305.25
437.835	6859.25
438.057	8137.25
438.278	8685.25
438.5	8452.25
438.721	9343.25
438.943	7938.25
439.165	6744.25
439.386	6555.25
439.608	6656.25
439.829	6903.25
440.05	7535.25
440.272	7969.25
440.493	6958.25
440.715	6521.25
440.936	6503.25
441.158	6524.25
441.379	6633.25
441.6	6922.25
441.822	7247.25
442.043	7705.25
442.264	8589.25
442.486	8204.25
442.707	7305.25
442.928	7172.25
443.149	7560.25
443.371	7787.25
443.592	8242.25
443.813	9291.25
444.034	9094.25
444.255	7774.25
444.476	7532.25
444.698	7749.25
444.919	7871.25
445.14	7713.25
445.361	7743.25
445.582	8075.25
445.803	9095.25
446.024	9847.25
446.245	9230.25
446.466	8089.25
446.687	6872.25
446.908	6491.25
447.129	6125.25
447.35	6003.25
447.571	5996.25
447.792	5868.25
448.013	6034.25
448.234	6307.25
448.455	7032.25
448.675	8378.25
448.896	8800.25
449.117	7141.25
449.338	7423.25
449.559	9024.25
449.779	9154.25
450	6813.25
450.221	6068.25
450.442	5846.25
450.662	5847.25
450.883	6129.25
451.104	6359.25
451.324	6060.25
451.545	5707.25
451.766	5561.25
451.986	5404.25
452.207	5396.25
452.428	5337.25
452.648	5483.25
452.869	5511.25
453.089	5600.25
453.31	5689.25
453.53	5454.25
453.751	5363.25
453.971	5514.25
454.192	5818.25
454.412	5470.25
454.633	5239.25
454.853	5246.25
455.073	5287.25
455.294	5774.25
455.514	6435.25
455.734	5712.25
455.955	5130.25
456.175	5018.25
456.395	4903.25
456.616	4943.25
456.836	4986.25
457.056	5021.25
457.276	4889.25
457.497	5115.25
457.717	5015.25
457.937	5165.25
458.157	5263.25
458.377	5353.25
458.598	5888.25
458.818	6907.25
459.038	7847.25
459.258	7484.25
459.478	6482.25
459.698	6229.25
459.918	6218.25
460.138	6376.25
460.358	6585.25
460.578	6670.25
460.798	6803.25
461.018	6767.25
461.238	6582.25
461.458	6592.25
461.678	6435.25
461.898	6642.25
462.118	6709.25
462.338	7147.25
462.558	7240.25
462.777	7429.25
462.997	8099.25
463.217	8429.25
463.437	8236.25
463.657	7727.25
463.876	7528.25
464.096	7588.25
464.316	7458.25
464.536	7705.25
464.755	7434.25
464.975	7490.25
465.195	8208.25
465.414	8446.25
465.634	6941.25
465.854	6441.25
466.073	6176.25
466.293	5991.25
466.512	5807.25
466.732	5741.25
466.951	5807.25
467.171	5787.25
467.391	5883.25
467.61	6237.25
467.829	6714.25
468.049	8727.25
468.268	10953.25
468.488	7779.25
468.707	6425.25
468.927	6068.25
469.146	5891.25
469.365	5802.25
469.585	5831.25
469.804	6041.25
470.023	6193.25
470.243	6155.25
470.462	6352.25
470.681	6570.25
470.901	6336.25
471.12	6220.25
471.339	6197.25
471.558	6403.25
471.777	6628.25
471.997	7625.25
472.216	12424.25
472.435	15621.25
472.654	14028.25
472.873	8998.25
473.092	7609.25
473.311	6964.25
473.53	6620.25
473.749	6538.25
473.968	7038.25
474.187	8147.25
474.406	7285.25
474.625	6169.25
474.844	5919.25
475.063	5760.25
475.282	5809.25
475.501	5912.25
475.72	5855.25
475.939	5878.25
476.158	5933.25
476.377	5865.25
476.596	5845.25
476.814	6080.25
477.033	6162.25
477.252	6187.25
477.471	6236.25
477.69	6374.25
477.908	6483.25
478.127	6587.25
478.346	6668.25
478.564	6857.25
478.783	6954.25
479.002	7168.25
479.22	7193.25
479.439	7469.25
479.658	7692.25
479.876	7820.25
480.095	8152.25
480.313	8759.25
480.532	8891.25
480.751	10009.25
480.969	13967.25
481.188	15621.25
481.406	15621.25
481.624	15019.25
481.843	11584.25
482.061	10057.25
482.28	9039.25
482.498	8512.25
482.717	8000.25
482.935	7766.25
483.153	7648.25
483.372	7488.25
483.59	7317.25
483.808	7177.25
484.027	7196.25
484.245	7177.25
484.463	7096.25
484.681	7129.25
484.9	7243.25
485.118	7234.25
485.336	7177.25
485.554	7262.25
485.772	7333.25
485.99	7387.25
486.209	7342.25
486.427	7439.25
486.645	7520.25
486.863	7725.25
487.081	7589.25
487.299	7499.25
