Data from Circ_1995_H10_HRD10591_00029.txt Node
Date: Wed Jan 03 11:36:52 EST 2024
User: Yrep
Spectrometer: HR+D1059
Trigger mode: 1
Integration Time (sec): 1.000000E-1
Scans to average: 1
Electric dark correction enabled: true
Nonlinearity correction enabled: false
Boxcar width: 0
XAxis mode: Wavelengths
Number of Pixels in Spectrum: 2048
>>>>>Begin Spectral Data<<<<<
223.165	-14.75
223.4	-14.75
223.635	-14.75
223.869	-33.75
224.104	-18.75
224.338	-15.75
224.573	-18.75
224.808	-14.75
225.042	1.25
225.277	-2.75
225.511	5.25
225.746	11.25
225.98	4.25
226.215	16.25
226.449	23.25
226.683	14.25
226.918	19.25
227.152	24.25
227.387	30.25
227.621	45.25
227.856	53.25
228.09	45.25
228.324	54.25
228.559	63.25
228.793	55.25
229.027	52.25
229.262	80.25
229.496	99.25
229.73	100.25
229.964	100.25
230.199	69.25
230.433	74.25
230.667	82.25
230.901	76.25
231.136	89.25
231.37	84.25
231.604	91.25
231.838	84.25
232.072	88.25
232.306	79.25
232.541	91.25
232.775	93.25
233.009	92.25
233.243	87.25
233.477	83.25
233.711	89.25
233.945	86.25
234.179	76.25
234.413	85.25
234.647	87.25
234.881	77.25
235.115	77.25
235.349	87.25
235.583	85.25
235.817	66.25
236.051	73.25
236.285	80.25
236.519	77.25
236.753	82.25
236.987	85.25
237.221	83.25
237.455	75.25
237.689	81.25
237.922	82.25
238.156	92.25
238.39	88.25
238.624	66.25
238.858	82.25
239.091	81.25
239.325	94.25
239.559	99.25
239.793	83.25
240.027	64.25
240.26	71.25
240.494	85.25
240.728	84.25
240.961	89.25
241.195	89.25
241.429	78.25
241.662	79.25
241.896	74.25
242.13	77.25
242.363	79.25
242.597	79.25
242.83	80.25
243.064	78.25
243.298	96.25
243.531	75.25
243.765	93.25
243.998	94.25
244.232	94.25
244.465	94.25
244.699	69.25
244.932	83.25
245.166	81.25
245.399	81.25
245.633	72.25
245.866	73.25
246.099	82.25
246.333	81.25
246.566	71.25
246.8	77.25
247.033	67.25
247.266	92.25
247.5	73.25
247.733	74.25
247.966	90.25
248.2	82.25
248.433	74.25
248.666	89.25
248.899	83.25
249.133	94.25
249.366	124.25
249.599	116.25
249.832	92.25
250.066	85.25
250.299	90.25
250.532	87.25
250.765	86.25
250.998	99.25
251.231	77.25
251.465	87.25
251.698	102.25
251.931	101.25
252.164	97.25
252.397	93.25
252.63	84.25
252.863	65.25
253.096	83.25
253.329	82.25
253.562	88.25
253.795	81.25
254.028	81.25
254.261	92.25
254.494	78.25
254.727	93.25
254.96	83.25
255.193	97.25
255.426	93.25
255.659	76.25
255.892	87.25
256.124	110.25
256.357	75.25
256.59	99.25
256.823	97.25
257.056	94.25
257.289	95.25
257.521	100.25
257.754	89.25
257.987	87.25
258.22	97.25
258.452	93.25
258.685	85.25
258.918	98.25
259.151	86.25
259.383	86.25
259.616	88.25
259.849	93.25
260.081	90.25
260.314	103.25
260.547	91.25
260.779	107.25
261.012	115.25
261.244	112.25
261.477	96.25
261.71	110.25
261.942	148.25
262.175	149.25
262.407	104.25
262.64	94.25
262.872	86.25
263.105	75.25
263.337	93.25
263.57	93.25
263.802	84.25
264.035	97.25
264.267	88.25
264.499	97.25
264.732	82.25
264.964	74.25
265.197	86.25
265.429	91.25
265.661	89.25
265.894	89.25
266.126	99.25
266.358	101.25
266.591	94.25
266.823	87.25
267.055	82.25
267.287	103.25
267.52	85.25
267.752	101.25
267.984	91.25
268.216	95.25
268.448	89.25
268.681	90.25
268.913	92.25
269.145	92.25
269.377	84.25
269.609	91.25
269.841	79.25
270.073	77.25
270.306	90.25
270.538	88.25
270.77	78.25
271.002	90.25
271.234	98.25
271.466	111.25
271.698	97.25
271.93	91.25
272.162	88.25
272.394	101.25
272.626	90.25
272.858	81.25
273.09	92.25
273.322	94.25
273.553	95.25
273.785	103.25
274.017	94.25
274.249	88.25
274.481	84.25
274.713	103.25
274.945	102.25
275.176	103.25
275.408	113.25
275.64	118.25
275.872	125.25
276.104	115.25
276.335	102.25
276.567	132.25
276.799	166.25
277.031	184.25
277.262	204.25
277.494	180.25
277.726	114.25
277.957	95.25
278.189	98.25
278.421	93.25
278.652	96.25
278.884	88.25
279.115	97.25
279.347	103.25
279.579	105.25
279.81	128.25
280.042	219.25
280.273	310.25
280.505	189.25
280.736	115.25
280.968	95.25
281.199	105.25
281.431	102.25
281.662	97.25
281.894	92.25
282.125	126.25
282.356	126.25
282.588	170.25
282.819	148.25
283.051	99.25
283.282	92.25
283.513	91.25
283.745	97.25
283.976	91.25
284.207	87.25
284.439	83.25
284.67	87.25
284.901	89.25
285.132	98.25
285.364	91.25
285.595	73.25
285.826	95.25
286.057	87.25
286.288	92.25
286.52	99.25
286.751	102.25
286.982	102.25
287.213	92.25
287.444	96.25
287.675	86.25
287.906	114.25
288.138	90.25
288.369	101.25
288.6	107.25
288.831	100.25
289.062	93.25
289.293	100.25
289.524	94.25
289.755	99.25
289.986	109.25
290.217	81.25
290.448	95.25
290.679	85.25
290.91	91.25
291.141	97.25
291.371	89.25
291.602	82.25
291.833	97.25
292.064	91.25
292.295	101.25
292.526	102.25
292.757	87.25
292.987	95.25
293.218	85.25
293.449	89.25
293.68	96.25
293.91	96.25
294.141	100.25
294.372	81.25
294.603	94.25
294.833	95.25
295.064	93.25
295.295	93.25
295.525	95.25
295.756	98.25
295.987	118.25
296.217	170.25
296.448	164.25
296.679	92.25
296.909	99.25
297.14	101.25
297.37	88.25
297.601	95.25
297.831	86.25
298.062	100.25
298.292	92.25
298.523	102.25
298.753	100.25
298.984	91.25
299.214	87.25
299.445	84.25
299.675	107.25
299.905	106.25
300.136	102.25
300.366	103.25
300.597	95.25
300.827	110.25
301.057	102.25
301.288	114.25
301.518	98.25
301.748	107.25
301.979	108.25
302.209	108.25
302.439	106.25
302.669	99.25
302.9	98.25
303.13	97.25
303.36	108.25
303.59	153.25
303.82	154.25
304.051	121.25
304.281	103.25
304.511	102.25
304.741	86.25
304.971	94.25
305.201	88.25
305.431	103.25
305.661	98.25
305.891	102.25
306.121	100.25
306.352	108.25
306.582	109.25
306.812	113.25
307.042	117.25
307.272	170.25
307.502	201.25
307.731	184.25
307.961	129.25
308.191	91.25
308.421	101.25
308.651	105.25
308.881	107.25
309.111	103.25
309.341	104.25
309.571	125.25
309.8	109.25
310.03	111.25
310.26	100.25
310.49	103.25
310.72	104.25
310.949	123.25
311.179	123.25
311.409	92.25
311.639	114.25
311.868	115.25
312.098	118.25
312.328	111.25
312.557	113.25
312.787	133.25
313.017	115.25
313.246	100.25
313.476	70.25
313.706	96.25
313.935	114.25
314.165	122.25
314.394	123.25
314.624	111.25
314.853	110.25
315.083	105.25
315.312	88.25
315.542	101.25
315.771	100.25
316.001	94.25
316.23	94.25
316.46	86.25
316.689	98.25
316.919	106.25
317.148	121.25
317.377	115.25
317.607	103.25
317.836	107.25
318.065	93.25
318.295	98.25
318.524	102.25
318.753	102.25
318.983	111.25
319.212	100.25
319.441	123.25
319.67	125.25
319.9	101.25
320.129	82.25
320.358	114.25
320.587	96.25
320.816	122.25
321.046	116.25
321.275	106.25
321.504	110.25
321.733	112.25
321.962	82.25
322.191	106.25
322.42	116.25
322.649	126.25
322.878	132.25
323.108	135.25
323.337	147.25
323.566	164.25
323.795	186.25
324.024	259.25
324.253	515.25
324.482	1100.25
324.71	2393.25
324.939	3097.25
325.168	1121.25
325.397	307.25
325.626	198.25
325.855	153.25
326.084	141.25
326.313	162.25
326.542	187.25
326.77	286.25
326.999	567.25
327.228	1243.25
327.457	2275.25
327.686	1872.25
327.914	623.25
328.143	577.25
328.372	765.25
328.6	425.25
328.829	192.25
329.058	205.25
329.287	230.25
329.515	211.25
329.744	269.25
329.972	528.25
330.201	1133.25
330.43	1680.25
330.658	727.25
330.887	329.25
331.115	195.25
331.344	137.25
331.572	125.25
331.801	131.25
332.03	141.25
332.258	111.25
332.486	118.25
332.715	126.25
332.943	118.25
333.172	110.25
333.4	142.25
333.629	167.25
333.857	248.25
334.085	475.25
334.314	997.25
334.542	2070.25
334.771	1941.25
334.999	483.25
335.227	189.25
335.455	128.25
335.684	118.25
335.912	111.25
336.14	112.25
336.369	129.25
336.597	122.25
336.825	126.25
337.053	98.25
337.281	96.25
337.51	110.25
337.738	83.25
337.966	102.25
338.194	113.25
338.422	109.25
338.65	111.25
338.878	111.25
339.106	107.25
339.334	90.25
339.562	93.25
339.79	106.25
340.018	99.25
340.246	104.25
340.474	113.25
340.702	106.25
340.93	91.25
341.158	106.25
341.386	102.25
341.614	106.25
341.842	102.25
342.07	102.25
342.298	101.25
342.526	99.25
342.754	98.25
342.981	101.25
343.209	102.25
343.437	99.25
343.665	92.25
343.893	85.25
344.12	100.25
344.348	91.25
344.576	90.25
344.804	96.25
345.031	109.25
345.259	120.25
345.487	98.25
345.714	99.25
345.942	101.25
346.17	100.25
346.397	111.25
346.625	101.25
346.853	115.25
347.08	100.25
347.308	96.25
347.535	100.25
347.763	138.25
347.99	106.25
348.218	108.25
348.445	122.25
348.673	128.25
348.9	105.25
349.128	87.25
349.355	101.25
349.583	93.25
349.81	102.25
350.037	105.25
350.265	91.25
350.492	93.25
350.72	113.25
350.947	103.25
351.174	126.25
351.402	125.25
351.629	107.25
351.856	111.25
352.083	126.25
352.311	113.25
352.538	128.25
352.765	127.25
352.992	129.25
353.22	133.25
353.447	101.25
353.674	108.25
353.901	105.25
354.128	77.25
354.355	94.25
354.583	98.25
354.81	110.25
355.037	86.25
355.264	97.25
355.491	102.25
355.718	70.25
355.945	86.25
356.172	93.25
356.399	101.25
356.626	89.25
356.853	97.25
357.08	95.25
357.307	95.25
357.534	91.25
357.761	89.25
357.988	105.25
358.215	97.25
358.441	113.25
358.668	88.25
358.895	110.25
359.122	107.25
359.349	75.25
359.576	98.25
359.802	118.25
360.029	156.25
360.256	147.25
360.483	129.25
360.709	91.25
360.936	102.25
361.163	121.25
361.39	105.25
361.616	123.25
361.843	103.25
362.07	103.25
362.296	113.25
362.523	111.25
362.749	102.25
362.976	97.25
363.203	108.25
363.429	99.25
363.656	102.25
363.882	91.25
364.109	114.25
364.335	108.25
364.562	103.25
364.788	109.25
365.015	109.25
365.241	115.25
365.468	109.25
365.694	127.25
365.92	119.25
366.147	108.25
366.373	87.25
366.599	89.25
366.826	95.25
367.052	94.25
367.278	101.25
367.505	98.25
367.731	110.25
367.957	92.25
368.184	103.25
368.41	123.25
368.636	130.25
368.862	135.25
369.089	128.25
369.315	114.25
369.541	97.25
369.767	114.25
369.993	110.25
370.219	108.25
370.445	90.25
370.672	87.25
370.898	90.25
371.124	100.25
371.35	89.25
371.576	84.25
371.802	71.25
372.028	93.25
372.254	85.25
372.48	84.25
372.706	82.25
372.932	87.25
373.158	83.25
373.384	90.25
373.61	96.25
373.835	87.25
374.061	99.25
374.287	102.25
374.513	89.25
374.739	88.25
374.965	91.25
375.191	92.25
375.416	93.25
375.642	91.25
375.868	104.25
376.094	97.25
376.319	101.25
376.545	77.25
376.771	96.25
376.997	103.25
377.222	94.25
377.448	95.25
377.674	96.25
377.899	98.25
378.125	98.25
378.35	85.25
378.576	102.25
378.802	95.25
379.027	98.25
379.253	89.25
379.478	97.25
379.704	112.25
379.929	106.25
380.155	84.25
380.38	110.25
380.606	101.25
380.831	94.25
381.057	113.25
381.282	101.25
381.507	107.25
381.733	95.25
381.958	97.25
382.184	109.25
382.409	117.25
382.634	108.25
382.86	106.25
383.085	100.25
383.31	111.25
383.535	99.25
383.761	110.25
383.986	121.25
384.211	105.25
384.436	110.25
384.662	111.25
384.887	103.25
385.112	115.25
385.337	118.25
385.562	117.25
385.787	112.25
386.013	111.25
386.238	128.25
386.463	112.25
386.688	126.25
386.913	92.25
387.138	118.25
387.363	111.25
387.588	105.25
387.813	108.25
388.038	102.25
388.263	128.25
388.488	119.25
388.713	103.25
388.938	95.25
389.163	84.25
389.387	89.25
389.612	99.25
389.837	93.25
390.062	91.25
390.287	96.25
390.512	103.25
390.736	86.25
390.961	81.25
391.186	95.25
391.411	82.25
391.636	94.25
391.86	89.25
392.085	80.25
392.31	101.25
392.534	81.25
392.759	83.25
392.984	82.25
393.208	89.25
393.433	89.25
393.658	79.25
393.882	84.25
394.107	91.25
394.331	81.25
394.556	97.25
394.78	91.25
395.005	83.25
395.229	76.25
395.454	90.25
395.678	91.25
395.903	86.25
396.127	101.25
396.352	81.25
396.576	78.25
396.801	89.25
397.025	78.25
397.249	82.25
397.474	84.25
397.698	90.25
397.922	94.25
398.147	90.25
398.371	93.25
398.595	87.25
398.82	90.25
399.044	77.25
399.268	79.25
399.492	82.25
399.717	85.25
399.941	88.25
400.165	97.25
400.389	100.25
400.613	87.25
400.837	87.25
401.062	95.25
401.286	97.25
401.51	100.25
401.734	97.25
401.958	103.25
402.182	162.25
402.406	217.25
402.63	147.25
402.854	118.25
403.078	90.25
403.302	85.25
403.526	89.25
403.75	96.25
403.974	99.25
404.198	97.25
404.422	95.25
404.645	97.25
404.869	118.25
405.093	108.25
405.317	154.25
405.541	151.25
405.765	117.25
405.988	147.25
406.212	222.25
406.436	342.25
406.66	215.25
406.883	129.25
407.107	109.25
407.331	117.25
407.555	113.25
407.778	111.25
408.002	107.25
408.226	83.25
408.449	89.25
408.673	86.25
408.896	91.25
409.12	87.25
409.344	92.25
409.567	92.25
409.791	119.25
410.014	100.25
410.238	96.25
410.461	91.25
410.685	96.25
410.908	102.25
411.132	103.25
411.355	108.25
411.578	97.25
411.802	104.25
412.025	105.25
412.249	113.25
412.472	119.25
412.695	138.25
412.919	106.25
413.142	105.25
413.365	102.25
413.589	102.25
413.812	104.25
414.035	103.25
414.258	87.25
414.482	98.25
414.705	91.25
414.928	102.25
415.151	97.25
415.374	103.25
415.597	75.25
415.821	89.25
416.044	103.25
416.267	90.25
416.49	97.25
416.713	82.25
416.936	98.25
417.159	89.25
417.382	107.25
417.605	125.25
417.828	128.25
418.051	98.25
418.274	82.25
418.497	91.25
418.72	102.25
418.943	98.25
419.166	86.25
419.389	91.25
419.611	110.25
419.834	102.25
420.057	113.25
420.28	100.25
420.503	103.25
420.726	79.25
420.948	97.25
421.171	103.25
421.394	114.25
421.617	99.25
421.839	79.25
422.062	102.25
422.285	93.25
422.507	109.25
422.73	113.25
422.953	103.25
423.175	109.25
423.398	88.25
423.621	77.25
423.843	91.25
424.066	100.25
424.288	89.25
424.511	102.25
424.733	108.25
424.956	149.25
425.178	124.25
425.401	119.25
425.623	101.25
425.846	88.25
426.068	92.25
426.291	100.25
426.513	90.25
426.735	90.25
426.958	108.25
427.18	121.25
427.402	185.25
427.625	273.25
427.847	271.25
428.069	253.25
428.292	138.25
428.514	113.25
428.736	102.25
428.958	94.25
429.181	103.25
429.403	94.25
429.625	106.25
429.847	114.25
430.069	115.25
430.292	110.25
430.514	102.25
430.736	87.25
430.958	87.25
431.18	96.25
431.402	80.25
431.624	95.25
431.846	89.25
432.068	90.25
432.29	90.25
432.512	97.25
432.734	77.25
432.956	91.25
433.178	105.25
433.4	111.25
433.622	86.25
433.844	86.25
434.066	100.25
434.287	88.25
434.509	90.25
434.731	87.25
434.953	105.25
435.175	95.25
435.397	92.25
435.618	87.25
435.84	116.25
436.062	131.25
436.284	130.25
436.505	111.25
436.727	100.25
436.949	103.25
437.17	88.25
437.392	94.25
437.614	102.25
437.835	108.25
438.057	157.25
438.278	129.25
438.5	118.25
438.721	142.25
438.943	116.25
439.165	94.25
439.386	98.25
439.608	82.25
439.829	112.25
440.05	153.25
440.272	184.25
440.493	118.25
440.715	96.25
440.936	98.25
441.158	91.25
441.379	97.25
441.6	101.25
441.822	116.25
442.043	99.25
442.264	109.25
442.486	117.25
442.707	112.25
442.928	138.25
443.149	193.25
443.371	187.25
443.592	141.25
443.813	133.25
444.034	115.25
444.255	97.25
444.476	106.25
444.698	106.25
444.919	95.25
445.14	147.25
445.361	146.25
445.582	145.25
445.803	190.25
446.024	189.25
446.245	175.25
446.466	141.25
446.687	98.25
446.908	95.25
447.129	92.25
447.35	102.25
447.571	113.25
447.792	96.25
448.013	115.25
448.234	129.25
448.455	108.25
448.675	150.25
448.896	146.25
449.117	122.25
449.338	109.25
449.559	142.25
449.779	159.25
450	107.25
450.221	97.25
450.442	92.25
450.662	110.25
450.883	121.25
451.104	129.25
451.324	104.25
451.545	94.25
451.766	84.25
451.986	90.25
452.207	95.25
452.428	96.25
452.648	115.25
452.869	156.25
453.089	137.25
453.31	167.25
453.53	102.25
453.751	115.25
453.971	133.25
454.192	137.25
454.412	115.25
454.633	91.25
454.853	105.25
455.073	83.25
455.294	113.25
455.514	117.25
455.734	99.25
455.955	91.25
456.175	83.25
456.395	93.25
456.616	100.25
456.836	89.25
457.056	89.25
457.276	92.25
457.497	84.25
457.717	93.25
457.937	108.25
458.157	93.25
458.377	129.25
458.598	134.25
458.818	217.25
459.038	227.25
459.258	161.25
459.478	95.25
459.698	104.25
459.918	86.25
460.138	85.25
460.358	92.25
460.578	89.25
460.798	90.25
461.018	103.25
461.238	87.25
461.458	71.25
461.678	93.25
461.898	103.25
462.118	94.25
462.338	94.25
462.558	90.25
462.777	95.25
462.997	106.25
463.217	121.25
463.437	95.25
463.657	91.25
463.876	87.25
464.096	114.25
464.316	108.25
464.536	114.25
464.755	105.25
464.975	145.25
465.195	274.25
465.414	269.25
465.634	130.25
465.854	87.25
466.073	107.25
466.293	109.25
466.512	92.25
466.732	101.25
466.951	96.25
467.171	105.25
467.391	111.25
467.61	151.25
467.829	234.25
468.049	669.25
468.268	988.25
468.488	228.25
468.707	117.25
468.927	97.25
469.146	93.25
469.365	92.25
469.585	97.25
469.804	119.25
470.023	125.25
470.243	125.25
470.462	128.25
470.681	134.25
470.901	103.25
471.12	103.25
471.339	115.25
471.558	122.25
471.777	173.25
471.997	312.25
472.216	1233.25
472.435	2979.25
472.654	663.25
472.873	194.25
473.092	122.25
473.311	115.25
473.53	108.25
473.749	100.25
473.968	108.25
474.187	127.25
474.406	110.25
474.625	79.25
474.844	111.25
475.063	110.25
475.282	97.25
475.501	111.25
475.72	98.25
475.939	99.25
476.158	87.25
476.377	100.25
476.596	95.25
476.814	100.25
477.033	111.25
477.252	89.25
477.471	102.25
477.69	97.25
477.908	97.25
478.127	101.25
478.346	95.25
478.564	100.25
478.783	124.25
479.002	109.25
479.22	114.25
479.439	139.25
479.658	158.25
479.876	119.25
480.095	119.25
480.313	134.25
480.532	173.25
480.751	319.25
480.969	1112.25
481.188	5001.25
481.406	2863.25
481.624	413.25
481.843	159.25
482.061	114.25
482.28	118.25
482.498	101.25
482.717	92.25
482.935	113.25
483.153	106.25
483.372	104.25
483.59	97.25
483.808	102.25
484.027	106.25
484.245	99.25
484.463	107.25
484.681	102.25
484.9	106.25
485.118	103.25
485.336	93.25
485.554	108.25
485.772	104.25
485.99	112.25
486.209	121.25
486.427	123.25
486.645	131.25
486.863	137.25
487.081	118.25
487.299	113.25
487.517	96.25
487.735	94.25
487.953	96.25
488.171	107.25
488.389	104.25
488.607	111.25
488.825	100.25
489.043	91.25
489.261	97.25
489.479	114.25
489.696	83.25
489.914	96.25
490.132	98.25
490.35	94.25
490.568	91.25
490.786	85.25
491.003	91.25
491.221	93.25
491.439	95.25
491.657	102.25
491.874	94.25
492.092	99.25
492.31	94.25
492.527	102.25
492.745	106.25
492.963	98.25
493.18	96.25
493.398	110.25
493.615	105.25
493.833	96.25
494.05	94.25
494.268	102.25
494.485	94.25
494.703	89.25
494.92	87.25
495.138	111.25
495.355	94.25
495.573	93.25
495.79	100.25
496.008	115.25
496.225	93.25
496.442	95.25
496.66	101.25
496.877	105.25
497.094	84.25
497.312	87.25
497.529	100.25
497.746	93.25
497.963	102.25
498.181	94.25
498.398	112.25
498.615	128.25
498.832	115.25
499.049	107.25
499.267	97.25
499.484	95.25
499.701	85.25
499.918	89.25
500.135	85.25
500.352	101.25
500.569	97.25
500.786	98.25
501.003	102.25
501.22	92.25
501.437	85.25
501.654	124.25
501.871	147.25
502.088	102.25
502.305	105.25
502.522	103.25
502.739	96.25
502.956	96.25
503.172	91.25
503.389	113.25
503.606	129.25
503.823	117.25
504.04	100.25
504.256	87.25
504.473	96.25
504.69	92.25
504.907	98.25
505.123	82.25
505.34	97.25
505.557	98.25
505.773	114.25
505.99	94.25
506.207	93.25
506.423	89.25
506.64	91.25
506.856	108.25
507.073	78.25
507.289	85.25
507.506	109.25
507.722	158.25
507.939	145.25
508.155	121.25
508.372	83.25
508.588	112.25
508.805	101.25
509.021	101.25
509.238	113.25
509.454	92.25
509.67	98.25
509.887	121.25
510.103	143.25
510.319	261.25
510.536	929.25
510.752	3389.25
