Data from Circ_1995_H10_HRD10591_00091.txt Node
Date: Wed Jan 03 11:37:04 EST 2024
User: Yrep
Spectrometer: HR+D1059
Trigger mode: 1
Integration Time (sec): 1.000000E-1
Scans to average: 1
Electric dark correction enabled: true
Nonlinearity correction enabled: false
Boxcar width: 0
XAxis mode: Wavelengths
Number of Pixels in Spectrum: 2048
>>>>>Begin Spectral Data<<<<<
223.165	-9.12
223.4	-9.12
223.635	-9.12
223.869	-19.12
224.104	-19.12
224.338	-34.12
224.573	-18.12
224.808	-18.12
225.042	-7.12
225.277	4.88
225.511	-1.12
225.746	10.88
225.98	4.88
226.215	9.88
226.449	16.88
226.683	17.88
226.918	26.88
227.152	33.88
227.387	36.88
227.621	22.88
227.856	49.88
228.09	44.88
228.324	35.88
228.559	47.88
228.793	54.88
229.027	61.88
229.262	65.88
229.496	85.88
229.73	127.88
229.964	111.88
230.199	80.88
230.433	78.88
230.667	80.88
230.901	73.88
231.136	78.88
231.37	88.88
231.604	76.88
231.838	87.88
232.072	73.88
232.306	86.88
232.541	75.88
232.775	78.88
233.009	76.88
233.243	70.88
233.477	72.88
233.711	85.88
233.945	88.88
234.179	77.88
234.413	76.88
234.647	88.88
234.881	88.88
235.115	71.88
235.349	75.88
235.583	77.88
235.817	63.88
236.051	71.88
236.285	93.88
236.519	80.88
236.753	77.88
236.987	77.88
237.221	94.88
237.455	82.88
237.689	76.88
237.922	68.88
238.156	70.88
238.39	69.88
238.624	68.88
238.858	86.88
239.091	76.88
239.325	64.88
239.559	86.88
239.793	73.88
240.027	86.88
240.26	84.88
240.494	77.88
240.728	77.88
240.961	78.88
241.195	92.88
241.429	77.88
241.662	72.88
241.896	79.88
242.13	79.88
242.363	74.88
242.597	82.88
242.83	89.88
243.064	75.88
243.298	88.88
243.531	95.88
243.765	63.88
243.998	93.88
244.232	81.88
244.465	84.88
244.699	81.88
244.932	82.88
245.166	78.88
245.399	85.88
245.633	72.88
245.866	66.88
246.099	73.88
246.333	88.88
246.566	77.88
246.8	73.88
247.033	83.88
247.266	79.88
247.5	88.88
247.733	64.88
247.966	85.88
248.2	80.88
248.433	65.88
248.666	76.88
248.899	77.88
249.133	95.88
249.366	119.88
249.599	99.88
249.832	77.88
250.066	84.88
250.299	94.88
250.532	92.88
250.765	88.88
250.998	84.88
251.231	74.88
251.465	90.88
251.698	101.88
251.931	84.88
252.164	89.88
252.397	73.88
252.63	78.88
252.863	80.88
253.096	81.88
253.329	70.88
253.562	84.88
253.795	77.88
254.028	85.88
254.261	75.88
254.494	87.88
254.727	82.88
254.96	77.88
255.193	73.88
255.426	71.88
255.659	82.88
255.892	98.88
256.124	105.88
256.357	89.88
256.59	88.88
256.823	78.88
257.056	94.88
257.289	93.88
257.521	96.88
257.754	87.88
257.987	91.88
258.22	90.88
258.452	114.88
258.685	95.88
258.918	91.88
259.151	85.88
259.383	83.88
259.616	91.88
259.849	76.88
260.081	75.88
260.314	94.88
260.547	102.88
260.779	114.88
261.012	134.88
261.244	147.88
261.477	115.88
261.71	116.88
261.942	163.88
262.175	186.88
262.407	108.88
262.64	89.88
262.872	94.88
263.105	82.88
263.337	82.88
263.57	85.88
263.802	72.88
264.035	82.88
264.267	90.88
264.499	69.88
264.732	81.88
264.964	83.88
265.197	81.88
265.429	83.88
265.661	81.88
265.894	94.88
266.126	79.88
266.358	81.88
266.591	80.88
266.823	97.88
267.055	86.88
267.287	80.88
267.52	92.88
267.752	70.88
267.984	83.88
268.216	82.88
268.448	90.88
268.681	91.88
268.913	79.88
269.145	90.88
269.377	86.88
269.609	75.88
269.841	84.88
270.073	88.88
270.306	93.88
270.538	96.88
270.77	77.88
271.002	81.88
271.234	87.88
271.466	99.88
271.698	94.88
271.93	90.88
272.162	93.88
272.394	94.88
272.626	96.88
272.858	88.88
273.09	91.88
273.322	80.88
273.553	82.88
273.785	99.88
274.017	74.88
274.249	92.88
274.481	81.88
274.713	84.88
274.945	92.88
275.176	107.88
275.408	120.88
275.64	137.88
275.872	168.88
276.104	128.88
276.335	111.88
276.567	148.88
276.799	201.88
277.031	284.88
277.262	338.88
277.494	247.88
277.726	140.88
277.957	113.88
278.189	91.88
278.421	96.88
278.652	92.88
278.884	97.88
279.115	102.88
279.347	93.88
279.579	132.88
279.81	190.88
280.042	339.88
280.273	490.88
280.505	308.88
280.736	134.88
280.968	101.88
281.199	90.88
281.431	97.88
281.662	90.88
281.894	102.88
282.125	112.88
282.356	146.88
282.588	205.88
282.819	155.88
283.051	96.88
283.282	104.88
283.513	94.88
283.745	72.88
283.976	94.88
284.207	104.88
284.439	86.88
284.67	78.88
284.901	83.88
285.132	81.88
285.364	85.88
285.595	92.88
285.826	82.88
286.057	89.88
286.288	87.88
286.52	89.88
286.751	91.88
286.982	85.88
287.213	93.88
287.444	88.88
287.675	96.88
287.906	88.88
288.138	102.88
288.369	116.88
288.6	99.88
288.831	80.88
289.062	103.88
289.293	78.88
289.524	89.88
289.755	77.88
289.986	88.88
290.217	87.88
290.448	104.88
290.679	87.88
290.91	104.88
291.141	96.88
291.371	75.88
291.602	88.88
291.833	96.88
292.064	100.88
292.295	86.88
292.526	91.88
292.757	97.88
292.987	93.88
293.218	84.88
293.449	92.88
293.68	84.88
293.91	78.88
294.141	102.88
294.372	91.88
294.603	87.88
294.833	93.88
295.064	84.88
295.295	92.88
295.525	90.88
295.756	103.88
295.987	154.88
296.217	228.88
296.448	171.88
296.679	94.88
296.909	101.88
297.14	96.88
297.37	97.88
297.601	97.88
297.831	102.88
298.062	85.88
298.292	96.88
298.523	81.88
298.753	82.88
298.984	93.88
299.214	99.88
299.445	105.88
299.675	100.88
299.905	120.88
300.136	93.88
300.366	93.88
300.597	96.88
300.827	101.88
301.057	118.88
301.288	133.88
301.518	110.88
301.748	116.88
301.979	123.88
302.209	117.88
302.439	105.88
302.669	84.88
302.9	92.88
303.13	101.88
303.36	135.88
303.59	184.88
303.82	211.88
304.051	117.88
304.281	109.88
304.511	95.88
304.741	92.88
304.971	84.88
305.201	94.88
305.431	105.88
305.661	114.88
305.891	109.88
306.121	103.88
306.352	132.88
306.582	124.88
306.812	130.88
307.042	175.88
307.272	243.88
307.502	284.88
307.731	237.88
307.961	166.88
308.191	104.88
308.421	104.88
308.651	93.88
308.881	108.88
309.111	104.88
309.341	113.88
309.571	120.88
309.8	128.88
310.03	125.88
310.26	125.88
310.49	98.88
310.72	117.88
310.949	152.88
311.179	130.88
311.409	104.88
311.639	116.88
311.868	114.88
312.098	124.88
312.328	120.88
312.557	118.88
312.787	161.88
313.017	135.88
313.246	115.88
313.476	99.88
313.706	97.88
313.935	118.88
314.165	134.88
314.394	130.88
314.624	126.88
314.853	126.88
315.083	92.88
315.312	96.88
315.542	102.88
315.771	106.88
316.001	96.88
316.23	94.88
316.46	76.88
316.689	90.88
316.919	105.88
317.148	111.88
317.377	96.88
317.607	83.88
317.836	90.88
318.065	97.88
318.295	90.88
318.524	90.88
318.753	86.88
318.983	109.88
319.212	123.88
319.441	120.88
319.67	132.88
319.9	103.88
320.129	89.88
320.358	105.88
320.587	109.88
320.816	116.88
321.046	113.88
321.275	113.88
321.504	103.88
321.733	109.88
321.962	124.88
322.191	119.88
322.42	132.88
322.649	149.88
322.878	134.88
323.108	152.88
323.337	180.88
323.566	204.88
323.795	234.88
324.024	307.88
324.253	664.88
324.482	1443.88
324.71	3020.88
324.939	3945.88
325.168	1428.88
325.397	398.88
325.626	207.88
325.855	165.88
326.084	172.88
326.313	185.88
326.542	213.88
326.77	330.88
326.999	696.88
327.228	1429.88
327.457	2692.88
327.686	2230.88
327.914	857.88
328.143	951.88
328.372	1324.88
328.6	662.88
328.829	270.88
329.058	274.88
329.287	312.88
329.515	284.88
329.744	441.88
329.972	904.88
330.201	2017.88
330.43	2940.88
330.658	1242.88
330.887	493.88
331.115	296.88
331.344	168.88
331.572	152.88
331.801	168.88
332.03	156.88
332.258	140.88
332.486	111.88
332.715	132.88
332.943	149.88
333.172	142.88
333.4	169.88
333.629	231.88
333.857	368.88
334.085	792.88
334.314	1785.88
334.542	3616.88
334.771	3354.88
334.999	785.88
335.227	272.88
335.455	161.88
335.684	138.88
335.912	116.88
336.14	120.88
336.369	128.88
336.597	134.88
336.825	128.88
337.053	95.88
337.281	127.88
337.51	117.88
337.738	103.88
337.966	119.88
338.194	124.88
338.422	114.88
338.65	104.88
338.878	102.88
339.106	102.88
339.334	107.88
339.562	100.88
339.79	92.88
340.018	107.88
340.246	108.88
340.474	123.88
340.702	103.88
340.93	98.88
341.158	91.88
341.386	123.88
341.614	118.88
341.842	115.88
342.07	106.88
342.298	106.88
342.526	91.88
342.754	89.88
342.981	91.88
343.209	108.88
343.437	114.88
343.665	99.88
343.893	89.88
344.12	94.88
344.348	96.88
344.576	84.88
344.804	104.88
345.031	132.88
345.259	133.88
345.487	114.88
345.714	108.88
345.942	108.88
346.17	95.88
346.397	99.88
346.625	94.88
346.853	109.88
347.08	102.88
347.308	118.88
347.535	111.88
347.763	116.88
347.99	122.88
348.218	114.88
348.445	147.88
348.673	123.88
348.9	102.88
349.128	98.88
349.355	98.88
349.583	97.88
349.81	116.88
350.037	96.88
350.265	103.88
350.492	88.88
350.72	115.88
350.947	110.88
351.174	140.88
351.402	132.88
351.629	129.88
351.856	119.88
352.083	126.88
352.311	132.88
352.538	162.88
352.765	140.88
352.992	144.88
353.22	140.88
353.447	115.88
353.674	102.88
353.901	100.88
354.128	93.88
354.355	84.88
354.583	97.88
354.81	89.88
355.037	92.88
355.264	99.88
355.491	88.88
355.718	89.88
355.945	88.88
356.172	89.88
356.399	91.88
356.626	94.88
356.853	99.88
357.08	92.88
357.307	98.88
357.534	96.88
357.761	80.88
357.988	94.88
358.215	97.88
358.441	97.88
358.668	93.88
358.895	103.88
359.122	100.88
359.349	95.88
359.576	98.88
359.802	137.88
360.029	201.88
360.256	185.88
360.483	119.88
360.709	93.88
360.936	94.88
361.163	105.88
361.39	110.88
361.616	111.88
361.843	86.88
362.07	116.88
362.296	120.88
362.523	104.88
362.749	107.88
362.976	102.88
363.203	82.88
363.429	92.88
363.656	105.88
363.882	104.88
364.109	103.88
364.335	108.88
364.562	87.88
364.788	102.88
365.015	105.88
365.241	111.88
365.468	140.88
365.694	154.88
365.92	121.88
366.147	114.88
366.373	104.88
366.599	88.88
366.826	100.88
367.052	98.88
367.278	98.88
367.505	90.88
367.731	104.88
367.957	111.88
368.184	97.88
368.41	128.88
368.636	140.88
368.862	144.88
369.089	159.88
369.315	118.88
369.541	97.88
369.767	97.88
369.993	101.88
370.219	107.88
370.445	101.88
370.672	98.88
370.898	97.88
371.124	97.88
371.35	92.88
371.576	83.88
371.802	82.88
372.028	79.88
372.254	89.88
372.48	73.88
372.706	86.88
372.932	96.88
373.158	95.88
373.384	95.88
373.61	102.88
373.835	88.88
374.061	88.88
374.287	104.88
374.513	105.88
374.739	93.88
374.965	90.88
375.191	97.88
375.416	88.88
375.642	95.88
375.868	98.88
376.094	98.88
376.319	92.88
376.545	88.88
376.771	86.88
376.997	98.88
377.222	100.88
377.448	94.88
377.674	97.88
377.899	90.88
378.125	106.88
378.35	64.88
378.576	81.88
378.802	82.88
379.027	111.88
379.253	86.88
379.478	88.88
379.704	98.88
379.929	105.88
380.155	94.88
380.38	104.88
380.606	106.88
380.831	95.88
381.057	81.88
381.282	97.88
381.507	104.88
381.733	86.88
381.958	96.88
382.184	102.88
382.409	94.88
382.634	97.88
382.86	85.88
383.085	95.88
383.31	110.88
383.535	106.88
383.761	89.88
383.986	84.88
384.211	81.88
384.436	102.88
384.662	90.88
384.887	103.88
385.112	105.88
385.337	103.88
385.562	102.88
385.787	100.88
386.013	125.88
386.238	142.88
386.463	106.88
386.688	101.88
386.913	104.88
387.138	105.88
387.363	107.88
387.588	94.88
387.813	94.88
388.038	95.88
388.263	114.88
388.488	118.88
388.713	91.88
388.938	94.88
389.163	80.88
389.387	85.88
389.612	89.88
389.837	96.88
390.062	93.88
390.287	92.88
390.512	102.88
390.736	84.88
390.961	78.88
391.186	98.88
391.411	84.88
391.636	88.88
391.86	89.88
392.085	87.88
392.31	84.88
392.534	81.88
392.759	90.88
392.984	92.88
393.208	75.88
393.433	88.88
393.658	93.88
393.882	77.88
394.107	79.88
394.331	88.88
394.556	75.88
394.78	80.88
395.005	92.88
395.229	90.88
395.454	96.88
395.678	88.88
395.903	92.88
396.127	96.88
396.352	86.88
396.576	91.88
396.801	70.88
397.025	77.88
397.249	97.88
397.474	83.88
397.698	78.88
397.922	100.88
398.147	89.88
398.371	88.88
398.595	91.88
398.82	76.88
399.044	74.88
399.268	81.88
399.492	79.88
399.717	93.88
399.941	109.88
400.165	99.88
400.389	96.88
400.613	94.88
400.837	90.88
401.062	81.88
401.286	97.88
401.51	105.88
401.734	97.88
401.958	123.88
402.182	180.88
402.406	273.88
402.63	196.88
402.854	124.88
403.078	109.88
403.302	102.88
403.526	105.88
403.75	89.88
403.974	97.88
404.198	88.88
404.422	102.88
404.645	111.88
404.869	106.88
405.093	133.88
405.317	175.88
405.541	180.88
405.765	145.88
405.988	171.88
406.212	294.88
406.436	436.88
406.66	312.88
406.883	148.88
407.107	121.88
407.331	125.88
407.555	117.88
407.778	124.88
408.002	104.88
408.226	108.88
408.449	95.88
408.673	90.88
408.896	104.88
409.12	105.88
409.344	88.88
409.567	85.88
409.791	85.88
410.014	105.88
410.238	104.88
410.461	104.88
410.685	89.88
410.908	106.88
411.132	109.88
411.355	112.88
411.578	92.88
411.802	90.88
412.025	108.88
412.249	106.88
412.472	134.88
412.695	148.88
412.919	126.88
413.142	98.88
413.365	106.88
413.589	93.88
413.812	94.88
414.035	105.88
414.258	100.88
414.482	117.88
414.705	95.88
414.928	89.88
415.151	101.88
415.374	84.88
415.597	81.88
415.821	87.88
416.044	99.88
416.267	109.88
416.49	78.88
416.713	96.88
416.936	100.88
417.159	104.88
417.382	104.88
417.605	120.88
417.828	138.88
418.051	114.88
418.274	103.88
418.497	97.88
418.72	96.88
418.943	85.88
419.166	90.88
419.389	80.88
419.611	99.88
419.834	103.88
420.057	91.88
420.28	103.88
420.503	106.88
420.726	98.88
420.948	100.88
421.171	112.88
421.394	95.88
421.617	93.88
421.839	92.88
422.062	92.88
422.285	76.88
422.507	119.88
422.73	114.88
422.953	91.88
423.175	93.88
423.398	80.88
423.621	90.88
423.843	87.88
424.066	77.88
424.288	90.88
424.511	96.88
424.733	112.88
424.956	135.88
425.178	117.88
425.401	113.88
425.623	125.88
425.846	98.88
426.068	116.88
426.291	97.88
426.513	106.88
426.735	102.88
426.958	118.88
427.18	144.88
427.402	241.88
427.625	394.88
427.847	350.88
428.069	292.88
428.292	192.88
428.514	110.88
428.736	102.88
428.958	97.88
429.181	91.88
429.403	94.88
429.625	101.88
429.847	115.88
430.069	129.88
430.292	96.88
430.514	81.88
430.736	94.88
430.958	89.88
431.18	94.88
431.402	82.88
431.624	85.88
431.846	78.88
432.068	85.88
432.29	101.88
432.512	77.88
432.734	91.88
432.956	101.88
433.178	90.88
433.4	117.88
433.622	98.88
433.844	106.88
434.066	85.88
434.287	98.88
434.509	89.88
434.731	93.88
434.953	91.88
435.175	97.88
435.397	90.88
435.618	106.88
435.84	118.88
436.062	156.88
436.284	131.88
436.505	121.88
436.727	100.88
436.949	103.88
437.17	102.88
437.392	96.88
437.614	104.88
437.835	153.88
438.057	183.88
438.278	135.88
438.5	127.88
438.721	136.88
438.943	113.88
439.165	99.88
439.386	88.88
439.608	88.88
439.829	127.88
440.05	188.88
440.272	217.88
440.493	131.88
440.715	97.88
440.936	84.88
441.158	99.88
441.379	101.88
441.6	114.88
441.822	109.88
442.043	106.88
442.264	133.88
442.486	122.88
442.707	109.88
442.928	150.88
443.149	239.88
443.371	226.88
443.592	160.88
443.813	142.88
444.034	156.88
444.255	109.88
444.476	84.88
444.698	96.88
444.919	87.88
445.14	133.88
445.361	135.88
445.582	161.88
445.803	234.88
446.024	217.88
446.245	200.88
446.466	166.88
446.687	93.88
446.908	98.88
447.129	97.88
447.35	87.88
447.571	105.88
447.792	110.88
448.013	123.88
448.234	146.88
448.455	125.88
448.675	132.88
448.896	154.88
449.117	132.88
449.338	132.88
449.559	154.88
449.779	166.88
450	101.88
450.221	106.88
450.442	96.88
450.662	101.88
450.883	162.88
451.104	190.88
451.324	136.88
451.545	102.88
451.766	88.88
451.986	100.88
452.207	108.88
452.428	120.88
452.648	109.88
452.869	158.88
453.089	158.88
453.31	204.88
453.53	116.88
453.751	103.88
453.971	132.88
454.192	205.88
454.412	121.88
454.633	89.88
454.853	91.88
455.073	96.88
455.294	92.88
455.514	120.88
455.734	94.88
455.955	83.88
456.175	86.88
456.395	88.88
456.616	91.88
456.836	92.88
457.056	98.88
457.276	91.88
457.497	90.88
457.717	90.88
457.937	101.88
458.157	96.88
458.377	115.88
458.598	181.88
458.818	299.88
459.038	319.88
459.258	197.88
459.478	108.88
459.698	113.88
459.918	102.88
460.138	84.88
460.358	85.88
460.578	92.88
460.798	90.88
461.018	106.88
461.238	92.88
461.458	64.88
461.678	96.88
461.898	106.88
462.118	90.88
462.338	107.88
462.558	100.88
462.777	82.88
462.997	117.88
463.217	144.88
463.437	112.88
463.657	111.88
463.876	81.88
464.096	88.88
464.316	97.88
464.536	107.88
464.755	124.88
464.975	164.88
465.195	355.88
465.414	374.88
465.634	133.88
465.854	105.88
466.073	88.88
466.293	95.88
466.512	103.88
466.732	102.88
466.951	92.88
467.171	121.88
467.391	128.88
467.61	208.88
467.829	373.88
468.049	1132.88
468.268	1795.88
468.488	375.88
468.707	144.88
468.927	99.88
469.146	110.88
469.365	100.88
469.585	101.88
469.804	128.88
470.023	139.88
470.243	134.88
470.462	141.88
470.681	182.88
470.901	119.88
471.12	106.88
471.339	116.88
471.558	152.88
471.777	225.88
471.997	493.88
472.216	2169.88
472.435	5176.88
472.654	1118.88
472.873	237.88
473.092	143.88
473.311	108.88
473.53	100.88
473.749	95.88
473.968	115.88
474.187	146.88
474.406	119.88
474.625	80.88
474.844	93.88
475.063	100.88
475.282	88.88
475.501	82.88
475.72	87.88
475.939	87.88
476.158	85.88
476.377	96.88
476.596	96.88
476.814	112.88
477.033	96.88
477.252	96.88
477.471	106.88
477.69	100.88
477.908	103.88
478.127	99.88
478.346	111.88
478.564	118.88
478.783	132.88
479.002	106.88
479.22	115.88
479.439	162.88
479.658	180.88
479.876	145.88
480.095	168.88
480.313	173.88
480.532	239.88
480.751	503.88
480.969	1878.88
481.188	8465.88
481.406	4825.88
481.624	637.88
481.843	196.88
482.061	138.88
482.28	110.88
482.498	108.88
482.717	105.88
482.935	104.88
483.153	88.88
483.372	94.88
483.59	80.88
483.808	98.88
484.027	107.88
484.245	95.88
484.463	93.88
484.681	100.88
484.9	93.88
485.118	101.88
485.336	97.88
485.554	104.88
485.772	97.88
485.99	122.88
486.209	114.88
486.427	99.88
486.645	149.88
486.863	159.88
487.081	130.88
487.299	114.88
487.517	104.88
487.735	101.88
487.953	103.88
488.171	108.88
488.389	104.88
488.607	110.88
488.825	88.88
489.043	72.88
489.261	90.88
489.479	94.88
489.696	88.88
489.914	100.88
490.132	92.88
490.35	92.88
490.568	98.88
490.786	92.88
491.003	97.88
491.221	107.88
491.439	118.88
491.657	91.88
491.874	105.88
492.092	97.88
492.31	103.88
492.527	121.88
492.745	113.88
492.963	98.88
493.18	92.88
493.398	88.88
493.615	104.88
493.833	104.88
494.05	87.88
494.268	97.88
494.485	89.88
494.703	84.88
494.92	101.88
495.138	91.88
495.355	88.88
495.573	101.88
495.79	96.88
496.008	96.88
496.225	95.88
496.442	110.88
496.66	80.88
496.877	92.88
497.094	86.88
497.312	101.88
497.529	89.88
497.746	88.88
497.963	97.88
498.181	95.88
498.398	104.88
498.615	134.88
498.832	122.88
499.049	100.88
499.267	93.88
499.484	89.88
499.701	93.88
499.918	106.88
500.135	94.88
500.352	73.88
500.569	96.88
500.786	113.88
501.003	88.88
501.22	97.88
501.437	97.88
501.654	105.88
501.871	159.88
502.088	108.88
502.305	83.88
502.522	91.88
502.739	98.88
502.956	90.88
503.172	104.88
503.389	115.88
503.606	143.88
503.823	112.88
504.04	111.88
504.256	96.88
504.473	98.88
504.69	88.88
504.907	96.88
505.123	104.88
505.34	100.88
505.557	97.88
505.773	86.88
505.99	80.88
506.207	98.88
506.423	101.88
506.64	97.88
506.856	88.88
507.073	97.88
507.289	112.88
507.506	105.88
507.722	172.88
507.939	164.88
508.155	115.88
508.372	91.88
508.588	92.88
508.805	111.88
509.021	109.88
509.238	102.88
509.454	98.88
509.67	117.88
509.887	120.88
510.103	164.88
510.319	305.88
510.536	1282.88
510.752	4715.88
510.968	1209.88
