Data from Circ_1995_H10_HRD10591_00064.txt Node
Date: Wed Jan 03 11:36:59 EST 2024
User: Yrep
Spectrometer: HR+D1059
Trigger mode: 1
Integration Time (sec): 1.000000E-1
Scans to average: 1
Electric dark correction enabled: true
Nonlinearity correction enabled: false
Boxcar width: 0
XAxis mode: Wavelengths
Number of Pixels in Spectrum: 2048
>>>>>Begin Spectral Data<<<<<
223.165	-19.38
223.4	-19.38
223.635	-19.38
223.869	-22.38
224.104	-20.38
224.338	-19.38
224.573	-20.38
224.808	-15.38
225.042	-6.38
225.277	-3.38
225.511	0.62
225.746	4.62
225.98	16.62
226.215	14.62
226.449	17.62
226.683	27.62
226.918	23.62
227.152	21.62
227.387	28.62
227.621	41.62
227.856	50.62
228.09	38.62
228.324	51.62
228.559	52.62
228.793	54.62
229.027	65.62
229.262	73.62
229.496	89.62
229.73	120.62
229.964	106.62
230.199	77.62
230.433	78.62
230.667	73.62
230.901	64.62
231.136	71.62
231.37	75.62
231.604	67.62
231.838	96.62
232.072	72.62
232.306	87.62
232.541	72.62
232.775	68.62
233.009	88.62
233.243	74.62
233.477	72.62
233.711	92.62
233.945	91.62
234.179	79.62
234.413	96.62
234.647	88.62
234.881	88.62
235.115	89.62
235.349	85.62
235.583	85.62
235.817	92.62
236.051	83.62
236.285	68.62
236.519	83.62
236.753	69.62
236.987	90.62
237.221	96.62
237.455	94.62
237.689	71.62
237.922	84.62
238.156	69.62
238.39	93.62
238.624	59.62
238.858	79.62
239.091	84.62
239.325	79.62
239.559	96.62
239.793	92.62
240.027	86.62
240.26	83.62
240.494	68.62
240.728	80.62
240.961	76.62
241.195	84.62
241.429	87.62
241.662	87.62
241.896	64.62
242.13	93.62
242.363	83.62
242.597	86.62
242.83	85.62
243.064	74.62
243.298	71.62
243.531	89.62
243.765	79.62
243.998	82.62
244.232	93.62
244.465	98.62
244.699	82.62
244.932	83.62
245.166	74.62
245.399	82.62
245.633	74.62
245.866	72.62
246.099	88.62
246.333	75.62
246.566	85.62
246.8	81.62
247.033	82.62
247.266	81.62
247.5	92.62
247.733	83.62
247.966	86.62
248.2	89.62
248.433	100.62
248.666	77.62
248.899	97.62
249.133	92.62
249.366	107.62
249.599	115.62
249.832	95.62
250.066	89.62
250.299	92.62
250.532	90.62
250.765	81.62
250.998	91.62
251.231	71.62
251.465	72.62
251.698	90.62
251.931	87.62
252.164	67.62
252.397	83.62
252.63	75.62
252.863	81.62
253.096	95.62
253.329	72.62
253.562	91.62
253.795	88.62
254.028	90.62
254.261	83.62
254.494	89.62
254.727	95.62
254.96	85.62
255.193	88.62
255.426	77.62
255.659	88.62
255.892	101.62
256.124	110.62
256.357	89.62
256.59	88.62
256.823	95.62
257.056	91.62
257.289	91.62
257.521	99.62
257.754	84.62
257.987	82.62
258.22	103.62
258.452	101.62
258.685	107.62
258.918	85.62
259.151	85.62
259.383	93.62
259.616	83.62
259.849	73.62
260.081	84.62
260.314	84.62
260.547	91.62
260.779	123.62
261.012	121.62
261.244	134.62
261.477	120.62
261.71	119.62
261.942	165.62
262.175	179.62
262.407	113.62
262.64	100.62
262.872	95.62
263.105	93.62
263.337	93.62
263.57	87.62
263.802	90.62
264.035	84.62
264.267	78.62
264.499	82.62
264.732	84.62
264.964	83.62
265.197	96.62
265.429	94.62
265.661	82.62
265.894	96.62
266.126	72.62
266.358	92.62
266.591	110.62
266.823	86.62
267.055	85.62
267.287	90.62
267.52	79.62
267.752	89.62
267.984	81.62
268.216	85.62
268.448	89.62
268.681	83.62
268.913	95.62
269.145	88.62
269.377	90.62
269.609	93.62
269.841	89.62
270.073	87.62
270.306	95.62
270.538	85.62
270.77	91.62
271.002	89.62
271.234	100.62
271.466	100.62
271.698	90.62
271.93	94.62
272.162	87.62
272.394	105.62
272.626	92.62
272.858	84.62
273.09	98.62
273.322	100.62
273.553	75.62
273.785	98.62
274.017	92.62
274.249	96.62
274.481	100.62
274.713	80.62
274.945	92.62
275.176	106.62
275.408	113.62
275.64	136.62
275.872	153.62
276.104	120.62
276.335	106.62
276.567	132.62
276.799	195.62
277.031	253.62
277.262	295.62
277.494	211.62
277.726	114.62
277.957	97.62
278.189	91.62
278.421	90.62
278.652	86.62
278.884	88.62
279.115	105.62
279.347	104.62
279.579	104.62
279.81	174.62
280.042	294.62
280.273	437.62
280.505	277.62
280.736	135.62
280.968	116.62
281.199	97.62
281.431	80.62
281.662	91.62
281.894	95.62
282.125	106.62
282.356	161.62
282.588	196.62
282.819	147.62
283.051	105.62
283.282	99.62
283.513	99.62
283.745	79.62
283.976	102.62
284.207	84.62
284.439	80.62
284.67	77.62
284.901	100.62
285.132	96.62
285.364	97.62
285.595	91.62
285.826	81.62
286.057	83.62
286.288	80.62
286.52	92.62
286.751	95.62
286.982	89.62
287.213	78.62
287.444	101.62
287.675	91.62
287.906	93.62
288.138	106.62
288.369	99.62
288.6	106.62
288.831	93.62
289.062	105.62
289.293	92.62
289.524	89.62
289.755	86.62
289.986	92.62
290.217	98.62
290.448	84.62
290.679	93.62
290.91	98.62
291.141	92.62
291.371	79.62
291.602	86.62
291.833	95.62
292.064	89.62
292.295	101.62
292.526	104.62
292.757	80.62
292.987	96.62
293.218	96.62
293.449	100.62
293.68	96.62
293.91	90.62
294.141	84.62
294.372	98.62
294.603	98.62
294.833	101.62
295.064	93.62
295.295	104.62
295.525	103.62
295.756	96.62
295.987	148.62
296.217	194.62
296.448	178.62
296.679	114.62
296.909	100.62
297.14	88.62
297.37	104.62
297.601	94.62
297.831	96.62
298.062	105.62
298.292	107.62
298.523	98.62
298.753	102.62
298.984	92.62
299.214	93.62
299.445	113.62
299.675	105.62
299.905	99.62
300.136	95.62
300.366	89.62
300.597	102.62
300.827	106.62
301.057	111.62
301.288	148.62
301.518	113.62
301.748	114.62
301.979	115.62
302.209	115.62
302.439	103.62
302.669	89.62
302.9	95.62
303.13	107.62
303.36	123.62
303.59	175.62
303.82	196.62
304.051	137.62
304.281	109.62
304.511	92.62
304.741	91.62
304.971	96.62
305.201	110.62
305.431	99.62
305.661	99.62
305.891	92.62
306.121	96.62
306.352	116.62
306.582	140.62
306.812	118.62
307.042	144.62
307.272	209.62
307.502	242.62
307.731	235.62
307.961	173.62
308.191	105.62
308.421	85.62
308.651	108.62
308.881	99.62
309.111	111.62
309.341	115.62
309.571	111.62
309.8	123.62
310.03	125.62
310.26	144.62
310.49	109.62
310.72	131.62
310.949	131.62
311.179	134.62
311.409	119.62
311.639	94.62
311.868	110.62
312.098	110.62
312.328	100.62
312.557	123.62
312.787	164.62
313.017	122.62
313.246	108.62
313.476	104.62
313.706	112.62
313.935	107.62
314.165	120.62
314.394	134.62
314.624	106.62
314.853	110.62
315.083	100.62
315.312	102.62
315.542	97.62
315.771	103.62
316.001	84.62
316.23	95.62
316.46	96.62
316.689	93.62
316.919	107.62
317.148	122.62
317.377	117.62
317.607	112.62
317.836	105.62
318.065	85.62
318.295	90.62
318.524	105.62
318.753	101.62
318.983	104.62
319.212	100.62
319.441	144.62
319.67	132.62
319.9	108.62
320.129	101.62
320.358	107.62
320.587	107.62
320.816	109.62
321.046	112.62
321.275	105.62
321.504	100.62
321.733	101.62
321.962	120.62
322.191	121.62
322.42	124.62
322.649	121.62
322.878	132.62
323.108	156.62
323.337	171.62
323.566	175.62
323.795	219.62
324.024	308.62
324.253	641.62
324.482	1375.62
324.71	2874.62
324.939	3903.62
325.168	1368.62
325.397	372.62
325.626	202.62
325.855	175.62
326.084	162.62
326.313	164.62
326.542	216.62
326.77	320.62
326.999	660.62
327.228	1428.62
327.457	2725.62
327.686	2242.62
327.914	782.62
328.143	834.62
328.372	1119.62
328.6	570.62
328.829	240.62
329.058	248.62
329.287	270.62
329.515	263.62
329.744	376.62
329.972	760.62
330.201	1673.62
330.43	2594.62
330.658	1087.62
330.887	459.62
331.115	275.62
331.344	166.62
331.572	145.62
331.801	151.62
332.03	170.62
332.258	139.62
332.486	121.62
332.715	123.62
332.943	143.62
333.172	135.62
333.4	156.62
333.629	204.62
333.857	324.62
334.085	672.62
334.314	1509.62
334.542	3137.62
334.771	2983.62
334.999	721.62
335.227	265.62
335.455	154.62
335.684	121.62
335.912	114.62
336.14	112.62
336.369	124.62
336.597	121.62
336.825	121.62
337.053	101.62
337.281	100.62
337.51	101.62
337.738	100.62
337.966	112.62
338.194	114.62
338.422	116.62
338.65	115.62
338.878	97.62
339.106	97.62
339.334	107.62
339.562	99.62
339.79	99.62
340.018	102.62
340.246	108.62
340.474	112.62
340.702	124.62
340.93	93.62
341.158	100.62
341.386	115.62
341.614	119.62
341.842	93.62
342.07	95.62
342.298	119.62
342.526	88.62
342.754	98.62
342.981	80.62
343.209	101.62
343.437	106.62
343.665	97.62
343.893	104.62
344.12	101.62
344.348	91.62
344.576	104.62
344.804	106.62
345.031	123.62
345.259	116.62
345.487	95.62
345.714	105.62
345.942	107.62
346.17	89.62
346.397	84.62
346.625	107.62
346.853	106.62
347.08	101.62
347.308	108.62
347.535	119.62
347.763	100.62
347.99	98.62
348.218	131.62
348.445	122.62
348.673	108.62
348.9	109.62
349.128	110.62
349.355	98.62
349.583	110.62
349.81	106.62
350.037	92.62
350.265	106.62
350.492	88.62
350.72	99.62
350.947	120.62
351.174	136.62
351.402	149.62
351.629	107.62
351.856	117.62
352.083	109.62
352.311	142.62
352.538	122.62
352.765	137.62
352.992	128.62
353.22	120.62
353.447	137.62
353.674	120.62
353.901	108.62
354.128	97.62
354.355	98.62
354.583	106.62
354.81	96.62
355.037	97.62
355.264	106.62
355.491	89.62
355.718	83.62
355.945	95.62
356.172	82.62
356.399	101.62
356.626	100.62
356.853	87.62
357.08	87.62
357.307	92.62
357.534	89.62
357.761	103.62
357.988	92.62
358.215	97.62
358.441	101.62
358.668	87.62
358.895	91.62
359.122	91.62
359.349	104.62
359.576	99.62
359.802	126.62
360.029	173.62
360.256	185.62
360.483	131.62
360.709	101.62
360.936	98.62
361.163	112.62
361.39	107.62
361.616	112.62
361.843	104.62
362.07	117.62
362.296	120.62
362.523	112.62
362.749	117.62
362.976	99.62
363.203	106.62
363.429	99.62
363.656	105.62
363.882	89.62
364.109	103.62
364.335	108.62
364.562	105.62
364.788	103.62
365.015	104.62
365.241	106.62
365.468	135.62
365.694	130.62
365.92	128.62
366.147	104.62
366.373	101.62
366.599	106.62
366.826	103.62
367.052	109.62
367.278	94.62
367.505	93.62
367.731	107.62
367.957	93.62
368.184	112.62
368.41	111.62
368.636	161.62
368.862	148.62
369.089	146.62
369.315	108.62
369.541	104.62
369.767	96.62
369.993	112.62
370.219	119.62
370.445	101.62
370.672	95.62
370.898	83.62
371.124	88.62
371.35	87.62
371.576	100.62
371.802	87.62
372.028	89.62
372.254	90.62
372.48	75.62
372.706	90.62
372.932	100.62
373.158	87.62
373.384	94.62
373.61	90.62
373.835	94.62
374.061	91.62
374.287	104.62
374.513	97.62
374.739	83.62
374.965	97.62
375.191	84.62
375.416	109.62
375.642	110.62
375.868	104.62
376.094	104.62
376.319	96.62
376.545	93.62
376.771	97.62
376.997	82.62
377.222	96.62
377.448	86.62
377.674	89.62
377.899	94.62
378.125	106.62
378.35	106.62
378.576	95.62
378.802	103.62
379.027	104.62
379.253	95.62
379.478	85.62
379.704	93.62
379.929	88.62
380.155	115.62
380.38	105.62
380.606	119.62
380.831	110.62
381.057	93.62
381.282	95.62
381.507	93.62
381.733	89.62
381.958	92.62
382.184	93.62
382.409	109.62
382.634	109.62
382.86	95.62
383.085	100.62
383.31	100.62
383.535	100.62
383.761	98.62
383.986	108.62
384.211	89.62
384.436	91.62
384.662	92.62
384.887	108.62
385.112	99.62
385.337	110.62
385.562	100.62
385.787	108.62
386.013	112.62
386.238	123.62
386.463	117.62
386.688	98.62
386.913	106.62
387.138	104.62
387.363	96.62
387.588	95.62
387.813	95.62
388.038	109.62
388.263	114.62
388.488	116.62
388.713	99.62
388.938	92.62
389.163	112.62
389.387	88.62
389.612	101.62
389.837	87.62
390.062	82.62
390.287	87.62
390.512	96.62
390.736	93.62
390.961	90.62
391.186	94.62
391.411	85.62
391.636	99.62
391.86	95.62
392.085	98.62
392.31	68.62
392.534	91.62
392.759	81.62
392.984	89.62
393.208	87.62
393.433	96.62
393.658	79.62
393.882	88.62
394.107	81.62
394.331	81.62
394.556	90.62
394.78	90.62
395.005	85.62
395.229	84.62
395.454	87.62
395.678	87.62
395.903	86.62
396.127	109.62
396.352	91.62
396.576	82.62
396.801	88.62
397.025	101.62
397.249	73.62
397.474	69.62
397.698	83.62
397.922	99.62
398.147	99.62
398.371	95.62
398.595	107.62
398.82	89.62
399.044	90.62
399.268	78.62
399.492	76.62
399.717	81.62
399.941	97.62
400.165	101.62
400.389	100.62
400.613	98.62
400.837	85.62
401.062	89.62
401.286	97.62
401.51	118.62
401.734	91.62
401.958	129.62
402.182	180.62
402.406	256.62
402.63	192.62
402.854	131.62
403.078	108.62
403.302	109.62
403.526	85.62
403.75	102.62
403.974	85.62
404.198	97.62
404.422	96.62
404.645	108.62
404.869	118.62
405.093	138.62
405.317	178.62
405.541	157.62
405.765	149.62
405.988	165.62
406.212	261.62
406.436	422.62
406.66	278.62
406.883	152.62
407.107	106.62
407.331	105.62
407.555	120.62
407.778	108.62
408.002	119.62
408.226	111.62
408.449	96.62
408.673	88.62
408.896	93.62
409.12	110.62
409.344	92.62
409.567	82.62
409.791	75.62
410.014	93.62
410.238	98.62
410.461	95.62
410.685	103.62
410.908	96.62
411.132	99.62
411.355	113.62
411.578	101.62
411.802	91.62
412.025	98.62
412.249	106.62
412.472	147.62
412.695	165.62
412.919	126.62
413.142	89.62
413.365	95.62
413.589	96.62
413.812	100.62
414.035	106.62
414.258	100.62
414.482	87.62
414.705	94.62
414.928	79.62
415.151	86.62
415.374	83.62
415.597	98.62
415.821	97.62
416.044	93.62
416.267	91.62
416.49	103.62
416.713	89.62
416.936	89.62
417.159	89.62
417.382	96.62
417.605	117.62
417.828	140.62
418.051	123.62
418.274	94.62
418.497	84.62
418.72	90.62
418.943	84.62
419.166	99.62
419.389	106.62
419.611	94.62
419.834	87.62
420.057	110.62
420.28	94.62
420.503	98.62
420.726	100.62
420.948	115.62
421.171	119.62
421.394	114.62
421.617	98.62
421.839	100.62
422.062	87.62
422.285	105.62
422.507	113.62
422.73	99.62
422.953	101.62
423.175	116.62
423.398	98.62
423.621	84.62
423.843	90.62
424.066	93.62
424.288	102.62
424.511	115.62
424.733	120.62
424.956	131.62
425.178	108.62
425.401	118.62
425.623	117.62
425.846	114.62
426.068	111.62
426.291	111.62
426.513	108.62
426.735	103.62
426.958	111.62
427.18	146.62
427.402	215.62
427.625	369.62
427.847	346.62
428.069	294.62
428.292	159.62
428.514	99.62
428.736	91.62
428.958	93.62
429.181	97.62
429.403	100.62
429.625	85.62
429.847	92.62
430.069	128.62
430.292	99.62
430.514	101.62
430.736	82.62
430.958	87.62
431.18	93.62
431.402	86.62
431.624	101.62
431.846	90.62
432.068	94.62
432.29	90.62
432.512	99.62
432.734	91.62
432.956	105.62
433.178	113.62
433.4	109.62
433.622	101.62
433.844	104.62
434.066	92.62
434.287	90.62
434.509	88.62
434.731	95.62
434.953	99.62
435.175	98.62
435.397	95.62
435.618	105.62
435.84	135.62
436.062	181.62
436.284	149.62
436.505	122.62
436.727	124.62
436.949	112.62
437.17	100.62
437.392	96.62
437.614	117.62
437.835	153.62
438.057	183.62
438.278	150.62
438.5	129.62
438.721	139.62
438.943	122.62
439.165	109.62
439.386	105.62
439.608	103.62
439.829	137.62
440.05	193.62
440.272	229.62
440.493	144.62
440.715	91.62
440.936	86.62
441.158	87.62
441.379	107.62
441.6	107.62
441.822	120.62
442.043	116.62
442.264	125.62
442.486	123.62
442.707	130.62
442.928	141.62
443.149	224.62
443.371	221.62
443.592	144.62
443.813	157.62
444.034	152.62
444.255	106.62
444.476	109.62
444.698	110.62
444.919	91.62
445.14	141.62
445.361	148.62
445.582	174.62
445.803	250.62
446.024	227.62
446.245	189.62
446.466	153.62
446.687	97.62
446.908	108.62
447.129	92.62
447.35	97.62
447.571	95.62
447.792	100.62
448.013	103.62
448.234	146.62
448.455	106.62
448.675	142.62
448.896	136.62
449.117	123.62
449.338	120.62
449.559	163.62
449.779	175.62
450	109.62
450.221	98.62
450.442	107.62
450.662	116.62
450.883	147.62
451.104	164.62
451.324	122.62
451.545	111.62
451.766	101.62
451.986	104.62
452.207	104.62
452.428	106.62
452.648	128.62
452.869	148.62
453.089	165.62
453.31	185.62
453.53	104.62
453.751	111.62
453.971	139.62
454.192	175.62
454.412	124.62
454.633	107.62
454.853	100.62
455.073	87.62
455.294	100.62
455.514	129.62
455.734	99.62
455.955	97.62
456.175	90.62
456.395	96.62
456.616	81.62
456.836	101.62
457.056	87.62
457.276	107.62
457.497	88.62
457.717	83.62
457.937	90.62
458.157	98.62
458.377	121.62
458.598	159.62
458.818	275.62
459.038	297.62
459.258	204.62
459.478	108.62
459.698	88.62
459.918	90.62
460.138	101.62
460.358	100.62
460.578	100.62
460.798	105.62
461.018	106.62
461.238	91.62
461.458	86.62
461.678	89.62
461.898	95.62
462.118	93.62
462.338	89.62
462.558	95.62
462.777	110.62
462.997	104.62
463.217	122.62
463.437	109.62
463.657	90.62
463.876	91.62
464.096	104.62
464.316	94.62
464.536	104.62
464.755	120.62
464.975	157.62
465.195	311.62
465.414	337.62
465.634	132.62
465.854	101.62
466.073	91.62
466.293	94.62
466.512	96.62
466.732	101.62
466.951	100.62
467.171	116.62
467.391	141.62
467.61	188.62
467.829	303.62
468.049	923.62
468.268	1459.62
468.488	315.62
468.707	139.62
468.927	90.62
469.146	87.62
469.365	96.62
469.585	106.62
469.804	114.62
470.023	142.62
470.243	121.62
470.462	133.62
470.681	185.62
470.901	112.62
471.12	98.62
471.339	125.62
471.558	147.62
471.777	197.62
471.997	437.62
472.216	1792.62
472.435	4351.62
472.654	963.62
472.873	223.62
473.092	132.62
473.311	117.62
473.53	113.62
473.749	88.62
473.968	129.62
474.187	144.62
474.406	127.62
474.625	95.62
474.844	83.62
475.063	96.62
475.282	105.62
475.501	91.62
475.72	88.62
475.939	97.62
476.158	89.62
476.377	96.62
476.596	93.62
476.814	106.62
477.033	113.62
477.252	102.62
477.471	89.62
477.69	96.62
477.908	106.62
478.127	97.62
478.346	116.62
478.564	103.62
478.783	119.62
479.002	114.62
479.22	114.62
479.439	136.62
479.658	185.62
479.876	139.62
480.095	156.62
480.313	169.62
480.532	216.62
480.751	407.62
480.969	1589.62
481.188	7188.62
481.406	4127.62
481.624	569.62
481.843	181.62
482.061	127.62
482.28	110.62
482.498	106.62
482.717	101.62
482.935	95.62
483.153	82.62
483.372	101.62
483.59	93.62
483.808	99.62
484.027	89.62
484.245	109.62
484.463	95.62
484.681	112.62
484.9	103.62
485.118	98.62
485.336	103.62
485.554	109.62
485.772	98.62
485.99	117.62
486.209	97.62
486.427	113.62
486.645	142.62
486.863	149.62
487.081	115.62
487.299	112.62
487.517	108.62
487.735	104.62
487.953	102.62
488.171	93.62
488.389	96.62
488.607	121.62
488.825	96.62
489.043	113.62
489.261	89.62
489.479	95.62
489.696	96.62
489.914	105.62
490.132	111.62
490.35	105.62
490.568	84.62
490.786	103.62
491.003	92.62
491.221	91.62
491.439	108.62
491.657	97.62
491.874	103.62
492.092	100.62
492.31	92.62
492.527	102.62
492.745	108.62
492.963	81.62
493.18	87.62
493.398	93.62
493.615	97.62
493.833	94.62
494.05	95.62
494.268	82.62
494.485	88.62
494.703	94.62
494.92	106.62
495.138	93.62
495.355	98.62
495.573	96.62
495.79	96.62
496.008	101.62
496.225	90.62
496.442	86.62
496.66	96.62
496.877	100.62
497.094	101.62
497.312	83.62
497.529	99.62
497.746	96.62
497.963	115.62
498.181	110.62
498.398	107.62
498.615	127.62
498.832	124.62
499.049	104.62
499.267	92.62
499.484	100.62
499.701	99.62
499.918	91.62
500.135	94.62
500.352	98.62
500.569	111.62
500.786	100.62
501.003	107.62
501.22	91.62
501.437	93.62
501.654	101.62
501.871	145.62
502.088	105.62
502.305	97.62
502.522	95.62
502.739	91.62
502.956	89.62
503.172	103.62
503.389	96.62
503.606	155.62
503.823	123.62
504.04	109.62
504.256	87.62
504.473	93.62
504.69	107.62
504.907	96.62
505.123	94.62
505.34	84.62
505.557	88.62
505.773	90.62
505.99	91.62
506.207	94.62
506.423	95.62
506.64	90.62
506.856	99.62
507.073	100.62
507.289	99.62
507.506	104.62
507.722	161.62
507.939	164.62
508.155	122.62
508.372	100.62
508.588	98.62
508.805	106.62
509.021	99.62
509.238	107.62
509.454	112.62
509.67	118.62
509.887	126.62
510.103	151.62
510.319	281.62
