Data from Circ_1995_H10_HRD10591_00069.txt Node
Date: Wed Jan 03 11:37:00 EST 2024
User: Yrep
Spectrometer: HR+D1059
Trigger mode: 1
Integration Time (sec): 1.000000E-1
Scans to average: 1
Electric dark correction enabled: true
Nonlinearity correction enabled: false
Boxcar width: 0
XAxis mode: Wavelengths
Number of Pixels in Spectrum: 2048
>>>>>Begin Spectral Data<<<<<
223.165	-13.19
223.4	-13.19
223.635	-13.19
223.869	-26.19
224.104	-22.19
224.338	-17.19
224.573	-6.19
224.808	-25.19
225.042	1.81
225.277	-8.19
225.511	-0.19
225.746	1.81
225.98	3.81
226.215	8.81
226.449	21.81
226.683	16.81
226.918	28.81
227.152	34.81
227.387	39.81
227.621	35.81
227.856	38.81
228.09	57.81
228.324	55.81
228.559	53.81
228.793	65.81
229.027	68.81
229.262	64.81
229.496	77.81
229.73	122.81
229.964	110.81
230.199	105.81
230.433	71.81
230.667	81.81
230.901	91.81
231.136	87.81
231.37	67.81
231.604	75.81
231.838	68.81
232.072	76.81
232.306	86.81
232.541	86.81
232.775	77.81
233.009	77.81
233.243	90.81
233.477	91.81
233.711	78.81
233.945	74.81
234.179	89.81
234.413	82.81
234.647	83.81
234.881	70.81
235.115	85.81
235.349	88.81
235.583	77.81
235.817	78.81
236.051	86.81
236.285	82.81
236.519	92.81
236.753	87.81
236.987	90.81
237.221	89.81
237.455	99.81
237.689	101.81
237.922	86.81
238.156	83.81
238.39	71.81
238.624	91.81
238.858	78.81
239.091	75.81
239.325	80.81
239.559	84.81
239.793	98.81
240.027	96.81
240.26	78.81
240.494	91.81
240.728	79.81
240.961	74.81
241.195	78.81
241.429	85.81
241.662	78.81
241.896	86.81
242.13	75.81
242.363	95.81
242.597	94.81
242.83	79.81
243.064	74.81
243.298	86.81
243.531	77.81
243.765	76.81
243.998	91.81
244.232	83.81
244.465	96.81
244.699	84.81
244.932	78.81
245.166	90.81
245.399	78.81
245.633	83.81
245.866	71.81
246.099	81.81
246.333	73.81
246.566	82.81
246.8	87.81
247.033	99.81
247.266	82.81
247.5	78.81
247.733	78.81
247.966	89.81
248.2	80.81
248.433	98.81
248.666	86.81
248.899	101.81
249.133	102.81
249.366	127.81
249.599	129.81
249.832	87.81
250.066	85.81
250.299	95.81
250.532	100.81
250.765	87.81
250.998	90.81
251.231	77.81
251.465	85.81
251.698	98.81
251.931	90.81
252.164	101.81
252.397	87.81
252.63	97.81
252.863	88.81
253.096	86.81
253.329	99.81
253.562	76.81
253.795	83.81
254.028	100.81
254.261	86.81
254.494	98.81
254.727	80.81
254.96	98.81
255.193	94.81
255.426	89.81
255.659	84.81
255.892	104.81
256.124	99.81
256.357	111.81
256.59	92.81
256.823	96.81
257.056	83.81
257.289	94.81
257.521	81.81
257.754	93.81
257.987	92.81
258.22	103.81
258.452	125.81
258.685	106.81
258.918	91.81
259.151	80.81
259.383	94.81
259.616	99.81
259.849	97.81
260.081	90.81
260.314	94.81
260.547	90.81
260.779	130.81
261.012	127.81
261.244	134.81
261.477	117.81
261.71	112.81
261.942	167.81
262.175	157.81
262.407	113.81
262.64	90.81
262.872	100.81
263.105	97.81
263.337	101.81
263.57	89.81
263.802	97.81
264.035	95.81
264.267	84.81
264.499	82.81
264.732	96.81
264.964	78.81
265.197	83.81
265.429	98.81
265.661	104.81
265.894	75.81
266.126	98.81
266.358	92.81
266.591	78.81
266.823	87.81
267.055	76.81
267.287	71.81
267.52	97.81
267.752	82.81
267.984	77.81
268.216	84.81
268.448	111.81
268.681	103.81
268.913	83.81
269.145	97.81
269.377	100.81
269.609	82.81
269.841	90.81
270.073	94.81
270.306	91.81
270.538	92.81
270.77	90.81
271.002	99.81
271.234	97.81
271.466	110.81
271.698	79.81
271.93	95.81
272.162	95.81
272.394	92.81
272.626	85.81
272.858	92.81
273.09	86.81
273.322	95.81
273.553	96.81
273.785	89.81
274.017	90.81
274.249	93.81
274.481	99.81
274.713	100.81
274.945	101.81
275.176	99.81
275.408	104.81
275.64	146.81
275.872	146.81
276.104	124.81
276.335	114.81
276.567	126.81
276.799	178.81
277.031	218.81
277.262	278.81
277.494	200.81
277.726	123.81
277.957	102.81
278.189	100.81
278.421	99.81
278.652	109.81
278.884	99.81
279.115	98.81
279.347	102.81
279.579	115.81
279.81	167.81
280.042	293.81
280.273	406.81
280.505	251.81
280.736	122.81
280.968	107.81
281.199	100.81
281.431	98.81
281.662	110.81
281.894	87.81
282.125	106.81
282.356	146.81
282.588	198.81
282.819	143.81
283.051	103.81
283.282	90.81
283.513	89.81
283.745	94.81
283.976	92.81
284.207	83.81
284.439	86.81
284.67	99.81
284.901	93.81
285.132	103.81
285.364	94.81
285.595	101.81
285.826	108.81
286.057	93.81
286.288	82.81
286.52	93.81
286.751	102.81
286.982	93.81
287.213	103.81
287.444	111.81
287.675	100.81
287.906	96.81
288.138	88.81
288.369	109.81
288.6	117.81
288.831	94.81
289.062	101.81
289.293	92.81
289.524	79.81
289.755	96.81
289.986	86.81
290.217	90.81
290.448	95.81
290.679	98.81
290.91	95.81
291.141	83.81
291.371	87.81
291.602	97.81
291.833	93.81
292.064	93.81
292.295	93.81
292.526	94.81
292.757	86.81
292.987	93.81
293.218	97.81
293.449	92.81
293.68	104.81
293.91	98.81
294.141	100.81
294.372	102.81
294.603	77.81
294.833	101.81
295.064	96.81
295.295	92.81
295.525	99.81
295.756	114.81
295.987	142.81
296.217	202.81
296.448	170.81
296.679	114.81
296.909	107.81
297.14	82.81
297.37	88.81
297.601	101.81
297.831	88.81
298.062	106.81
298.292	95.81
298.523	99.81
298.753	95.81
298.984	91.81
299.214	117.81
299.445	90.81
299.675	90.81
299.905	103.81
300.136	96.81
300.366	107.81
300.597	99.81
300.827	111.81
301.057	122.81
301.288	109.81
301.518	108.81
301.748	122.81
301.979	127.81
302.209	96.81
302.439	102.81
302.669	96.81
302.9	95.81
303.13	104.81
303.36	122.81
303.59	161.81
303.82	168.81
304.051	110.81
304.281	103.81
304.511	104.81
304.741	104.81
304.971	97.81
305.201	95.81
305.431	94.81
305.661	107.81
305.891	100.81
306.121	128.81
306.352	127.81
306.582	118.81
306.812	129.81
307.042	142.81
307.272	199.81
307.502	258.81
307.731	213.81
307.961	159.81
308.191	107.81
308.421	91.81
308.651	87.81
308.881	99.81
309.111	101.81
309.341	102.81
309.571	117.81
309.8	105.81
310.03	116.81
310.26	119.81
310.49	98.81
310.72	115.81
310.949	126.81
311.179	138.81
311.409	116.81
311.639	132.81
311.868	116.81
312.098	115.81
312.328	121.81
312.557	122.81
312.787	130.81
313.017	118.81
313.246	109.81
313.476	93.81
313.706	102.81
313.935	120.81
314.165	127.81
314.394	122.81
314.624	107.81
314.853	115.81
315.083	95.81
315.312	96.81
315.542	108.81
315.771	93.81
316.001	106.81
316.23	111.81
316.46	99.81
316.689	104.81
316.919	110.81
317.148	116.81
317.377	102.81
317.607	111.81
317.836	110.81
318.065	109.81
318.295	94.81
318.524	94.81
318.753	98.81
318.983	109.81
319.212	110.81
319.441	123.81
319.67	145.81
319.9	93.81
320.129	96.81
320.358	109.81
320.587	98.81
320.816	109.81
321.046	110.81
321.275	99.81
321.504	98.81
321.733	114.81
321.962	114.81
322.191	110.81
322.42	128.81
322.649	146.81
322.878	134.81
323.108	152.81
323.337	167.81
323.566	183.81
323.795	242.81
324.024	318.81
324.253	658.81
324.482	1474.81
324.71	3098.81
324.939	4194.81
325.168	1466.81
325.397	388.81
325.626	216.81
325.855	174.81
326.084	170.81
326.313	179.81
326.542	234.81
326.77	359.81
326.999	743.81
327.228	1591.81
327.457	3042.81
327.686	2406.81
327.914	807.81
328.143	820.81
328.372	1054.81
328.6	552.81
328.829	266.81
329.058	243.81
329.287	252.81
329.515	253.81
329.744	371.81
329.972	762.81
330.201	1665.81
330.43	2484.81
330.658	1034.81
330.887	417.81
331.115	249.81
331.344	160.81
331.572	163.81
331.801	146.81
332.03	146.81
332.258	143.81
332.486	116.81
332.715	122.81
332.943	141.81
333.172	148.81
333.4	162.81
333.629	233.81
333.857	333.81
334.085	684.81
334.314	1520.81
334.542	3058.81
334.771	2841.81
334.999	672.81
335.227	254.81
335.455	145.81
335.684	146.81
335.912	118.81
336.14	122.81
336.369	130.81
336.597	141.81
336.825	131.81
337.053	119.81
337.281	102.81
337.51	96.81
337.738	106.81
337.966	102.81
338.194	120.81
338.422	120.81
338.65	108.81
338.878	109.81
339.106	108.81
339.334	114.81
339.562	118.81
339.79	112.81
340.018	98.81
340.246	100.81
340.474	110.81
340.702	93.81
340.93	96.81
341.158	109.81
341.386	108.81
341.614	101.81
341.842	106.81
342.07	103.81
342.298	95.81
342.526	102.81
342.754	92.81
342.981	108.81
343.209	91.81
343.437	104.81
343.665	99.81
343.893	96.81
344.12	97.81
344.348	81.81
344.576	102.81
344.804	108.81
345.031	119.81
345.259	129.81
345.487	115.81
345.714	99.81
345.942	106.81
346.17	109.81
346.397	95.81
346.625	95.81
346.853	100.81
347.08	93.81
347.308	114.81
347.535	106.81
347.763	116.81
347.99	108.81
348.218	115.81
348.445	134.81
348.673	125.81
348.9	101.81
349.128	93.81
349.355	91.81
349.583	89.81
349.81	93.81
350.037	102.81
350.265	110.81
350.492	98.81
350.72	105.81
350.947	120.81
351.174	133.81
351.402	133.81
351.629	104.81
351.856	112.81
352.083	127.81
352.311	133.81
352.538	132.81
352.765	141.81
352.992	118.81
353.22	122.81
353.447	126.81
353.674	124.81
353.901	99.81
354.128	91.81
354.355	111.81
354.583	98.81
354.81	104.81
355.037	80.81
355.264	89.81
355.491	81.81
355.718	94.81
355.945	115.81
356.172	86.81
356.399	95.81
356.626	103.81
356.853	93.81
357.08	91.81
357.307	93.81
357.534	104.81
357.761	102.81
357.988	96.81
358.215	81.81
358.441	99.81
358.668	100.81
358.895	112.81
359.122	107.81
359.349	99.81
359.576	107.81
359.802	118.81
360.029	175.81
360.256	150.81
360.483	134.81
360.709	108.81
360.936	105.81
361.163	108.81
361.39	134.81
361.616	122.81
361.843	92.81
362.07	118.81
362.296	114.81
362.523	106.81
362.749	110.81
362.976	108.81
363.203	103.81
363.429	103.81
363.656	110.81
363.882	98.81
364.109	108.81
364.335	95.81
364.562	115.81
364.788	91.81
365.015	108.81
365.241	126.81
365.468	127.81
365.694	130.81
365.92	108.81
366.147	110.81
366.373	105.81
366.599	88.81
366.826	103.81
367.052	103.81
367.278	111.81
367.505	106.81
367.731	104.81
367.957	107.81
368.184	105.81
368.41	117.81
368.636	124.81
368.862	156.81
369.089	136.81
369.315	98.81
369.541	92.81
369.767	94.81
369.993	110.81
370.219	98.81
370.445	103.81
370.672	93.81
370.898	80.81
371.124	72.81
371.35	103.81
371.576	96.81
371.802	91.81
372.028	96.81
372.254	87.81
372.48	82.81
372.706	93.81
372.932	85.81
373.158	85.81
373.384	95.81
373.61	103.81
373.835	92.81
374.061	95.81
374.287	99.81
374.513	98.81
374.739	108.81
374.965	83.81
375.191	97.81
375.416	99.81
375.642	87.81
375.868	92.81
376.094	101.81
376.319	98.81
376.545	80.81
376.771	91.81
376.997	92.81
377.222	95.81
377.448	84.81
377.674	86.81
377.899	100.81
378.125	92.81
378.35	96.81
378.576	98.81
378.802	116.81
379.027	87.81
379.253	93.81
379.478	98.81
379.704	90.81
379.929	94.81
380.155	94.81
380.38	96.81
380.606	95.81
380.831	97.81
381.057	96.81
381.282	97.81
381.507	112.81
381.733	89.81
381.958	88.81
382.184	108.81
382.409	112.81
382.634	115.81
382.86	108.81
383.085	91.81
383.31	109.81
383.535	117.81
383.761	94.81
383.986	99.81
384.211	104.81
384.436	108.81
384.662	96.81
384.887	98.81
385.112	109.81
385.337	114.81
385.562	101.81
385.787	104.81
386.013	119.81
386.238	131.81
386.463	110.81
386.688	107.81
386.913	114.81
387.138	101.81
387.363	102.81
387.588	102.81
387.813	105.81
388.038	111.81
388.263	111.81
388.488	108.81
388.713	104.81
388.938	99.81
389.163	98.81
389.387	97.81
389.612	98.81
389.837	88.81
390.062	95.81
390.287	93.81
390.512	87.81
390.736	90.81
390.961	89.81
391.186	88.81
391.411	90.81
391.636	93.81
391.86	87.81
392.085	78.81
392.31	78.81
392.534	86.81
392.759	102.81
392.984	100.81
393.208	83.81
393.433	97.81
393.658	96.81
393.882	90.81
394.107	86.81
394.331	94.81
394.556	85.81
394.78	99.81
395.005	87.81
395.229	84.81
395.454	94.81
395.678	95.81
395.903	101.81
396.127	101.81
396.352	106.81
396.576	94.81
396.801	99.81
397.025	81.81
397.249	85.81
397.474	96.81
397.698	99.81
397.922	93.81
398.147	98.81
398.371	92.81
398.595	105.81
398.82	86.81
399.044	79.81
399.268	89.81
399.492	82.81
399.717	88.81
399.941	100.81
400.165	111.81
400.389	112.81
400.613	109.81
400.837	81.81
401.062	94.81
401.286	101.81
401.51	113.81
401.734	113.81
401.958	108.81
402.182	157.81
402.406	223.81
402.63	176.81
402.854	116.81
403.078	104.81
403.302	95.81
403.526	95.81
403.75	100.81
403.974	84.81
404.198	100.81
404.422	116.81
404.645	115.81
404.869	106.81
405.093	133.81
405.317	156.81
405.541	172.81
405.765	128.81
405.988	142.81
406.212	248.81
406.436	368.81
406.66	251.81
406.883	145.81
407.107	124.81
407.331	112.81
407.555	102.81
407.778	115.81
408.002	103.81
408.226	109.81
408.449	111.81
408.673	102.81
408.896	101.81
409.12	117.81
409.344	97.81
409.567	78.81
409.791	87.81
410.014	103.81
410.238	97.81
410.461	81.81
410.685	99.81
410.908	108.81
411.132	116.81
411.355	112.81
411.578	102.81
411.802	96.81
412.025	106.81
412.249	115.81
412.472	139.81
412.695	173.81
412.919	141.81
413.142	107.81
413.365	89.81
413.589	98.81
413.812	107.81
414.035	92.81
414.258	83.81
414.482	95.81
414.705	86.81
414.928	104.81
415.151	93.81
415.374	101.81
415.597	91.81
415.821	83.81
416.044	87.81
416.267	97.81
416.49	89.81
416.713	102.81
416.936	89.81
417.159	82.81
417.382	102.81
417.605	122.81
417.828	124.81
418.051	122.81
418.274	109.81
418.497	87.81
418.72	84.81
418.943	87.81
419.166	93.81
419.389	91.81
419.611	91.81
419.834	106.81
420.057	93.81
420.28	104.81
420.503	88.81
420.726	98.81
420.948	101.81
421.171	116.81
421.394	104.81
421.617	98.81
421.839	96.81
422.062	93.81
422.285	112.81
422.507	115.81
422.73	117.81
422.953	96.81
423.175	77.81
423.398	91.81
423.621	102.81
423.843	97.81
424.066	84.81
424.288	101.81
424.511	106.81
424.733	117.81
424.956	135.81
425.178	119.81
425.401	120.81
425.623	121.81
425.846	91.81
426.068	115.81
426.291	102.81
426.513	112.81
426.735	94.81
426.958	116.81
427.18	133.81
427.402	214.81
427.625	345.81
427.847	331.81
428.069	335.81
428.292	171.81
428.514	121.81
428.736	98.81
428.958	104.81
429.181	95.81
429.403	83.81
429.625	96.81
429.847	112.81
430.069	130.81
430.292	100.81
430.514	102.81
430.736	99.81
430.958	105.81
431.18	79.81
431.402	85.81
431.624	96.81
431.846	85.81
432.068	88.81
432.29	90.81
432.512	94.81
432.734	91.81
432.956	97.81
433.178	125.81
433.4	127.81
433.622	100.81
433.844	78.81
434.066	81.81
434.287	93.81
434.509	97.81
434.731	103.81
434.953	97.81
435.175	103.81
435.397	86.81
435.618	110.81
435.84	133.81
436.062	180.81
436.284	143.81
436.505	125.81
436.727	119.81
436.949	106.81
437.17	93.81
437.392	106.81
437.614	94.81
437.835	158.81
438.057	178.81
438.278	149.81
438.5	146.81
438.721	180.81
438.943	128.81
439.165	114.81
439.386	99.81
439.608	127.81
439.829	121.81
440.05	203.81
440.272	230.81
440.493	130.81
440.715	87.81
440.936	96.81
441.158	107.81
441.379	96.81
441.6	111.81
441.822	119.81
442.043	119.81
442.264	141.81
442.486	123.81
442.707	119.81
442.928	152.81
443.149	207.81
443.371	214.81
443.592	164.81
443.813	145.81
444.034	123.81
444.255	88.81
444.476	86.81
444.698	96.81
444.919	107.81
445.14	142.81
445.361	161.81
445.582	174.81
445.803	264.81
446.024	240.81
446.245	212.81
446.466	151.81
446.687	104.81
446.908	96.81
447.129	101.81
447.35	86.81
447.571	106.81
447.792	95.81
448.013	107.81
448.234	139.81
448.455	128.81
448.675	148.81
448.896	165.81
449.117	112.81
449.338	111.81
449.559	182.81
449.779	181.81
450	118.81
450.221	99.81
450.442	102.81
450.662	131.81
450.883	153.81
451.104	167.81
451.324	101.81
451.545	103.81
451.766	102.81
451.986	100.81
452.207	103.81
452.428	111.81
452.648	128.81
452.869	149.81
453.089	149.81
453.31	156.81
453.53	122.81
453.751	101.81
453.971	135.81
454.192	167.81
454.412	109.81
454.633	95.81
454.853	97.81
455.073	105.81
455.294	99.81
455.514	114.81
455.734	99.81
455.955	96.81
456.175	90.81
456.395	91.81
456.616	113.81
456.836	90.81
457.056	109.81
457.276	100.81
457.497	87.81
457.717	89.81
457.937	101.81
458.157	109.81
458.377	106.81
458.598	146.81
458.818	258.81
459.038	282.81
459.258	184.81
459.478	113.81
459.698	94.81
459.918	107.81
460.138	96.81
460.358	83.81
460.578	91.81
460.798	109.81
461.018	111.81
461.238	95.81
461.458	85.81
461.678	75.81
461.898	87.81
462.118	91.81
462.338	97.81
462.558	94.81
462.777	90.81
462.997	116.81
463.217	131.81
463.437	91.81
463.657	87.81
463.876	111.81
464.096	104.81
464.316	105.81
464.536	123.81
464.755	97.81
464.975	144.81
465.195	294.81
465.414	286.81
465.634	118.81
465.854	96.81
466.073	95.81
466.293	81.81
466.512	109.81
466.732	111.81
466.951	107.81
467.171	104.81
467.391	133.81
467.61	178.81
467.829	290.81
468.049	892.81
468.268	1324.81
468.488	316.81
468.707	133.81
468.927	110.81
469.146	112.81
469.365	111.81
469.585	92.81
469.804	106.81
470.023	118.81
470.243	118.81
470.462	138.81
470.681	178.81
470.901	104.81
471.12	110.81
471.339	126.81
471.558	171.81
471.777	188.81
471.997	433.81
472.216	1750.81
472.435	4133.81
472.654	899.81
472.873	231.81
473.092	142.81
473.311	90.81
473.53	103.81
473.749	97.81
473.968	110.81
474.187	156.81
474.406	124.81
474.625	116.81
474.844	98.81
475.063	88.81
475.282	87.81
475.501	104.81
475.72	98.81
475.939	92.81
476.158	110.81
476.377	89.81
476.596	104.81
476.814	94.81
477.033	113.81
477.252	117.81
477.471	98.81
477.69	104.81
477.908	113.81
478.127	114.81
478.346	112.81
478.564	116.81
478.783	123.81
479.002	114.81
479.22	132.81
479.439	150.81
479.658	158.81
479.876	150.81
480.095	146.81
480.313	158.81
480.532	213.81
480.751	421.81
480.969	1577.81
481.188	7027.81
481.406	3994.81
481.624	534.81
481.843	187.81
482.061	138.81
482.28	112.81
482.498	110.81
482.717	110.81
482.935	93.81
483.153	98.81
483.372	98.81
483.59	115.81
483.808	95.81
484.027	90.81
484.245	104.81
484.463	108.81
484.681	111.81
484.9	110.81
485.118	107.81
485.336	109.81
485.554	101.81
485.772	110.81
485.99	121.81
486.209	97.81
486.427	109.81
486.645	154.81
486.863	157.81
487.081	118.81
487.299	114.81
487.517	91.81
487.735	94.81
487.953	99.81
488.171	86.81
488.389	100.81
488.607	115.81
488.825	106.81
489.043	101.81
489.261	96.81
489.479	105.81
489.696	84.81
489.914	91.81
490.132	87.81
490.35	78.81
490.568	103.81
490.786	98.81
491.003	108.81
491.221	99.81
491.439	100.81
491.657	105.81
491.874	101.81
492.092	98.81
492.31	104.81
492.527	103.81
492.745	116.81
492.963	92.81
493.18	96.81
493.398	89.81
493.615	100.81
493.833	100.81
494.05	97.81
494.268	100.81
494.485	87.81
494.703	98.81
494.92	87.81
495.138	89.81
495.355	109.81
495.573	90.81
495.79	82.81
496.008	93.81
496.225	95.81
496.442	90.81
496.66	98.81
496.877	114.81
497.094	94.81
497.312	91.81
497.529	95.81
497.746	100.81
497.963	92.81
498.181	95.81
498.398	104.81
498.615	159.81
498.832	128.81
499.049	95.81
499.267	95.81
499.484	102.81
499.701	78.81
499.918	80.81
500.135	92.81
500.352	94.81
500.569	123.81
500.786	103.81
501.003	102.81
501.22	90.81
501.437	100.81
501.654	92.81
501.871	129.81
502.088	112.81
502.305	100.81
502.522	85.81
502.739	96.81
502.956	95.81
503.172	96.81
503.389	123.81
503.606	121.81
503.823	131.81
504.04	100.81
504.256	101.81
504.473	90.81
504.69	104.81
504.907	87.81
505.123	77.81
505.34	118.81
505.557	97.81
505.773	89.81
505.99	113.81
506.207	99.81
506.423	90.81
506.64	93.81
506.856	97.81
507.073	92.81
507.289	103.81
507.506	90.81
507.722	156.81
507.939	168.81
508.155	117.81
508.372	101.81
508.588	102.81
508.805	102.81
509.021	100.81
509.238	125.81
509.454	115.81
509.67	108.81
509.887	115.81
510.103	144.81
