Data from Circ_1995_H10_HRD10591_00007.txt Node
Date: Wed Jan 03 11:36:48 EST 2024
User: Yrep
Spectrometer: HR+D1059
Trigger mode: 1
Integration Time (sec): 1.000000E-1
Scans to average: 1
Electric dark correction enabled: true
Nonlinearity correction enabled: false
Boxcar width: 0
XAxis mode: Wavelengths
Number of Pixels in Spectrum: 2048
>>>>>Begin Spectral Data<<<<<
223.165	-17.25
223.4	-17.25
223.635	-17.25
223.869	-30.25
224.104	-5.25
224.338	-21.25
224.573	-16.25
224.808	-17.25
225.042	-16.25
225.277	-2.25
225.511	5.75
225.746	2.75
225.98	-10.25
226.215	12.75
226.449	20.75
226.683	31.75
226.918	29.75
227.152	32.75
227.387	37.75
227.621	52.75
227.856	62.75
228.09	39.75
228.324	53.75
228.559	51.75
228.793	60.75
229.027	60.75
229.262	68.75
229.496	78.75
229.73	100.75
229.964	82.75
230.199	90.75
230.433	84.75
230.667	81.75
230.901	98.75
231.136	86.75
231.37	82.75
231.604	98.75
231.838	79.75
232.072	94.75
232.306	92.75
232.541	80.75
232.775	85.75
233.009	76.75
233.243	89.75
233.477	93.75
233.711	86.75
233.945	89.75
234.179	89.75
234.413	72.75
234.647	80.75
234.881	68.75
235.115	99.75
235.349	86.75
235.583	74.75
235.817	78.75
236.051	84.75
236.285	83.75
236.519	81.75
236.753	80.75
236.987	89.75
237.221	90.75
237.455	90.75
237.689	98.75
237.922	86.75
238.156	81.75
238.39	85.75
238.624	84.75
238.858	82.75
239.091	79.75
239.325	80.75
239.559	99.75
239.793	92.75
240.027	87.75
240.26	86.75
240.494	82.75
240.728	71.75
240.961	78.75
241.195	73.75
241.429	76.75
241.662	88.75
241.896	76.75
242.13	78.75
242.363	70.75
242.597	83.75
242.83	67.75
243.064	87.75
243.298	80.75
243.531	85.75
243.765	82.75
243.998	96.75
244.232	86.75
244.465	79.75
244.699	91.75
244.932	81.75
245.166	85.75
245.399	97.75
245.633	92.75
245.866	89.75
246.099	84.75
246.333	93.75
246.566	74.75
246.8	92.75
247.033	78.75
247.266	88.75
247.5	84.75
247.733	90.75
247.966	83.75
248.2	89.75
248.433	91.75
248.666	80.75
248.899	78.75
249.133	93.75
249.366	93.75
249.599	103.75
249.832	100.75
250.066	68.75
250.299	86.75
250.532	102.75
250.765	87.75
250.998	85.75
251.231	83.75
251.465	87.75
251.698	93.75
251.931	100.75
252.164	79.75
252.397	77.75
252.63	95.75
252.863	82.75
253.096	90.75
253.329	80.75
253.562	91.75
253.795	91.75
254.028	87.75
254.261	71.75
254.494	89.75
254.727	94.75
254.96	87.75
255.193	85.75
255.426	77.75
255.659	88.75
255.892	101.75
256.124	92.75
256.357	91.75
256.59	83.75
256.823	93.75
257.056	84.75
257.289	91.75
257.521	80.75
257.754	81.75
257.987	84.75
258.22	91.75
258.452	106.75
258.685	92.75
258.918	91.75
259.151	85.75
259.383	86.75
259.616	82.75
259.849	82.75
260.081	95.75
260.314	83.75
260.547	94.75
260.779	93.75
261.012	110.75
261.244	105.75
261.477	98.75
261.71	97.75
261.942	126.75
262.175	136.75
262.407	117.75
262.64	91.75
262.872	80.75
263.105	91.75
263.337	77.75
263.57	90.75
263.802	94.75
264.035	78.75
264.267	93.75
264.499	85.75
264.732	89.75
264.964	96.75
265.197	90.75
265.429	84.75
265.661	82.75
265.894	102.75
266.126	96.75
266.358	87.75
266.591	90.75
266.823	89.75
267.055	85.75
267.287	78.75
267.52	88.75
267.752	108.75
267.984	86.75
268.216	82.75
268.448	85.75
268.681	97.75
268.913	84.75
269.145	83.75
269.377	91.75
269.609	81.75
269.841	78.75
270.073	89.75
270.306	84.75
270.538	79.75
270.77	90.75
271.002	87.75
271.234	91.75
271.466	79.75
271.698	93.75
271.93	94.75
272.162	88.75
272.394	87.75
272.626	90.75
272.858	90.75
273.09	86.75
273.322	91.75
273.553	88.75
273.785	76.75
274.017	96.75
274.249	94.75
274.481	87.75
274.713	86.75
274.945	94.75
275.176	110.75
275.408	92.75
275.64	97.75
275.872	109.75
276.104	102.75
276.335	119.75
276.567	127.75
276.799	127.75
277.031	150.75
277.262	153.75
277.494	127.75
277.726	98.75
277.957	91.75
278.189	110.75
278.421	85.75
278.652	89.75
278.884	85.75
279.115	96.75
279.347	90.75
279.579	104.75
279.81	112.75
280.042	140.75
280.273	195.75
280.505	158.75
280.736	103.75
280.968	100.75
281.199	100.75
281.431	103.75
281.662	97.75
281.894	86.75
282.125	102.75
282.356	130.75
282.588	157.75
282.819	114.75
283.051	87.75
283.282	96.75
283.513	94.75
283.745	72.75
283.976	86.75
284.207	99.75
284.439	83.75
284.67	97.75
284.901	99.75
285.132	92.75
285.364	85.75
285.595	102.75
285.826	94.75
286.057	91.75
286.288	80.75
286.52	88.75
286.751	76.75
286.982	91.75
287.213	87.75
287.444	84.75
287.675	108.75
287.906	87.75
288.138	86.75
288.369	114.75
288.6	96.75
288.831	104.75
289.062	94.75
289.293	87.75
289.524	79.75
289.755	93.75
289.986	89.75
290.217	84.75
290.448	105.75
290.679	102.75
290.91	99.75
291.141	86.75
291.371	90.75
291.602	87.75
291.833	78.75
292.064	93.75
292.295	99.75
292.526	97.75
292.757	101.75
292.987	100.75
293.218	82.75
293.449	92.75
293.68	90.75
293.91	96.75
294.141	94.75
294.372	92.75
294.603	83.75
294.833	102.75
295.064	99.75
295.295	96.75
295.525	100.75
295.756	107.75
295.987	126.75
296.217	154.75
296.448	138.75
296.679	100.75
296.909	109.75
297.14	103.75
297.37	94.75
297.601	70.75
297.831	88.75
298.062	83.75
298.292	97.75
298.523	102.75
298.753	103.75
298.984	87.75
299.214	80.75
299.445	106.75
299.675	95.75
299.905	96.75
300.136	89.75
300.366	84.75
300.597	94.75
300.827	101.75
301.057	118.75
301.288	115.75
301.518	103.75
301.748	110.75
301.979	120.75
302.209	108.75
302.439	109.75
302.669	101.75
302.9	86.75
303.13	92.75
303.36	97.75
303.59	125.75
303.82	137.75
304.051	117.75
304.281	89.75
304.511	98.75
304.741	101.75
304.971	84.75
305.201	87.75
305.431	94.75
305.661	83.75
305.891	90.75
306.121	113.75
306.352	99.75
306.582	112.75
306.812	103.75
307.042	115.75
307.272	134.75
307.502	166.75
307.731	146.75
307.961	122.75
308.191	96.75
308.421	106.75
308.651	91.75
308.881	94.75
309.111	88.75
309.341	88.75
309.571	102.75
309.8	88.75
310.03	104.75
310.26	111.75
310.49	108.75
310.72	110.75
310.949	109.75
311.179	116.75
311.409	100.75
311.639	98.75
311.868	103.75
312.098	98.75
312.328	93.75
312.557	122.75
312.787	105.75
313.017	127.75
313.246	102.75
313.476	90.75
313.706	117.75
313.935	84.75
314.165	95.75
314.394	114.75
314.624	107.75
314.853	100.75
315.083	98.75
315.312	84.75
315.542	107.75
315.771	85.75
316.001	90.75
316.23	96.75
316.46	98.75
316.689	89.75
316.919	104.75
317.148	96.75
317.377	104.75
317.607	114.75
317.836	101.75
318.065	107.75
318.295	100.75
318.524	93.75
318.753	98.75
318.983	99.75
319.212	102.75
319.441	122.75
319.67	113.75
319.9	104.75
320.129	90.75
320.358	101.75
320.587	101.75
320.816	109.75
321.046	109.75
321.275	102.75
321.504	104.75
321.733	79.75
321.962	87.75
322.191	109.75
322.42	108.75
322.649	115.75
322.878	114.75
323.108	129.75
323.337	143.75
323.566	152.75
323.795	161.75
324.024	213.75
324.253	447.75
324.482	889.75
324.71	1898.75
324.939	2495.75
325.168	938.75
325.397	287.75
325.626	162.75
325.855	126.75
326.084	135.75
326.313	150.75
326.542	168.75
326.77	258.75
326.999	506.75
327.228	979.75
327.457	1818.75
327.686	1467.75
327.914	493.75
328.143	414.75
328.372	506.75
328.6	282.75
328.829	159.75
329.058	169.75
329.287	179.75
329.515	158.75
329.744	207.75
329.972	342.75
330.201	704.75
330.43	1008.75
330.658	480.75
330.887	227.75
331.115	168.75
331.344	115.75
331.572	113.75
331.801	127.75
332.03	104.75
332.258	112.75
332.486	120.75
332.715	109.75
332.943	118.75
333.172	117.75
333.4	128.75
333.629	142.75
333.857	176.75
334.085	344.75
334.314	615.75
334.542	1270.75
334.771	1194.75
334.999	334.75
335.227	142.75
335.455	130.75
335.684	98.75
335.912	116.75
336.14	97.75
336.369	117.75
336.597	104.75
336.825	104.75
337.053	101.75
337.281	117.75
337.51	97.75
337.738	115.75
337.966	96.75
338.194	102.75
338.422	102.75
338.65	96.75
338.878	108.75
339.106	114.75
339.334	99.75
339.562	103.75
339.79	87.75
340.018	88.75
340.246	98.75
340.474	100.75
340.702	96.75
340.93	96.75
341.158	97.75
341.386	107.75
341.614	93.75
341.842	105.75
342.07	94.75
342.298	105.75
342.526	103.75
342.754	99.75
342.981	95.75
343.209	98.75
343.437	95.75
343.665	91.75
343.893	90.75
344.12	102.75
344.348	93.75
344.576	91.75
344.804	97.75
345.031	104.75
345.259	97.75
345.487	106.75
345.714	98.75
345.942	96.75
346.17	93.75
346.397	96.75
346.625	94.75
346.853	84.75
347.08	111.75
347.308	104.75
347.535	106.75
347.763	120.75
347.99	105.75
348.218	107.75
348.445	119.75
348.673	110.75
348.9	109.75
349.128	113.75
349.355	105.75
349.583	91.75
349.81	104.75
350.037	104.75
350.265	95.75
350.492	103.75
350.72	107.75
350.947	120.75
351.174	113.75
351.402	122.75
351.629	100.75
351.856	126.75
352.083	103.75
352.311	104.75
352.538	117.75
352.765	120.75
352.992	115.75
353.22	133.75
353.447	113.75
353.674	115.75
353.901	101.75
354.128	90.75
354.355	110.75
354.583	99.75
354.81	107.75
355.037	98.75
355.264	110.75
355.491	103.75
355.718	93.75
355.945	103.75
356.172	95.75
356.399	96.75
356.626	96.75
356.853	101.75
357.08	93.75
357.307	96.75
357.534	100.75
357.761	94.75
357.988	103.75
358.215	105.75
358.441	102.75
358.668	99.75
358.895	97.75
359.122	108.75
359.349	108.75
359.576	103.75
359.802	118.75
360.029	118.75
360.256	133.75
360.483	107.75
360.709	70.75
360.936	99.75
361.163	89.75
361.39	105.75
361.616	104.75
361.843	103.75
362.07	95.75
362.296	115.75
362.523	101.75
362.749	94.75
362.976	100.75
363.203	90.75
363.429	100.75
363.656	94.75
363.882	103.75
364.109	107.75
364.335	104.75
364.562	101.75
364.788	104.75
365.015	93.75
365.241	107.75
365.468	116.75
365.694	101.75
365.92	101.75
366.147	96.75
366.373	97.75
366.599	82.75
366.826	91.75
367.052	96.75
367.278	101.75
367.505	98.75
367.731	96.75
367.957	98.75
368.184	85.75
368.41	112.75
368.636	128.75
368.862	139.75
369.089	110.75
369.315	106.75
369.541	92.75
369.767	103.75
369.993	103.75
370.219	86.75
370.445	98.75
370.672	91.75
370.898	92.75
371.124	93.75
371.35	92.75
371.576	76.75
371.802	84.75
372.028	91.75
372.254	91.75
372.48	84.75
372.706	88.75
372.932	88.75
373.158	81.75
373.384	98.75
373.61	83.75
373.835	112.75
374.061	98.75
374.287	107.75
374.513	94.75
374.739	103.75
374.965	95.75
375.191	86.75
375.416	91.75
375.642	101.75
375.868	91.75
376.094	86.75
376.319	108.75
376.545	93.75
376.771	102.75
376.997	96.75
377.222	102.75
377.448	82.75
377.674	80.75
377.899	94.75
378.125	101.75
378.35	108.75
378.576	94.75
378.802	101.75
379.027	86.75
379.253	108.75
379.478	108.75
379.704	91.75
379.929	115.75
380.155	108.75
380.38	111.75
380.606	94.75
380.831	109.75
381.057	101.75
381.282	105.75
381.507	85.75
381.733	112.75
381.958	96.75
382.184	98.75
382.409	113.75
382.634	106.75
382.86	119.75
383.085	90.75
383.31	109.75
383.535	116.75
383.761	111.75
383.986	104.75
384.211	126.75
384.436	116.75
384.662	116.75
384.887	132.75
385.112	131.75
385.337	119.75
385.562	124.75
385.787	114.75
386.013	148.75
386.238	138.75
386.463	130.75
386.688	126.75
386.913	126.75
387.138	140.75
387.363	114.75
387.588	100.75
387.813	116.75
388.038	133.75
388.263	142.75
388.488	133.75
388.713	106.75
388.938	104.75
389.163	98.75
389.387	98.75
389.612	101.75
389.837	92.75
390.062	92.75
390.287	92.75
390.512	100.75
390.736	95.75
390.961	84.75
391.186	87.75
391.411	103.75
391.636	100.75
391.86	76.75
392.085	88.75
392.31	86.75
392.534	97.75
392.759	83.75
392.984	98.75
393.208	91.75
393.433	106.75
393.658	88.75
393.882	92.75
394.107	86.75
394.331	86.75
394.556	98.75
394.78	79.75
395.005	98.75
395.229	81.75
395.454	87.75
395.678	87.75
395.903	95.75
396.127	92.75
396.352	97.75
396.576	86.75
396.801	97.75
397.025	99.75
397.249	87.75
397.474	102.75
397.698	81.75
397.922	91.75
398.147	90.75
398.371	94.75
398.595	86.75
398.82	86.75
399.044	94.75
399.268	93.75
399.492	89.75
399.717	98.75
399.941	101.75
400.165	104.75
400.389	94.75
400.613	102.75
400.837	91.75
401.062	85.75
401.286	96.75
401.51	108.75
401.734	78.75
401.958	107.75
402.182	134.75
402.406	172.75
402.63	144.75
402.854	114.75
403.078	88.75
403.302	91.75
403.526	93.75
403.75	105.75
403.974	95.75
404.198	96.75
404.422	101.75
404.645	97.75
404.869	103.75
405.093	102.75
405.317	119.75
405.541	125.75
405.765	113.75
405.988	144.75
406.212	208.75
406.436	293.75
406.66	170.75
406.883	125.75
407.107	119.75
407.331	118.75
407.555	112.75
407.778	107.75
408.002	92.75
408.226	89.75
408.449	80.75
408.673	85.75
408.896	107.75
409.12	93.75
409.344	82.75
409.567	101.75
409.791	86.75
410.014	98.75
410.238	95.75
410.461	104.75
410.685	114.75
410.908	104.75
411.132	100.75
411.355	93.75
411.578	101.75
411.802	104.75
412.025	94.75
412.249	112.75
412.472	117.75
412.695	115.75
412.919	114.75
413.142	99.75
413.365	96.75
413.589	88.75
413.812	83.75
414.035	89.75
414.258	101.75
414.482	93.75
414.705	90.75
414.928	107.75
415.151	85.75
415.374	84.75
415.597	87.75
415.821	95.75
416.044	84.75
416.267	100.75
416.49	87.75
416.713	80.75
416.936	106.75
417.159	106.75
417.382	86.75
417.605	107.75
417.828	123.75
418.051	103.75
418.274	102.75
418.497	92.75
418.72	98.75
418.943	87.75
419.166	92.75
419.389	88.75
419.611	110.75
419.834	106.75
420.057	95.75
420.28	108.75
420.503	93.75
420.726	90.75
420.948	96.75
421.171	101.75
421.394	101.75
421.617	100.75
421.839	97.75
422.062	87.75
422.285	106.75
422.507	98.75
422.73	104.75
422.953	104.75
423.175	88.75
423.398	92.75
423.621	86.75
423.843	96.75
424.066	87.75
424.288	88.75
424.511	115.75
424.733	105.75
424.956	118.75
425.178	107.75
425.401	108.75
425.623	117.75
425.846	85.75
426.068	111.75
426.291	98.75
426.513	108.75
426.735	112.75
426.958	102.75
427.18	115.75
427.402	149.75
427.625	222.75
427.847	199.75
428.069	197.75
428.292	119.75
428.514	116.75
428.736	100.75
428.958	85.75
429.181	86.75
429.403	96.75
429.625	106.75
429.847	101.75
430.069	116.75
430.292	100.75
430.514	91.75
430.736	84.75
430.958	96.75
431.18	92.75
431.402	86.75
431.624	71.75
431.846	102.75
432.068	83.75
432.29	74.75
432.512	100.75
432.734	96.75
432.956	98.75
433.178	114.75
433.4	110.75
433.622	103.75
433.844	100.75
434.066	99.75
434.287	86.75
434.509	87.75
434.731	87.75
434.953	87.75
435.175	104.75
435.397	86.75
435.618	110.75
435.84	101.75
436.062	127.75
436.284	115.75
436.505	108.75
436.727	108.75
436.949	102.75
437.17	103.75
437.392	99.75
437.614	103.75
437.835	107.75
438.057	142.75
438.278	120.75
438.5	127.75
438.721	142.75
438.943	103.75
439.165	98.75
439.386	107.75
439.608	99.75
439.829	99.75
440.05	139.75
440.272	158.75
440.493	91.75
440.715	97.75
440.936	108.75
441.158	97.75
441.379	109.75
441.6	97.75
441.822	95.75
442.043	108.75
442.264	112.75
442.486	120.75
442.707	103.75
442.928	123.75
443.149	169.75
443.371	167.75
443.592	123.75
443.813	116.75
444.034	112.75
444.255	95.75
444.476	102.75
444.698	96.75
444.919	95.75
445.14	144.75
445.361	155.75
445.582	136.75
445.803	164.75
446.024	160.75
446.245	148.75
446.466	137.75
446.687	99.75
446.908	86.75
447.129	102.75
447.35	88.75
447.571	96.75
447.792	99.75
448.013	108.75
448.234	112.75
448.455	115.75
448.675	132.75
448.896	125.75
449.117	102.75
449.338	102.75
449.559	147.75
449.779	135.75
450	93.75
450.221	87.75
450.442	102.75
450.662	101.75
450.883	112.75
451.104	134.75
451.324	101.75
451.545	94.75
451.766	109.75
451.986	98.75
452.207	90.75
452.428	101.75
452.648	87.75
452.869	131.75
453.089	137.75
453.31	139.75
453.53	96.75
453.751	88.75
453.971	125.75
454.192	133.75
454.412	103.75
454.633	86.75
454.853	96.75
455.073	99.75
455.294	79.75
455.514	114.75
455.734	95.75
455.955	92.75
456.175	84.75
456.395	95.75
456.616	93.75
456.836	95.75
457.056	92.75
457.276	75.75
457.497	90.75
457.717	95.75
457.937	87.75
458.157	97.75
458.377	100.75
458.598	116.75
458.818	192.75
459.038	206.75
459.258	127.75
459.478	88.75
459.698	78.75
459.918	88.75
460.138	87.75
460.358	95.75
460.578	102.75
460.798	79.75
461.018	77.75
461.238	95.75
461.458	82.75
461.678	78.75
461.898	94.75
462.118	102.75
462.338	87.75
462.558	92.75
462.777	87.75
462.997	93.75
463.217	101.75
463.437	103.75
463.657	86.75
463.876	97.75
464.096	81.75
464.316	89.75
464.536	101.75
464.755	104.75
464.975	118.75
465.195	194.75
465.414	210.75
465.634	101.75
465.854	100.75
466.073	96.75
466.293	95.75
466.512	103.75
466.732	105.75
466.951	99.75
467.171	92.75
467.391	122.75
467.61	148.75
467.829	175.75
468.049	428.75
468.268	631.75
468.488	199.75
468.707	116.75
468.927	102.75
469.146	108.75
469.365	96.75
469.585	103.75
469.804	103.75
470.023	90.75
470.243	107.75
470.462	103.75
470.681	146.75
470.901	99.75
471.12	84.75
471.339	103.75
471.558	105.75
471.777	135.75
471.997	238.75
472.216	771.75
472.435	1816.75
472.654	435.75
472.873	146.75
473.092	102.75
473.311	91.75
473.53	113.75
473.749	85.75
473.968	105.75
474.187	116.75
474.406	112.75
474.625	99.75
474.844	102.75
475.063	107.75
475.282	95.75
475.501	88.75
475.72	110.75
475.939	99.75
476.158	102.75
476.377	90.75
476.596	92.75
476.814	99.75
477.033	111.75
477.252	78.75
477.471	101.75
477.69	90.75
477.908	92.75
478.127	108.75
478.346	98.75
478.564	95.75
478.783	110.75
479.002	96.75
479.22	107.75
479.439	124.75
479.658	135.75
479.876	94.75
480.095	127.75
480.313	116.75
480.532	134.75
480.751	242.75
480.969	745.75
481.188	3074.75
481.406	1806.75
481.624	290.75
481.843	128.75
482.061	115.75
482.28	99.75
482.498	109.75
482.717	90.75
482.935	95.75
483.153	87.75
483.372	108.75
483.59	89.75
483.808	92.75
484.027	101.75
484.245	87.75
484.463	96.75
484.681	103.75
484.9	97.75
485.118	98.75
485.336	106.75
485.554	109.75
485.772	103.75
485.99	114.75
486.209	110.75
486.427	110.75
486.645	129.75
486.863	121.75
487.081	116.75
487.299	93.75
487.517	91.75
487.735	105.75
487.953	76.75
488.171	98.75
488.389	93.75
488.607	114.75
488.825	102.75
489.043	108.75
489.261	94.75
489.479	77.75
489.696	83.75
489.914	95.75
490.132	95.75
490.35	95.75
490.568	84.75
490.786	100.75
491.003	83.75
491.221	93.75
491.439	97.75
491.657	93.75
491.874	100.75
492.092	93.75
492.31	87.75
492.527	99.75
492.745	98.75
492.963	104.75
493.18	88.75
493.398	93.75
493.615	110.75
493.833	100.75
494.05	92.75
494.268	91.75
494.485	109.75
494.703	89.75
494.92	86.75
495.138	94.75
495.355	83.75
495.573	92.75
495.79	95.75
496.008	84.75
496.225	100.75
496.442	97.75
496.66	92.75
496.877	95.75
497.094	91.75
497.312	98.75
497.529	95.75
497.746	90.75
497.963	93.75
498.181	90.75
498.398	87.75
498.615	102.75
498.832	110.75
499.049	101.75
499.267	85.75
499.484	87.75
499.701	85.75
499.918	103.75
500.135	94.75
500.352	96.75
500.569	103.75
500.786	102.75
501.003	95.75
501.22	92.75
501.437	109.75
501.654	84.75
501.871	120.75
502.088	96.75
502.305	101.75
502.522	105.75
502.739	98.75
502.956	90.75
503.172	100.75
503.389	101.75
503.606	114.75
503.823	110.75
504.04	100.75
504.256	115.75
504.473	101.75
504.69	99.75
504.907	101.75
505.123	87.75
505.34	101.75
505.557	90.75
505.773	96.75
505.99	111.75
506.207	101.75
506.423	80.75
506.64	74.75
506.856	99.75
507.073	67.75
507.289	98.75
507.506	104.75
507.722	139.75
507.939	118.75
508.155	102.75
508.372	103.75
508.588	89.75
508.805	100.75
509.021	96.75
509.238	100.75
509.454	102.75
509.67	105.75
509.887	116.75
510.103	123.75
510.319	222.75
510.536	851.75
510.752	2846.75
510.968	760.75
511.184	195.75
511.401	129.75
