Data from Circ_1995_H10_HRD10591_00082.txt Node
Date: Wed Jan 03 11:37:03 EST 2024
User: Yrep
Spectrometer: HR+D1059
Trigger mode: 1
Integration Time (sec): 1.000000E-1
Scans to average: 1
Electric dark correction enabled: true
Nonlinearity correction enabled: false
Boxcar width: 0
XAxis mode: Wavelengths
Number of Pixels in Spectrum: 2048
>>>>>Begin Spectral Data<<<<<
223.165	-19.81
223.4	-19.81
223.635	-19.81
223.869	-14.81
224.104	-27.81
224.338	-11.81
224.573	-16.81
224.808	-22.81
225.042	-0.81
225.277	-2.81
225.511	6.19
225.746	-8.81
225.98	0.19
226.215	20.19
226.449	22.19
226.683	18.19
226.918	36.19
227.152	23.19
227.387	28.19
227.621	35.19
227.856	39.19
228.09	32.19
228.324	44.19
228.559	64.19
228.793	57.19
229.027	66.19
229.262	67.19
229.496	87.19
229.73	104.19
229.964	106.19
230.199	87.19
230.433	80.19
230.667	78.19
230.901	83.19
231.136	81.19
231.37	79.19
231.604	70.19
231.838	94.19
232.072	91.19
232.306	88.19
232.541	87.19
232.775	62.19
233.009	89.19
233.243	80.19
233.477	80.19
233.711	98.19
233.945	81.19
234.179	68.19
234.413	77.19
234.647	86.19
234.881	86.19
235.115	84.19
235.349	69.19
235.583	78.19
235.817	84.19
236.051	95.19
236.285	84.19
236.519	82.19
236.753	89.19
236.987	92.19
237.221	102.19
237.455	82.19
237.689	82.19
237.922	75.19
238.156	84.19
238.39	79.19
238.624	80.19
238.858	84.19
239.091	94.19
239.325	100.19
239.559	73.19
239.793	86.19
240.027	81.19
240.26	98.19
240.494	80.19
240.728	86.19
240.961	80.19
241.195	74.19
241.429	86.19
241.662	69.19
241.896	73.19
242.13	70.19
242.363	63.19
242.597	66.19
242.83	73.19
243.064	86.19
243.298	91.19
243.531	87.19
243.765	80.19
243.998	88.19
244.232	79.19
244.465	93.19
244.699	99.19
244.932	106.19
245.166	82.19
245.399	84.19
245.633	79.19
245.866	67.19
246.099	72.19
246.333	87.19
246.566	66.19
246.8	59.19
247.033	88.19
247.266	92.19
247.5	76.19
247.733	89.19
247.966	98.19
248.2	79.19
248.433	85.19
248.666	77.19
248.899	85.19
249.133	102.19
249.366	102.19
249.599	103.19
249.832	92.19
250.066	93.19
250.299	87.19
250.532	104.19
250.765	78.19
250.998	72.19
251.231	85.19
251.465	82.19
251.698	90.19
251.931	91.19
252.164	76.19
252.397	78.19
252.63	71.19
252.863	93.19
253.096	92.19
253.329	93.19
253.562	82.19
253.795	74.19
254.028	88.19
254.261	81.19
254.494	81.19
254.727	83.19
254.96	86.19
255.193	86.19
255.426	91.19
255.659	86.19
255.892	98.19
256.124	97.19
256.357	94.19
256.59	89.19
256.823	76.19
257.056	93.19
257.289	86.19
257.521	88.19
257.754	85.19
257.987	97.19
258.22	98.19
258.452	120.19
258.685	97.19
258.918	96.19
259.151	86.19
259.383	98.19
259.616	78.19
259.849	75.19
260.081	81.19
260.314	94.19
260.547	95.19
260.779	93.19
261.012	128.19
261.244	147.19
261.477	113.19
261.71	108.19
261.942	138.19
262.175	176.19
262.407	92.19
262.64	102.19
262.872	91.19
263.105	90.19
263.337	75.19
263.57	74.19
263.802	75.19
264.035	86.19
264.267	76.19
264.499	84.19
264.732	88.19
264.964	82.19
265.197	101.19
265.429	81.19
265.661	78.19
265.894	80.19
266.126	82.19
266.358	86.19
266.591	94.19
266.823	96.19
267.055	74.19
267.287	84.19
267.52	75.19
267.752	97.19
267.984	92.19
268.216	83.19
268.448	95.19
268.681	87.19
268.913	87.19
269.145	84.19
269.377	78.19
269.609	82.19
269.841	80.19
270.073	79.19
270.306	86.19
270.538	96.19
270.77	94.19
271.002	75.19
271.234	95.19
271.466	95.19
271.698	85.19
271.93	80.19
272.162	98.19
272.394	86.19
272.626	77.19
272.858	87.19
273.09	87.19
273.322	82.19
273.553	74.19
273.785	76.19
274.017	91.19
274.249	85.19
274.481	84.19
274.713	95.19
274.945	98.19
275.176	113.19
275.408	100.19
275.64	117.19
275.872	144.19
276.104	128.19
276.335	108.19
276.567	135.19
276.799	187.19
277.031	225.19
277.262	280.19
277.494	191.19
277.726	130.19
277.957	94.19
278.189	90.19
278.421	102.19
278.652	94.19
278.884	91.19
279.115	93.19
279.347	108.19
279.579	109.19
279.81	152.19
280.042	276.19
280.273	393.19
280.505	245.19
280.736	130.19
280.968	115.19
281.199	92.19
281.431	88.19
281.662	91.19
281.894	94.19
282.125	110.19
282.356	158.19
282.588	194.19
282.819	133.19
283.051	95.19
283.282	91.19
283.513	88.19
283.745	82.19
283.976	87.19
284.207	78.19
284.439	98.19
284.67	82.19
284.901	100.19
285.132	83.19
285.364	92.19
285.595	92.19
285.826	89.19
286.057	83.19
286.288	68.19
286.52	85.19
286.751	74.19
286.982	82.19
287.213	81.19
287.444	91.19
287.675	79.19
287.906	87.19
288.138	95.19
288.369	96.19
288.6	98.19
288.831	94.19
289.062	103.19
289.293	92.19
289.524	72.19
289.755	96.19
289.986	93.19
290.217	86.19
290.448	87.19
290.679	80.19
290.91	79.19
291.141	93.19
291.371	93.19
291.602	87.19
291.833	80.19
292.064	93.19
292.295	96.19
292.526	92.19
292.757	84.19
292.987	91.19
293.218	86.19
293.449	83.19
293.68	98.19
293.91	78.19
294.141	94.19
294.372	91.19
294.603	92.19
294.833	88.19
295.064	94.19
295.295	98.19
295.525	107.19
295.756	109.19
295.987	131.19
296.217	156.19
296.448	154.19
296.679	106.19
296.909	101.19
297.14	87.19
297.37	79.19
297.601	91.19
297.831	89.19
298.062	89.19
298.292	85.19
298.523	81.19
298.753	86.19
298.984	71.19
299.214	78.19
299.445	96.19
299.675	103.19
299.905	112.19
300.136	99.19
300.366	86.19
300.597	101.19
300.827	107.19
301.057	111.19
301.288	132.19
301.518	96.19
301.748	109.19
301.979	126.19
302.209	112.19
302.439	99.19
302.669	84.19
302.9	94.19
303.13	107.19
303.36	116.19
303.59	154.19
303.82	187.19
304.051	121.19
304.281	99.19
304.511	101.19
304.741	90.19
304.971	88.19
305.201	98.19
305.431	98.19
305.661	110.19
305.891	95.19
306.121	87.19
306.352	111.19
306.582	123.19
306.812	114.19
307.042	160.19
307.272	202.19
307.502	234.19
307.731	224.19
307.961	172.19
308.191	107.19
308.421	96.19
308.651	102.19
308.881	107.19
309.111	83.19
309.341	96.19
309.571	106.19
309.8	110.19
310.03	91.19
310.26	102.19
310.49	100.19
310.72	110.19
310.949	129.19
311.179	115.19
311.409	108.19
311.639	99.19
311.868	115.19
312.098	122.19
312.328	102.19
312.557	126.19
312.787	133.19
313.017	130.19
313.246	111.19
313.476	111.19
313.706	94.19
313.935	97.19
314.165	99.19
314.394	121.19
314.624	120.19
314.853	98.19
315.083	100.19
315.312	83.19
315.542	108.19
315.771	95.19
316.001	86.19
316.23	95.19
316.46	81.19
316.689	91.19
316.919	93.19
317.148	100.19
317.377	108.19
317.607	112.19
317.836	94.19
318.065	81.19
318.295	79.19
318.524	92.19
318.753	99.19
318.983	98.19
319.212	118.19
319.441	127.19
319.67	112.19
319.9	104.19
320.129	109.19
320.358	101.19
320.587	105.19
320.816	98.19
321.046	113.19
321.275	100.19
321.504	105.19
321.733	101.19
321.962	103.19
322.191	111.19
322.42	108.19
322.649	115.19
322.878	119.19
323.108	135.19
323.337	165.19
323.566	169.19
323.795	207.19
324.024	258.19
324.253	566.19
324.482	1194.19
324.71	2529.19
324.939	3433.19
325.168	1215.19
325.397	362.19
325.626	194.19
325.855	175.19
326.084	152.19
326.313	157.19
326.542	194.19
326.77	313.19
326.999	612.19
327.228	1284.19
327.457	2394.19
327.686	1999.19
327.914	719.19
328.143	776.19
328.372	1074.19
328.6	583.19
328.829	249.19
329.058	226.19
329.287	241.19
329.515	226.19
329.744	352.19
329.972	702.19
330.201	1595.19
330.43	2454.19
330.658	1009.19
330.887	395.19
331.115	249.19
331.344	134.19
331.572	127.19
331.801	156.19
332.03	150.19
332.258	132.19
332.486	116.19
332.715	117.19
332.943	124.19
333.172	130.19
333.4	159.19
333.629	198.19
333.857	287.19
334.085	611.19
334.314	1424.19
334.542	2921.19
334.771	2774.19
334.999	664.19
335.227	231.19
335.455	138.19
335.684	127.19
335.912	119.19
336.14	108.19
336.369	118.19
336.597	115.19
336.825	113.19
337.053	115.19
337.281	90.19
337.51	96.19
337.738	107.19
337.966	101.19
338.194	133.19
338.422	100.19
338.65	105.19
338.878	105.19
339.106	97.19
339.334	108.19
339.562	95.19
339.79	88.19
340.018	91.19
340.246	106.19
340.474	98.19
340.702	100.19
340.93	99.19
341.158	96.19
341.386	103.19
341.614	110.19
341.842	112.19
342.07	97.19
342.298	98.19
342.526	93.19
342.754	83.19
342.981	98.19
343.209	87.19
343.437	97.19
343.665	78.19
343.893	84.19
344.12	98.19
344.348	98.19
344.576	96.19
344.804	91.19
345.031	103.19
345.259	122.19
345.487	110.19
345.714	110.19
345.942	104.19
346.17	89.19
346.397	80.19
346.625	100.19
346.853	92.19
347.08	83.19
347.308	113.19
347.535	106.19
347.763	100.19
347.99	96.19
348.218	135.19
348.445	132.19
348.673	117.19
348.9	94.19
349.128	81.19
349.355	90.19
349.583	97.19
349.81	94.19
350.037	91.19
350.265	92.19
350.492	97.19
350.72	112.19
350.947	110.19
351.174	119.19
351.402	129.19
351.629	119.19
351.856	116.19
352.083	114.19
352.311	118.19
352.538	125.19
352.765	127.19
352.992	120.19
353.22	126.19
353.447	97.19
353.674	102.19
353.901	75.19
354.128	94.19
354.355	111.19
354.583	104.19
354.81	103.19
355.037	96.19
355.264	76.19
355.491	91.19
355.718	93.19
355.945	87.19
356.172	83.19
356.399	97.19
356.626	98.19
356.853	99.19
357.08	90.19
357.307	72.19
357.534	84.19
357.761	91.19
357.988	85.19
358.215	100.19
358.441	98.19
358.668	99.19
358.895	89.19
359.122	98.19
359.349	82.19
359.576	117.19
359.802	129.19
360.029	154.19
360.256	154.19
360.483	122.19
360.709	99.19
360.936	88.19
361.163	110.19
361.39	114.19
361.616	101.19
361.843	98.19
362.07	107.19
362.296	103.19
362.523	97.19
362.749	92.19
362.976	110.19
363.203	93.19
363.429	93.19
363.656	96.19
363.882	101.19
364.109	95.19
364.335	88.19
364.562	84.19
364.788	99.19
365.015	95.19
365.241	91.19
365.468	131.19
365.694	127.19
365.92	115.19
366.147	106.19
366.373	103.19
366.599	107.19
366.826	93.19
367.052	86.19
367.278	90.19
367.505	108.19
367.731	108.19
367.957	88.19
368.184	106.19
368.41	115.19
368.636	130.19
368.862	151.19
369.089	124.19
369.315	107.19
369.541	99.19
369.767	100.19
369.993	90.19
370.219	96.19
370.445	98.19
370.672	84.19
370.898	88.19
371.124	89.19
371.35	88.19
371.576	77.19
371.802	96.19
372.028	95.19
372.254	97.19
372.48	97.19
372.706	70.19
372.932	85.19
373.158	96.19
373.384	84.19
373.61	88.19
373.835	91.19
374.061	98.19
374.287	111.19
374.513	95.19
374.739	103.19
374.965	82.19
375.191	90.19
375.416	91.19
375.642	86.19
375.868	80.19
376.094	105.19
376.319	86.19
376.545	89.19
376.771	92.19
376.997	99.19
377.222	92.19
377.448	100.19
377.674	92.19
377.899	95.19
378.125	92.19
378.35	86.19
378.576	84.19
378.802	100.19
379.027	102.19
379.253	91.19
379.478	97.19
379.704	95.19
379.929	100.19
380.155	96.19
380.38	82.19
380.606	91.19
380.831	95.19
381.057	94.19
381.282	92.19
381.507	104.19
381.733	92.19
381.958	98.19
382.184	103.19
382.409	110.19
382.634	112.19
382.86	96.19
383.085	107.19
383.31	90.19
383.535	95.19
383.761	95.19
383.986	92.19
384.211	93.19
384.436	110.19
384.662	90.19
384.887	104.19
385.112	111.19
385.337	105.19
385.562	102.19
385.787	107.19
386.013	108.19
386.238	128.19
386.463	109.19
386.688	96.19
386.913	97.19
387.138	117.19
387.363	95.19
387.588	92.19
387.813	96.19
388.038	114.19
388.263	113.19
388.488	103.19
388.713	88.19
388.938	86.19
389.163	102.19
389.387	93.19
389.612	82.19
389.837	98.19
390.062	90.19
390.287	97.19
390.512	98.19
390.736	93.19
390.961	91.19
391.186	100.19
391.411	89.19
391.636	87.19
391.86	87.19
392.085	75.19
392.31	94.19
392.534	87.19
392.759	105.19
392.984	73.19
393.208	83.19
393.433	103.19
393.658	91.19
393.882	93.19
394.107	88.19
394.331	85.19
394.556	87.19
394.78	96.19
395.005	96.19
395.229	100.19
395.454	92.19
395.678	84.19
395.903	79.19
396.127	93.19
396.352	76.19
396.576	90.19
396.801	82.19
397.025	96.19
397.249	99.19
397.474	87.19
397.698	82.19
397.922	87.19
398.147	90.19
398.371	91.19
398.595	97.19
398.82	87.19
399.044	87.19
399.268	87.19
399.492	85.19
399.717	92.19
399.941	94.19
400.165	105.19
400.389	91.19
400.613	91.19
400.837	97.19
401.062	84.19
401.286	102.19
401.51	82.19
401.734	96.19
401.958	134.19
402.182	154.19
402.406	225.19
402.63	153.19
402.854	114.19
403.078	88.19
403.302	84.19
403.526	97.19
403.75	93.19
403.974	93.19
404.198	92.19
404.422	91.19
404.645	89.19
404.869	107.19
405.093	146.19
405.317	156.19
405.541	134.19
405.765	131.19
405.988	154.19
406.212	238.19
406.436	359.19
406.66	250.19
406.883	125.19
407.107	112.19
407.331	111.19
407.555	115.19
407.778	111.19
408.002	83.19
408.226	97.19
408.449	103.19
408.673	98.19
408.896	87.19
409.12	108.19
409.344	91.19
409.567	93.19
409.791	93.19
410.014	84.19
410.238	106.19
410.461	100.19
410.685	98.19
410.908	105.19
411.132	108.19
411.355	91.19
411.578	95.19
411.802	102.19
412.025	94.19
412.249	111.19
412.472	125.19
412.695	142.19
412.919	119.19
413.142	95.19
413.365	98.19
413.589	74.19
413.812	81.19
414.035	90.19
414.258	99.19
414.482	87.19
414.705	95.19
414.928	100.19
415.151	106.19
415.374	81.19
415.597	86.19
415.821	96.19
416.044	105.19
416.267	112.19
416.49	92.19
416.713	99.19
416.936	99.19
417.159	102.19
417.382	95.19
417.605	110.19
417.828	113.19
418.051	96.19
418.274	97.19
418.497	93.19
418.72	96.19
418.943	69.19
419.166	97.19
419.389	102.19
419.611	85.19
419.834	102.19
420.057	96.19
420.28	95.19
420.503	109.19
420.726	90.19
420.948	109.19
421.171	109.19
421.394	113.19
421.617	111.19
421.839	92.19
422.062	84.19
422.285	95.19
422.507	103.19
422.73	113.19
422.953	102.19
423.175	94.19
423.398	79.19
423.621	97.19
423.843	88.19
424.066	84.19
424.288	99.19
424.511	98.19
424.733	114.19
424.956	128.19
425.178	120.19
425.401	119.19
425.623	107.19
425.846	90.19
426.068	115.19
426.291	101.19
426.513	106.19
426.735	109.19
426.958	107.19
427.18	125.19
427.402	207.19
427.625	304.19
427.847	319.19
428.069	284.19
428.292	164.19
428.514	110.19
428.736	109.19
428.958	102.19
429.181	92.19
429.403	97.19
429.625	93.19
429.847	106.19
430.069	122.19
430.292	102.19
430.514	90.19
430.736	87.19
430.958	87.19
431.18	78.19
431.402	72.19
431.624	104.19
431.846	92.19
432.068	105.19
432.29	97.19
432.512	96.19
432.734	101.19
432.956	102.19
433.178	107.19
433.4	107.19
433.622	96.19
433.844	92.19
434.066	93.19
434.287	100.19
434.509	99.19
434.731	90.19
434.953	97.19
435.175	82.19
435.397	95.19
435.618	98.19
435.84	112.19
436.062	170.19
436.284	145.19
436.505	119.19
436.727	97.19
436.949	92.19
437.17	88.19
437.392	88.19
437.614	110.19
437.835	134.19
438.057	171.19
438.278	156.19
438.5	131.19
438.721	129.19
438.943	106.19
439.165	90.19
439.386	90.19
439.608	101.19
439.829	134.19
440.05	174.19
440.272	209.19
440.493	115.19
440.715	88.19
440.936	78.19
441.158	91.19
441.379	102.19
441.6	98.19
441.822	100.19
442.043	107.19
442.264	125.19
442.486	104.19
442.707	113.19
442.928	127.19
443.149	193.19
443.371	190.19
443.592	137.19
443.813	131.19
444.034	129.19
444.255	102.19
444.476	78.19
444.698	83.19
444.919	98.19
445.14	136.19
445.361	140.19
445.582	145.19
445.803	224.19
446.024	185.19
446.245	179.19
446.466	141.19
446.687	105.19
446.908	99.19
447.129	90.19
447.35	101.19
447.571	108.19
447.792	105.19
448.013	117.19
448.234	131.19
448.455	104.19
448.675	129.19
448.896	151.19
449.117	121.19
449.338	99.19
449.559	156.19
449.779	166.19
450	113.19
450.221	103.19
450.442	97.19
450.662	105.19
450.883	132.19
451.104	162.19
451.324	116.19
451.545	99.19
451.766	93.19
451.986	79.19
452.207	87.19
452.428	92.19
452.648	121.19
452.869	142.19
453.089	148.19
453.31	164.19
453.53	111.19
453.751	101.19
453.971	125.19
454.192	149.19
454.412	122.19
454.633	97.19
454.853	88.19
455.073	92.19
455.294	93.19
455.514	125.19
455.734	91.19
455.955	93.19
456.175	94.19
456.395	98.19
456.616	106.19
456.836	89.19
457.056	96.19
457.276	87.19
457.497	90.19
457.717	89.19
457.937	77.19
458.157	96.19
458.377	91.19
458.598	137.19
458.818	248.19
459.038	272.19
459.258	170.19
459.478	103.19
459.698	90.19
459.918	92.19
460.138	83.19
460.358	85.19
460.578	82.19
460.798	99.19
461.018	99.19
461.238	87.19
461.458	86.19
461.678	67.19
461.898	86.19
462.118	99.19
462.338	100.19
462.558	91.19
462.777	90.19
462.997	118.19
463.217	128.19
463.437	100.19
463.657	108.19
463.876	80.19
464.096	95.19
464.316	107.19
464.536	116.19
464.755	110.19
464.975	123.19
465.195	294.19
465.414	284.19
465.634	122.19
465.854	104.19
466.073	85.19
466.293	101.19
466.512	98.19
466.732	106.19
466.951	119.19
467.171	103.19
467.391	118.19
467.61	188.19
467.829	293.19
468.049	891.19
468.268	1422.19
468.488	326.19
468.707	123.19
468.927	94.19
469.146	101.19
469.365	106.19
469.585	105.19
469.804	117.19
470.023	140.19
470.243	115.19
470.462	146.19
470.681	158.19
470.901	122.19
471.12	114.19
471.339	115.19
471.558	140.19
471.777	180.19
471.997	443.19
472.216	1740.19
472.435	4227.19
472.654	929.19
472.873	207.19
473.092	132.19
473.311	103.19
473.53	103.19
473.749	98.19
473.968	118.19
474.187	127.19
474.406	107.19
474.625	94.19
474.844	85.19
475.063	96.19
475.282	98.19
475.501	84.19
475.72	86.19
475.939	83.19
476.158	107.19
476.377	104.19
476.596	113.19
476.814	107.19
477.033	112.19
477.252	94.19
477.471	91.19
477.69	103.19
477.908	103.19
478.127	98.19
478.346	96.19
478.564	110.19
478.783	110.19
479.002	123.19
479.22	122.19
479.439	134.19
479.658	163.19
479.876	162.19
480.095	130.19
480.313	163.19
480.532	215.19
480.751	412.19
480.969	1517.19
481.188	6966.19
481.406	3986.19
481.624	539.19
481.843	175.19
482.061	134.19
482.28	107.19
482.498	92.19
482.717	84.19
482.935	92.19
483.153	100.19
483.372	97.19
483.59	111.19
483.808	91.19
484.027	104.19
484.245	100.19
484.463	121.19
484.681	100.19
484.9	109.19
485.118	99.19
485.336	102.19
485.554	110.19
485.772	100.19
485.99	121.19
486.209	109.19
486.427	110.19
486.645	117.19
486.863	142.19
487.081	131.19
487.299	103.19
487.517	95.19
487.735	97.19
487.953	91.19
488.171	76.19
488.389	91.19
488.607	107.19
488.825	106.19
489.043	89.19
489.261	93.19
489.479	83.19
489.696	91.19
489.914	101.19
490.132	81.19
490.35	101.19
490.568	91.19
490.786	75.19
491.003	99.19
491.221	104.19
491.439	104.19
491.657	106.19
491.874	96.19
492.092	96.19
492.31	94.19
492.527	115.19
492.745	97.19
492.963	104.19
493.18	83.19
493.398	100.19
493.615	98.19
493.833	96.19
494.05	93.19
494.268	111.19
494.485	99.19
494.703	96.19
494.92	93.19
495.138	94.19
495.355	100.19
495.573	107.19
495.79	92.19
496.008	106.19
496.225	104.19
496.442	101.19
496.66	103.19
496.877	86.19
497.094	107.19
497.312	108.19
497.529	98.19
497.746	90.19
497.963	105.19
498.181	98.19
498.398	98.19
498.615	112.19
498.832	125.19
499.049	96.19
499.267	94.19
499.484	95.19
499.701	97.19
499.918	95.19
500.135	92.19
500.352	106.19
500.569	105.19
500.786	90.19
501.003	103.19
501.22	86.19
501.437	84.19
501.654	108.19
501.871	144.19
502.088	106.19
502.305	97.19
502.522	98.19
502.739	95.19
502.956	104.19
503.172	94.19
503.389	113.19
503.606	138.19
503.823	111.19
504.04	98.19
504.256	90.19
504.473	84.19
504.69	95.19
504.907	97.19
505.123	90.19
505.34	97.19
505.557	94.19
505.773	78.19
505.99	100.19
506.207	94.19
506.423	97.19
506.64	84.19
506.856	82.19
507.073	99.19
507.289	94.19
507.506	101.19
507.722	142.19
507.939	138.19
508.155	112.19
508.372	102.19
508.588	100.19
508.805	97.19
509.021	107.19
509.238	104.19
509.454	99.19
509.67	100.19
509.887	105.19
510.103	152.19
510.319	264.19
510.536	1002.19
510.752	3688.19
510.968	999.19
511.184	189.19
511.401	131.19
511.617	121.19
