Data from Circ_1995_H10_HRD10591_00099.txt Node
Date: Wed Jan 03 11:37:06 EST 2024
User: Yrep
Spectrometer: HR+D1059
Trigger mode: 1
Integration Time (sec): 1.000000E-1
Scans to average: 1
Electric dark correction enabled: true
Nonlinearity correction enabled: false
Boxcar width: 0
XAxis mode: Wavelengths
Number of Pixels in Spectrum: 2048
>>>>>Begin Spectral Data<<<<<
223.165	-20.81
223.4	-20.81
223.635	-20.81
223.869	-14.81
224.104	-17.81
224.338	-12.81
224.573	-20.81
224.808	-14.81
225.042	-8.81
225.277	-11.81
225.511	-0.81
225.746	7.19
225.98	14.19
226.215	4.19
226.449	19.19
226.683	18.19
226.918	28.19
227.152	32.19
227.387	40.19
227.621	33.19
227.856	42.19
228.09	55.19
228.324	54.19
228.559	54.19
228.793	58.19
229.027	71.19
229.262	78.19
229.496	87.19
229.73	116.19
229.964	103.19
230.199	90.19
230.433	84.19
230.667	74.19
230.901	81.19
231.136	80.19
231.37	88.19
231.604	85.19
231.838	79.19
232.072	67.19
232.306	86.19
232.541	92.19
232.775	75.19
233.009	79.19
233.243	70.19
233.477	75.19
233.711	86.19
233.945	79.19
234.179	87.19
234.413	91.19
234.647	82.19
234.881	89.19
235.115	93.19
235.349	88.19
235.583	83.19
235.817	83.19
236.051	78.19
236.285	100.19
236.519	79.19
236.753	78.19
236.987	89.19
237.221	102.19
237.455	109.19
237.689	99.19
237.922	92.19
238.156	67.19
238.39	76.19
238.624	86.19
238.858	76.19
239.091	80.19
239.325	91.19
239.559	96.19
239.793	101.19
240.027	100.19
240.26	91.19
240.494	95.19
240.728	74.19
240.961	81.19
241.195	84.19
241.429	89.19
241.662	79.19
241.896	61.19
242.13	76.19
242.363	92.19
242.597	81.19
242.83	85.19
243.064	86.19
243.298	78.19
243.531	93.19
243.765	76.19
243.998	70.19
244.232	90.19
244.465	104.19
244.699	70.19
244.932	88.19
245.166	71.19
245.399	88.19
245.633	82.19
245.866	94.19
246.099	84.19
246.333	102.19
246.566	83.19
246.8	92.19
247.033	79.19
247.266	92.19
247.5	91.19
247.733	86.19
247.966	81.19
248.2	81.19
248.433	94.19
248.666	92.19
248.899	101.19
249.133	105.19
249.366	103.19
249.599	130.19
249.832	81.19
250.066	92.19
250.299	79.19
250.532	98.19
250.765	74.19
250.998	86.19
251.231	96.19
251.465	92.19
251.698	97.19
251.931	98.19
252.164	98.19
252.397	80.19
252.63	84.19
252.863	71.19
253.096	91.19
253.329	95.19
253.562	91.19
253.795	73.19
254.028	84.19
254.261	92.19
254.494	93.19
254.727	89.19
254.96	83.19
255.193	81.19
255.426	75.19
255.659	75.19
255.892	118.19
256.124	112.19
256.357	90.19
256.59	77.19
256.823	102.19
257.056	99.19
257.289	102.19
257.521	87.19
257.754	96.19
257.987	97.19
258.22	98.19
258.452	123.19
258.685	106.19
258.918	87.19
259.151	92.19
259.383	86.19
259.616	92.19
259.849	100.19
260.081	82.19
260.314	87.19
260.547	83.19
260.779	107.19
261.012	153.19
261.244	158.19
261.477	130.19
261.71	131.19
261.942	184.19
262.175	180.19
262.407	101.19
262.64	93.19
262.872	108.19
263.105	84.19
263.337	90.19
263.57	82.19
263.802	71.19
264.035	94.19
264.267	84.19
264.499	94.19
264.732	87.19
264.964	78.19
265.197	93.19
265.429	83.19
265.661	85.19
265.894	79.19
266.126	99.19
266.358	81.19
266.591	92.19
266.823	73.19
267.055	93.19
267.287	84.19
267.52	89.19
267.752	93.19
267.984	95.19
268.216	81.19
268.448	70.19
268.681	97.19
268.913	91.19
269.145	75.19
269.377	91.19
269.609	93.19
269.841	98.19
270.073	90.19
270.306	92.19
270.538	90.19
270.77	79.19
271.002	92.19
271.234	104.19
271.466	110.19
271.698	93.19
271.93	96.19
272.162	97.19
272.394	103.19
272.626	70.19
272.858	81.19
273.09	92.19
273.322	87.19
273.553	83.19
273.785	89.19
274.017	83.19
274.249	82.19
274.481	101.19
274.713	99.19
274.945	90.19
275.176	99.19
275.408	120.19
275.64	152.19
275.872	176.19
276.104	146.19
276.335	110.19
276.567	152.19
276.799	207.19
277.031	282.19
277.262	353.19
277.494	248.19
277.726	140.19
277.957	118.19
278.189	99.19
278.421	95.19
278.652	97.19
278.884	95.19
279.115	98.19
279.347	110.19
279.579	132.19
279.81	196.19
280.042	355.19
280.273	529.19
280.505	330.19
280.736	159.19
280.968	113.19
281.199	114.19
281.431	97.19
281.662	96.19
281.894	88.19
282.125	122.19
282.356	163.19
282.588	237.19
282.819	154.19
283.051	97.19
283.282	86.19
283.513	100.19
283.745	91.19
283.976	90.19
284.207	100.19
284.439	81.19
284.67	84.19
284.901	105.19
285.132	83.19
285.364	107.19
285.595	84.19
285.826	89.19
286.057	99.19
286.288	87.19
286.52	80.19
286.751	75.19
286.982	74.19
287.213	81.19
287.444	94.19
287.675	89.19
287.906	79.19
288.138	106.19
288.369	87.19
288.6	99.19
288.831	94.19
289.062	91.19
289.293	100.19
289.524	91.19
289.755	94.19
289.986	89.19
290.217	96.19
290.448	95.19
290.679	97.19
290.91	86.19
291.141	83.19
291.371	83.19
291.602	100.19
291.833	100.19
292.064	98.19
292.295	91.19
292.526	97.19
292.757	83.19
292.987	87.19
293.218	88.19
293.449	88.19
293.68	98.19
293.91	95.19
294.141	94.19
294.372	82.19
294.603	94.19
294.833	81.19
295.064	93.19
295.295	83.19
295.525	91.19
295.756	126.19
295.987	146.19
296.217	220.19
296.448	182.19
296.679	103.19
296.909	91.19
297.14	85.19
297.37	91.19
297.601	106.19
297.831	106.19
298.062	108.19
298.292	98.19
298.523	96.19
298.753	89.19
298.984	84.19
299.214	89.19
299.445	114.19
299.675	114.19
299.905	125.19
300.136	92.19
300.366	97.19
300.597	91.19
300.827	97.19
301.057	100.19
301.288	129.19
301.518	117.19
301.748	96.19
301.979	139.19
302.209	119.19
302.439	110.19
302.669	99.19
302.9	98.19
303.13	113.19
303.36	134.19
303.59	180.19
303.82	204.19
304.051	123.19
304.281	99.19
304.511	92.19
304.741	106.19
304.971	105.19
305.201	105.19
305.431	94.19
305.661	101.19
305.891	112.19
306.121	105.19
306.352	130.19
306.582	141.19
306.812	128.19
307.042	167.19
307.272	246.19
307.502	268.19
307.731	235.19
307.961	164.19
308.191	110.19
308.421	92.19
308.651	94.19
308.881	112.19
309.111	114.19
309.341	106.19
309.571	112.19
309.8	112.19
310.03	131.19
310.26	123.19
310.49	119.19
310.72	104.19
310.949	143.19
311.179	131.19
311.409	99.19
311.639	119.19
311.868	104.19
312.098	113.19
312.328	113.19
312.557	136.19
312.787	156.19
313.017	141.19
313.246	104.19
313.476	86.19
313.706	95.19
313.935	132.19
314.165	134.19
314.394	148.19
314.624	132.19
314.853	127.19
315.083	120.19
315.312	91.19
315.542	87.19
315.771	95.19
316.001	109.19
316.23	114.19
316.46	91.19
316.689	91.19
316.919	97.19
317.148	123.19
317.377	130.19
317.607	127.19
317.836	115.19
318.065	97.19
318.295	94.19
318.524	95.19
318.753	87.19
318.983	104.19
319.212	109.19
319.441	140.19
319.67	129.19
319.9	102.19
320.129	100.19
320.358	99.19
320.587	109.19
320.816	119.19
321.046	129.19
321.275	109.19
321.504	114.19
321.733	107.19
321.962	108.19
322.191	115.19
322.42	134.19
322.649	137.19
322.878	152.19
323.108	163.19
323.337	174.19
323.566	191.19
323.795	244.19
324.024	340.19
324.253	641.19
324.482	1420.19
324.71	2939.19
324.939	3901.19
325.168	1415.19
325.397	375.19
325.626	212.19
325.855	190.19
326.084	191.19
326.313	191.19
326.542	222.19
326.77	334.19
326.999	678.19
327.228	1438.19
327.457	2689.19
327.686	2193.19
327.914	864.19
328.143	1004.19
328.372	1393.19
328.6	707.19
328.829	299.19
329.058	276.19
329.287	301.19
329.515	283.19
329.744	466.19
329.972	966.19
330.201	2152.19
330.43	3183.19
330.658	1290.19
330.887	506.19
331.115	294.19
331.344	175.19
331.572	148.19
331.801	175.19
332.03	155.19
332.258	148.19
332.486	138.19
332.715	118.19
332.943	153.19
333.172	145.19
333.4	184.19
333.629	237.19
333.857	381.19
334.085	827.19
334.314	1915.19
334.542	3846.19
334.771	3614.19
334.999	832.19
335.227	289.19
335.455	177.19
335.684	136.19
335.912	127.19
336.14	135.19
336.369	130.19
336.597	153.19
336.825	126.19
337.053	114.19
337.281	108.19
337.51	109.19
337.738	110.19
337.966	132.19
338.194	140.19
338.422	139.19
338.65	118.19
338.878	72.19
339.106	104.19
339.334	98.19
339.562	82.19
339.79	93.19
340.018	114.19
340.246	97.19
340.474	111.19
340.702	105.19
340.93	112.19
341.158	108.19
341.386	101.19
341.614	110.19
341.842	101.19
342.07	98.19
342.298	108.19
342.526	105.19
342.754	105.19
342.981	93.19
343.209	87.19
343.437	109.19
343.665	97.19
343.893	109.19
344.12	97.19
344.348	94.19
344.576	104.19
344.804	120.19
345.031	131.19
345.259	146.19
345.487	125.19
345.714	115.19
345.942	107.19
346.17	91.19
346.397	118.19
346.625	114.19
346.853	100.19
347.08	95.19
347.308	111.19
347.535	102.19
347.763	132.19
347.99	121.19
348.218	133.19
348.445	160.19
348.673	125.19
348.9	116.19
349.128	111.19
349.355	94.19
349.583	97.19
349.81	102.19
350.037	100.19
350.265	127.19
350.492	94.19
350.72	104.19
350.947	114.19
351.174	128.19
351.402	153.19
351.629	123.19
351.856	122.19
352.083	130.19
352.311	138.19
352.538	162.19
352.765	163.19
352.992	136.19
353.22	143.19
353.447	134.19
353.674	103.19
353.901	99.19
354.128	92.19
354.355	98.19
354.583	113.19
354.81	115.19
355.037	116.19
355.264	106.19
355.491	95.19
355.718	86.19
355.945	90.19
356.172	94.19
356.399	92.19
356.626	84.19
356.853	92.19
357.08	91.19
357.307	98.19
357.534	83.19
357.761	92.19
357.988	93.19
358.215	92.19
358.441	98.19
358.668	103.19
358.895	96.19
359.122	94.19
359.349	107.19
359.576	121.19
359.802	138.19
360.029	184.19
360.256	173.19
360.483	142.19
360.709	101.19
360.936	99.19
361.163	129.19
361.39	103.19
361.616	122.19
361.843	107.19
362.07	115.19
362.296	134.19
362.523	98.19
362.749	108.19
362.976	103.19
363.203	89.19
363.429	90.19
363.656	114.19
363.882	114.19
364.109	106.19
364.335	100.19
364.562	89.19
364.788	108.19
365.015	108.19
365.241	115.19
365.468	131.19
365.694	129.19
365.92	124.19
366.147	108.19
366.373	79.19
366.599	106.19
366.826	99.19
367.052	103.19
367.278	100.19
367.505	100.19
367.731	115.19
367.957	107.19
368.184	120.19
368.41	127.19
368.636	156.19
368.862	136.19
369.089	131.19
369.315	123.19
369.541	109.19
369.767	106.19
369.993	108.19
370.219	119.19
370.445	99.19
370.672	92.19
370.898	93.19
371.124	90.19
371.35	94.19
371.576	97.19
371.802	81.19
372.028	89.19
372.254	99.19
372.48	94.19
372.706	87.19
372.932	101.19
373.158	85.19
373.384	88.19
373.61	93.19
373.835	99.19
374.061	101.19
374.287	102.19
374.513	96.19
374.739	93.19
374.965	97.19
375.191	89.19
375.416	94.19
375.642	100.19
375.868	92.19
376.094	99.19
376.319	93.19
376.545	102.19
376.771	89.19
376.997	107.19
377.222	97.19
377.448	97.19
377.674	96.19
377.899	97.19
378.125	91.19
378.35	95.19
378.576	87.19
378.802	75.19
379.027	92.19
379.253	98.19
379.478	88.19
379.704	92.19
379.929	95.19
380.155	98.19
380.38	103.19
380.606	116.19
380.831	114.19
381.057	95.19
381.282	90.19
381.507	98.19
381.733	121.19
381.958	102.19
382.184	101.19
382.409	93.19
382.634	113.19
382.86	90.19
383.085	98.19
383.31	94.19
383.535	111.19
383.761	98.19
383.986	114.19
384.211	82.19
384.436	100.19
384.662	107.19
384.887	102.19
385.112	107.19
385.337	86.19
385.562	87.19
385.787	105.19
386.013	119.19
386.238	125.19
386.463	121.19
386.688	114.19
386.913	98.19
387.138	109.19
387.363	94.19
387.588	98.19
387.813	102.19
388.038	109.19
388.263	108.19
388.488	105.19
388.713	92.19
388.938	64.19
389.163	107.19
389.387	80.19
389.612	89.19
389.837	81.19
390.062	89.19
390.287	80.19
390.512	76.19
390.736	89.19
390.961	93.19
391.186	84.19
391.411	99.19
391.636	92.19
391.86	77.19
392.085	92.19
392.31	91.19
392.534	89.19
392.759	99.19
392.984	79.19
393.208	86.19
393.433	96.19
393.658	91.19
393.882	98.19
394.107	80.19
394.331	80.19
394.556	87.19
394.78	96.19
395.005	85.19
395.229	89.19
395.454	105.19
395.678	81.19
395.903	91.19
396.127	93.19
396.352	98.19
396.576	94.19
396.801	82.19
397.025	105.19
397.249	93.19
397.474	100.19
397.698	89.19
397.922	98.19
398.147	87.19
398.371	95.19
398.595	87.19
398.82	78.19
399.044	85.19
399.268	90.19
399.492	97.19
399.717	94.19
399.941	96.19
400.165	108.19
400.389	94.19
400.613	70.19
400.837	92.19
401.062	92.19
401.286	107.19
401.51	98.19
401.734	114.19
401.958	116.19
402.182	180.19
402.406	253.19
402.63	198.19
402.854	123.19
403.078	110.19
403.302	94.19
403.526	86.19
403.75	104.19
403.974	89.19
404.198	85.19
404.422	104.19
404.645	98.19
404.869	120.19
405.093	146.19
405.317	176.19
405.541	186.19
405.765	156.19
405.988	164.19
406.212	276.19
406.436	459.19
406.66	310.19
406.883	155.19
407.107	143.19
407.331	118.19
407.555	130.19
407.778	127.19
408.002	112.19
408.226	97.19
408.449	91.19
408.673	110.19
408.896	104.19
409.12	109.19
409.344	90.19
409.567	101.19
409.791	108.19
410.014	97.19
410.238	82.19
410.461	99.19
410.685	95.19
410.908	96.19
411.132	94.19
411.355	95.19
411.578	104.19
411.802	99.19
412.025	105.19
412.249	104.19
412.472	144.19
412.695	148.19
412.919	123.19
413.142	110.19
413.365	98.19
413.589	84.19
413.812	93.19
414.035	96.19
414.258	98.19
414.482	106.19
414.705	92.19
414.928	88.19
415.151	101.19
415.374	79.19
415.597	92.19
415.821	84.19
416.044	93.19
416.267	95.19
416.49	94.19
416.713	94.19
416.936	91.19
417.159	109.19
417.382	106.19
417.605	128.19
417.828	147.19
418.051	121.19
418.274	94.19
418.497	104.19
418.72	100.19
418.943	90.19
419.166	93.19
419.389	84.19
419.611	83.19
419.834	89.19
420.057	92.19
420.28	96.19
420.503	93.19
420.726	89.19
420.948	94.19
421.171	112.19
421.394	118.19
421.617	89.19
421.839	97.19
422.062	95.19
422.285	111.19
422.507	98.19
422.73	128.19
422.953	103.19
423.175	103.19
423.398	103.19
423.621	94.19
423.843	81.19
424.066	94.19
424.288	99.19
424.511	93.19
424.733	108.19
424.956	147.19
425.178	127.19
425.401	118.19
425.623	121.19
425.846	113.19
426.068	123.19
426.291	118.19
426.513	115.19
426.735	96.19
426.958	107.19
427.18	148.19
427.402	250.19
427.625	415.19
427.847	376.19
428.069	304.19
428.292	170.19
428.514	114.19
428.736	102.19
428.958	97.19
429.181	100.19
429.403	100.19
429.625	92.19
429.847	100.19
430.069	122.19
430.292	108.19
430.514	81.19
430.736	92.19
430.958	86.19
431.18	88.19
431.402	78.19
431.624	90.19
431.846	86.19
432.068	96.19
432.29	107.19
432.512	87.19
432.734	93.19
432.956	104.19
433.178	111.19
433.4	101.19
433.622	98.19
433.844	110.19
434.066	100.19
434.287	93.19
434.509	99.19
434.731	90.19
434.953	88.19
435.175	90.19
435.397	99.19
435.618	102.19
435.84	116.19
436.062	154.19
436.284	138.19
436.505	113.19
436.727	113.19
436.949	89.19
437.17	96.19
437.392	89.19
437.614	116.19
437.835	169.19
438.057	190.19
438.278	159.19
438.5	130.19
438.721	156.19
438.943	125.19
439.165	105.19
439.386	107.19
439.608	112.19
439.829	128.19
440.05	187.19
440.272	249.19
440.493	121.19
440.715	93.19
440.936	99.19
441.158	97.19
441.379	94.19
441.6	119.19
441.822	108.19
442.043	117.19
442.264	146.19
442.486	127.19
442.707	122.19
442.928	153.19
443.149	234.19
443.371	229.19
443.592	172.19
443.813	152.19
444.034	121.19
444.255	109.19
444.476	89.19
444.698	111.19
444.919	100.19
445.14	145.19
445.361	151.19
445.582	172.19
445.803	248.19
446.024	231.19
446.245	220.19
446.466	148.19
446.687	100.19
446.908	99.19
447.129	92.19
447.35	112.19
447.571	114.19
447.792	110.19
448.013	139.19
448.234	126.19
448.455	119.19
448.675	154.19
448.896	165.19
449.117	120.19
449.338	115.19
449.559	168.19
449.779	177.19
450	104.19
450.221	87.19
450.442	102.19
450.662	119.19
450.883	145.19
451.104	173.19
451.324	109.19
451.545	97.19
451.766	110.19
451.986	103.19
452.207	104.19
452.428	110.19
452.648	130.19
452.869	169.19
453.089	176.19
453.31	190.19
453.53	115.19
453.751	107.19
453.971	135.19
454.192	198.19
454.412	126.19
454.633	95.19
454.853	86.19
455.073	108.19
455.294	114.19
455.514	125.19
455.734	100.19
455.955	92.19
456.175	80.19
456.395	80.19
456.616	87.19
456.836	89.19
457.056	88.19
457.276	80.19
457.497	89.19
457.717	90.19
457.937	84.19
458.157	90.19
458.377	111.19
458.598	172.19
458.818	299.19
459.038	352.19
459.258	210.19
459.478	102.19
459.698	93.19
459.918	93.19
460.138	89.19
460.358	92.19
460.578	85.19
460.798	98.19
461.018	113.19
461.238	81.19
461.458	86.19
461.678	102.19
461.898	95.19
462.118	90.19
462.338	84.19
462.558	98.19
462.777	96.19
462.997	123.19
463.217	138.19
463.437	114.19
463.657	93.19
463.876	103.19
464.096	90.19
464.316	123.19
464.536	126.19
464.755	119.19
464.975	165.19
465.195	367.19
465.414	366.19
465.634	132.19
465.854	107.19
466.073	99.19
466.293	103.19
466.512	96.19
466.732	94.19
466.951	110.19
467.171	120.19
467.391	141.19
467.61	214.19
467.829	355.19
468.049	1154.19
468.268	1831.19
468.488	390.19
468.707	142.19
468.927	90.19
469.146	111.19
469.365	98.19
469.585	102.19
469.804	127.19
470.023	147.19
470.243	132.19
470.462	158.19
470.681	193.19
470.901	117.19
471.12	123.19
471.339	139.19
471.558	159.19
471.777	213.19
471.997	540.19
472.216	2260.19
472.435	5326.19
472.654	1143.19
472.873	269.19
473.092	155.19
473.311	119.19
473.53	107.19
473.749	120.19
473.968	116.19
474.187	154.19
474.406	130.19
474.625	100.19
474.844	104.19
475.063	96.19
475.282	101.19
475.501	105.19
475.72	94.19
475.939	106.19
476.158	74.19
476.377	89.19
476.596	99.19
476.814	115.19
477.033	122.19
477.252	106.19
477.471	98.19
477.69	91.19
477.908	100.19
478.127	103.19
478.346	104.19
478.564	115.19
478.783	117.19
479.002	136.19
479.22	138.19
479.439	162.19
479.658	173.19
479.876	156.19
480.095	156.19
480.313	188.19
480.532	247.19
480.751	496.19
480.969	1996.19
481.188	8838.19
481.406	5007.19
481.624	652.19
481.843	208.19
482.061	127.19
482.28	125.19
482.498	106.19
482.717	127.19
482.935	107.19
483.153	115.19
483.372	99.19
483.59	98.19
483.808	97.19
484.027	101.19
484.245	96.19
484.463	114.19
484.681	108.19
484.9	92.19
485.118	95.19
485.336	98.19
485.554	96.19
485.772	88.19
485.99	106.19
486.209	118.19
486.427	100.19
486.645	149.19
486.863	174.19
487.081	131.19
487.299	111.19
487.517	107.19
487.735	108.19
487.953	89.19
488.171	107.19
488.389	96.19
488.607	125.19
488.825	92.19
489.043	109.19
489.261	101.19
489.479	97.19
489.696	100.19
489.914	95.19
490.132	91.19
490.35	109.19
490.568	99.19
490.786	87.19
491.003	105.19
491.221	105.19
491.439	104.19
491.657	109.19
491.874	98.19
492.092	92.19
492.31	110.19
492.527	114.19
492.745	121.19
492.963	115.19
493.18	101.19
493.398	95.19
493.615	106.19
493.833	104.19
494.05	87.19
494.268	96.19
494.485	96.19
494.703	88.19
494.92	103.19
495.138	86.19
495.355	95.19
495.573	90.19
495.79	99.19
496.008	115.19
496.225	87.19
496.442	82.19
496.66	106.19
496.877	100.19
497.094	106.19
497.312	90.19
497.529	84.19
497.746	117.19
497.963	98.19
498.181	94.19
498.398	105.19
498.615	124.19
498.832	123.19
499.049	91.19
499.267	98.19
499.484	82.19
499.701	103.19
499.918	98.19
500.135	88.19
500.352	86.19
500.569	104.19
500.786	105.19
501.003	100.19
501.22	79.19
501.437	90.19
501.654	105.19
501.871	171.19
502.088	107.19
502.305	109.19
502.522	100.19
502.739	87.19
502.956	100.19
503.172	113.19
503.389	121.19
503.606	154.19
503.823	128.19
504.04	121.19
504.256	110.19
504.473	100.19
504.69	95.19
504.907	107.19
505.123	96.19
505.34	114.19
505.557	100.19
505.773	83.19
505.99	91.19
506.207	104.19
506.423	95.19
506.64	91.19
506.856	87.19
507.073	95.19
507.289	99.19
507.506	120.19
507.722	175.19
507.939	166.19
508.155	113.19
508.372	100.19
508.588	108.19
508.805	102.19
509.021	106.19
509.238	103.19
509.454	104.19
509.67	111.19
509.887	127.19
510.103	166.19
