Data from Circ_1995_H10_HRD10591_00032.txt Node
Date: Wed Jan 03 11:36:53 EST 2024
User: Yrep
Spectrometer: HR+D1059
Trigger mode: 1
Integration Time (sec): 1.000000E-1
Scans to average: 1
Electric dark correction enabled: true
Nonlinearity correction enabled: false
Boxcar width: 0
XAxis mode: Wavelengths
Number of Pixels in Spectrum: 2048
>>>>>Begin Spectral Data<<<<<
223.165	-34.5
223.4	-34.5
223.635	-34.5
223.869	-23.5
224.104	-21.5
224.338	-15.5
224.573	-18.5
224.808	-10.5
225.042	2.5
225.277	12.5
225.511	-0.5
225.746	4.5
225.98	8.5
226.215	16.5
226.449	13.5
226.683	6.5
226.918	24.5
227.152	35.5
227.387	37.5
227.621	46.5
227.856	40.5
228.09	51.5
228.324	53.5
228.559	58.5
228.793	48.5
229.027	63.5
229.262	62.5
229.496	82.5
229.73	99.5
229.964	111.5
230.199	75.5
230.433	58.5
230.667	82.5
230.901	86.5
231.136	88.5
231.37	84.5
231.604	78.5
231.838	81.5
232.072	89.5
232.306	79.5
232.541	85.5
232.775	81.5
233.009	78.5
233.243	76.5
233.477	90.5
233.711	82.5
233.945	75.5
234.179	82.5
234.413	85.5
234.647	79.5
234.881	91.5
235.115	73.5
235.349	79.5
235.583	74.5
235.817	93.5
236.051	90.5
236.285	72.5
236.519	84.5
236.753	72.5
236.987	79.5
237.221	86.5
237.455	83.5
237.689	82.5
237.922	88.5
238.156	72.5
238.39	67.5
238.624	76.5
238.858	78.5
239.091	91.5
239.325	89.5
239.559	82.5
239.793	82.5
240.027	89.5
240.26	79.5
240.494	84.5
240.728	72.5
240.961	78.5
241.195	80.5
241.429	84.5
241.662	71.5
241.896	71.5
242.13	79.5
242.363	67.5
242.597	72.5
242.83	75.5
243.064	72.5
243.298	88.5
243.531	80.5
243.765	86.5
243.998	81.5
244.232	77.5
244.465	74.5
244.699	78.5
244.932	63.5
245.166	80.5
245.399	78.5
245.633	71.5
245.866	82.5
246.099	75.5
246.333	82.5
246.566	90.5
246.8	92.5
247.033	79.5
247.266	79.5
247.5	74.5
247.733	84.5
247.966	77.5
248.2	74.5
248.433	78.5
248.666	80.5
248.899	70.5
249.133	96.5
249.366	97.5
249.599	107.5
249.832	86.5
250.066	82.5
250.299	76.5
250.532	78.5
250.765	80.5
250.998	82.5
251.231	76.5
251.465	84.5
251.698	82.5
251.931	83.5
252.164	84.5
252.397	72.5
252.63	74.5
252.863	78.5
253.096	82.5
253.329	93.5
253.562	79.5
253.795	87.5
254.028	96.5
254.261	82.5
254.494	79.5
254.727	85.5
254.96	73.5
255.193	83.5
255.426	88.5
255.659	82.5
255.892	75.5
256.124	92.5
256.357	86.5
256.59	77.5
256.823	84.5
257.056	90.5
257.289	88.5
257.521	84.5
257.754	83.5
257.987	87.5
258.22	100.5
258.452	111.5
258.685	90.5
258.918	83.5
259.151	81.5
259.383	84.5
259.616	76.5
259.849	80.5
260.081	67.5
260.314	90.5
260.547	97.5
260.779	96.5
261.012	111.5
261.244	114.5
261.477	101.5
261.71	113.5
261.942	154.5
262.175	157.5
262.407	85.5
262.64	83.5
262.872	84.5
263.105	81.5
263.337	96.5
263.57	93.5
263.802	73.5
264.035	83.5
264.267	84.5
264.499	89.5
264.732	73.5
264.964	70.5
265.197	72.5
265.429	84.5
265.661	88.5
265.894	89.5
266.126	92.5
266.358	92.5
266.591	86.5
266.823	86.5
267.055	90.5
267.287	81.5
267.52	89.5
267.752	93.5
267.984	85.5
268.216	95.5
268.448	94.5
268.681	103.5
268.913	80.5
269.145	71.5
269.377	83.5
269.609	102.5
269.841	92.5
270.073	87.5
270.306	94.5
270.538	82.5
270.77	88.5
271.002	96.5
271.234	104.5
271.466	92.5
271.698	96.5
271.93	75.5
272.162	83.5
272.394	77.5
272.626	90.5
272.858	96.5
273.09	84.5
273.322	80.5
273.553	80.5
273.785	102.5
274.017	74.5
274.249	72.5
274.481	98.5
274.713	89.5
274.945	91.5
275.176	87.5
275.408	100.5
275.64	110.5
275.872	134.5
276.104	129.5
276.335	114.5
276.567	126.5
276.799	166.5
277.031	207.5
277.262	228.5
277.494	161.5
277.726	96.5
277.957	109.5
278.189	83.5
278.421	98.5
278.652	107.5
278.884	96.5
279.115	88.5
279.347	104.5
279.579	122.5
279.81	145.5
280.042	204.5
280.273	316.5
280.505	210.5
280.736	106.5
280.968	91.5
281.199	75.5
281.431	91.5
281.662	88.5
281.894	97.5
282.125	114.5
282.356	148.5
282.588	187.5
282.819	143.5
283.051	90.5
283.282	93.5
283.513	83.5
283.745	95.5
283.976	93.5
284.207	96.5
284.439	83.5
284.67	87.5
284.901	91.5
285.132	94.5
285.364	100.5
285.595	86.5
285.826	82.5
286.057	87.5
286.288	77.5
286.52	91.5
286.751	73.5
286.982	90.5
287.213	90.5
287.444	95.5
287.675	103.5
287.906	99.5
288.138	100.5
288.369	105.5
288.6	112.5
288.831	83.5
289.062	91.5
289.293	86.5
289.524	87.5
289.755	84.5
289.986	88.5
290.217	90.5
290.448	85.5
290.679	94.5
290.91	83.5
291.141	83.5
291.371	95.5
291.602	77.5
291.833	84.5
292.064	86.5
292.295	88.5
292.526	83.5
292.757	93.5
292.987	86.5
293.218	84.5
293.449	97.5
293.68	88.5
293.91	83.5
294.141	88.5
294.372	87.5
294.603	96.5
294.833	95.5
295.064	90.5
295.295	94.5
295.525	100.5
295.756	115.5
295.987	128.5
296.217	190.5
296.448	153.5
296.679	94.5
296.909	92.5
297.14	96.5
297.37	83.5
297.601	91.5
297.831	108.5
298.062	99.5
298.292	99.5
298.523	98.5
298.753	101.5
298.984	90.5
299.214	89.5
299.445	83.5
299.675	114.5
299.905	101.5
300.136	96.5
300.366	81.5
300.597	103.5
300.827	102.5
301.057	106.5
301.288	112.5
301.518	110.5
301.748	92.5
301.979	113.5
302.209	99.5
302.439	90.5
302.669	100.5
302.9	105.5
303.13	90.5
303.36	110.5
303.59	134.5
303.82	174.5
304.051	101.5
304.281	106.5
304.511	91.5
304.741	97.5
304.971	83.5
305.201	90.5
305.431	92.5
305.661	94.5
305.891	98.5
306.121	118.5
306.352	122.5
306.582	130.5
306.812	116.5
307.042	124.5
307.272	174.5
307.502	187.5
307.731	192.5
307.961	124.5
308.191	93.5
308.421	84.5
308.651	100.5
308.881	99.5
309.111	106.5
309.341	109.5
309.571	106.5
309.8	111.5
310.03	114.5
310.26	112.5
310.49	102.5
310.72	110.5
310.949	121.5
311.179	118.5
311.409	99.5
311.639	103.5
311.868	108.5
312.098	106.5
312.328	106.5
312.557	127.5
312.787	121.5
313.017	116.5
313.246	104.5
313.476	84.5
313.706	97.5
313.935	104.5
314.165	114.5
314.394	125.5
314.624	110.5
314.853	108.5
315.083	95.5
315.312	93.5
315.542	92.5
315.771	91.5
316.001	91.5
316.23	110.5
316.46	86.5
316.689	94.5
316.919	87.5
317.148	121.5
317.377	110.5
317.607	105.5
317.836	95.5
318.065	87.5
318.295	97.5
318.524	89.5
318.753	101.5
318.983	114.5
319.212	111.5
319.441	125.5
319.67	106.5
319.9	108.5
320.129	102.5
320.358	92.5
320.587	119.5
320.816	102.5
321.046	113.5
321.275	104.5
321.504	102.5
321.733	103.5
321.962	96.5
322.191	122.5
322.42	136.5
322.649	127.5
322.878	142.5
323.108	136.5
323.337	151.5
323.566	159.5
323.795	203.5
324.024	251.5
324.253	512.5
324.482	1102.5
324.71	2241.5
324.939	2976.5
325.168	1120.5
325.397	317.5
325.626	182.5
325.855	150.5
326.084	159.5
326.313	153.5
326.542	193.5
326.77	289.5
326.999	554.5
327.228	1118.5
327.457	2100.5
327.686	1734.5
327.914	624.5
328.143	652.5
328.372	833.5
328.6	449.5
328.829	210.5
329.058	219.5
329.287	244.5
329.515	208.5
329.744	294.5
329.972	586.5
330.201	1200.5
330.43	1813.5
330.658	810.5
330.887	375.5
331.115	216.5
331.344	134.5
331.572	122.5
331.801	148.5
332.03	138.5
332.258	123.5
332.486	115.5
332.715	122.5
332.943	133.5
333.172	113.5
333.4	127.5
333.629	170.5
333.857	254.5
334.085	497.5
334.314	1073.5
334.542	2185.5
334.771	2072.5
334.999	539.5
335.227	195.5
335.455	138.5
335.684	122.5
335.912	111.5
336.14	112.5
336.369	107.5
336.597	125.5
336.825	113.5
337.053	105.5
337.281	102.5
337.51	86.5
337.738	89.5
337.966	90.5
338.194	115.5
338.422	110.5
338.65	106.5
338.878	103.5
339.106	96.5
339.334	98.5
339.562	92.5
339.79	95.5
340.018	97.5
340.246	92.5
340.474	101.5
340.702	99.5
340.93	100.5
341.158	110.5
341.386	99.5
341.614	120.5
341.842	100.5
342.07	105.5
342.298	103.5
342.526	105.5
342.754	74.5
342.981	96.5
343.209	101.5
343.437	114.5
343.665	92.5
343.893	103.5
344.12	99.5
344.348	101.5
344.576	95.5
344.804	101.5
345.031	112.5
345.259	112.5
345.487	109.5
345.714	105.5
345.942	84.5
346.17	97.5
346.397	97.5
346.625	105.5
346.853	94.5
347.08	85.5
347.308	102.5
347.535	112.5
347.763	110.5
347.99	109.5
348.218	99.5
348.445	139.5
348.673	104.5
348.9	100.5
349.128	93.5
349.355	84.5
349.583	80.5
349.81	108.5
350.037	99.5
350.265	103.5
350.492	92.5
350.72	110.5
350.947	100.5
351.174	121.5
351.402	131.5
351.629	122.5
351.856	110.5
352.083	107.5
352.311	108.5
352.538	140.5
352.765	130.5
352.992	134.5
353.22	131.5
353.447	111.5
353.674	92.5
353.901	95.5
354.128	96.5
354.355	103.5
354.583	96.5
354.81	110.5
355.037	101.5
355.264	84.5
355.491	99.5
355.718	80.5
355.945	98.5
356.172	95.5
356.399	90.5
356.626	94.5
356.853	100.5
357.08	108.5
357.307	91.5
357.534	92.5
357.761	76.5
357.988	87.5
358.215	89.5
358.441	96.5
358.668	96.5
358.895	94.5
359.122	90.5
359.349	90.5
359.576	115.5
359.802	114.5
360.029	156.5
360.256	150.5
360.483	117.5
360.709	98.5
360.936	105.5
361.163	107.5
361.39	109.5
361.616	118.5
361.843	89.5
362.07	96.5
362.296	107.5
362.523	110.5
362.749	113.5
362.976	110.5
363.203	105.5
363.429	72.5
363.656	109.5
363.882	92.5
364.109	98.5
364.335	94.5
364.562	89.5
364.788	107.5
365.015	107.5
365.241	104.5
365.468	127.5
365.694	130.5
365.92	121.5
366.147	108.5
366.373	93.5
366.599	107.5
366.826	97.5
367.052	86.5
367.278	89.5
367.505	91.5
367.731	99.5
367.957	114.5
368.184	99.5
368.41	118.5
368.636	144.5
368.862	138.5
369.089	125.5
369.315	102.5
369.541	90.5
369.767	104.5
369.993	104.5
370.219	103.5
370.445	103.5
370.672	91.5
370.898	93.5
371.124	84.5
371.35	80.5
371.576	77.5
371.802	81.5
372.028	68.5
372.254	95.5
372.48	89.5
372.706	78.5
372.932	76.5
373.158	80.5
373.384	94.5
373.61	79.5
373.835	86.5
374.061	90.5
374.287	105.5
374.513	93.5
374.739	93.5
374.965	92.5
375.191	84.5
375.416	82.5
375.642	93.5
375.868	94.5
376.094	96.5
376.319	86.5
376.545	110.5
376.771	86.5
376.997	94.5
377.222	89.5
377.448	95.5
377.674	79.5
377.899	84.5
378.125	91.5
378.35	97.5
378.576	102.5
378.802	103.5
379.027	104.5
379.253	101.5
379.478	93.5
379.704	90.5
379.929	99.5
380.155	99.5
380.38	92.5
380.606	109.5
380.831	91.5
381.057	107.5
381.282	83.5
381.507	105.5
381.733	101.5
381.958	107.5
382.184	107.5
382.409	113.5
382.634	100.5
382.86	106.5
383.085	87.5
383.31	96.5
383.535	103.5
383.761	100.5
383.986	95.5
384.211	102.5
384.436	110.5
384.662	115.5
384.887	100.5
385.112	106.5
385.337	109.5
385.562	114.5
385.787	114.5
386.013	126.5
386.238	127.5
386.463	129.5
386.688	110.5
386.913	110.5
387.138	103.5
387.363	113.5
387.588	103.5
387.813	112.5
388.038	117.5
388.263	121.5
388.488	116.5
388.713	98.5
388.938	99.5
389.163	93.5
389.387	84.5
389.612	91.5
389.837	91.5
390.062	94.5
390.287	93.5
390.512	80.5
390.736	91.5
390.961	80.5
391.186	97.5
391.411	94.5
391.636	89.5
391.86	89.5
392.085	86.5
392.31	100.5
392.534	79.5
392.759	77.5
392.984	83.5
393.208	94.5
393.433	93.5
393.658	93.5
393.882	87.5
394.107	91.5
394.331	82.5
394.556	97.5
394.78	87.5
395.005	71.5
395.229	87.5
395.454	79.5
395.678	79.5
395.903	68.5
396.127	95.5
396.352	89.5
396.576	81.5
396.801	90.5
397.025	92.5
397.249	113.5
397.474	96.5
397.698	92.5
397.922	103.5
398.147	77.5
398.371	79.5
398.595	94.5
398.82	82.5
399.044	63.5
399.268	80.5
399.492	78.5
399.717	104.5
399.941	104.5
400.165	98.5
400.389	90.5
400.613	93.5
400.837	94.5
401.062	85.5
401.286	93.5
401.51	97.5
401.734	116.5
401.958	120.5
402.182	164.5
402.406	227.5
402.63	183.5
402.854	97.5
403.078	92.5
403.302	97.5
403.526	89.5
403.75	90.5
403.974	92.5
404.198	94.5
404.422	95.5
404.645	82.5
404.869	106.5
405.093	107.5
405.317	140.5
405.541	132.5
405.765	129.5
405.988	130.5
406.212	253.5
406.436	384.5
406.66	262.5
406.883	123.5
407.107	120.5
407.331	97.5
407.555	113.5
407.778	99.5
408.002	106.5
408.226	98.5
408.449	96.5
408.673	102.5
408.896	104.5
409.12	94.5
409.344	92.5
409.567	105.5
409.791	99.5
410.014	84.5
410.238	93.5
410.461	91.5
410.685	103.5
410.908	104.5
411.132	95.5
411.355	94.5
411.578	95.5
411.802	105.5
412.025	104.5
412.249	98.5
412.472	106.5
412.695	125.5
412.919	109.5
413.142	93.5
413.365	92.5
413.589	94.5
413.812	110.5
414.035	95.5
414.258	114.5
414.482	97.5
414.705	93.5
414.928	90.5
415.151	91.5
415.374	98.5
415.597	93.5
415.821	91.5
416.044	89.5
416.267	84.5
416.49	94.5
416.713	99.5
416.936	97.5
417.159	100.5
417.382	94.5
417.605	116.5
417.828	122.5
418.051	102.5
418.274	98.5
418.497	95.5
418.72	86.5
418.943	86.5
419.166	91.5
419.389	92.5
419.611	99.5
419.834	90.5
420.057	101.5
420.28	95.5
420.503	93.5
420.726	88.5
420.948	89.5
421.171	99.5
421.394	107.5
421.617	95.5
421.839	94.5
422.062	95.5
422.285	85.5
422.507	94.5
422.73	108.5
422.953	83.5
423.175	82.5
423.398	93.5
423.621	88.5
423.843	90.5
424.066	88.5
424.288	88.5
424.511	104.5
424.733	114.5
424.956	139.5
425.178	113.5
425.401	122.5
425.623	105.5
425.846	113.5
426.068	92.5
426.291	89.5
426.513	100.5
426.735	92.5
426.958	114.5
427.18	135.5
427.402	192.5
427.625	297.5
427.847	280.5
428.069	217.5
428.292	125.5
428.514	101.5
428.736	94.5
428.958	105.5
429.181	91.5
429.403	75.5
429.625	94.5
429.847	110.5
430.069	106.5
430.292	100.5
430.514	91.5
430.736	89.5
430.958	88.5
431.18	79.5
431.402	92.5
431.624	73.5
431.846	89.5
432.068	83.5
432.29	90.5
432.512	79.5
432.734	70.5
432.956	93.5
433.178	108.5
433.4	115.5
433.622	107.5
433.844	86.5
434.066	92.5
434.287	98.5
434.509	94.5
434.731	80.5
434.953	84.5
435.175	103.5
435.397	89.5
435.618	95.5
435.84	109.5
436.062	124.5
436.284	129.5
436.505	115.5
436.727	110.5
436.949	105.5
437.17	88.5
437.392	75.5
437.614	106.5
437.835	137.5
438.057	175.5
438.278	145.5
438.5	113.5
438.721	139.5
438.943	97.5
439.165	91.5
439.386	88.5
439.608	107.5
439.829	104.5
440.05	163.5
440.272	198.5
440.493	132.5
440.715	91.5
440.936	89.5
441.158	90.5
441.379	93.5
441.6	112.5
441.822	100.5
442.043	94.5
442.264	131.5
442.486	102.5
442.707	125.5
442.928	123.5
443.149	186.5
443.371	189.5
443.592	148.5
443.813	129.5
444.034	127.5
444.255	95.5
444.476	78.5
444.698	86.5
444.919	82.5
445.14	152.5
445.361	131.5
445.582	144.5
445.803	178.5
446.024	196.5
446.245	171.5
446.466	127.5
446.687	86.5
446.908	95.5
447.129	111.5
447.35	112.5
447.571	100.5
447.792	94.5
448.013	108.5
448.234	137.5
448.455	116.5
448.675	123.5
448.896	139.5
449.117	99.5
449.338	117.5
449.559	138.5
449.779	138.5
450	107.5
450.221	76.5
450.442	88.5
450.662	109.5
450.883	144.5
451.104	155.5
451.324	105.5
451.545	94.5
451.766	86.5
451.986	91.5
452.207	98.5
452.428	96.5
452.648	106.5
452.869	134.5
453.089	137.5
453.31	151.5
453.53	96.5
453.751	100.5
453.971	122.5
454.192	161.5
454.412	106.5
454.633	81.5
454.853	95.5
455.073	100.5
455.294	103.5
455.514	113.5
455.734	101.5
455.955	100.5
456.175	94.5
456.395	86.5
456.616	93.5
456.836	83.5
457.056	94.5
457.276	84.5
457.497	86.5
457.717	84.5
457.937	94.5
458.157	103.5
458.377	96.5
458.598	136.5
458.818	247.5
459.038	274.5
459.258	160.5
459.478	99.5
459.698	92.5
459.918	88.5
460.138	76.5
460.358	91.5
460.578	95.5
460.798	106.5
461.018	102.5
461.238	87.5
461.458	97.5
461.678	85.5
461.898	84.5
462.118	88.5
462.338	91.5
462.558	87.5
462.777	103.5
462.997	102.5
463.217	107.5
463.437	91.5
463.657	100.5
463.876	96.5
464.096	101.5
464.316	102.5
464.536	100.5
464.755	106.5
464.975	127.5
465.195	274.5
465.414	292.5
465.634	135.5
465.854	108.5
466.073	97.5
466.293	93.5
466.512	78.5
466.732	93.5
466.951	98.5
467.171	112.5
467.391	132.5
467.61	163.5
467.829	252.5
468.049	716.5
468.268	1098.5
468.488	257.5
468.707	129.5
468.927	106.5
469.146	84.5
469.365	91.5
469.585	95.5
469.804	108.5
470.023	130.5
470.243	106.5
470.462	133.5
470.681	149.5
470.901	116.5
471.12	114.5
471.339	124.5
471.558	130.5
471.777	169.5
471.997	349.5
472.216	1320.5
472.435	3174.5
472.654	747.5
472.873	182.5
473.092	122.5
473.311	107.5
473.53	113.5
473.749	88.5
473.968	100.5
474.187	145.5
474.406	105.5
474.625	93.5
474.844	90.5
475.063	94.5
475.282	89.5
475.501	89.5
475.72	102.5
475.939	96.5
476.158	95.5
476.377	98.5
476.596	96.5
476.814	98.5
477.033	113.5
477.252	103.5
477.471	91.5
477.69	98.5
477.908	82.5
478.127	94.5
478.346	109.5
478.564	91.5
478.783	108.5
479.002	97.5
479.22	120.5
479.439	122.5
479.658	136.5
479.876	133.5
480.095	128.5
480.313	152.5
480.532	195.5
480.751	330.5
480.969	1187.5
481.188	5256.5
481.406	3063.5
481.624	432.5
481.843	159.5
482.061	124.5
482.28	107.5
482.498	103.5
482.717	95.5
482.935	93.5
483.153	98.5
483.372	84.5
483.59	97.5
483.808	103.5
484.027	97.5
484.245	107.5
484.463	94.5
484.681	110.5
484.9	98.5
485.118	87.5
485.336	87.5
485.554	108.5
485.772	107.5
485.99	98.5
486.209	118.5
486.427	118.5
486.645	138.5
486.863	121.5
487.081	118.5
487.299	118.5
487.517	95.5
487.735	102.5
487.953	85.5
488.171	88.5
488.389	106.5
488.607	104.5
488.825	86.5
489.043	100.5
489.261	85.5
489.479	95.5
489.696	85.5
489.914	88.5
490.132	99.5
490.35	103.5
490.568	85.5
490.786	98.5
491.003	79.5
491.221	95.5
491.439	98.5
491.657	91.5
491.874	77.5
492.092	95.5
492.31	102.5
492.527	108.5
492.745	95.5
492.963	109.5
493.18	105.5
493.398	91.5
493.615	92.5
493.833	89.5
494.05	96.5
494.268	109.5
494.485	88.5
494.703	92.5
494.92	98.5
495.138	107.5
495.355	95.5
495.573	90.5
495.79	85.5
496.008	92.5
496.225	88.5
496.442	85.5
496.66	95.5
496.877	109.5
497.094	99.5
497.312	92.5
497.529	99.5
497.746	96.5
497.963	82.5
498.181	98.5
498.398	76.5
498.615	106.5
498.832	123.5
499.049	96.5
499.267	88.5
499.484	90.5
499.701	91.5
499.918	107.5
500.135	87.5
500.352	95.5
500.569	107.5
500.786	97.5
501.003	97.5
501.22	86.5
501.437	92.5
501.654	90.5
501.871	135.5
502.088	121.5
502.305	90.5
502.522	95.5
502.739	96.5
502.956	96.5
503.172	84.5
503.389	93.5
503.606	128.5
503.823	107.5
504.04	86.5
504.256	90.5
504.473	94.5
504.69	94.5
504.907	85.5
505.123	71.5
505.34	91.5
505.557	95.5
505.773	85.5
505.99	95.5
506.207	90.5
506.423	78.5
506.64	91.5
506.856	103.5
507.073	99.5
507.289	90.5
507.506	99.5
507.722	147.5
507.939	154.5
508.155	98.5
508.372	107.5
508.588	111.5
508.805	89.5
509.021	108.5
509.238	124.5
509.454	98.5
509.67	107.5
509.887	123.5
510.103	156.5
510.319	267.5
510.536	1067.5
510.752	3918.5
510.968	1020.5
511.184	214.5
511.401	137.5
511.617	102.5
511.833	105.5
512.049	101.5
512.265	104.5
512.481	97.5
512.698	96.5
512.914	108.5
513.13	95.5
513.346	99.5
513.562	92.5
513.778	108.5
513.994	112.5
514.21	115.5
514.426	179.5
514.642	203.5
514.858	185.5
515.074	263.5
515.29	895.5
515.506	3371.5
515.721	1142.5
515.937	260.5
516.153	141.5
516.369	116.5
516.585	104.5
516.801	110.5
517.016	106.5
517.232	90.5
517.448	98.5
517.664	103.5
517.879	106.5
518.095	110.5
518.311	117.5
518.527	108.5
518.742	106.5
518.958	88.5
519.173	109.5
519.389	95.5
519.605	102.5
519.82	97.5
520.036	128.5
520.251	163.5
520.467	151.5
520.682	127.5
520.898	120.5
521.113	168.5
521.329	220.5
521.544	370.5
521.76	1160.5
521.975	5650.5
522.19	3321.5
522.406	646.5
522.621	186.5
522.836	123.5
523.052	112.5
523.267	119.5
523.482	91.5
523.698	112.5
523.913	155.5
524.128	129.5
524.343	99.5
524.559	103.5
524.774	91.5
524.989	120.5
525.204	129.5
525.419	129.5
525.634	93.5
525.849	88.5
526.064	90.5
526.28	86.5
526.495	82.5
526.71	87.5
526.925	90.5
527.14	90.5
527.355	70.5
527.57	83.5
527.785	93.5
527.999	91.5
528.214	92.5
528.429	105.5
528.644	108.5
528.859	105.5
529.074	112.5
529.289	162.5
529.503	334.5
529.718	142.5
529.933	76.5
530.148	101.5
530.363	102.5
530.577	107.5
530.792	96.5
