Data from Circ_1995_H10_HRD10591_00092.txt Node
Date: Wed Jan 03 11:37:05 EST 2024
User: Yrep
Spectrometer: HR+D1059
Trigger mode: 1
Integration Time (sec): 1.000000E-1
Scans to average: 1
Electric dark correction enabled: true
Nonlinearity correction enabled: false
Boxcar width: 0
XAxis mode: Wavelengths
Number of Pixels in Spectrum: 2048
>>>>>Begin Spectral Data<<<<<
223.165	-8.31
223.4	-8.31
223.635	-8.31
223.869	-12.31
224.104	-31.31
224.338	-8.31
224.573	-15.31
224.808	-10.31
225.042	-8.31
225.277	-10.31
225.511	-2.31
225.746	-12.31
225.98	-2.31
226.215	11.69
226.449	29.69
226.683	21.69
226.918	17.69
227.152	40.69
227.387	39.69
227.621	31.69
227.856	44.69
228.09	50.69
228.324	42.69
228.559	39.69
228.793	55.69
229.027	56.69
229.262	53.69
229.496	98.69
229.73	94.69
229.964	101.69
230.199	75.69
230.433	70.69
230.667	85.69
230.901	80.69
231.136	70.69
231.37	63.69
231.604	78.69
231.838	85.69
232.072	78.69
232.306	103.69
232.541	70.69
232.775	70.69
233.009	85.69
233.243	74.69
233.477	93.69
233.711	83.69
233.945	52.69
234.179	64.69
234.413	74.69
234.647	69.69
234.881	87.69
235.115	82.69
235.349	90.69
235.583	74.69
235.817	84.69
236.051	85.69
236.285	83.69
236.519	78.69
236.753	85.69
236.987	81.69
237.221	80.69
237.455	94.69
237.689	82.69
237.922	82.69
238.156	75.69
238.39	81.69
238.624	85.69
238.858	77.69
239.091	70.69
239.325	88.69
239.559	103.69
239.793	69.69
240.027	94.69
240.26	81.69
240.494	83.69
240.728	89.69
240.961	70.69
241.195	71.69
241.429	83.69
241.662	80.69
241.896	81.69
242.13	89.69
242.363	90.69
242.597	88.69
242.83	94.69
243.064	66.69
243.298	80.69
243.531	84.69
243.765	83.69
243.998	82.69
244.232	92.69
244.465	91.69
244.699	72.69
244.932	73.69
245.166	86.69
245.399	70.69
245.633	73.69
245.866	79.69
246.099	81.69
246.333	82.69
246.566	79.69
246.8	83.69
247.033	83.69
247.266	89.69
247.5	71.69
247.733	76.69
247.966	85.69
248.2	87.69
248.433	75.69
248.666	72.69
248.899	91.69
249.133	100.69
249.366	112.69
249.599	100.69
249.832	85.69
250.066	92.69
250.299	81.69
250.532	99.69
250.765	82.69
250.998	86.69
251.231	80.69
251.465	78.69
251.698	83.69
251.931	103.69
252.164	85.69
252.397	89.69
252.63	86.69
252.863	83.69
253.096	94.69
253.329	83.69
253.562	87.69
253.795	85.69
254.028	91.69
254.261	103.69
254.494	85.69
254.727	91.69
254.96	88.69
255.193	89.69
255.426	72.69
255.659	78.69
255.892	92.69
256.124	107.69
256.357	82.69
256.59	81.69
256.823	75.69
257.056	95.69
257.289	94.69
257.521	81.69
257.754	94.69
257.987	82.69
258.22	102.69
258.452	109.69
258.685	96.69
258.918	99.69
259.151	76.69
259.383	93.69
259.616	82.69
259.849	91.69
260.081	88.69
260.314	75.69
260.547	99.69
260.779	109.69
261.012	127.69
261.244	135.69
261.477	115.69
261.71	110.69
261.942	161.69
262.175	170.69
262.407	103.69
262.64	97.69
262.872	87.69
263.105	99.69
263.337	94.69
263.57	80.69
263.802	99.69
264.035	96.69
264.267	95.69
264.499	82.69
264.732	83.69
264.964	93.69
265.197	74.69
265.429	81.69
265.661	88.69
265.894	91.69
266.126	97.69
266.358	86.69
266.591	80.69
266.823	80.69
267.055	95.69
267.287	85.69
267.52	90.69
267.752	78.69
267.984	87.69
268.216	67.69
268.448	86.69
268.681	102.69
268.913	80.69
269.145	96.69
269.377	81.69
269.609	81.69
269.841	99.69
270.073	81.69
270.306	89.69
270.538	89.69
270.77	81.69
271.002	92.69
271.234	99.69
271.466	92.69
271.698	97.69
271.93	88.69
272.162	110.69
272.394	105.69
272.626	98.69
272.858	106.69
273.09	90.69
273.322	88.69
273.553	90.69
273.785	92.69
274.017	94.69
274.249	65.69
274.481	82.69
274.713	114.69
274.945	94.69
275.176	105.69
275.408	103.69
275.64	130.69
275.872	154.69
276.104	130.69
276.335	113.69
276.567	142.69
276.799	193.69
277.031	263.69
277.262	303.69
277.494	240.69
277.726	125.69
277.957	83.69
278.189	84.69
278.421	98.69
278.652	100.69
278.884	84.69
279.115	101.69
279.347	99.69
279.579	132.69
279.81	181.69
280.042	327.69
280.273	456.69
280.505	298.69
280.736	138.69
280.968	121.69
281.199	95.69
281.431	93.69
281.662	85.69
281.894	96.69
282.125	121.69
282.356	155.69
282.588	210.69
282.819	155.69
283.051	107.69
283.282	91.69
283.513	89.69
283.745	82.69
283.976	97.69
284.207	89.69
284.439	92.69
284.67	86.69
284.901	100.69
285.132	87.69
285.364	94.69
285.595	83.69
285.826	90.69
286.057	82.69
286.288	87.69
286.52	88.69
286.751	87.69
286.982	82.69
287.213	82.69
287.444	91.69
287.675	95.69
287.906	92.69
288.138	86.69
288.369	97.69
288.6	104.69
288.831	95.69
289.062	86.69
289.293	96.69
289.524	98.69
289.755	93.69
289.986	77.69
290.217	99.69
290.448	98.69
290.679	86.69
290.91	92.69
291.141	94.69
291.371	91.69
291.602	89.69
291.833	78.69
292.064	85.69
292.295	94.69
292.526	111.69
292.757	98.69
292.987	96.69
293.218	87.69
293.449	82.69
293.68	99.69
293.91	89.69
294.141	107.69
294.372	87.69
294.603	90.69
294.833	83.69
295.064	85.69
295.295	83.69
295.525	122.69
295.756	105.69
295.987	145.69
296.217	205.69
296.448	183.69
296.679	107.69
296.909	97.69
297.14	98.69
297.37	96.69
297.601	87.69
297.831	93.69
298.062	96.69
298.292	104.69
298.523	91.69
298.753	94.69
298.984	87.69
299.214	92.69
299.445	109.69
299.675	110.69
299.905	114.69
300.136	94.69
300.366	81.69
300.597	99.69
300.827	111.69
301.057	112.69
301.288	144.69
301.518	117.69
301.748	99.69
301.979	121.69
302.209	111.69
302.439	97.69
302.669	85.69
302.9	120.69
303.13	98.69
303.36	130.69
303.59	182.69
303.82	181.69
304.051	117.69
304.281	98.69
304.511	100.69
304.741	78.69
304.971	102.69
305.201	97.69
305.431	87.69
305.661	98.69
305.891	109.69
306.121	109.69
306.352	131.69
306.582	134.69
306.812	126.69
307.042	159.69
307.272	221.69
307.502	254.69
307.731	225.69
307.961	146.69
308.191	105.69
308.421	107.69
308.651	114.69
308.881	88.69
309.111	106.69
309.341	106.69
309.571	114.69
309.8	95.69
310.03	103.69
310.26	102.69
310.49	119.69
310.72	127.69
310.949	130.69
311.179	131.69
311.409	117.69
311.639	107.69
311.868	124.69
312.098	109.69
312.328	116.69
312.557	130.69
312.787	127.69
313.017	133.69
313.246	91.69
313.476	95.69
313.706	96.69
313.935	115.69
314.165	119.69
314.394	135.69
314.624	111.69
314.853	94.69
315.083	96.69
315.312	105.69
315.542	100.69
315.771	96.69
316.001	96.69
316.23	97.69
316.46	86.69
316.689	90.69
316.919	105.69
317.148	113.69
317.377	108.69
317.607	101.69
317.836	96.69
318.065	99.69
318.295	85.69
318.524	91.69
318.753	91.69
318.983	109.69
319.212	125.69
319.441	131.69
319.67	138.69
319.9	99.69
320.129	98.69
320.358	115.69
320.587	96.69
320.816	115.69
321.046	125.69
321.275	108.69
321.504	116.69
321.733	102.69
321.962	119.69
322.191	114.69
322.42	131.69
322.649	143.69
322.878	137.69
323.108	135.69
323.337	173.69
323.566	179.69
323.795	217.69
324.024	315.69
324.253	615.69
324.482	1345.69
324.71	2775.69
324.939	3705.69
325.168	1303.69
325.397	371.69
325.626	187.69
325.855	162.69
326.084	156.69
326.313	169.69
326.542	211.69
326.77	341.69
326.999	641.69
327.228	1339.69
327.457	2512.69
327.686	2102.69
327.914	793.69
328.143	949.69
328.372	1264.69
328.6	661.69
328.829	287.69
329.058	258.69
329.287	293.69
329.515	258.69
329.744	383.69
329.972	878.69
330.201	1946.69
330.43	2835.69
330.658	1168.69
330.887	462.69
331.115	266.69
331.344	169.69
331.572	138.69
331.801	163.69
332.03	158.69
332.258	148.69
332.486	123.69
332.715	123.69
332.943	136.69
333.172	127.69
333.4	174.69
333.629	225.69
333.857	360.69
334.085	760.69
334.314	1710.69
334.542	3467.69
334.771	3289.69
334.999	781.69
335.227	265.69
335.455	161.69
335.684	137.69
335.912	115.69
336.14	128.69
336.369	118.69
336.597	124.69
336.825	109.69
337.053	117.69
337.281	102.69
337.51	103.69
337.738	97.69
337.966	119.69
338.194	110.69
338.422	123.69
338.65	111.69
338.878	96.69
339.106	83.69
339.334	105.69
339.562	95.69
339.79	101.69
340.018	109.69
340.246	107.69
340.474	105.69
340.702	110.69
340.93	104.69
341.158	99.69
341.386	101.69
341.614	115.69
341.842	114.69
342.07	102.69
342.298	99.69
342.526	112.69
342.754	90.69
342.981	92.69
343.209	89.69
343.437	111.69
343.665	97.69
343.893	87.69
344.12	90.69
344.348	81.69
344.576	96.69
344.804	99.69
345.031	120.69
345.259	126.69
345.487	109.69
345.714	108.69
345.942	97.69
346.17	93.69
346.397	93.69
346.625	115.69
346.853	105.69
347.08	95.69
347.308	102.69
347.535	124.69
347.763	109.69
347.99	123.69
348.218	114.69
348.445	144.69
348.673	133.69
348.9	115.69
349.128	103.69
349.355	91.69
349.583	87.69
349.81	89.69
350.037	93.69
350.265	92.69
350.492	97.69
350.72	98.69
350.947	123.69
351.174	126.69
351.402	133.69
351.629	118.69
351.856	121.69
352.083	121.69
352.311	127.69
352.538	139.69
352.765	151.69
352.992	138.69
353.22	136.69
353.447	116.69
353.674	97.69
353.901	107.69
354.128	97.69
354.355	95.69
354.583	104.69
354.81	98.69
355.037	88.69
355.264	91.69
355.491	90.69
355.718	94.69
355.945	83.69
356.172	89.69
356.399	91.69
356.626	94.69
356.853	97.69
357.08	99.69
357.307	92.69
357.534	82.69
357.761	96.69
357.988	79.69
358.215	81.69
358.441	99.69
358.668	90.69
358.895	86.69
359.122	98.69
359.349	102.69
359.576	95.69
359.802	128.69
360.029	179.69
360.256	166.69
360.483	134.69
360.709	101.69
360.936	93.69
361.163	114.69
361.39	123.69
361.616	111.69
361.843	106.69
362.07	105.69
362.296	113.69
362.523	99.69
362.749	103.69
362.976	96.69
363.203	104.69
363.429	104.69
363.656	102.69
363.882	101.69
364.109	103.69
364.335	97.69
364.562	101.69
364.788	99.69
365.015	121.69
365.241	117.69
365.468	127.69
365.694	138.69
365.92	115.69
366.147	119.69
366.373	105.69
366.599	102.69
366.826	85.69
367.052	104.69
367.278	94.69
367.505	100.69
367.731	101.69
367.957	117.69
368.184	122.69
368.41	117.69
368.636	141.69
368.862	146.69
369.089	127.69
369.315	97.69
369.541	95.69
369.767	94.69
369.993	103.69
370.219	107.69
370.445	81.69
370.672	93.69
370.898	99.69
371.124	86.69
371.35	68.69
371.576	103.69
371.802	90.69
372.028	99.69
372.254	81.69
372.48	94.69
372.706	77.69
372.932	71.69
373.158	95.69
373.384	92.69
373.61	105.69
373.835	87.69
374.061	82.69
374.287	106.69
374.513	92.69
374.739	88.69
374.965	86.69
375.191	95.69
375.416	82.69
375.642	95.69
375.868	103.69
376.094	81.69
376.319	97.69
376.545	85.69
376.771	88.69
376.997	77.69
377.222	92.69
377.448	97.69
377.674	82.69
377.899	94.69
378.125	98.69
378.35	93.69
378.576	92.69
378.802	107.69
379.027	96.69
379.253	93.69
379.478	97.69
379.704	87.69
379.929	86.69
380.155	97.69
380.38	112.69
380.606	104.69
380.831	87.69
381.057	89.69
381.282	82.69
381.507	107.69
381.733	92.69
381.958	83.69
382.184	97.69
382.409	100.69
382.634	124.69
382.86	100.69
383.085	121.69
383.31	96.69
383.535	113.69
383.761	98.69
383.986	93.69
384.211	97.69
384.436	75.69
384.662	89.69
384.887	95.69
385.112	109.69
385.337	93.69
385.562	96.69
385.787	103.69
386.013	119.69
386.238	121.69
386.463	113.69
386.688	111.69
386.913	97.69
387.138	98.69
387.363	112.69
387.588	103.69
387.813	95.69
388.038	106.69
388.263	103.69
388.488	116.69
388.713	97.69
388.938	97.69
389.163	87.69
389.387	104.69
389.612	81.69
389.837	72.69
390.062	93.69
390.287	84.69
390.512	93.69
390.736	94.69
390.961	95.69
391.186	94.69
391.411	98.69
391.636	89.69
391.86	85.69
392.085	105.69
392.31	78.69
392.534	96.69
392.759	96.69
392.984	91.69
393.208	87.69
393.433	90.69
393.658	88.69
393.882	89.69
394.107	91.69
394.331	89.69
394.556	90.69
394.78	95.69
395.005	91.69
395.229	91.69
395.454	86.69
395.678	91.69
395.903	84.69
396.127	103.69
396.352	85.69
396.576	96.69
396.801	86.69
397.025	82.69
397.249	96.69
397.474	95.69
397.698	89.69
397.922	85.69
398.147	102.69
398.371	98.69
398.595	69.69
398.82	95.69
399.044	82.69
399.268	94.69
399.492	84.69
399.717	89.69
399.941	94.69
400.165	104.69
400.389	107.69
400.613	95.69
400.837	95.69
401.062	96.69
401.286	98.69
401.51	97.69
401.734	96.69
401.958	135.69
402.182	164.69
402.406	248.69
402.63	182.69
402.854	112.69
403.078	97.69
403.302	91.69
403.526	78.69
403.75	99.69
403.974	92.69
404.198	80.69
404.422	82.69
404.645	97.69
404.869	117.69
405.093	131.69
405.317	164.69
405.541	175.69
405.765	139.69
405.988	159.69
406.212	289.69
406.436	437.69
406.66	297.69
406.883	161.69
407.107	120.69
407.331	121.69
407.555	106.69
407.778	104.69
408.002	92.69
408.226	116.69
408.449	89.69
408.673	92.69
408.896	90.69
409.12	98.69
409.344	96.69
409.567	88.69
409.791	91.69
410.014	99.69
410.238	81.69
410.461	91.69
410.685	99.69
410.908	102.69
411.132	110.69
411.355	112.69
411.578	85.69
411.802	87.69
412.025	93.69
412.249	113.69
412.472	123.69
412.695	166.69
412.919	119.69
413.142	96.69
413.365	95.69
413.589	81.69
413.812	90.69
414.035	102.69
414.258	87.69
414.482	103.69
414.705	100.69
414.928	89.69
415.151	89.69
415.374	110.69
415.597	92.69
415.821	93.69
416.044	107.69
416.267	111.69
416.49	104.69
416.713	91.69
416.936	92.69
417.159	105.69
417.382	111.69
417.605	127.69
417.828	140.69
418.051	122.69
418.274	90.69
418.497	98.69
418.72	96.69
418.943	90.69
419.166	87.69
419.389	103.69
419.611	97.69
419.834	100.69
420.057	98.69
420.28	110.69
420.503	111.69
420.726	88.69
420.948	89.69
421.171	118.69
421.394	91.69
421.617	88.69
421.839	105.69
422.062	102.69
422.285	89.69
422.507	112.69
422.73	100.69
422.953	106.69
423.175	82.69
423.398	86.69
423.621	90.69
423.843	101.69
424.066	89.69
424.288	95.69
424.511	104.69
424.733	118.69
424.956	144.69
425.178	128.69
425.401	110.69
425.623	103.69
425.846	102.69
426.068	118.69
426.291	114.69
426.513	99.69
426.735	92.69
426.958	121.69
427.18	124.69
427.402	232.69
427.625	370.69
427.847	325.69
428.069	285.69
428.292	152.69
428.514	96.69
428.736	101.69
428.958	96.69
429.181	90.69
429.403	89.69
429.625	79.69
429.847	102.69
430.069	122.69
430.292	115.69
430.514	93.69
430.736	98.69
430.958	83.69
431.18	86.69
431.402	89.69
431.624	93.69
431.846	84.69
432.068	89.69
432.29	85.69
432.512	103.69
432.734	82.69
432.956	87.69
433.178	105.69
433.4	100.69
433.622	105.69
433.844	106.69
434.066	97.69
434.287	101.69
434.509	88.69
434.731	88.69
434.953	101.69
435.175	97.69
435.397	98.69
435.618	96.69
435.84	117.69
436.062	155.69
436.284	134.69
436.505	124.69
436.727	119.69
436.949	95.69
437.17	85.69
437.392	80.69
437.614	111.69
437.835	160.69
438.057	171.69
438.278	140.69
438.5	133.69
438.721	163.69
438.943	138.69
439.165	87.69
439.386	84.69
439.608	102.69
439.829	127.69
440.05	195.69
440.272	239.69
440.493	122.69
440.715	94.69
440.936	81.69
441.158	89.69
441.379	98.69
441.6	109.69
441.822	104.69
442.043	101.69
442.264	104.69
442.486	126.69
442.707	114.69
442.928	145.69
443.149	205.69
443.371	223.69
443.592	147.69
443.813	151.69
444.034	130.69
444.255	99.69
444.476	82.69
444.698	88.69
444.919	91.69
445.14	155.69
445.361	149.69
445.582	173.69
445.803	235.69
446.024	211.69
446.245	200.69
446.466	138.69
446.687	107.69
446.908	97.69
447.129	96.69
447.35	92.69
447.571	108.69
447.792	107.69
448.013	116.69
448.234	135.69
448.455	121.69
448.675	158.69
448.896	151.69
449.117	125.69
449.338	126.69
449.559	167.69
449.779	183.69
450	96.69
450.221	88.69
450.442	89.69
450.662	124.69
450.883	160.69
451.104	166.69
451.324	117.69
451.545	96.69
451.766	98.69
451.986	97.69
452.207	79.69
452.428	91.69
452.648	111.69
452.869	145.69
453.089	163.69
453.31	190.69
453.53	104.69
453.751	106.69
453.971	136.69
454.192	157.69
454.412	119.69
454.633	89.69
454.853	92.69
455.073	94.69
455.294	110.69
455.514	125.69
455.734	94.69
455.955	89.69
456.175	88.69
456.395	85.69
456.616	72.69
456.836	82.69
457.056	93.69
457.276	73.69
457.497	85.69
457.717	90.69
457.937	79.69
458.157	97.69
458.377	89.69
458.598	130.69
458.818	307.69
459.038	320.69
459.258	213.69
459.478	111.69
459.698	87.69
459.918	97.69
460.138	85.69
460.358	88.69
460.578	98.69
460.798	113.69
461.018	87.69
461.238	94.69
461.458	86.69
461.678	87.69
461.898	95.69
462.118	78.69
462.338	80.69
462.558	97.69
462.777	102.69
462.997	109.69
463.217	128.69
463.437	108.69
463.657	99.69
463.876	102.69
464.096	107.69
464.316	97.69
464.536	118.69
464.755	115.69
464.975	164.69
465.195	351.69
465.414	351.69
465.634	117.69
465.854	98.69
466.073	105.69
466.293	93.69
466.512	99.69
466.732	90.69
466.951	107.69
467.171	109.69
467.391	144.69
467.61	209.69
467.829	334.69
468.049	1071.69
468.268	1695.69
468.488	381.69
468.707	149.69
468.927	106.69
469.146	109.69
469.365	91.69
469.585	99.69
469.804	115.69
470.023	149.69
470.243	130.69
470.462	142.69
470.681	180.69
470.901	125.69
471.12	121.69
471.339	119.69
471.558	143.69
471.777	221.69
471.997	498.69
472.216	2074.69
472.435	4945.69
472.654	1071.69
472.873	245.69
473.092	135.69
473.311	111.69
473.53	97.69
473.749	105.69
473.968	121.69
474.187	159.69
474.406	127.69
474.625	93.69
474.844	90.69
475.063	89.69
475.282	98.69
475.501	102.69
475.72	103.69
475.939	89.69
476.158	115.69
476.377	89.69
476.596	90.69
476.814	120.69
477.033	124.69
477.252	97.69
477.471	99.69
477.69	112.69
477.908	93.69
478.127	105.69
478.346	114.69
478.564	102.69
478.783	123.69
479.002	119.69
479.22	110.69
479.439	159.69
479.658	161.69
479.876	134.69
480.095	151.69
480.313	184.69
480.532	252.69
480.751	445.69
480.969	1797.69
481.188	8131.69
481.406	4599.69
481.624	593.69
481.843	191.69
482.061	133.69
482.28	116.69
482.498	117.69
482.717	109.69
482.935	105.69
483.153	113.69
483.372	106.69
483.59	95.69
483.808	89.69
484.027	101.69
484.245	95.69
484.463	78.69
484.681	104.69
484.9	93.69
485.118	97.69
485.336	98.69
485.554	100.69
485.772	99.69
485.99	106.69
486.209	115.69
486.427	130.69
486.645	137.69
486.863	148.69
487.081	115.69
487.299	105.69
487.517	111.69
487.735	98.69
487.953	98.69
488.171	109.69
488.389	112.69
488.607	102.69
488.825	88.69
489.043	88.69
489.261	103.69
489.479	94.69
489.696	98.69
489.914	102.69
490.132	88.69
490.35	98.69
490.568	87.69
490.786	90.69
491.003	94.69
491.221	111.69
491.439	112.69
491.657	97.69
491.874	88.69
492.092	89.69
492.31	106.69
492.527	98.69
492.745	104.69
492.963	87.69
493.18	103.69
493.398	97.69
493.615	111.69
493.833	101.69
494.05	73.69
494.268	75.69
494.485	102.69
494.703	84.69
494.92	87.69
495.138	94.69
495.355	102.69
495.573	92.69
495.79	81.69
496.008	90.69
496.225	85.69
496.442	91.69
496.66	103.69
496.877	81.69
497.094	74.69
497.312	92.69
497.529	84.69
497.746	92.69
497.963	97.69
498.181	88.69
498.398	95.69
498.615	137.69
498.832	120.69
499.049	91.69
499.267	95.69
499.484	95.69
499.701	93.69
499.918	90.69
500.135	85.69
500.352	89.69
500.569	93.69
500.786	90.69
501.003	98.69
501.22	87.69
501.437	102.69
501.654	102.69
501.871	146.69
502.088	91.69
502.305	89.69
502.522	90.69
502.739	89.69
502.956	99.69
503.172	104.69
503.389	110.69
503.606	148.69
503.823	108.69
504.04	89.69
504.256	94.69
504.473	93.69
504.69	102.69
504.907	97.69
505.123	104.69
505.34	97.69
505.557	85.69
505.773	89.69
505.99	97.69
506.207	96.69
506.423	93.69
506.64	83.69
506.856	101.69
507.073	104.69
507.289	107.69
507.506	114.69
507.722	167.69
507.939	165.69
508.155	115.69
508.372	109.69
508.588	112.69
508.805	100.69
509.021	100.69
509.238	108.69
509.454	115.69
509.67	118.69
509.887	117.69
510.103	162.69
510.319	297.69
510.536	1215.69
510.752	4461.69
510.968	1144.69
511.184	205.69
511.401	128.69
