Data from Circ_1995_H10_HRD10591_00057.txt Node
Date: Wed Jan 03 11:36:58 EST 2024
User: Yrep
Spectrometer: HR+D1059
Trigger mode: 1
Integration Time (sec): 1.000000E-1
Scans to average: 1
Electric dark correction enabled: true
Nonlinearity correction enabled: false
Boxcar width: 0
XAxis mode: Wavelengths
Number of Pixels in Spectrum: 2048
>>>>>Begin Spectral Data<<<<<
223.165	-13.25
223.4	-13.25
223.635	-13.25
223.869	-11.25
224.104	-23.25
224.338	-7.25
224.573	-9.25
224.808	-12.25
225.042	-17.25
225.277	-9.25
225.511	-1.25
225.746	2.75
225.98	5.75
226.215	14.75
226.449	13.75
226.683	21.75
226.918	19.75
227.152	25.75
227.387	40.75
227.621	42.75
227.856	45.75
228.09	41.75
228.324	54.75
228.559	54.75
228.793	162.75
229.027	463.75
229.262	536.75
229.496	654.75
229.73	868.75
229.964	897.75
230.199	600.75
230.433	520.75
230.667	516.75
230.901	471.75
231.136	467.75
231.37	479.75
231.604	500.75
231.838	500.75
232.072	474.75
232.306	504.75
232.541	505.75
232.775	513.75
233.009	511.75
233.243	506.75
233.477	522.75
233.711	522.75
233.945	527.75
234.179	571.75
234.413	535.75
234.647	556.75
234.881	578.75
235.115	561.75
235.349	591.75
235.583	602.75
235.817	661.75
236.051	680.75
236.285	635.75
236.519	676.75
236.753	748.75
236.987	978.75
237.221	1472.75
237.455	1583.75
237.689	948.75
237.922	782.75
238.156	782.75
238.39	744.75
238.624	725.75
238.858	732.75
239.091	739.75
239.325	773.75
239.559	761.75
239.793	780.75
240.027	863.75
240.26	1037.75
240.494	1068.75
240.728	1036.75
240.961	990.75
241.195	889.75
241.429	855.75
241.662	872.75
241.896	862.75
242.13	887.75
242.363	897.75
242.597	899.75
242.83	951.75
243.064	954.75
243.298	968.75
243.531	988.75
243.765	975.75
243.998	976.75
244.232	981.75
244.465	1037.75
244.699	1018.75
244.932	1036.75
245.166	1035.75
245.399	1047.75
245.633	1051.75
245.866	1046.75
246.099	1066.75
246.333	1100.75
246.566	1110.75
246.8	1143.75
247.033	1162.75
247.266	1223.75
247.5	1301.75
247.733	1313.75
247.966	1305.75
248.2	1303.75
248.433	1331.75
248.666	1439.75
248.899	1584.75
249.133	1740.75
249.366	1713.75
249.599	1720.75
249.832	1652.75
250.066	1939.75
250.299	2705.75
250.532	3624.75
250.765	3296.75
250.998	2676.75
251.231	2194.75
251.465	1924.75
251.698	1800.75
251.931	1770.75
252.164	1640.75
252.397	1671.75
252.63	1702.75
252.863	1727.75
253.096	1929.75
253.329	1930.75
253.562	1832.75
253.795	1793.75
254.028	1799.75
254.261	1913.75
254.494	2144.75
254.727	2456.75
254.96	2594.75
255.193	2410.75
255.426	2552.75
255.659	3202.75
255.892	4989.75
256.124	6618.75
256.357	5168.75
256.59	3576.75
256.823	2862.75
257.056	2544.75
257.289	2301.75
257.521	2180.75
257.754	2092.75
257.987	2086.75
258.22	2006.75
258.452	2038.75
258.685	1989.75
258.918	1962.75
259.151	1965.75
259.383	2022.75
259.616	2002.75
259.849	2048.75
260.081	2206.75
260.314	2373.75
260.547	2244.75
260.779	2142.75
261.012	2121.75
261.244	2096.75
261.477	2037.75
261.71	2022.75
261.942	2126.75
262.175	2172.75
262.407	2028.75
262.64	1940.75
262.872	1931.75
263.105	1907.75
263.337	1918.75
263.57	1924.75
263.802	1982.75
264.035	1897.75
264.267	1903.75
264.499	1931.75
264.732	1959.75
264.964	1965.75
265.197	1912.75
265.429	1962.75
265.661	1986.75
265.894	1983.75
266.126	2014.75
266.358	2013.75
266.591	2071.75
266.823	2126.75
267.055	2108.75
267.287	2114.75
267.52	2076.75
267.752	2108.75
267.984	2137.75
268.216	2114.75
268.448	2181.75
268.681	2271.75
268.913	2395.75
269.145	2592.75
269.377	2539.75
269.609	2478.75
269.841	2471.75
270.073	2590.75
270.306	2889.75
270.538	2961.75
270.77	2810.75
271.002	2674.75
271.234	2665.75
271.466	2888.75
271.698	2957.75
271.93	2934.75
272.162	2926.75
272.394	2824.75
272.626	2714.75
272.858	2600.75
273.09	2573.75
273.322	2574.75
273.553	2517.75
273.785	2568.75
274.017	2555.75
274.249	2582.75
274.481	2676.75
274.713	2692.75
274.945	2778.75
275.176	2813.75
275.408	2855.75
275.64	2856.75
275.872	3029.75
276.104	2991.75
276.335	3044.75
276.567	3116.75
276.799	3496.75
277.031	3986.75
277.262	4266.75
277.494	3840.75
277.726	3411.75
277.957	3270.75
278.189	3125.75
278.421	3043.75
278.652	3012.75
278.884	3010.75
279.115	2911.75
279.347	2996.75
279.579	3146.75
279.81	3405.75
280.042	3834.75
280.273	4338.75
280.505	4020.75
280.736	3476.75
280.968	3272.75
281.199	3093.75
281.431	3097.75
281.662	3021.75
281.894	2994.75
282.125	3006.75
282.356	3320.75
282.588	3452.75
282.819	3233.75
283.051	2956.75
283.282	2953.75
283.513	2988.75
283.745	3026.75
283.976	3002.75
284.207	2995.75
284.439	3042.75
284.67	3024.75
284.901	3045.75
285.132	3021.75
285.364	2984.75
285.595	3023.75
285.826	3002.75
286.057	3068.75
286.288	3032.75
286.52	3110.75
286.751	3080.75
286.982	3105.75
287.213	3086.75
287.444	3064.75
287.675	3199.75
287.906	3309.75
288.138	3222.75
288.369	3276.75
288.6	3305.75
288.831	3276.75
289.062	3212.75
289.293	3177.75
289.524	3185.75
289.755	3193.75
289.986	3157.75
290.217	3084.75
290.448	3132.75
290.679	3181.75
290.91	3166.75
291.141	3137.75
291.371	3128.75
291.602	3106.75
291.833	3080.75
292.064	3077.75
292.295	3106.75
292.526	3140.75
292.757	3057.75
292.987	3087.75
293.218	3060.75
293.449	3114.75
293.68	3110.75
293.91	3118.75
294.141	3102.75
294.372	3071.75
294.603	3140.75
294.833	3125.75
295.064	3167.75
295.295	3142.75
295.525	3139.75
295.756	3273.75
295.987	3321.75
296.217	3678.75
296.448	3532.75
296.679	3227.75
296.909	3182.75
297.14	3261.75
297.37	3290.75
297.601	3293.75
297.831	3313.75
298.062	3348.75
298.292	3320.75
298.523	3366.75
298.753	3388.75
298.984	3407.75
299.214	3344.75
299.445	3417.75
299.675	3406.75
299.905	3450.75
300.136	3426.75
300.366	3473.75
300.597	3474.75
300.827	3622.75
301.057	3686.75
301.288	3748.75
301.518	3636.75
301.748	3684.75
301.979	3857.75
302.209	3714.75
302.439	3730.75
302.669	3719.75
302.9	3654.75
303.13	3685.75
303.36	3754.75
303.59	3920.75
303.82	4068.75
304.051	3892.75
304.281	3708.75
304.511	3601.75
304.741	3604.75
304.971	3581.75
305.201	3560.75
305.431	3558.75
305.661	3544.75
305.891	3500.75
306.121	3601.75
306.352	3644.75
306.582	3706.75
306.812	3658.75
307.042	3880.75
307.272	4135.75
307.502	4337.75
307.731	4170.75
307.961	3904.75
308.191	3724.75
308.421	3653.75
308.651	3651.75
308.881	3708.75
309.111	3727.75
309.341	3737.75
309.571	3822.75
309.8	3904.75
310.03	4034.75
310.26	4066.75
310.49	3969.75
310.72	4245.75
310.949	4323.75
311.179	4252.75
311.409	4075.75
311.639	4095.75
311.868	4054.75
312.098	4137.75
312.328	4255.75
312.557	4456.75
312.787	4612.75
313.017	4434.75
313.246	4285.75
313.476	4083.75
313.706	4109.75
313.935	4287.75
314.165	4440.75
314.394	4527.75
314.624	4380.75
314.853	4288.75
315.083	4173.75
315.312	4108.75
315.542	4081.75
315.771	3991.75
316.001	4006.75
316.23	4040.75
316.46	4071.75
316.689	4151.75
316.919	4250.75
317.148	4326.75
317.377	4297.75
317.607	4202.75
317.836	4206.75
318.065	4180.75
318.295	4117.75
318.524	4164.75
318.753	4098.75
318.983	4178.75
319.212	4126.75
319.441	4284.75
319.67	4272.75
319.9	4179.75
320.129	4157.75
320.358	4207.75
320.587	4244.75
320.816	4311.75
321.046	4382.75
321.275	4367.75
321.504	4429.75
321.733	4389.75
321.962	4505.75
322.191	4661.75
322.42	4838.75
322.649	4979.75
322.878	5041.75
323.108	5210.75
323.337	5562.75
323.566	5785.75
323.795	6185.75
324.024	6935.75
324.253	9192.75
324.482	13615.75
324.71	15618.75
324.939	15618.75
325.168	14762.75
325.397	8104.75
325.626	6514.75
325.855	6053.75
326.084	5975.75
326.313	6103.75
326.542	6386.75
326.77	7379.75
326.999	9300.75
327.228	13304.75
327.457	15618.75
327.686	15618.75
327.914	12405.75
328.143	12669.75
328.372	13669.75
328.6	10918.75
328.829	8760.75
329.058	8840.75
329.287	9158.75
329.515	9440.75
329.744	11061.75
329.972	14025.75
330.201	15618.75
330.43	15618.75
330.658	15126.75
330.887	11228.75
331.115	9060.75
331.344	7767.75
331.572	7352.75
331.801	7414.75
332.03	7269.75
332.258	7148.75
332.486	7153.75
332.715	7354.75
332.943	7677.75
333.172	8194.75
333.4	8962.75
333.629	10128.75
333.857	12232.75
334.085	14719.75
334.314	15618.75
334.542	15618.75
334.771	15618.75
334.999	14522.75
335.227	10216.75
335.455	8662.75
335.684	7800.75
335.912	7174.75
336.14	6759.75
336.369	6636.75
336.597	6522.75
336.825	6293.75
337.053	5997.75
337.281	5926.75
337.51	5711.75
337.738	5714.75
337.966	5631.75
338.194	5602.75
338.422	5432.75
338.65	5262.75
338.878	5292.75
339.106	5197.75
339.334	5184.75
339.562	5057.75
339.79	5004.75
340.018	5044.75
340.246	5032.75
340.474	5065.75
340.702	4982.75
340.93	4955.75
341.158	4952.75
341.386	4961.75
341.614	4960.75
341.842	4902.75
342.07	4789.75
342.298	4791.75
342.526	4743.75
342.754	4701.75
342.981	4697.75
343.209	4749.75
343.437	4980.75
343.665	5188.75
343.893	5428.75
344.12	5444.75
344.348	5282.75
344.576	5165.75
344.804	5090.75
345.031	5124.75
345.259	5170.75
345.487	4859.75
345.714	4831.75
345.942	4670.75
346.17	4675.75
346.397	4560.75
346.625	4633.75
346.853	4592.75
347.08	4561.75
347.308	4688.75
347.535	4820.75
347.763	4800.75
347.99	4762.75
348.218	4761.75
348.445	4854.75
348.673	4646.75
348.9	4563.75
349.128	4484.75
349.355	4468.75
349.583	4394.75
349.81	4454.75
350.037	4477.75
350.265	4439.75
350.492	4485.75
350.72	4425.75
350.947	4520.75
351.174	4682.75
351.402	4729.75
351.629	4632.75
351.856	4650.75
352.083	4788.75
352.311	4821.75
352.538	4821.75
352.765	4744.75
352.992	4678.75
353.22	4625.75
353.447	4505.75
353.674	4377.75
353.901	4363.75
354.128	4321.75
354.355	4276.75
354.583	4302.75
354.81	4312.75
355.037	4281.75
355.264	4240.75
355.491	4231.75
355.718	4260.75
355.945	4198.75
356.172	4220.75
356.399	4208.75
356.626	4341.75
356.853	4279.75
357.08	4169.75
357.307	4217.75
357.534	4230.75
357.761	4233.75
357.988	4282.75
358.215	4219.75
358.441	4246.75
358.668	4244.75
358.895	4409.75
359.122	4394.75
359.349	4525.75
359.576	4600.75
359.802	4989.75
360.029	5332.75
360.256	5258.75
360.483	4937.75
360.709	4645.75
360.936	4573.75
361.163	4623.75
361.39	4625.75
361.616	4687.75
361.843	4495.75
362.07	4594.75
362.296	4645.75
362.523	4566.75
362.749	4590.75
362.976	4524.75
363.203	4412.75
363.429	4390.75
363.656	4443.75
363.882	4382.75
364.109	4402.75
364.335	4357.75
364.562	4388.75
364.788	4430.75
365.015	4414.75
365.241	4373.75
365.468	4512.75
365.694	4549.75
365.92	4548.75
366.147	4366.75
366.373	4363.75
366.599	4399.75
366.826	4304.75
367.052	4352.75
367.278	4375.75
367.505	4436.75
367.731	4390.75
367.957	4438.75
368.184	4465.75
368.41	4537.75
368.636	4601.75
368.862	4562.75
369.089	4552.75
369.315	4380.75
369.541	4511.75
369.767	4484.75
369.993	4524.75
370.219	4493.75
370.445	4470.75
370.672	4567.75
370.898	4459.75
371.124	4514.75
371.35	4617.75
371.576	4510.75
371.802	4573.75
372.028	4478.75
372.254	4623.75
372.48	4567.75
372.706	4654.75
372.932	4700.75
373.158	4599.75
373.384	4560.75
373.61	4620.75
373.835	4628.75
374.061	4657.75
374.287	4702.75
374.513	4700.75
374.739	4830.75
374.965	4925.75
375.191	4905.75
375.416	4817.75
375.642	4718.75
375.868	4698.75
376.094	4654.75
376.319	4585.75
376.545	4612.75
376.771	4526.75
376.997	4545.75
377.222	4555.75
377.448	4507.75
377.674	4448.75
377.899	4490.75
378.125	4489.75
378.35	4393.75
378.576	4480.75
378.802	4405.75
379.027	4465.75
379.253	4453.75
379.478	4453.75
379.704	4489.75
379.929	4533.75
380.155	4509.75
380.38	4518.75
380.606	4481.75
380.831	4518.75
381.057	4532.75
381.282	4473.75
381.507	4508.75
381.733	4561.75
381.958	4570.75
382.184	4713.75
382.409	4640.75
382.634	4760.75
382.86	4797.75
383.085	4807.75
383.31	4855.75
383.535	4903.75
383.761	4982.75
383.986	5043.75
384.211	5153.75
384.436	5168.75
384.662	5149.75
384.887	5298.75
385.112	5292.75
385.337	5384.75
385.562	5299.75
385.787	5411.75
386.013	5491.75
386.238	5587.75
386.463	5434.75
386.688	5460.75
386.913	5394.75
387.138	5351.75
387.363	5365.75
387.588	5177.75
387.813	5254.75
388.038	5254.75
388.263	5381.75
388.488	5309.75
388.713	5332.75
388.938	5273.75
389.163	5255.75
389.387	5299.75
389.612	5163.75
389.837	5208.75
390.062	5226.75
390.287	5222.75
390.512	5213.75
390.736	5339.75
390.961	5317.75
391.186	5430.75
391.411	5656.75
391.636	5755.75
391.86	5864.75
392.085	5877.75
392.31	5810.75
392.534	5726.75
392.759	5693.75
392.984	5530.75
393.208	5478.75
393.433	5523.75
393.658	5518.75
393.882	5459.75
394.107	5532.75
394.331	5644.75
394.556	5543.75
394.78	5598.75
395.005	5695.75
395.229	5678.75
395.454	5846.75
395.678	5964.75
395.903	5962.75
396.127	6029.75
396.352	5851.75
396.576	5778.75
396.801	5746.75
397.025	5806.75
397.249	5868.75
397.474	5995.75
397.698	6042.75
397.922	6200.75
398.147	6256.75
398.371	6325.75
398.595	6506.75
398.82	6822.75
399.044	7276.75
399.268	7994.75
399.492	8904.75
399.717	9578.75
399.941	9409.75
400.165	8852.75
400.389	8210.75
400.613	7496.75
400.837	7112.75
401.062	6848.75
401.286	6804.75
401.51	6729.75
401.734	6647.75
401.958	6884.75
402.182	7009.75
402.406	7259.75
402.63	7237.75
402.854	7270.75
403.078	7328.75
403.302	7487.75
403.526	7518.75
403.75	7693.75
403.974	7840.75
404.198	7807.75
404.422	7984.75
404.645	8140.75
404.869	8494.75
405.093	9237.75
405.317	9886.75
405.541	9655.75
405.765	8704.75
405.988	8240.75
406.212	8195.75
406.436	8441.75
406.66	8352.75
406.883	8172.75
407.107	8726.75
407.331	9111.75
407.555	9592.75
407.778	9254.75
408.002	8441.75
408.226	8110.75
408.449	8054.75
408.673	7849.75
408.896	8087.75
409.12	8098.75
409.344	7680.75
409.567	7402.75
409.791	7428.75
410.014	7270.75
410.238	7267.75
410.461	7308.75
410.685	7340.75
410.908	7462.75
411.132	7657.75
411.355	7728.75
411.578	7371.75
411.802	7326.75
412.025	7657.75
412.249	8231.75
412.472	9054.75
412.695	9705.75
412.919	8988.75
413.142	8434.75
413.365	7990.75
413.589	7525.75
413.812	7248.75
414.035	6952.75
414.258	7238.75
414.482	7154.75
414.705	7048.75
414.928	6886.75
415.151	6785.75
415.374	6759.75
415.597	6730.75
415.821	6709.75
416.044	6783.75
416.267	6784.75
416.49	6640.75
416.713	6585.75
416.936	6676.75
417.159	6797.75
417.382	7057.75
417.605	7306.75
417.828	7443.75
418.051	7084.75
418.274	6858.75
418.497	6783.75
418.72	6938.75
418.943	6892.75
419.166	7338.75
419.389	7821.75
419.611	7822.75
419.834	7828.75
420.057	8075.75
420.28	8547.75
420.503	8379.75
420.726	7950.75
420.948	7776.75
421.171	7926.75
421.394	7713.75
421.617	7062.75
421.839	6948.75
422.062	6956.75
422.285	7115.75
422.507	7816.75
422.73	8240.75
422.953	7556.75
423.175	7213.75
423.398	7194.75
423.621	7272.75
423.843	7508.75
424.066	7345.75
424.288	7238.75
424.511	7502.75
424.733	7974.75
424.956	8501.75
425.178	7956.75
425.401	8172.75
425.623	7928.75
425.846	6968.75
426.068	6840.75
426.291	6897.75
426.513	6913.75
426.735	6905.75
426.958	7529.75
427.18	8460.75
427.402	9836.75
427.625	10556.75
427.847	10142.75
428.069	9651.75
428.292	8069.75
428.514	6991.75
428.736	6540.75
428.958	6452.75
429.181	6159.75
429.403	6142.75
429.625	6289.75
429.847	6649.75
430.069	7195.75
430.292	6658.75
430.514	6082.75
430.736	6071.75
430.958	5932.75
431.18	5899.75
431.402	5931.75
431.624	5912.75
431.846	5893.75
432.068	5957.75
432.29	6022.75
432.512	5895.75
432.734	6047.75
432.956	5869.75
433.178	6162.75
433.4	6043.75
433.622	5984.75
433.844	5981.75
434.066	5969.75
434.287	6088.75
434.509	6264.75
434.731	6513.75
434.953	6672.75
435.175	6672.75
435.397	6940.75
435.618	6817.75
435.84	7245.75
436.062	8182.75
436.284	8072.75
436.505	6708.75
436.727	6459.75
436.949	6162.75
437.17	6007.75
437.392	6016.75
437.614	6223.75
437.835	6723.75
438.057	7792.75
438.278	8344.75
438.5	8110.75
438.721	9050.75
438.943	7775.75
439.165	6512.75
439.386	6393.75
439.608	6449.75
439.829	6684.75
440.05	7274.75
440.272	7686.75
440.493	6753.75
440.715	6392.75
440.936	6298.75
441.158	6320.75
441.379	6437.75
441.6	6785.75
441.822	7055.75
442.043	7503.75
442.264	8358.75
442.486	7956.75
442.707	7150.75
442.928	7018.75
443.149	7326.75
443.371	7582.75
443.592	7980.75
443.813	8984.75
444.034	8792.75
444.255	7593.75
444.476	7398.75
444.698	7645.75
444.919	7628.75
445.14	7572.75
445.361	7564.75
445.582	7827.75
445.803	8808.75
446.024	9471.75
446.245	8953.75
446.466	7781.75
446.687	6713.75
446.908	6353.75
447.129	5988.75
447.35	5852.75
447.571	5895.75
447.792	5728.75
448.013	5954.75
448.234	6124.75
448.455	6782.75
448.675	8202.75
448.896	8487.75
449.117	7013.75
449.338	7241.75
449.559	8776.75
449.779	8838.75
450	6688.75
450.221	5982.75
450.442	5743.75
450.662	5735.75
450.883	6047.75
451.104	6110.75
451.324	5881.75
451.545	5686.75
451.766	5470.75
451.986	5365.75
452.207	5256.75
452.428	5226.75
452.648	5321.75
452.869	5404.75
453.089	5412.75
453.31	5593.75
453.53	5369.75
453.751	5258.75
453.971	5448.75
454.192	5606.75
454.412	5347.75
454.633	5186.75
454.853	5122.75
455.073	5247.75
455.294	5642.75
455.514	6283.75
455.734	5607.75
455.955	5054.75
456.175	4967.75
456.395	4899.75
456.616	4961.75
456.836	4890.75
457.056	4961.75
457.276	4898.75
457.497	5040.75
457.717	5036.75
457.937	5140.75
458.157	5109.75
458.377	5343.75
458.598	5758.75
458.818	6777.75
459.038	7640.75
459.258	7169.75
459.478	6286.75
459.698	6113.75
459.918	6231.75
460.138	6304.75
460.358	6500.75
460.578	6470.75
460.798	6608.75
461.018	6592.75
461.238	6328.75
461.458	6400.75
461.678	6433.75
461.898	6559.75
462.118	6565.75
462.338	6925.75
462.558	7072.75
462.777	7330.75
462.997	7882.75
463.217	8335.75
463.437	8116.75
463.657	7568.75
463.876	7376.75
464.096	7425.75
464.316	7389.75
464.536	7523.75
464.755	7280.75
464.975	7358.75
465.195	7977.75
465.414	8196.75
465.634	6775.75
465.854	6357.75
466.073	6108.75
466.293	5866.75
466.512	5738.75
466.732	5640.75
466.951	5648.75
467.171	5702.75
467.391	5874.75
467.61	6257.75
467.829	6788.75
468.049	9120.75
468.268	11792.75
468.488	8014.75
468.707	6573.75
468.927	6150.75
469.146	5873.75
469.365	5837.75
469.585	5807.75
469.804	6000.75
470.023	6224.75
470.243	6005.75
470.462	6272.75
470.681	6587.75
470.901	6350.75
471.12	6164.75
471.339	6231.75
471.558	6309.75
471.777	6637.75
471.997	7838.75
472.216	13061.75
472.435	15618.75
472.654	14519.75
472.873	9374.75
473.092	7872.75
473.311	7149.75
473.53	6734.75
473.749	6635.75
473.968	7055.75
474.187	7956.75
474.406	7257.75
474.625	6267.75
474.844	5848.75
475.063	5789.75
475.282	5828.75
475.501	5856.75
475.72	5873.75
475.939	5847.75
476.158	5860.75
476.377	5848.75
476.596	5850.75
476.814	6005.75
477.033	6116.75
477.252	6156.75
477.471	6212.75
477.69	6357.75
477.908	6397.75
478.127	6584.75
478.346	6647.75
478.564	6751.75
478.783	6876.75
479.002	7064.75
479.22	7134.75
479.439	7373.75
479.658	7614.75
479.876	7790.75
480.095	8115.75
480.313	8656.75
480.532	9018.75
480.751	10260.75
480.969	14349.75
481.188	15618.75
481.406	15618.75
481.624	15328.75
481.843	12152.75
482.061	10328.75
482.28	9349.75
482.498	8724.75
482.717	8160.75
482.935	7924.75
483.153	7701.75
483.372	7535.75
483.59	7314.75
483.808	7329.75
484.027	7224.75
484.245	7112.75
484.463	7190.75
484.681	7249.75
484.9	7182.75
485.118	7241.75
485.336	7210.75
485.554	7249.75
485.772	7292.75
485.99	7272.75
486.209	7291.75
486.427	7403.75
486.645	7451.75
486.863	7640.75
487.081	7494.75
487.299	7422.75
