Data from Circ_1995_H10_HRD10591_00038.txt Node
Date: Wed Jan 03 11:36:54 EST 2024
User: Yrep
Spectrometer: HR+D1059
Trigger mode: 1
Integration Time (sec): 1.000000E-1
Scans to average: 1
Electric dark correction enabled: true
Nonlinearity correction enabled: false
Boxcar width: 0
XAxis mode: Wavelengths
Number of Pixels in Spectrum: 2048
>>>>>Begin Spectral Data<<<<<
223.165	-25.56
223.4	-25.56
223.635	-25.56
223.869	-15.56
224.104	-8.56
224.338	-7.56
224.573	-15.56
224.808	-14.56
225.042	-14.56
225.277	-6.56
225.511	2.44
225.746	-0.56
225.98	2.44
226.215	4.44
226.449	23.44
226.683	12.44
226.918	34.44
227.152	29.44
227.387	33.44
227.621	53.44
227.856	25.44
228.09	44.44
228.324	43.44
228.559	55.44
228.793	62.44
229.027	62.44
229.262	89.44
229.496	75.44
229.73	111.44
229.964	108.44
230.199	95.44
230.433	93.44
230.667	78.44
230.901	72.44
231.136	93.44
231.37	80.44
231.604	79.44
231.838	73.44
232.072	83.44
232.306	90.44
232.541	89.44
232.775	83.44
233.009	97.44
233.243	85.44
233.477	89.44
233.711	90.44
233.945	74.44
234.179	84.44
234.413	73.44
234.647	83.44
234.881	91.44
235.115	91.44
235.349	73.44
235.583	78.44
235.817	81.44
236.051	85.44
236.285	81.44
236.519	84.44
236.753	81.44
236.987	99.44
237.221	93.44
237.455	111.44
237.689	78.44
237.922	76.44
238.156	71.44
238.39	75.44
238.624	69.44
238.858	78.44
239.091	75.44
239.325	81.44
239.559	82.44
239.793	82.44
240.027	85.44
240.26	80.44
240.494	70.44
240.728	77.44
240.961	78.44
241.195	89.44
241.429	89.44
241.662	73.44
241.896	78.44
242.13	75.44
242.363	78.44
242.597	83.44
242.83	82.44
243.064	85.44
243.298	89.44
243.531	75.44
243.765	77.44
243.998	76.44
244.232	85.44
244.465	94.44
244.699	85.44
244.932	75.44
245.166	82.44
245.399	90.44
245.633	76.44
245.866	92.44
246.099	82.44
246.333	85.44
246.566	86.44
246.8	82.44
247.033	62.44
247.266	79.44
247.5	81.44
247.733	86.44
247.966	89.44
248.2	81.44
248.433	79.44
248.666	64.44
248.899	91.44
249.133	96.44
249.366	104.44
249.599	111.44
249.832	95.44
250.066	85.44
250.299	86.44
250.532	100.44
250.765	86.44
250.998	71.44
251.231	82.44
251.465	83.44
251.698	90.44
251.931	84.44
252.164	92.44
252.397	64.44
252.63	84.44
252.863	79.44
253.096	74.44
253.329	81.44
253.562	94.44
253.795	79.44
254.028	93.44
254.261	93.44
254.494	59.44
254.727	83.44
254.96	71.44
255.193	85.44
255.426	77.44
255.659	84.44
255.892	104.44
256.124	88.44
256.357	98.44
256.59	91.44
256.823	95.44
257.056	96.44
257.289	84.44
257.521	96.44
257.754	79.44
257.987	77.44
258.22	111.44
258.452	105.44
258.685	105.44
258.918	83.44
259.151	91.44
259.383	92.44
259.616	76.44
259.849	92.44
260.081	93.44
260.314	91.44
260.547	98.44
260.779	108.44
261.012	113.44
261.244	110.44
261.477	103.44
261.71	108.44
261.942	148.44
262.175	154.44
262.407	113.44
262.64	75.44
262.872	92.44
263.105	100.44
263.337	89.44
263.57	94.44
263.802	90.44
264.035	90.44
264.267	85.44
264.499	81.44
264.732	66.44
264.964	87.44
265.197	90.44
265.429	84.44
265.661	88.44
265.894	92.44
266.126	102.44
266.358	92.44
266.591	80.44
266.823	74.44
267.055	81.44
267.287	100.44
267.52	93.44
267.752	94.44
267.984	92.44
268.216	97.44
268.448	90.44
268.681	98.44
268.913	87.44
269.145	86.44
269.377	85.44
269.609	75.44
269.841	97.44
270.073	87.44
270.306	95.44
270.538	76.44
270.77	81.44
271.002	97.44
271.234	81.44
271.466	103.44
271.698	93.44
271.93	98.44
272.162	81.44
272.394	97.44
272.626	96.44
272.858	98.44
273.09	86.44
273.322	107.44
273.553	98.44
273.785	71.44
274.017	78.44
274.249	80.44
274.481	103.44
274.713	94.44
274.945	81.44
275.176	92.44
275.408	98.44
275.64	135.44
275.872	156.44
276.104	137.44
276.335	109.44
276.567	131.44
276.799	170.44
277.031	223.44
277.262	247.44
277.494	200.44
277.726	118.44
277.957	113.44
278.189	93.44
278.421	95.44
278.652	91.44
278.884	105.44
279.115	79.44
279.347	87.44
279.579	104.44
279.81	143.44
280.042	269.44
280.273	362.44
280.505	217.44
280.736	120.44
280.968	96.44
281.199	97.44
281.431	90.44
281.662	100.44
281.894	96.44
282.125	116.44
282.356	148.44
282.588	190.44
282.819	143.44
283.051	93.44
283.282	100.44
283.513	88.44
283.745	99.44
283.976	106.44
284.207	87.44
284.439	91.44
284.67	99.44
284.901	86.44
285.132	93.44
285.364	90.44
285.595	95.44
285.826	97.44
286.057	90.44
286.288	101.44
286.52	93.44
286.751	98.44
286.982	93.44
287.213	87.44
287.444	83.44
287.675	99.44
287.906	84.44
288.138	99.44
288.369	110.44
288.6	98.44
288.831	84.44
289.062	87.44
289.293	92.44
289.524	95.44
289.755	89.44
289.986	82.44
290.217	75.44
290.448	76.44
290.679	96.44
290.91	103.44
291.141	95.44
291.371	81.44
291.602	90.44
291.833	92.44
292.064	95.44
292.295	90.44
292.526	101.44
292.757	100.44
292.987	99.44
293.218	96.44
293.449	98.44
293.68	96.44
293.91	92.44
294.141	87.44
294.372	74.44
294.603	83.44
294.833	93.44
295.064	100.44
295.295	98.44
295.525	95.44
295.756	110.44
295.987	147.44
296.217	200.44
296.448	152.44
296.679	97.44
296.909	102.44
297.14	93.44
297.37	94.44
297.601	105.44
297.831	98.44
298.062	89.44
298.292	107.44
298.523	93.44
298.753	83.44
298.984	105.44
299.214	92.44
299.445	106.44
299.675	115.44
299.905	111.44
300.136	94.44
300.366	92.44
300.597	99.44
300.827	101.44
301.057	115.44
301.288	120.44
301.518	114.44
301.748	114.44
301.979	112.44
302.209	97.44
302.439	101.44
302.669	100.44
302.9	86.44
303.13	114.44
303.36	116.44
303.59	156.44
303.82	168.44
304.051	122.44
304.281	103.44
304.511	95.44
304.741	94.44
304.971	85.44
305.201	97.44
305.431	102.44
305.661	95.44
305.891	95.44
306.121	107.44
306.352	106.44
306.582	117.44
306.812	117.44
307.042	136.44
307.272	186.44
307.502	209.44
307.731	202.44
307.961	140.44
308.191	107.44
308.421	90.44
308.651	109.44
308.881	101.44
309.111	100.44
309.341	92.44
309.571	114.44
309.8	107.44
310.03	112.44
310.26	106.44
310.49	104.44
310.72	119.44
310.949	133.44
311.179	129.44
311.409	109.44
311.639	112.44
311.868	101.44
312.098	106.44
312.328	125.44
312.557	136.44
312.787	132.44
313.017	124.44
313.246	110.44
313.476	83.44
313.706	107.44
313.935	104.44
314.165	118.44
314.394	116.44
314.624	112.44
314.853	112.44
315.083	107.44
315.312	102.44
315.542	107.44
315.771	100.44
316.001	103.44
316.23	95.44
316.46	98.44
316.689	103.44
316.919	110.44
317.148	122.44
317.377	95.44
317.607	103.44
317.836	106.44
318.065	97.44
318.295	101.44
318.524	103.44
318.753	93.44
318.983	109.44
319.212	114.44
319.441	139.44
319.67	140.44
319.9	100.44
320.129	101.44
320.358	85.44
320.587	82.44
320.816	90.44
321.046	115.44
321.275	97.44
321.504	87.44
321.733	93.44
321.962	122.44
322.191	131.44
322.42	106.44
322.649	114.44
322.878	136.44
323.108	136.44
323.337	165.44
323.566	194.44
323.795	194.44
324.024	285.44
324.253	579.44
324.482	1243.44
324.71	2605.44
324.939	3585.44
325.168	1293.44
325.397	341.44
325.626	195.44
325.855	159.44
326.084	167.44
326.313	166.44
326.542	191.44
326.77	299.44
326.999	629.44
327.228	1326.44
327.457	2523.44
327.686	2029.44
327.914	719.44
328.143	726.44
328.372	939.44
328.6	527.44
328.829	234.44
329.058	221.44
329.287	259.44
329.515	215.44
329.744	307.44
329.972	648.44
330.201	1389.44
330.43	2092.44
330.658	894.44
330.887	367.44
331.115	235.44
331.344	137.44
331.572	140.44
331.801	149.44
332.03	143.44
332.258	131.44
332.486	119.44
332.715	121.44
332.943	123.44
333.172	135.44
333.4	148.44
333.629	181.44
333.857	273.44
334.085	564.44
334.314	1232.44
334.542	2541.44
334.771	2450.44
334.999	585.44
335.227	215.44
335.455	145.44
335.684	116.44
335.912	123.44
336.14	110.44
336.369	116.44
336.597	139.44
336.825	123.44
337.053	99.44
337.281	101.44
337.51	100.44
337.738	94.44
337.966	104.44
338.194	110.44
338.422	123.44
338.65	97.44
338.878	109.44
339.106	84.44
339.334	103.44
339.562	95.44
339.79	105.44
340.018	94.44
340.246	99.44
340.474	101.44
340.702	95.44
340.93	108.44
341.158	108.44
341.386	102.44
341.614	114.44
341.842	100.44
342.07	97.44
342.298	97.44
342.526	99.44
342.754	100.44
342.981	95.44
343.209	105.44
343.437	109.44
343.665	81.44
343.893	91.44
344.12	93.44
344.348	92.44
344.576	96.44
344.804	94.44
345.031	114.44
345.259	121.44
345.487	107.44
345.714	108.44
345.942	89.44
346.17	97.44
346.397	108.44
346.625	92.44
346.853	100.44
347.08	108.44
347.308	108.44
347.535	89.44
347.763	115.44
347.99	112.44
348.218	138.44
348.445	132.44
348.673	123.44
348.9	111.44
349.128	109.44
349.355	92.44
349.583	87.44
349.81	83.44
350.037	104.44
350.265	106.44
350.492	111.44
350.72	107.44
350.947	114.44
351.174	133.44
351.402	141.44
351.629	112.44
351.856	121.44
352.083	112.44
352.311	128.44
352.538	127.44
352.765	139.44
352.992	136.44
353.22	127.44
353.447	109.44
353.674	101.44
353.901	100.44
354.128	107.44
354.355	94.44
354.583	100.44
354.81	89.44
355.037	86.44
355.264	93.44
355.491	84.44
355.718	90.44
355.945	87.44
356.172	95.44
356.399	81.44
356.626	95.44
356.853	98.44
357.08	90.44
357.307	94.44
357.534	104.44
357.761	100.44
357.988	89.44
358.215	96.44
358.441	92.44
358.668	98.44
358.895	98.44
359.122	92.44
359.349	88.44
359.576	114.44
359.802	136.44
360.029	159.44
360.256	171.44
360.483	127.44
360.709	98.44
360.936	96.44
361.163	97.44
361.39	110.44
361.616	108.44
361.843	99.44
362.07	109.44
362.296	127.44
362.523	115.44
362.749	94.44
362.976	88.44
363.203	100.44
363.429	98.44
363.656	87.44
363.882	92.44
364.109	95.44
364.335	110.44
364.562	100.44
364.788	101.44
365.015	97.44
365.241	118.44
365.468	128.44
365.694	134.44
365.92	117.44
366.147	101.44
366.373	105.44
366.599	111.44
366.826	88.44
367.052	97.44
367.278	106.44
367.505	107.44
367.731	104.44
367.957	106.44
368.184	94.44
368.41	111.44
368.636	143.44
368.862	149.44
369.089	139.44
369.315	112.44
369.541	99.44
369.767	99.44
369.993	94.44
370.219	95.44
370.445	99.44
370.672	105.44
370.898	98.44
371.124	103.44
371.35	100.44
371.576	95.44
371.802	92.44
372.028	87.44
372.254	80.44
372.48	75.44
372.706	108.44
372.932	83.44
373.158	83.44
373.384	99.44
373.61	96.44
373.835	91.44
374.061	96.44
374.287	90.44
374.513	107.44
374.739	94.44
374.965	65.44
375.191	87.44
375.416	92.44
375.642	93.44
375.868	89.44
376.094	108.44
376.319	92.44
376.545	91.44
376.771	100.44
376.997	98.44
377.222	107.44
377.448	92.44
377.674	98.44
377.899	93.44
378.125	95.44
378.35	106.44
378.576	102.44
378.802	111.44
379.027	88.44
379.253	97.44
379.478	94.44
379.704	100.44
379.929	98.44
380.155	93.44
380.38	101.44
380.606	96.44
380.831	110.44
381.057	88.44
381.282	104.44
381.507	109.44
381.733	100.44
381.958	97.44
382.184	98.44
382.409	79.44
382.634	116.44
382.86	106.44
383.085	100.44
383.31	96.44
383.535	107.44
383.761	95.44
383.986	91.44
384.211	118.44
384.436	105.44
384.662	107.44
384.887	112.44
385.112	110.44
385.337	112.44
385.562	113.44
385.787	102.44
386.013	126.44
386.238	136.44
386.463	117.44
386.688	112.44
386.913	96.44
387.138	116.44
387.363	89.44
387.588	113.44
387.813	89.44
388.038	108.44
388.263	115.44
388.488	115.44
388.713	96.44
388.938	97.44
389.163	108.44
389.387	100.44
389.612	91.44
389.837	81.44
390.062	107.44
390.287	92.44
390.512	104.44
390.736	89.44
390.961	92.44
391.186	86.44
391.411	83.44
391.636	97.44
391.86	82.44
392.085	83.44
392.31	89.44
392.534	104.44
392.759	81.44
392.984	89.44
393.208	90.44
393.433	92.44
393.658	75.44
393.882	78.44
394.107	85.44
394.331	94.44
394.556	92.44
394.78	97.44
395.005	86.44
395.229	91.44
395.454	87.44
395.678	83.44
395.903	92.44
396.127	92.44
396.352	100.44
396.576	75.44
396.801	73.44
397.025	91.44
397.249	87.44
397.474	78.44
397.698	78.44
397.922	98.44
398.147	96.44
398.371	81.44
398.595	92.44
398.82	73.44
399.044	97.44
399.268	95.44
399.492	82.44
399.717	101.44
399.941	83.44
400.165	99.44
400.389	101.44
400.613	91.44
400.837	91.44
401.062	81.44
401.286	95.44
401.51	96.44
401.734	105.44
401.958	125.44
402.182	162.44
402.406	226.44
402.63	171.44
402.854	105.44
403.078	95.44
403.302	88.44
403.526	87.44
403.75	83.44
403.974	94.44
404.198	102.44
404.422	96.44
404.645	102.44
404.869	111.44
405.093	132.44
405.317	146.44
405.541	137.44
405.765	131.44
405.988	153.44
406.212	263.44
406.436	367.44
406.66	263.44
406.883	146.44
407.107	120.44
407.331	116.44
407.555	129.44
407.778	124.44
408.002	108.44
408.226	97.44
408.449	83.44
408.673	98.44
408.896	89.44
409.12	109.44
409.344	95.44
409.567	103.44
409.791	85.44
410.014	97.44
410.238	96.44
410.461	100.44
410.685	96.44
410.908	95.44
411.132	112.44
411.355	115.44
411.578	105.44
411.802	91.44
412.025	98.44
412.249	106.44
412.472	117.44
412.695	154.44
412.919	119.44
413.142	91.44
413.365	90.44
413.589	87.44
413.812	89.44
414.035	103.44
414.258	99.44
414.482	101.44
414.705	76.44
414.928	95.44
415.151	96.44
415.374	109.44
415.597	97.44
415.821	94.44
416.044	90.44
416.267	99.44
416.49	83.44
416.713	101.44
416.936	95.44
417.159	100.44
417.382	89.44
417.605	117.44
417.828	135.44
418.051	119.44
418.274	93.44
418.497	89.44
418.72	91.44
418.943	84.44
419.166	88.44
419.389	92.44
419.611	95.44
419.834	103.44
420.057	102.44
420.28	110.44
420.503	91.44
420.726	96.44
420.948	103.44
421.171	102.44
421.394	95.44
421.617	92.44
421.839	100.44
422.062	104.44
422.285	98.44
422.507	105.44
422.73	100.44
422.953	87.44
423.175	100.44
423.398	99.44
423.621	92.44
423.843	87.44
424.066	77.44
424.288	97.44
424.511	97.44
424.733	116.44
424.956	131.44
425.178	114.44
425.401	123.44
425.623	103.44
425.846	96.44
426.068	102.44
426.291	101.44
426.513	80.44
426.735	95.44
426.958	95.44
427.18	129.44
427.402	203.44
427.625	317.44
427.847	285.44
428.069	260.44
428.292	149.44
428.514	104.44
428.736	92.44
428.958	86.44
429.181	88.44
429.403	93.44
429.625	103.44
429.847	113.44
430.069	116.44
430.292	107.44
430.514	85.44
430.736	85.44
430.958	77.44
431.18	87.44
431.402	91.44
431.624	85.44
431.846	84.44
432.068	85.44
432.29	88.44
432.512	86.44
432.734	88.44
432.956	91.44
433.178	105.44
433.4	127.44
433.622	99.44
433.844	97.44
434.066	90.44
434.287	90.44
434.509	97.44
434.731	91.44
434.953	94.44
435.175	85.44
435.397	104.44
435.618	91.44
435.84	113.44
436.062	157.44
436.284	137.44
436.505	108.44
436.727	95.44
436.949	89.44
437.17	105.44
437.392	93.44
437.614	94.44
437.835	122.44
438.057	170.44
438.278	129.44
438.5	126.44
438.721	143.44
438.943	110.44
439.165	97.44
439.386	82.44
439.608	116.44
439.829	122.44
440.05	177.44
440.272	219.44
440.493	126.44
440.715	112.44
440.936	88.44
441.158	96.44
441.379	101.44
441.6	103.44
441.822	100.44
442.043	82.44
442.264	120.44
442.486	111.44
442.707	108.44
442.928	119.44
443.149	192.44
443.371	187.44
443.592	145.44
443.813	145.44
444.034	139.44
444.255	90.44
444.476	106.44
444.698	100.44
444.919	100.44
445.14	135.44
445.361	164.44
445.582	164.44
445.803	220.44
446.024	196.44
446.245	184.44
446.466	144.44
446.687	110.44
446.908	95.44
447.129	100.44
447.35	92.44
447.571	113.44
447.792	92.44
448.013	111.44
448.234	128.44
448.455	109.44
448.675	145.44
448.896	139.44
449.117	116.44
449.338	113.44
449.559	163.44
449.779	178.44
450	112.44
450.221	98.44
450.442	90.44
450.662	108.44
450.883	136.44
451.104	147.44
451.324	121.44
451.545	87.44
451.766	94.44
451.986	91.44
452.207	113.44
452.428	111.44
452.648	120.44
452.869	138.44
453.089	137.44
453.31	161.44
453.53	105.44
453.751	111.44
453.971	117.44
454.192	149.44
454.412	99.44
454.633	91.44
454.853	87.44
455.073	84.44
455.294	97.44
455.514	108.44
455.734	98.44
455.955	81.44
456.175	88.44
456.395	78.44
456.616	92.44
456.836	93.44
457.056	85.44
457.276	89.44
457.497	87.44
457.717	88.44
457.937	95.44
458.157	95.44
458.377	92.44
458.598	150.44
458.818	248.44
459.038	288.44
459.258	167.44
459.478	116.44
459.698	74.44
459.918	95.44
460.138	98.44
460.358	76.44
460.578	99.44
460.798	97.44
461.018	91.44
461.238	100.44
461.458	87.44
461.678	71.44
461.898	76.44
462.118	84.44
462.338	93.44
462.558	96.44
462.777	84.44
462.997	114.44
463.217	106.44
463.437	100.44
463.657	82.44
463.876	107.44
464.096	120.44
464.316	110.44
464.536	107.44
464.755	119.44
464.975	136.44
465.195	271.44
465.414	290.44
465.634	115.44
465.854	93.44
466.073	99.44
466.293	104.44
466.512	97.44
466.732	105.44
466.951	95.44
467.171	110.44
467.391	123.44
467.61	173.44
467.829	250.44
468.049	778.44
468.268	1244.44
468.488	291.44
468.707	111.44
468.927	105.44
469.146	81.44
469.365	100.44
469.585	105.44
469.804	120.44
470.023	117.44
470.243	98.44
470.462	125.44
470.681	162.44
470.901	109.44
471.12	123.44
471.339	111.44
471.558	120.44
471.777	171.44
471.997	379.44
472.216	1485.44
472.435	3557.44
472.654	807.44
472.873	199.44
473.092	127.44
473.311	110.44
473.53	96.44
473.749	85.44
473.968	104.44
474.187	125.44
474.406	114.44
474.625	94.44
474.844	94.44
475.063	81.44
475.282	81.44
475.501	97.44
475.72	92.44
475.939	94.44
476.158	100.44
476.377	83.44
476.596	74.44
476.814	95.44
477.033	108.44
477.252	101.44
477.471	98.44
477.69	100.44
477.908	99.44
478.127	96.44
478.346	98.44
478.564	102.44
478.783	123.44
479.002	109.44
479.22	116.44
479.439	130.44
479.658	158.44
479.876	127.44
480.095	144.44
480.313	165.44
480.532	187.44
480.751	345.44
480.969	1331.44
481.188	6012.44
481.406	3463.44
481.624	479.44
481.843	162.44
482.061	122.44
482.28	104.44
482.498	101.44
482.717	83.44
482.935	88.44
483.153	91.44
483.372	87.44
483.59	84.44
483.808	82.44
484.027	105.44
484.245	103.44
484.463	115.44
484.681	101.44
484.9	97.44
485.118	92.44
485.336	105.44
485.554	118.44
485.772	99.44
485.99	100.44
486.209	107.44
486.427	119.44
486.645	127.44
486.863	141.44
487.081	111.44
487.299	103.44
487.517	101.44
487.735	98.44
487.953	96.44
488.171	100.44
488.389	92.44
488.607	93.44
488.825	104.44
489.043	93.44
489.261	86.44
489.479	90.44
489.696	87.44
489.914	73.44
490.132	87.44
490.35	83.44
490.568	86.44
490.786	91.44
491.003	99.44
491.221	110.44
491.439	97.44
491.657	100.44
491.874	97.44
492.092	96.44
492.31	93.44
492.527	109.44
492.745	95.44
492.963	88.44
493.18	100.44
493.398	101.44
493.615	90.44
493.833	86.44
494.05	96.44
494.268	100.44
494.485	99.44
494.703	84.44
494.92	92.44
495.138	100.44
495.355	105.44
495.573	93.44
495.79	88.44
496.008	78.44
496.225	91.44
496.442	99.44
496.66	93.44
496.877	74.44
497.094	105.44
497.312	101.44
497.529	91.44
497.746	92.44
497.963	87.44
498.181	105.44
498.398	111.44
498.615	101.44
498.832	106.44
499.049	91.44
499.267	98.44
499.484	84.44
499.701	78.44
499.918	98.44
500.135	101.44
500.352	94.44
500.569	100.44
500.786	106.44
501.003	82.44
501.22	88.44
501.437	94.44
501.654	99.44
501.871	139.44
502.088	111.44
502.305	98.44
502.522	88.44
502.739	91.44
502.956	98.44
503.172	95.44
503.389	115.44
503.606	129.44
503.823	106.44
504.04	100.44
504.256	82.44
504.473	99.44
504.69	96.44
504.907	96.44
505.123	98.44
505.34	98.44
505.557	96.44
505.773	97.44
505.99	82.44
506.207	73.44
506.423	104.44
506.64	102.44
506.856	83.44
507.073	85.44
507.289	105.44
507.506	105.44
507.722	147.44
507.939	153.44
508.155	108.44
508.372	116.44
508.588	106.44
508.805	101.44
509.021	105.44
509.238	96.44
509.454	113.44
509.67	121.44
509.887	117.44
510.103	154.44
510.319	265.44
510.536	998.44
510.752	3701.44
510.968	963.44
511.184	213.44
