Data from Circ_1995_H10_HRD10591_00080.txt Node
Date: Wed Jan 03 11:37:02 EST 2024
User: Yrep
Spectrometer: HR+D1059
Trigger mode: 1
Integration Time (sec): 1.000000E-1
Scans to average: 1
Electric dark correction enabled: true
Nonlinearity correction enabled: false
Boxcar width: 0
XAxis mode: Wavelengths
Number of Pixels in Spectrum: 2048
>>>>>Begin Spectral Data<<<<<
223.165	-0.56
223.4	-0.56
223.635	-0.56
223.869	-10.56
224.104	-23.56
224.338	-10.56
224.573	-6.56
224.808	-29.56
225.042	-3.56
225.277	-22.56
225.511	-9.56
225.746	-11.56
225.98	10.44
226.215	6.44
226.449	21.44
226.683	32.44
226.918	29.44
227.152	28.44
227.387	34.44
227.621	38.44
227.856	37.44
228.09	43.44
228.324	56.44
228.559	49.44
228.793	56.44
229.027	61.44
229.262	65.44
229.496	70.44
229.73	82.44
229.964	86.44
230.199	78.44
230.433	79.44
230.667	69.44
230.901	83.44
231.136	68.44
231.37	72.44
231.604	67.44
231.838	74.44
232.072	95.44
232.306	77.44
232.541	76.44
232.775	95.44
233.009	69.44
233.243	81.44
233.477	76.44
233.711	86.44
233.945	65.44
234.179	85.44
234.413	86.44
234.647	84.44
234.881	72.44
235.115	76.44
235.349	72.44
235.583	73.44
235.817	65.44
236.051	70.44
236.285	71.44
236.519	70.44
236.753	78.44
236.987	81.44
237.221	85.44
237.455	82.44
237.689	78.44
237.922	78.44
238.156	75.44
238.39	62.44
238.624	71.44
238.858	84.44
239.091	77.44
239.325	73.44
239.559	81.44
239.793	86.44
240.027	72.44
240.26	77.44
240.494	89.44
240.728	73.44
240.961	81.44
241.195	79.44
241.429	83.44
241.662	72.44
241.896	83.44
242.13	76.44
242.363	75.44
242.597	70.44
242.83	76.44
243.064	86.44
243.298	92.44
243.531	77.44
243.765	70.44
243.998	82.44
244.232	83.44
244.465	80.44
244.699	88.44
244.932	64.44
245.166	76.44
245.399	83.44
245.633	82.44
245.866	78.44
246.099	75.44
246.333	81.44
246.566	69.44
246.8	85.44
247.033	82.44
247.266	101.44
247.5	78.44
247.733	67.44
247.966	58.44
248.2	75.44
248.433	85.44
248.666	95.44
248.899	92.44
249.133	98.44
249.366	114.44
249.599	99.44
249.832	85.44
250.066	90.44
250.299	88.44
250.532	87.44
250.765	71.44
250.998	83.44
251.231	90.44
251.465	85.44
251.698	85.44
251.931	95.44
252.164	74.44
252.397	80.44
252.63	75.44
252.863	93.44
253.096	83.44
253.329	73.44
253.562	68.44
253.795	74.44
254.028	77.44
254.261	83.44
254.494	73.44
254.727	75.44
254.96	82.44
255.193	82.44
255.426	86.44
255.659	85.44
255.892	85.44
256.124	81.44
256.357	89.44
256.59	80.44
256.823	76.44
257.056	76.44
257.289	90.44
257.521	91.44
257.754	98.44
257.987	83.44
258.22	92.44
258.452	100.44
258.685	92.44
258.918	89.44
259.151	87.44
259.383	75.44
259.616	87.44
259.849	78.44
260.081	82.44
260.314	88.44
260.547	65.44
260.779	79.44
261.012	116.44
261.244	115.44
261.477	108.44
261.71	107.44
261.942	114.44
262.175	140.44
262.407	90.44
262.64	78.44
262.872	85.44
263.105	82.44
263.337	82.44
263.57	91.44
263.802	89.44
264.035	77.44
264.267	79.44
264.499	86.44
264.732	78.44
264.964	79.44
265.197	85.44
265.429	82.44
265.661	89.44
265.894	83.44
266.126	81.44
266.358	94.44
266.591	79.44
266.823	81.44
267.055	87.44
267.287	100.44
267.52	87.44
267.752	83.44
267.984	90.44
268.216	84.44
268.448	82.44
268.681	82.44
268.913	92.44
269.145	86.44
269.377	87.44
269.609	88.44
269.841	93.44
270.073	65.44
270.306	73.44
270.538	95.44
270.77	83.44
271.002	83.44
271.234	88.44
271.466	106.44
271.698	96.44
271.93	78.44
272.162	85.44
272.394	89.44
272.626	84.44
272.858	83.44
273.09	85.44
273.322	79.44
273.553	91.44
273.785	87.44
274.017	82.44
274.249	75.44
274.481	101.44
274.713	70.44
274.945	85.44
275.176	102.44
275.408	97.44
275.64	133.44
275.872	147.44
276.104	115.44
276.335	99.44
276.567	127.44
276.799	153.44
277.031	190.44
277.262	238.44
277.494	172.44
277.726	96.44
277.957	92.44
278.189	90.44
278.421	99.44
278.652	92.44
278.884	101.44
279.115	78.44
279.347	90.44
279.579	112.44
279.81	154.44
280.042	230.44
280.273	349.44
280.505	196.44
280.736	123.44
280.968	89.44
281.199	93.44
281.431	96.44
281.662	84.44
281.894	92.44
282.125	120.44
282.356	124.44
282.588	182.44
282.819	142.44
283.051	82.44
283.282	78.44
283.513	76.44
283.745	83.44
283.976	83.44
284.207	88.44
284.439	97.44
284.67	94.44
284.901	90.44
285.132	81.44
285.364	88.44
285.595	79.44
285.826	99.44
286.057	89.44
286.288	90.44
286.52	85.44
286.751	81.44
286.982	89.44
287.213	93.44
287.444	90.44
287.675	82.44
287.906	97.44
288.138	82.44
288.369	91.44
288.6	94.44
288.831	81.44
289.062	103.44
289.293	90.44
289.524	87.44
289.755	85.44
289.986	92.44
290.217	71.44
290.448	90.44
290.679	96.44
290.91	82.44
291.141	93.44
291.371	91.44
291.602	78.44
291.833	83.44
292.064	89.44
292.295	81.44
292.526	93.44
292.757	99.44
292.987	91.44
293.218	92.44
293.449	86.44
293.68	98.44
293.91	94.44
294.141	93.44
294.372	87.44
294.603	84.44
294.833	95.44
295.064	90.44
295.295	91.44
295.525	97.44
295.756	109.44
295.987	125.44
296.217	172.44
296.448	155.44
296.679	100.44
296.909	89.44
297.14	77.44
297.37	90.44
297.601	76.44
297.831	85.44
298.062	87.44
298.292	91.44
298.523	95.44
298.753	78.44
298.984	94.44
299.214	100.44
299.445	83.44
299.675	88.44
299.905	100.44
300.136	82.44
300.366	95.44
300.597	90.44
300.827	88.44
301.057	95.44
301.288	107.44
301.518	104.44
301.748	108.44
301.979	118.44
302.209	117.44
302.439	99.44
302.669	94.44
302.9	94.44
303.13	97.44
303.36	114.44
303.59	133.44
303.82	170.44
304.051	110.44
304.281	94.44
304.511	91.44
304.741	91.44
304.971	91.44
305.201	83.44
305.431	90.44
305.661	96.44
305.891	91.44
306.121	105.44
306.352	97.44
306.582	114.44
306.812	120.44
307.042	129.44
307.272	171.44
307.502	213.44
307.731	181.44
307.961	149.44
308.191	101.44
308.421	96.44
308.651	99.44
308.881	89.44
309.111	91.44
309.341	106.44
309.571	101.44
309.8	113.44
310.03	107.44
310.26	105.44
310.49	96.44
310.72	99.44
310.949	133.44
311.179	117.44
311.409	106.44
311.639	92.44
311.868	111.44
312.098	99.44
312.328	108.44
312.557	103.44
312.787	118.44
313.017	110.44
313.246	104.44
313.476	93.44
313.706	96.44
313.935	110.44
314.165	123.44
314.394	114.44
314.624	109.44
314.853	95.44
315.083	95.44
315.312	112.44
315.542	91.44
315.771	93.44
316.001	96.44
316.23	97.44
316.46	98.44
316.689	96.44
316.919	94.44
317.148	93.44
317.377	107.44
317.607	95.44
317.836	86.44
318.065	91.44
318.295	93.44
318.524	79.44
318.753	87.44
318.983	97.44
319.212	111.44
319.441	124.44
319.67	121.44
319.9	107.44
320.129	93.44
320.358	95.44
320.587	94.44
320.816	119.44
321.046	104.44
321.275	99.44
321.504	90.44
321.733	99.44
321.962	105.44
322.191	105.44
322.42	127.44
322.649	135.44
322.878	124.44
323.108	133.44
323.337	128.44
323.566	160.44
323.795	181.44
324.024	235.44
324.253	472.44
324.482	1015.44
324.71	2112.44
324.939	2829.44
325.168	1034.44
325.397	298.44
325.626	185.44
325.855	138.44
326.084	153.44
326.313	159.44
326.542	181.44
326.77	263.44
326.999	524.44
327.228	1071.44
327.457	2025.44
327.686	1597.44
327.914	589.44
328.143	629.44
328.372	871.44
328.6	471.44
328.829	202.44
329.058	201.44
329.287	207.44
329.515	194.44
329.744	287.44
329.972	562.44
330.201	1255.44
330.43	1855.44
330.658	827.44
330.887	335.44
331.115	207.44
331.344	139.44
331.572	126.44
331.801	141.44
332.03	126.44
332.258	119.44
332.486	106.44
332.715	111.44
332.943	114.44
333.172	114.44
333.4	138.44
333.629	173.44
333.857	250.44
334.085	503.44
334.314	1094.44
334.542	2206.44
334.771	2178.44
334.999	537.44
335.227	189.44
335.455	130.44
335.684	126.44
335.912	115.44
336.14	113.44
336.369	106.44
336.597	111.44
336.825	107.44
337.053	96.44
337.281	103.44
337.51	109.44
337.738	101.44
337.966	98.44
338.194	99.44
338.422	100.44
338.65	104.44
338.878	112.44
339.106	108.44
339.334	101.44
339.562	105.44
339.79	103.44
340.018	90.44
340.246	109.44
340.474	98.44
340.702	91.44
340.93	90.44
341.158	100.44
341.386	101.44
341.614	95.44
341.842	101.44
342.07	91.44
342.298	92.44
342.526	89.44
342.754	95.44
342.981	80.44
343.209	98.44
343.437	96.44
343.665	87.44
343.893	88.44
344.12	85.44
344.348	82.44
344.576	93.44
344.804	93.44
345.031	105.44
345.259	108.44
345.487	103.44
345.714	107.44
345.942	90.44
346.17	92.44
346.397	96.44
346.625	91.44
346.853	86.44
347.08	95.44
347.308	97.44
347.535	97.44
347.763	104.44
347.99	114.44
348.218	120.44
348.445	113.44
348.673	101.44
348.9	108.44
349.128	93.44
349.355	93.44
349.583	97.44
349.81	98.44
350.037	96.44
350.265	94.44
350.492	82.44
350.72	105.44
350.947	118.44
351.174	114.44
351.402	123.44
351.629	116.44
351.856	107.44
352.083	109.44
352.311	99.44
352.538	120.44
352.765	109.44
352.992	134.44
353.22	108.44
353.447	105.44
353.674	105.44
353.901	98.44
354.128	98.44
354.355	99.44
354.583	88.44
354.81	100.44
355.037	96.44
355.264	103.44
355.491	85.44
355.718	88.44
355.945	83.44
356.172	85.44
356.399	90.44
356.626	84.44
356.853	107.44
357.08	82.44
357.307	89.44
357.534	92.44
357.761	95.44
357.988	79.44
358.215	96.44
358.441	94.44
358.668	67.44
358.895	103.44
359.122	96.44
359.349	82.44
359.576	94.44
359.802	120.44
360.029	149.44
360.256	141.44
360.483	113.44
360.709	94.44
360.936	98.44
361.163	103.44
361.39	109.44
361.616	89.44
361.843	95.44
362.07	114.44
362.296	107.44
362.523	101.44
362.749	88.44
362.976	97.44
363.203	109.44
363.429	96.44
363.656	103.44
363.882	98.44
364.109	96.44
364.335	85.44
364.562	91.44
364.788	98.44
365.015	89.44
365.241	111.44
365.468	110.44
365.694	123.44
365.92	113.44
366.147	99.44
366.373	84.44
366.599	102.44
366.826	99.44
367.052	89.44
367.278	91.44
367.505	91.44
367.731	108.44
367.957	101.44
368.184	94.44
368.41	112.44
368.636	141.44
368.862	144.44
369.089	117.44
369.315	109.44
369.541	91.44
369.767	91.44
369.993	76.44
370.219	90.44
370.445	89.44
370.672	85.44
370.898	81.44
371.124	79.44
371.35	93.44
371.576	93.44
371.802	77.44
372.028	72.44
372.254	79.44
372.48	81.44
372.706	95.44
372.932	93.44
373.158	98.44
373.384	100.44
373.61	96.44
373.835	85.44
374.061	90.44
374.287	102.44
374.513	89.44
374.739	91.44
374.965	89.44
375.191	81.44
375.416	94.44
375.642	100.44
375.868	98.44
376.094	87.44
376.319	82.44
376.545	72.44
376.771	81.44
376.997	98.44
377.222	100.44
377.448	98.44
377.674	97.44
377.899	98.44
378.125	95.44
378.35	78.44
378.576	94.44
378.802	89.44
379.027	89.44
379.253	99.44
379.478	79.44
379.704	97.44
379.929	89.44
380.155	94.44
380.38	95.44
380.606	99.44
380.831	94.44
381.057	95.44
381.282	99.44
381.507	91.44
381.733	102.44
381.958	89.44
382.184	80.44
382.409	103.44
382.634	109.44
382.86	99.44
383.085	105.44
383.31	100.44
383.535	94.44
383.761	86.44
383.986	95.44
384.211	88.44
384.436	109.44
384.662	102.44
384.887	99.44
385.112	111.44
385.337	106.44
385.562	100.44
385.787	100.44
386.013	105.44
386.238	110.44
386.463	106.44
386.688	99.44
386.913	104.44
387.138	105.44
387.363	101.44
387.588	93.44
387.813	99.44
388.038	102.44
388.263	111.44
388.488	114.44
388.713	103.44
388.938	102.44
389.163	91.44
389.387	100.44
389.612	77.44
389.837	86.44
390.062	92.44
390.287	79.44
390.512	91.44
390.736	94.44
390.961	93.44
391.186	91.44
391.411	99.44
391.636	77.44
391.86	78.44
392.085	83.44
392.31	72.44
392.534	77.44
392.759	77.44
392.984	79.44
393.208	97.44
393.433	107.44
393.658	88.44
393.882	90.44
394.107	85.44
394.331	80.44
394.556	77.44
394.78	90.44
395.005	87.44
395.229	91.44
395.454	87.44
395.678	80.44
395.903	82.44
396.127	93.44
396.352	84.44
396.576	87.44
396.801	84.44
397.025	79.44
397.249	72.44
397.474	91.44
397.698	87.44
397.922	99.44
398.147	90.44
398.371	74.44
398.595	87.44
398.82	81.44
399.044	90.44
399.268	76.44
399.492	73.44
399.717	75.44
399.941	94.44
400.165	95.44
400.389	104.44
400.613	97.44
400.837	82.44
401.062	94.44
401.286	86.44
401.51	99.44
401.734	103.44
401.958	111.44
402.182	138.44
402.406	219.44
402.63	156.44
402.854	111.44
403.078	92.44
403.302	98.44
403.526	77.44
403.75	96.44
403.974	77.44
404.198	93.44
404.422	91.44
404.645	85.44
404.869	105.44
405.093	133.44
405.317	135.44
405.541	160.44
405.765	117.44
405.988	139.44
406.212	228.44
406.436	363.44
406.66	225.44
406.883	126.44
407.107	113.44
407.331	96.44
407.555	112.44
407.778	98.44
408.002	93.44
408.226	92.44
408.449	85.44
408.673	99.44
408.896	86.44
409.12	106.44
409.344	97.44
409.567	84.44
409.791	101.44
410.014	89.44
410.238	99.44
410.461	88.44
410.685	96.44
410.908	94.44
411.132	111.44
411.355	99.44
411.578	79.44
411.802	90.44
412.025	89.44
412.249	103.44
412.472	110.44
412.695	124.44
412.919	101.44
413.142	99.44
413.365	101.44
413.589	89.44
413.812	83.44
414.035	93.44
414.258	88.44
414.482	89.44
414.705	88.44
414.928	90.44
415.151	85.44
415.374	98.44
415.597	77.44
415.821	75.44
416.044	109.44
416.267	93.44
416.49	101.44
416.713	98.44
416.936	96.44
417.159	89.44
417.382	91.44
417.605	94.44
417.828	115.44
418.051	92.44
418.274	99.44
418.497	88.44
418.72	85.44
418.943	78.44
419.166	89.44
419.389	84.44
419.611	82.44
419.834	95.44
420.057	113.44
420.28	94.44
420.503	86.44
420.726	79.44
420.948	83.44
421.171	120.44
421.394	92.44
421.617	92.44
421.839	102.44
422.062	95.44
422.285	75.44
422.507	94.44
422.73	100.44
422.953	92.44
423.175	88.44
423.398	89.44
423.621	79.44
423.843	90.44
424.066	88.44
424.288	98.44
424.511	96.44
424.733	105.44
424.956	125.44
425.178	109.44
425.401	109.44
425.623	115.44
425.846	101.44
426.068	103.44
426.291	109.44
426.513	88.44
426.735	96.44
426.958	103.44
427.18	108.44
427.402	178.44
427.625	249.44
427.847	262.44
428.069	225.44
428.292	125.44
428.514	108.44
428.736	111.44
428.958	103.44
429.181	95.44
429.403	89.44
429.625	94.44
429.847	101.44
430.069	111.44
430.292	95.44
430.514	88.44
430.736	94.44
430.958	88.44
431.18	92.44
431.402	79.44
431.624	87.44
431.846	81.44
432.068	83.44
432.29	82.44
432.512	102.44
432.734	94.44
432.956	86.44
433.178	88.44
433.4	102.44
433.622	96.44
433.844	89.44
434.066	89.44
434.287	87.44
434.509	96.44
434.731	84.44
434.953	97.44
435.175	85.44
435.397	87.44
435.618	90.44
435.84	111.44
436.062	148.44
436.284	137.44
436.505	105.44
436.727	100.44
436.949	100.44
437.17	81.44
437.392	90.44
437.614	82.44
437.835	124.44
438.057	139.44
438.278	126.44
438.5	110.44
438.721	129.44
438.943	114.44
439.165	86.44
439.386	87.44
439.608	95.44
439.829	109.44
440.05	155.44
440.272	189.44
440.493	99.44
440.715	98.44
440.936	90.44
441.158	86.44
441.379	105.44
441.6	104.44
441.822	109.44
442.043	106.44
442.264	114.44
442.486	118.44
442.707	109.44
442.928	137.44
443.149	166.44
443.371	172.44
443.592	135.44
443.813	119.44
444.034	118.44
444.255	109.44
444.476	80.44
444.698	83.44
444.919	106.44
445.14	130.44
445.361	123.44
445.582	125.44
445.803	182.44
446.024	179.44
446.245	151.44
446.466	122.44
446.687	106.44
446.908	81.44
447.129	95.44
447.35	95.44
447.571	113.44
447.792	96.44
448.013	93.44
448.234	136.44
448.455	104.44
448.675	104.44
448.896	136.44
449.117	104.44
449.338	110.44
449.559	151.44
449.779	145.44
450	99.44
450.221	88.44
450.442	87.44
450.662	103.44
450.883	135.44
451.104	126.44
451.324	110.44
451.545	99.44
451.766	97.44
451.986	88.44
452.207	89.44
452.428	88.44
452.648	103.44
452.869	137.44
453.089	136.44
453.31	135.44
453.53	119.44
453.751	105.44
453.971	114.44
454.192	136.44
454.412	102.44
454.633	86.44
454.853	99.44
455.073	75.44
455.294	90.44
455.514	117.44
455.734	88.44
455.955	93.44
456.175	82.44
456.395	71.44
456.616	80.44
456.836	82.44
457.056	76.44
457.276	78.44
457.497	78.44
457.717	83.44
457.937	84.44
458.157	97.44
458.377	94.44
458.598	116.44
458.818	218.44
459.038	245.44
459.258	147.44
459.478	94.44
459.698	83.44
459.918	91.44
460.138	80.44
460.358	84.44
460.578	101.44
460.798	87.44
461.018	82.44
461.238	96.44
461.458	80.44
461.678	96.44
461.898	108.44
462.118	67.44
462.338	99.44
462.558	77.44
462.777	84.44
462.997	103.44
463.217	118.44
463.437	94.44
463.657	96.44
463.876	95.44
464.096	72.44
464.316	99.44
464.536	118.44
464.755	109.44
464.975	126.44
465.195	228.44
465.414	271.44
465.634	119.44
465.854	98.44
466.073	85.44
466.293	93.44
466.512	85.44
466.732	100.44
466.951	95.44
467.171	104.44
467.391	112.44
467.61	161.44
467.829	240.44
468.049	758.44
468.268	1199.44
468.488	279.44
468.707	133.44
468.927	98.44
469.146	92.44
469.365	99.44
469.585	87.44
469.804	113.44
470.023	107.44
470.243	102.44
470.462	117.44
470.681	137.44
470.901	101.44
471.12	101.44
471.339	102.44
471.558	119.44
471.777	157.44
471.997	369.44
472.216	1417.44
472.435	3363.44
472.654	759.44
472.873	190.44
473.092	122.44
473.311	109.44
473.53	101.44
473.749	89.44
473.968	87.44
474.187	118.44
474.406	105.44
474.625	105.44
474.844	97.44
475.063	102.44
475.282	96.44
475.501	85.44
475.72	77.44
475.939	84.44
476.158	90.44
476.377	101.44
476.596	81.44
476.814	106.44
477.033	107.44
477.252	106.44
477.471	96.44
477.69	99.44
477.908	106.44
478.127	88.44
478.346	100.44
478.564	104.44
478.783	116.44
479.002	107.44
479.22	103.44
479.439	119.44
479.658	155.44
479.876	126.44
480.095	133.44
480.313	148.44
480.532	188.44
480.751	329.44
480.969	1217.44
481.188	5622.44
481.406	3239.44
481.624	454.44
481.843	169.44
482.061	118.44
482.28	114.44
482.498	106.44
482.717	89.44
482.935	100.44
483.153	94.44
483.372	98.44
483.59	108.44
483.808	96.44
484.027	98.44
484.245	90.44
484.463	92.44
484.681	99.44
484.9	90.44
485.118	88.44
485.336	97.44
485.554	112.44
485.772	103.44
485.99	94.44
486.209	105.44
486.427	118.44
486.645	109.44
486.863	128.44
487.081	117.44
487.299	93.44
487.517	96.44
487.735	97.44
487.953	78.44
488.171	101.44
488.389	112.44
488.607	101.44
488.825	98.44
489.043	101.44
489.261	99.44
489.479	90.44
489.696	88.44
489.914	81.44
490.132	93.44
490.35	101.44
490.568	96.44
490.786	94.44
491.003	98.44
491.221	95.44
491.439	95.44
491.657	106.44
491.874	87.44
492.092	84.44
492.31	93.44
492.527	90.44
492.745	102.44
492.963	111.44
493.18	95.44
493.398	105.44
493.615	90.44
493.833	96.44
494.05	88.44
494.268	89.44
494.485	82.44
494.703	79.44
494.92	102.44
495.138	95.44
495.355	75.44
495.573	98.44
495.79	86.44
496.008	96.44
496.225	94.44
496.442	94.44
496.66	99.44
496.877	98.44
497.094	103.44
497.312	86.44
497.529	95.44
497.746	112.44
497.963	95.44
498.181	90.44
498.398	93.44
498.615	106.44
498.832	119.44
499.049	99.44
499.267	99.44
499.484	83.44
499.701	97.44
499.918	88.44
500.135	88.44
500.352	72.44
500.569	81.44
500.786	84.44
501.003	85.44
501.22	83.44
501.437	89.44
501.654	96.44
501.871	113.44
502.088	83.44
502.305	81.44
502.522	93.44
502.739	82.44
502.956	94.44
503.172	90.44
503.389	91.44
503.606	111.44
503.823	112.44
504.04	93.44
504.256	82.44
504.473	82.44
504.69	79.44
504.907	102.44
505.123	101.44
505.34	93.44
505.557	94.44
505.773	78.44
505.99	88.44
506.207	93.44
506.423	92.44
506.64	107.44
506.856	111.44
507.073	87.44
507.289	98.44
507.506	108.44
507.722	145.44
507.939	122.44
508.155	111.44
508.372	90.44
508.588	103.44
508.805	87.44
509.021	96.44
509.238	106.44
509.454	99.44
509.67	114.44
509.887	118.44
510.103	151.44
510.319	258.44
510.536	976.44
510.752	3540.44
510.968	947.44
511.184	197.44
511.401	120.44
511.617	101.44
511.833	109.44
512.049	95.44
512.265	81.44
512.481	94.44
512.698	99.44
512.914	111.44
513.13	101.44
