Data from Circ_1995_H10_HRD10591_00027.txt Node
Date: Wed Jan 03 11:36:52 EST 2024
User: Yrep
Spectrometer: HR+D1059
Trigger mode: 1
Integration Time (sec): 1.000000E-1
Scans to average: 1
Electric dark correction enabled: true
Nonlinearity correction enabled: false
Boxcar width: 0
XAxis mode: Wavelengths
Number of Pixels in Spectrum: 2048
>>>>>Begin Spectral Data<<<<<
223.165	-12.62
223.4	-12.62
223.635	-12.62
223.869	-17.62
224.104	-21.62
224.338	-16.62
224.573	-13.62
224.808	-14.62
225.042	-4.62
225.277	0.38
225.511	-6.62
225.746	3.38
225.98	10.38
226.215	-1.62
226.449	16.38
226.683	18.38
226.918	25.38
227.152	35.38
227.387	43.38
227.621	40.38
227.856	39.38
228.09	43.38
228.324	44.38
228.559	57.38
228.793	170.38
229.027	460.38
229.262	545.38
229.496	636.38
229.73	864.38
229.964	869.38
230.199	595.38
230.433	500.38
230.667	522.38
230.901	506.38
231.136	498.38
231.37	494.38
231.604	495.38
231.838	505.38
232.072	491.38
232.306	490.38
232.541	506.38
232.775	499.38
233.009	501.38
233.243	508.38
233.477	519.38
233.711	530.38
233.945	529.38
234.179	556.38
234.413	546.38
234.647	535.38
234.881	547.38
235.115	572.38
235.349	610.38
235.583	623.38
235.817	656.38
236.051	664.38
236.285	690.38
236.519	670.38
236.753	786.38
236.987	966.38
237.221	1471.38
237.455	1574.38
237.689	902.38
237.922	792.38
238.156	765.38
238.39	716.38
238.624	716.38
238.858	734.38
239.091	736.38
239.325	744.38
239.559	777.38
239.793	814.38
240.027	862.38
240.26	1032.38
240.494	1062.38
240.728	995.38
240.961	954.38
241.195	857.38
241.429	861.38
241.662	869.38
241.896	842.38
242.13	884.38
242.363	876.38
242.597	890.38
242.83	965.38
243.064	930.38
243.298	955.38
243.531	966.38
243.765	978.38
243.998	981.38
244.232	1003.38
244.465	1021.38
244.699	1016.38
244.932	1019.38
245.166	1025.38
245.399	1038.38
245.633	1021.38
245.866	1030.38
246.099	1063.38
246.333	1076.38
246.566	1098.38
246.8	1134.38
247.033	1130.38
247.266	1224.38
247.5	1263.38
247.733	1325.38
247.966	1295.38
248.2	1298.38
248.433	1324.38
248.666	1392.38
248.899	1513.38
249.133	1657.38
249.366	1700.38
249.599	1663.38
249.832	1624.38
250.066	1878.38
250.299	2570.38
250.532	3409.38
250.765	3127.38
250.998	2593.38
251.231	2134.38
251.465	1873.38
251.698	1769.38
251.931	1686.38
252.164	1674.38
252.397	1680.38
252.63	1691.38
252.863	1774.38
253.096	1871.38
253.329	1925.38
253.562	1835.38
253.795	1747.38
254.028	1777.38
254.261	1919.38
254.494	2103.38
254.727	2475.38
254.96	2545.38
255.193	2387.38
255.426	2474.38
255.659	3119.38
255.892	4709.38
256.124	6203.38
256.357	4906.38
256.59	3427.38
256.823	2765.38
257.056	2470.38
257.289	2292.38
257.521	2172.38
257.754	2099.38
257.987	2008.38
258.22	1964.38
258.452	1962.38
258.685	1931.38
258.918	1944.38
259.151	1950.38
259.383	2034.38
259.616	2006.38
259.849	2056.38
260.081	2239.38
260.314	2316.38
260.547	2252.38
260.779	2106.38
261.012	2062.38
261.244	2041.38
261.477	1975.38
261.71	2035.38
261.942	2070.38
262.175	2132.38
262.407	2027.38
262.64	1930.38
262.872	1918.38
263.105	1880.38
263.337	1940.38
263.57	1912.38
263.802	1920.38
264.035	1927.38
264.267	1930.38
264.499	1915.38
264.732	1964.38
264.964	1968.38
265.197	1954.38
265.429	1951.38
265.661	1965.38
265.894	1974.38
266.126	2010.38
266.358	2005.38
266.591	2038.38
266.823	2118.38
267.055	2082.38
267.287	2069.38
267.52	2094.38
267.752	2094.38
267.984	2116.38
268.216	2144.38
268.448	2173.38
268.681	2260.38
268.913	2369.38
269.145	2549.38
269.377	2523.38
269.609	2476.38
269.841	2455.38
270.073	2512.38
270.306	2839.38
270.538	2960.38
270.77	2783.38
271.002	2644.38
271.234	2631.38
271.466	2869.38
271.698	3004.38
271.93	2961.38
272.162	3034.38
272.394	2832.38
272.626	2738.38
272.858	2622.38
273.09	2582.38
273.322	2518.38
273.553	2557.38
273.785	2527.38
274.017	2544.38
274.249	2607.38
274.481	2643.38
274.713	2631.38
274.945	2745.38
275.176	2791.38
275.408	2794.38
275.64	2793.38
275.872	2882.38
276.104	2918.38
276.335	2886.38
276.567	3073.38
276.799	3373.38
277.031	3791.38
277.262	3992.38
277.494	3710.38
277.726	3356.38
277.957	3151.38
278.189	3061.38
278.421	3004.38
278.652	2940.38
278.884	2951.38
279.115	2983.38
279.347	3020.38
279.579	3054.38
279.81	3236.38
280.042	3601.38
280.273	3919.38
280.505	3759.38
280.736	3304.38
280.968	3158.38
281.199	3047.38
281.431	3039.38
281.662	3006.38
281.894	3022.38
282.125	3014.38
282.356	3228.38
282.588	3405.38
282.819	3165.38
283.051	2954.38
283.282	2917.38
283.513	2988.38
283.745	2957.38
283.976	3013.38
284.207	3003.38
284.439	2998.38
284.67	2971.38
284.901	3026.38
285.132	2983.38
285.364	3035.38
285.595	3046.38
285.826	2990.38
286.057	3053.38
286.288	3068.38
286.52	3078.38
286.751	3131.38
286.982	3058.38
287.213	3082.38
287.444	3087.38
287.675	3200.38
287.906	3220.38
288.138	3294.38
288.369	3243.38
288.6	3237.38
288.831	3227.38
289.062	3194.38
289.293	3181.38
289.524	3155.38
289.755	3175.38
289.986	3135.38
290.217	3168.38
290.448	3163.38
290.679	3240.38
290.91	3091.38
291.141	3141.38
291.371	3148.38
291.602	3136.38
291.833	3121.38
292.064	3124.38
292.295	3126.38
292.526	3131.38
292.757	3075.38
292.987	3061.38
293.218	3104.38
293.449	3092.38
293.68	3129.38
293.91	3158.38
294.141	3134.38
294.372	3108.38
294.603	3184.38
294.833	3191.38
295.064	3113.38
295.295	3185.38
295.525	3214.38
295.756	3231.38
295.987	3348.38
296.217	3645.38
296.448	3486.38
296.679	3293.38
296.909	3177.38
297.14	3286.38
297.37	3300.38
297.601	3322.38
297.831	3302.38
298.062	3353.38
298.292	3380.38
298.523	3366.38
298.753	3421.38
298.984	3373.38
299.214	3387.38
299.445	3421.38
299.675	3402.38
299.905	3481.38
300.136	3430.38
300.366	3508.38
300.597	3475.38
300.827	3640.38
301.057	3661.38
301.288	3766.38
301.518	3692.38
301.748	3681.38
301.979	3792.38
302.209	3782.38
302.439	3803.38
302.669	3687.38
302.9	3617.38
303.13	3586.38
303.36	3735.38
303.59	3888.38
303.82	4039.38
304.051	3883.38
304.281	3739.38
304.511	3701.38
304.741	3636.38
304.971	3681.38
305.201	3580.38
305.431	3584.38
305.661	3648.38
305.891	3596.38
306.121	3599.38
306.352	3668.38
306.582	3724.38
306.812	3709.38
307.042	3860.38
307.272	4070.38
307.502	4157.38
307.731	4090.38
307.961	3834.38
308.191	3762.38
308.421	3691.38
308.651	3719.38
308.881	3662.38
309.111	3720.38
309.341	3791.38
309.571	3902.38
309.8	3929.38
310.03	4058.38
310.26	4061.38
310.49	4043.38
310.72	4245.38
310.949	4313.38
311.179	4246.38
311.409	4098.38
311.639	4105.38
311.868	4109.38
312.098	4124.38
312.328	4204.38
312.557	4400.38
312.787	4618.38
313.017	4332.38
313.246	4238.38
313.476	4134.38
313.706	4194.38
313.935	4204.38
314.165	4472.38
314.394	4466.38
314.624	4338.38
314.853	4249.38
315.083	4191.38
315.312	4129.38
315.542	4143.38
315.771	4032.38
316.001	4060.38
316.23	4048.38
316.46	4099.38
316.689	4156.38
316.919	4206.38
317.148	4207.38
317.377	4230.38
317.607	4224.38
317.836	4247.38
318.065	4138.38
318.295	4144.38
318.524	4115.38
318.753	4093.38
318.983	4119.38
319.212	4127.38
319.441	4269.38
319.67	4276.38
319.9	4138.38
320.129	4168.38
320.358	4260.38
320.587	4252.38
320.816	4319.38
321.046	4410.38
321.275	4392.38
321.504	4389.38
321.733	4437.38
321.962	4532.38
322.191	4608.38
322.42	4831.38
322.649	4939.38
322.878	5014.38
323.108	5129.38
323.337	5509.38
323.566	5714.38
323.795	6100.38
324.024	6767.38
324.253	9114.38
324.482	13397.38
324.71	15616.38
324.939	15616.38
325.168	14546.38
325.397	7858.38
325.626	6370.38
325.855	6030.38
326.084	5875.38
326.313	5919.38
326.542	6276.38
326.77	7219.38
326.999	9083.38
327.228	13135.38
327.457	15616.38
327.686	15616.38
327.914	11464.38
328.143	11696.38
328.372	12621.38
328.6	10136.38
328.829	8318.38
329.058	8428.38
329.287	8661.38
329.515	8868.38
329.744	10093.38
329.972	13269.38
330.201	15616.38
330.43	15616.38
330.658	14378.38
330.887	10563.38
331.115	8724.38
331.344	7526.38
331.572	7058.38
331.801	7180.38
332.03	7077.38
332.258	6935.38
332.486	6873.38
332.715	7115.38
332.943	7532.38
333.172	7986.38
333.4	8654.38
333.629	9588.38
333.857	11460.38
334.085	14060.38
334.314	15616.38
334.542	15616.38
334.771	15616.38
334.999	13918.38
335.227	9796.38
335.455	8302.38
335.684	7444.38
335.912	7057.38
336.14	6637.38
336.369	6470.38
336.597	6446.38
336.825	6210.38
337.053	5932.38
337.281	5805.38
337.51	5626.38
337.738	5635.38
337.966	5536.38
338.194	5567.38
338.422	5455.38
338.65	5327.38
338.878	5236.38
339.106	5118.38
339.334	5190.38
339.562	5096.38
339.79	4984.38
340.018	5046.38
340.246	5019.38
340.474	5068.38
340.702	4948.38
340.93	5021.38
341.158	4896.38
341.386	4986.38
341.614	4947.38
341.842	4870.38
342.07	4771.38
342.298	4830.38
342.526	4694.38
342.754	4709.38
342.981	4718.38
343.209	4852.38
343.437	5004.38
343.665	5215.38
343.893	5460.38
344.12	5496.38
344.348	5317.38
344.576	5202.38
344.804	5170.38
345.031	5131.38
345.259	5090.38
345.487	4938.38
345.714	4824.38
345.942	4639.38
346.17	4644.38
346.397	4619.38
346.625	4647.38
346.853	4544.38
347.08	4565.38
347.308	4695.38
347.535	4810.38
347.763	4822.38
347.99	4778.38
348.218	4723.38
348.445	4880.38
348.673	4733.38
348.9	4633.38
349.128	4483.38
349.355	4400.38
349.583	4551.38
349.81	4431.38
350.037	4438.38
350.265	4482.38
350.492	4483.38
350.72	4424.38
350.947	4528.38
351.174	4712.38
351.402	4734.38
351.629	4608.38
351.856	4715.38
352.083	4766.38
352.311	4810.38
352.538	4795.38
352.765	4748.38
352.992	4661.38
353.22	4588.38
353.447	4542.38
353.674	4434.38
353.901	4390.38
354.128	4357.38
354.355	4326.38
354.583	4389.38
354.81	4292.38
355.037	4281.38
355.264	4374.38
355.491	4296.38
355.718	4349.38
355.945	4245.38
356.172	4315.38
356.399	4240.38
356.626	4285.38
356.853	4287.38
357.08	4219.38
357.307	4246.38
357.534	4262.38
357.761	4280.38
357.988	4314.38
358.215	4333.38
358.441	4364.38
358.668	4366.38
358.895	4407.38
359.122	4401.38
359.349	4567.38
359.576	4687.38
359.802	4967.38
360.029	5308.38
360.256	5218.38
360.483	4942.38
360.709	4617.38
360.936	4580.38
361.163	4582.38
361.39	4707.38
361.616	4663.38
361.843	4590.38
362.07	4572.38
362.296	4679.38
362.523	4626.38
362.749	4628.38
362.976	4551.38
363.203	4463.38
363.429	4406.38
363.656	4454.38
363.882	4444.38
364.109	4372.38
364.335	4304.38
364.562	4358.38
364.788	4362.38
365.015	4407.38
365.241	4444.38
365.468	4555.38
365.694	4562.38
365.92	4509.38
366.147	4469.38
366.373	4363.38
366.599	4419.38
366.826	4326.38
367.052	4366.38
367.278	4412.38
367.505	4429.38
367.731	4493.38
367.957	4443.38
368.184	4425.38
368.41	4595.38
368.636	4617.38
368.862	4619.38
369.089	4521.38
369.315	4502.38
369.541	4415.38
369.767	4467.38
369.993	4447.38
370.219	4543.38
370.445	4534.38
370.672	4474.38
370.898	4475.38
371.124	4556.38
371.35	4647.38
371.576	4614.38
371.802	4623.38
372.028	4554.38
372.254	4611.38
372.48	4616.38
372.706	4726.38
372.932	4794.38
373.158	4677.38
373.384	4641.38
373.61	4581.38
373.835	4632.38
374.061	4595.38
374.287	4789.38
374.513	4786.38
374.739	4934.38
374.965	4952.38
375.191	4999.38
375.416	4842.38
375.642	4727.38
375.868	4766.38
376.094	4630.38
376.319	4564.38
376.545	4554.38
376.771	4544.38
376.997	4560.38
377.222	4642.38
377.448	4556.38
377.674	4547.38
377.899	4435.38
378.125	4488.38
378.35	4533.38
378.576	4524.38
378.802	4534.38
379.027	4524.38
379.253	4482.38
379.478	4461.38
379.704	4526.38
379.929	4468.38
380.155	4527.38
380.38	4529.38
380.606	4648.38
380.831	4583.38
381.057	4624.38
381.282	4555.38
381.507	4564.38
381.733	4628.38
381.958	4639.38
382.184	4767.38
382.409	4764.38
382.634	4768.38
382.86	4819.38
383.085	4875.38
383.31	4929.38
383.535	4947.38
383.761	5070.38
383.986	5124.38
384.211	5220.38
384.436	5294.38
384.662	5312.38
384.887	5364.38
385.112	5416.38
385.337	5452.38
385.562	5470.38
385.787	5486.38
386.013	5635.38
386.238	5644.38
386.463	5531.38
386.688	5486.38
386.913	5398.38
387.138	5427.38
387.363	5458.38
387.588	5371.38
387.813	5367.38
388.038	5369.38
388.263	5392.38
388.488	5408.38
388.713	5424.38
388.938	5401.38
389.163	5329.38
389.387	5312.38
389.612	5279.38
389.837	5343.38
390.062	5232.38
390.287	5294.38
390.512	5318.38
390.736	5346.38
390.961	5414.38
391.186	5523.38
391.411	5706.38
391.636	5842.38
391.86	5934.38
392.085	5992.38
392.31	5950.38
392.534	5761.38
392.759	5678.38
392.984	5619.38
393.208	5590.38
393.433	5618.38
393.658	5600.38
393.882	5591.38
394.107	5615.38
394.331	5637.38
394.556	5722.38
394.78	5738.38
395.005	5739.38
395.229	5823.38
395.454	5904.38
395.678	6046.38
395.903	6105.38
396.127	6185.38
396.352	5980.38
396.576	5783.38
396.801	5744.38
397.025	5813.38
397.249	5969.38
397.474	6011.38
397.698	6122.38
397.922	6309.38
398.147	6410.38
398.371	6443.38
398.595	6585.38
398.82	6846.38
399.044	7486.38
399.268	8171.38
399.492	9177.38
399.717	9723.38
399.941	9555.38
400.165	9101.38
400.389	8410.38
400.613	7639.38
400.837	7109.38
401.062	6933.38
401.286	6885.38
401.51	6826.38
401.734	6821.38
401.958	6943.38
402.182	7178.38
402.406	7281.38
402.63	7290.38
402.854	7394.38
403.078	7429.38
403.302	7612.38
403.526	7753.38
403.75	7756.38
403.974	7949.38
404.198	7945.38
404.422	8144.38
404.645	8250.38
404.869	8559.38
405.093	9271.38
405.317	9836.38
405.541	9744.38
405.765	8831.38
405.988	8181.38
406.212	8365.38
406.436	8432.38
406.66	8352.38
406.883	8294.38
407.107	8726.38
407.331	9228.38
407.555	9796.38
407.778	9465.38
408.002	8714.38
408.226	8319.38
408.449	8177.38
408.673	7939.38
408.896	8143.38
409.12	8375.38
409.344	7845.38
409.567	7472.38
409.791	7559.38
410.014	7419.38
410.238	7371.38
410.461	7377.38
410.685	7454.38
410.908	7500.38
411.132	7845.38
411.355	7800.38
411.578	7562.38
411.802	7471.38
412.025	7754.38
412.249	8396.38
412.472	9109.38
412.695	9819.38
412.919	9036.38
413.142	8491.38
413.365	7935.38
413.589	7635.38
413.812	7252.38
414.035	7120.38
414.258	7190.38
414.482	7112.38
414.705	7030.38
414.928	6955.38
415.151	6954.38
415.374	6848.38
415.597	6811.38
415.821	6761.38
416.044	6802.38
416.267	6834.38
416.49	6638.38
416.713	6638.38
416.936	6739.38
417.159	6882.38
417.382	7134.38
417.605	7314.38
417.828	7485.38
418.051	7208.38
418.274	7014.38
418.497	6860.38
418.72	7034.38
418.943	6952.38
419.166	7339.38
419.389	7867.38
419.611	7930.38
419.834	7902.38
420.057	8162.38
420.28	8622.38
420.503	8328.38
420.726	8029.38
420.948	7742.38
421.171	7958.38
421.394	7800.38
421.617	7201.38
421.839	6997.38
422.062	7145.38
422.285	7321.38
422.507	7862.38
422.73	8311.38
422.953	7651.38
423.175	7366.38
423.398	7339.38
423.621	7370.38
423.843	7554.38
424.066	7440.38
424.288	7365.38
424.511	7720.38
424.733	8215.38
424.956	8597.38
425.178	8183.38
425.401	8310.38
425.623	8105.38
425.846	7087.38
426.068	7025.38
426.291	6914.38
426.513	6931.38
426.735	7106.38
426.958	7570.38
427.18	8463.38
427.402	10002.38
427.625	10571.38
427.847	10022.38
428.069	9698.38
428.292	8004.38
428.514	6870.38
428.736	6620.38
428.958	6578.38
429.181	6321.38
429.403	6335.38
429.625	6343.38
429.847	6638.38
430.069	7355.38
430.292	6779.38
430.514	6157.38
430.736	6226.38
430.958	6058.38
431.18	5988.38
431.402	5996.38
431.624	5893.38
431.846	5991.38
432.068	6027.38
432.29	6133.38
432.512	5988.38
432.734	6137.38
432.956	6054.38
433.178	6194.38
433.4	6174.38
433.622	6100.38
433.844	6024.38
434.066	6066.38
434.287	6139.38
434.509	6395.38
434.731	6560.38
434.953	6773.38
435.175	6879.38
435.397	6933.38
435.618	6863.38
435.84	7359.38
436.062	8300.38
436.284	8135.38
436.505	6805.38
436.727	6542.38
436.949	6269.38
437.17	6059.38
437.392	6070.38
437.614	6346.38
437.835	6731.38
438.057	7884.38
438.278	8565.38
438.5	8301.38
438.721	9261.38
438.943	7868.38
439.165	6631.38
439.386	6545.38
439.608	6525.38
439.829	6741.38
440.05	7224.38
440.272	7800.38
440.493	6816.38
440.715	6430.38
440.936	6348.38
441.158	6363.38
441.379	6491.38
441.6	6866.38
441.822	7199.38
442.043	7572.38
442.264	8521.38
442.486	8127.38
442.707	7129.38
442.928	7066.38
443.149	7415.38
443.371	7720.38
443.592	8168.38
443.813	9117.38
444.034	8970.38
444.255	7705.38
444.476	7549.38
444.698	7760.38
444.919	7806.38
445.14	7630.38
445.361	7527.38
445.582	7982.38
445.803	8763.38
446.024	9488.38
446.245	8996.38
446.466	7930.38
446.687	6684.38
446.908	6352.38
447.129	6025.38
447.35	5900.38
447.571	5871.38
447.792	5774.38
448.013	5941.38
448.234	6178.38
448.455	6826.38
448.675	8167.38
448.896	8515.38
449.117	7029.38
449.338	7305.38
449.559	8793.38
449.779	8968.38
450	6653.38
450.221	5983.38
450.442	5755.38
450.662	5775.38
450.883	5942.38
451.104	6182.38
451.324	5879.38
451.545	5644.38
451.766	5536.38
451.986	5453.38
452.207	5311.38
452.428	5292.38
452.648	5362.38
452.869	5416.38
453.089	5506.38
453.31	5666.38
453.53	5465.38
453.751	5380.38
453.971	5407.38
454.192	5708.38
454.412	5383.38
454.633	5282.38
454.853	5268.38
455.073	5221.38
455.294	5715.38
455.514	6340.38
455.734	5698.38
455.955	5100.38
456.175	4980.38
456.395	4894.38
456.616	4990.38
456.836	5106.38
457.056	4966.38
457.276	4910.38
457.497	5046.38
457.717	5111.38
457.937	5177.38
458.157	5194.38
458.377	5371.38
458.598	5835.38
458.818	6674.38
459.038	7640.38
459.258	7218.38
459.478	6329.38
459.698	6110.38
459.918	6189.38
460.138	6398.38
460.358	6584.38
460.578	6590.38
460.798	6737.38
461.018	6714.38
461.238	6585.38
461.458	6462.38
461.678	6421.38
461.898	6604.38
462.118	6612.38
462.338	7080.38
462.558	7195.38
462.777	7343.38
462.997	7970.38
463.217	8450.38
463.437	8113.38
463.657	7706.38
463.876	7456.38
464.096	7541.38
464.316	7497.38
464.536	7571.38
464.755	7392.38
464.975	7346.38
465.195	7980.38
465.414	8144.38
465.634	6839.38
465.854	6376.38
466.073	6116.38
466.293	5993.38
466.512	5744.38
466.732	5694.38
466.951	5738.38
467.171	5731.38
467.391	5914.38
467.61	6101.38
467.829	6600.38
468.049	8434.38
468.268	10602.38
468.488	7692.38
468.707	6533.38
468.927	6080.38
469.146	5888.38
469.365	5826.38
469.585	5755.38
469.804	6041.38
470.023	6182.38
470.243	6108.38
470.462	6227.38
470.681	6504.38
470.901	6266.38
471.12	6110.38
471.339	6175.38
471.558	6306.38
471.777	6497.38
471.997	7551.38
472.216	11905.38
472.435	15616.38
472.654	13391.38
472.873	8878.38
473.092	7605.38
473.311	6938.38
473.53	6661.38
473.749	6489.38
473.968	6991.38
474.187	7975.38
474.406	7277.38
474.625	6139.38
474.844	5888.38
475.063	5821.38
475.282	5754.38
475.501	5854.38
475.72	5767.38
475.939	5863.38
476.158	5906.38
476.377	5922.38
476.596	5924.38
476.814	6087.38
477.033	6131.38
477.252	6132.38
477.471	6290.38
477.69	6256.38
477.908	6316.38
478.127	6522.38
478.346	6629.38
478.564	6814.38
478.783	6878.38
479.002	7122.38
479.22	7180.38
479.439	7335.38
479.658	7535.38
479.876	7611.38
480.095	8027.38
480.313	8680.38
480.532	8932.38
480.751	9781.38
480.969	13620.38
481.188	15616.38
481.406	15616.38
481.624	14888.38
481.843	11558.38
482.061	9971.38
482.28	9041.38
482.498	8441.38
482.717	8014.38
482.935	7765.38
483.153	7550.38
483.372	7469.38
483.59	7335.38
483.808	7216.38
484.027	7226.38
484.245	7142.38
484.463	7086.38
484.681	7149.38
484.9	7191.38
485.118	7232.38
485.336	7271.38
485.554	7220.38
485.772	7284.38
485.99	7195.38
486.209	7433.38
486.427	7322.38
486.645	7514.38
486.863	7702.38
487.081	7497.38
487.299	7431.38
