Data from Circ_1995_H10_HRD10591_00023.txt Node
Date: Wed Jan 03 11:36:51 EST 2024
User: Yrep
Spectrometer: HR+D1059
Trigger mode: 1
Integration Time (sec): 1.000000E-1
Scans to average: 1
Electric dark correction enabled: true
Nonlinearity correction enabled: false
Boxcar width: 0
XAxis mode: Wavelengths
Number of Pixels in Spectrum: 2048
>>>>>Begin Spectral Data<<<<<
223.165	-16
223.4	-16
223.635	-16
223.869	-16
224.104	-18
224.338	-25
224.573	-20
224.808	-14
225.042	-8
225.277	-1
225.511	-5
225.746	14
225.98	17
226.215	13
226.449	-1
226.683	24
226.918	30
227.152	26
227.387	28
227.621	39
227.856	52
228.09	58
228.324	58
228.559	59
228.793	42
229.027	58
229.262	70
229.496	58
229.73	109
229.964	104
230.199	80
230.433	72
230.667	79
230.901	81
231.136	62
231.37	69
231.604	90
231.838	86
232.072	86
232.306	73
232.541	88
232.775	75
233.009	80
233.243	78
233.477	95
233.711	72
233.945	72
234.179	80
234.413	74
234.647	83
234.881	85
235.115	76
235.349	72
235.583	80
235.817	90
236.051	80
236.285	84
236.519	89
236.753	81
236.987	91
237.221	94
237.455	76
237.689	83
237.922	68
238.156	88
238.39	66
238.624	65
238.858	83
239.091	74
239.325	67
239.559	90
239.793	78
240.027	81
240.26	89
240.494	86
240.728	81
240.961	75
241.195	81
241.429	84
241.662	76
241.896	77
242.13	83
242.363	66
242.597	83
242.83	78
243.064	85
243.298	74
243.531	80
243.765	77
243.998	91
244.232	78
244.465	104
244.699	83
244.932	74
245.166	75
245.399	88
245.633	78
245.866	79
246.099	88
246.333	94
246.566	89
246.8	78
247.033	78
247.266	72
247.5	78
247.733	87
247.966	81
248.2	91
248.433	82
248.666	81
248.899	100
249.133	91
249.366	126
249.599	109
249.832	99
250.066	95
250.299	81
250.532	93
250.765	65
250.998	91
251.231	94
251.465	84
251.698	92
251.931	87
252.164	71
252.397	85
252.63	82
252.863	88
253.096	76
253.329	89
253.562	79
253.795	92
254.028	97
254.261	87
254.494	74
254.727	82
254.96	75
255.193	82
255.426	94
255.659	96
255.892	91
256.124	113
256.357	94
256.59	88
256.823	92
257.056	88
257.289	91
257.521	81
257.754	75
257.987	83
258.22	103
258.452	110
258.685	92
258.918	93
259.151	88
259.383	91
259.616	82
259.849	100
260.081	93
260.314	80
260.547	80
260.779	104
261.012	115
261.244	110
261.477	114
261.71	104
261.942	142
262.175	174
262.407	102
262.64	89
262.872	81
263.105	73
263.337	91
263.57	83
263.802	90
264.035	80
264.267	83
264.499	88
264.732	77
264.964	80
265.197	84
265.429	84
265.661	76
265.894	87
266.126	85
266.358	82
266.591	81
266.823	90
267.055	92
267.287	103
267.52	97
267.752	87
267.984	99
268.216	93
268.448	100
268.681	99
268.913	84
269.145	88
269.377	81
269.609	88
269.841	93
270.073	89
270.306	88
270.538	91
270.77	93
271.002	97
271.234	81
271.466	88
271.698	95
271.93	103
272.162	98
272.394	79
272.626	105
272.858	82
273.09	88
273.322	99
273.553	88
273.785	83
274.017	67
274.249	82
274.481	86
274.713	79
274.945	74
275.176	83
275.408	107
275.64	124
275.872	106
276.104	110
276.335	110
276.567	123
276.799	164
277.031	192
277.262	209
277.494	173
277.726	88
277.957	96
278.189	98
278.421	86
278.652	100
278.884	97
279.115	82
279.347	95
279.579	117
279.81	131
280.042	199
280.273	297
280.505	198
280.736	100
280.968	87
281.199	85
281.431	108
281.662	97
281.894	99
282.125	104
282.356	151
282.588	193
282.819	138
283.051	91
283.282	91
283.513	82
283.745	94
283.976	94
284.207	98
284.439	90
284.67	79
284.901	86
285.132	94
285.364	88
285.595	93
285.826	97
286.057	91
286.288	88
286.52	92
286.751	99
286.982	92
287.213	72
287.444	87
287.675	95
287.906	98
288.138	96
288.369	84
288.6	97
288.831	86
289.062	106
289.293	85
289.524	82
289.755	91
289.986	78
290.217	90
290.448	99
290.679	102
290.91	108
291.141	97
291.371	92
291.602	90
291.833	89
292.064	99
292.295	104
292.526	78
292.757	82
292.987	81
293.218	71
293.449	99
293.68	97
293.91	98
294.141	89
294.372	91
294.603	98
294.833	103
295.064	88
295.295	115
295.525	98
295.756	102
295.987	121
296.217	158
296.448	156
296.679	104
296.909	99
297.14	76
297.37	90
297.601	96
297.831	98
298.062	91
298.292	95
298.523	97
298.753	87
298.984	85
299.214	78
299.445	100
299.675	97
299.905	101
300.136	93
300.366	92
300.597	87
300.827	88
301.057	103
301.288	114
301.518	98
301.748	90
301.979	106
302.209	99
302.439	95
302.669	100
302.9	86
303.13	102
303.36	102
303.59	126
303.82	151
304.051	104
304.281	91
304.511	80
304.741	92
304.971	95
305.201	99
305.431	90
305.661	99
305.891	97
306.121	97
306.352	104
306.582	129
306.812	110
307.042	116
307.272	163
307.502	192
307.731	172
307.961	143
308.191	100
308.421	94
308.651	99
308.881	95
309.111	99
309.341	99
309.571	113
309.8	106
310.03	115
310.26	93
310.49	107
310.72	107
310.949	110
311.179	110
311.409	100
311.639	92
311.868	107
312.098	90
312.328	99
312.557	123
312.787	136
313.017	118
313.246	110
313.476	99
313.706	93
313.935	94
314.165	112
314.394	136
314.624	124
314.853	95
315.083	87
315.312	91
315.542	93
315.771	107
316.001	80
316.23	91
316.46	89
316.689	94
316.919	97
317.148	107
317.377	98
317.607	109
317.836	102
318.065	104
318.295	93
318.524	97
318.753	95
318.983	109
319.212	106
319.441	127
319.67	111
319.9	85
320.129	93
320.358	99
320.587	102
320.816	115
321.046	114
321.275	99
321.504	105
321.733	105
321.962	112
322.191	112
322.42	124
322.649	117
322.878	134
323.108	139
323.337	162
323.566	159
323.795	204
324.024	270
324.253	548
324.482	1204
324.71	2486
324.939	3325
325.168	1152
325.397	337
325.626	193
325.855	152
326.084	130
326.313	168
326.542	190
326.77	298
326.999	585
327.228	1299
327.457	2362
327.686	1930
327.914	666
328.143	633
328.372	760
328.6	428
328.829	204
329.058	230
329.287	215
329.515	206
329.744	293
329.972	564
330.201	1185
330.43	1769
330.658	777
330.887	335
331.115	218
331.344	140
331.572	126
331.801	139
332.03	140
332.258	126
332.486	115
332.715	101
332.943	114
333.172	130
333.4	138
333.629	178
333.857	265
334.085	510
334.314	1091
334.542	2147
334.771	2024
334.999	528
335.227	191
335.455	130
335.684	102
335.912	108
336.14	104
336.369	116
336.597	127
336.825	121
337.053	97
337.281	86
337.51	97
337.738	89
337.966	106
338.194	120
338.422	110
338.65	82
338.878	104
339.106	91
339.334	105
339.562	100
339.79	99
340.018	107
340.246	110
340.474	100
340.702	106
340.93	92
341.158	91
341.386	102
341.614	108
341.842	112
342.07	89
342.298	92
342.526	86
342.754	95
342.981	90
343.209	86
343.437	102
343.665	97
343.893	90
344.12	116
344.348	98
344.576	101
344.804	94
345.031	99
345.259	117
345.487	98
345.714	105
345.942	101
346.17	100
346.397	103
346.625	92
346.853	102
347.08	89
347.308	103
347.535	107
347.763	108
347.99	105
348.218	113
348.445	122
348.673	114
348.9	109
349.128	104
349.355	96
349.583	104
349.81	103
350.037	105
350.265	110
350.492	98
350.72	87
350.947	113
351.174	143
351.402	131
351.629	106
351.856	115
352.083	128
352.311	118
352.538	116
352.765	130
352.992	140
353.22	120
353.447	122
353.674	105
353.901	108
354.128	91
354.355	106
354.583	113
354.81	99
355.037	92
355.264	101
355.491	100
355.718	93
355.945	92
356.172	90
356.399	100
356.626	78
356.853	102
357.08	84
357.307	96
357.534	90
357.761	88
357.988	90
358.215	96
358.441	104
358.668	85
358.895	89
359.122	96
359.349	92
359.576	98
359.802	121
360.029	156
360.256	159
360.483	120
360.709	91
360.936	88
361.163	84
361.39	107
361.616	119
361.843	95
362.07	115
362.296	122
362.523	108
362.749	107
362.976	97
363.203	98
363.429	96
363.656	93
363.882	89
364.109	95
364.335	103
364.562	97
364.788	101
365.015	104
365.241	95
365.468	115
365.694	122
365.92	106
366.147	86
366.373	90
366.599	90
366.826	97
367.052	88
367.278	105
367.505	84
367.731	86
367.957	105
368.184	110
368.41	103
368.636	134
368.862	127
369.089	114
369.315	100
369.541	102
369.767	103
369.993	95
370.219	104
370.445	82
370.672	93
370.898	93
371.124	95
371.35	90
371.576	91
371.802	85
372.028	100
372.254	100
372.48	95
372.706	86
372.932	91
373.158	78
373.384	96
373.61	98
373.835	86
374.061	89
374.287	82
374.513	88
374.739	99
374.965	98
375.191	87
375.416	92
375.642	87
375.868	75
376.094	89
376.319	100
376.545	99
376.771	89
376.997	79
377.222	92
377.448	98
377.674	92
377.899	102
378.125	102
378.35	88
378.576	100
378.802	86
379.027	87
379.253	102
379.478	93
379.704	96
379.929	92
380.155	89
380.38	102
380.606	97
380.831	93
381.057	96
381.282	97
381.507	110
381.733	98
381.958	104
382.184	101
382.409	95
382.634	118
382.86	103
383.085	100
383.31	99
383.535	99
383.761	110
383.986	104
384.211	98
384.436	112
384.662	111
384.887	122
385.112	131
385.337	135
385.562	112
385.787	110
386.013	119
386.238	144
386.463	124
386.688	114
386.913	114
387.138	110
387.363	127
387.588	97
387.813	102
388.038	104
388.263	103
388.488	118
388.713	99
388.938	97
389.163	86
389.387	93
389.612	77
389.837	102
390.062	88
390.287	88
390.512	98
390.736	88
390.961	88
391.186	96
391.411	92
391.636	97
391.86	102
392.085	105
392.31	79
392.534	103
392.759	95
392.984	91
393.208	92
393.433	94
393.658	87
393.882	81
394.107	82
394.331	92
394.556	85
394.78	102
395.005	102
395.229	82
395.454	94
395.678	78
395.903	82
396.127	96
396.352	88
396.576	76
396.801	91
397.025	93
397.249	89
397.474	93
397.698	102
397.922	95
398.147	97
398.371	83
398.595	80
398.82	93
399.044	102
399.268	101
399.492	98
399.717	90
399.941	79
400.165	99
400.389	105
400.613	98
400.837	88
401.062	103
401.286	82
401.51	99
401.734	94
401.958	96
402.182	154
402.406	212
402.63	164
402.854	112
403.078	99
403.302	94
403.526	81
403.75	86
403.974	84
404.198	90
404.422	99
404.645	96
404.869	102
405.093	122
405.317	166
405.541	138
405.765	132
405.988	137
406.212	228
406.436	363
406.66	232
406.883	137
407.107	99
407.331	107
407.555	108
407.778	111
408.002	99
408.226	98
408.449	95
408.673	87
408.896	97
409.12	96
409.344	90
409.567	87
409.791	107
410.014	86
410.238	102
410.461	80
410.685	102
410.908	100
411.132	115
411.355	100
411.578	95
411.802	95
412.025	106
412.249	106
412.472	110
412.695	158
412.919	123
413.142	105
413.365	98
413.589	96
413.812	98
414.035	91
414.258	90
414.482	96
414.705	107
414.928	98
415.151	90
415.374	108
415.597	104
415.821	90
416.044	108
416.267	96
416.49	98
416.713	88
416.936	76
417.159	87
417.382	97
417.605	114
417.828	115
418.051	97
418.274	91
418.497	103
418.72	95
418.943	92
419.166	93
419.389	94
419.611	92
419.834	96
420.057	101
420.28	104
420.503	94
420.726	93
420.948	104
421.171	108
421.394	104
421.617	98
421.839	91
422.062	87
422.285	95
422.507	112
422.73	114
422.953	107
423.175	111
423.398	81
423.621	89
423.843	80
424.066	80
424.288	104
424.511	115
424.733	94
424.956	134
425.178	121
425.401	112
425.623	110
425.846	95
426.068	103
426.291	103
426.513	96
426.735	95
426.958	102
427.18	127
427.402	195
427.625	287
427.847	286
428.069	254
428.292	140
428.514	90
428.736	89
428.958	97
429.181	67
429.403	90
429.625	88
429.847	105
430.069	127
430.292	90
430.514	87
430.736	85
430.958	91
431.18	83
431.402	87
431.624	87
431.846	84
432.068	92
432.29	85
432.512	100
432.734	87
432.956	105
433.178	91
433.4	96
433.622	90
433.844	115
434.066	92
434.287	89
434.509	92
434.731	81
434.953	87
435.175	89
435.397	103
435.618	91
435.84	113
436.062	142
436.284	131
436.505	107
436.727	104
436.949	91
437.17	84
437.392	106
437.614	103
437.835	128
438.057	151
438.278	144
438.5	127
438.721	142
438.943	117
439.165	96
439.386	88
439.608	96
439.829	131
440.05	150
440.272	200
440.493	126
440.715	92
440.936	100
441.158	90
441.379	99
441.6	110
441.822	108
442.043	116
442.264	131
442.486	106
442.707	107
442.928	138
443.149	190
443.371	196
443.592	150
443.813	130
444.034	122
444.255	105
444.476	91
444.698	90
444.919	83
445.14	134
445.361	143
445.582	171
445.803	227
446.024	192
446.245	182
446.466	135
446.687	90
446.908	100
447.129	89
447.35	105
447.571	92
447.792	97
448.013	117
448.234	131
448.455	108
448.675	121
448.896	139
449.117	109
449.338	115
449.559	151
449.779	161
450	120
450.221	102
450.442	107
450.662	91
450.883	122
451.104	142
451.324	106
451.545	107
451.766	93
451.986	82
452.207	88
452.428	98
452.648	116
452.869	134
453.089	132
453.31	137
453.53	102
453.751	100
453.971	116
454.192	137
454.412	107
454.633	81
454.853	89
455.073	98
455.294	98
455.514	108
455.734	104
455.955	85
456.175	72
456.395	82
456.616	74
456.836	88
457.056	85
457.276	84
457.497	82
457.717	101
457.937	90
458.157	86
458.377	106
458.598	131
458.818	226
459.038	255
459.258	168
459.478	99
459.698	95
459.918	95
460.138	83
460.358	84
460.578	86
460.798	105
461.018	101
461.238	87
461.458	81
461.678	99
461.898	90
462.118	89
462.338	86
462.558	90
462.777	95
462.997	107
463.217	107
463.437	101
463.657	88
463.876	91
464.096	70
464.316	100
464.536	121
464.755	104
464.975	138
465.195	286
465.414	266
465.634	134
465.854	97
466.073	88
466.293	78
466.512	85
466.732	99
466.951	102
467.171	95
467.391	120
467.61	165
467.829	244
468.049	644
468.268	978
468.488	243
468.707	118
468.927	93
469.146	104
469.365	99
469.585	96
469.804	114
470.023	106
470.243	103
470.462	130
470.681	143
470.901	105
471.12	108
471.339	96
471.558	112
471.777	149
471.997	326
472.216	1300
472.435	3031
472.654	699
472.873	193
473.092	113
473.311	101
473.53	94
473.749	105
473.968	103
474.187	132
474.406	110
474.625	96
474.844	93
475.063	96
475.282	93
475.501	92
475.72	91
475.939	85
476.158	87
476.377	95
476.596	106
476.814	101
477.033	119
477.252	87
477.471	83
477.69	96
477.908	83
478.127	104
478.346	98
478.564	108
478.783	102
479.002	105
479.22	103
479.439	119
479.658	122
479.876	136
480.095	138
480.313	159
480.532	163
480.751	302
480.969	1144
481.188	5102
481.406	2903
481.624	413
481.843	143
482.061	113
482.28	105
482.498	103
482.717	104
482.935	77
483.153	98
483.372	92
483.59	106
483.808	99
484.027	103
484.245	106
484.463	105
484.681	87
484.9	81
485.118	97
485.336	81
485.554	83
485.772	105
485.99	97
486.209	111
486.427	113
486.645	113
486.863	113
487.081	111
487.299	98
487.517	95
487.735	104
487.953	100
488.171	97
488.389	95
488.607	100
488.825	95
489.043	82
489.261	83
489.479	96
489.696	92
489.914	97
490.132	84
490.35	100
490.568	87
490.786	96
491.003	95
491.221	98
491.439	97
491.657	88
491.874	105
492.092	94
492.31	86
492.527	103
492.745	111
492.963	91
493.18	92
493.398	90
493.615	88
493.833	93
494.05	90
494.268	77
494.485	98
494.703	83
494.92	96
495.138	91
495.355	98
495.573	90
495.79	93
496.008	105
496.225	89
496.442	84
496.66	98
496.877	81
497.094	94
497.312	97
497.529	88
497.746	85
497.963	96
498.181	99
498.398	114
498.615	123
498.832	111
499.049	88
499.267	106
499.484	89
499.701	98
499.918	94
500.135	100
500.352	95
500.569	87
500.786	100
501.003	97
501.22	99
501.437	87
501.654	97
501.871	146
502.088	100
502.305	108
502.522	95
502.739	83
502.956	97
503.172	102
503.389	123
503.606	134
503.823	115
504.04	94
504.256	110
504.473	93
504.69	93
504.907	87
505.123	95
505.34	99
505.557	89
505.773	89
505.99	72
506.207	94
506.423	83
506.64	93
506.856	86
507.073	102
507.289	97
507.506	96
507.722	148
507.939	136
508.155	101
508.372	93
508.588	111
508.805	94
509.021	88
509.238	109
509.454	118
509.67	112
509.887	125
510.103	149
510.319	264
510.536	970
510.752	3553
510.968	937
511.184	198
511.401	124
511.617	101
511.833	106
512.049	97
512.265	93
512.481	108
512.698	80
512.914	100
513.13	90
513.346	93
513.562	95
513.778	90
513.994	104
514.21	115
514.426	151
514.642	192
514.858	178
515.074	248
515.29	777
515.506	2921
515.721	1034
515.937	224
516.153	129
516.369	110
516.585	116
516.801	113
517.016	113
517.232	98
517.448	100
517.664	94
517.879	85
518.095	104
518.311	107
518.527	112
518.742	107
518.958	97
519.173	104
519.389	104
519.605	113
519.82	104
520.036	128
520.251	159
520.467	136
520.682	126
520.898	119
521.113	143
521.329	191
521.544	323
521.76	1065
521.975	4938
522.19	2943
522.406	561
522.621	178
522.836	118
523.052	111
523.267	109
523.482	107
523.698	106
523.913	143
524.128	138
524.343	99
524.559	102
524.774	99
524.989	94
525.204	121
525.419	117
525.634	111
525.849	98
526.064	91
526.28	93
526.495	92
526.71	89
526.925	97
527.14	97
527.355	91
527.57	100
527.785	97
527.999	90
528.214	92
528.429	92
528.644	102
528.859	98
529.074	109
529.289	173
529.503	316
529.718	124
529.933	95
530.148	100
530.363	89
530.577	87
530.792	96
531.007	93
531.221	110
531.436	91
531.651	90
531.865	82
532.08	99
532.295	100
532.509	100
532.724	88
532.938	94
533.153	103
533.367	96
533.582	99
533.796	92
534.011	89
534.225	88
534.44	99
534.654	93
534.868	98
535.083	96
535.297	98
535.511	118
535.726	112
535.94	97
536.154	103
536.369	100
536.583	90
536.797	86
537.011	86
537.225	86
537.44	83
537.654	86
537.868	91
538.082	81
538.296	82
538.51	89
538.724	99
538.938	98
539.153	111
539.367	134
539.581	103
539.795	93
540.009	95
540.222	89
540.436	99
540.65	92
540.864	79
541.078	97
541.292	101
541.506	96
541.72	93
541.934	88
542.147	99
542.361	84
542.575	80
542.789	91
543.002	87
543.216	93
543.43	102
543.644	98
543.857	98
544.071	107
544.285	91
544.498	85
544.712	82
544.925	87
545.139	86
545.352	87
545.566	92
545.779	78
545.993	83
546.206	90
546.42	84
546.633	99
546.847	99
547.06	97
547.274	75
547.487	97
547.7	75
547.914	105
548.127	108
548.34	95
548.554	94
548.767	91
548.98	105
549.193	89
549.407	96
549.62	98
549.833	100
550.046	98
550.259	100
550.473	91
550.686	92
550.899	92
551.112	97
551.325	103
551.538	106
551.751	103
551.964	80
552.177	81
552.39	96
552.603	99
552.816	92
553.029	98
553.242	106
553.455	99
553.667	123
553.88	120
554.093	110
554.306	141
554.519	125
554.732	99
554.944	92
555.157	96
555.37	87
555.583	99
555.795	99
556.008	80
556.221	99
556.433	88
556.646	91
556.859	83
557.071	86
557.284	80
557.496	89
557.709	105
557.921	89
558.134	78
558.346	87
558.559	92
558.771	96
558.984	92
559.196	88
559.409	89
559.621	106
559.833	92
560.046	97
560.258	106
560.47	151
560.683	100
560.895	95
561.107	92
561.32	77
561.532	91
561.744	103
561.956	100
562.168	84
562.381	85
562.593	93
562.805	77
563.017	95
563.229	90
563.441	96
563.653	86
563.865	83
564.077	94
564.289	91
564.501	106
564.713	102
564.925	106
565.137	120
565.349	95
565.561	107
565.773	98
565.985	85
566.197	90
566.408	97
566.62	80
566.832	80
567.044	83
567.255	97
567.467	92
567.679	87
567.891	91
568.102	88
568.314	83
568.526	89
568.737	96
568.949	98
569.161	98
569.372	87
569.584	97
569.795	104
570.007	120
570.218	326
570.43	148
570.641	104
570.853	98
571.064	89
571.276	83
571.487	82
571.698	82
571.91	87
572.121	79
572.333	88
572.544	89
572.755	92
572.966	81
573.178	88
573.389	87
573.6	90
573.811	91
574.023	90
574.234	103
574.445	84
574.656	97
574.867	90
575.078	103
575.289	83
575.501	64
575.712	86
575.923	99
576.134	100
576.345	98
576.556	87
576.767	89
576.978	86
577.188	101
577.399	108
577.61	100
577.821	102
578.032	129
578.243	326
578.454	1060
578.665	272
