Data from Circ_1995_H10_HRD10591_00061.txt Node
Date: Wed Jan 03 11:36:58 EST 2024
User: Yrep
Spectrometer: HR+D1059
Trigger mode: 1
Integration Time (sec): 1.000000E-1
Scans to average: 1
Electric dark correction enabled: true
Nonlinearity correction enabled: false
Boxcar width: 0
XAxis mode: Wavelengths
Number of Pixels in Spectrum: 2048
>>>>>Begin Spectral Data<<<<<
223.165	-19.06
223.4	-19.06
223.635	-19.06
223.869	-24.06
224.104	-12.06
224.338	-7.06
224.573	-9.06
224.808	1.94
225.042	-13.06
225.277	-6.06
225.511	-19.06
225.746	6.94
225.98	3.94
226.215	3.94
226.449	20.94
226.683	20.94
226.918	20.94
227.152	29.94
227.387	25.94
227.621	42.94
227.856	37.94
228.09	37.94
228.324	44.94
228.559	58.94
228.793	47.94
229.027	73.94
229.262	65.94
229.496	67.94
229.73	109.94
229.964	107.94
230.199	88.94
230.433	74.94
230.667	84.94
230.901	80.94
231.136	76.94
231.37	73.94
231.604	85.94
231.838	68.94
232.072	69.94
232.306	69.94
232.541	84.94
232.775	79.94
233.009	90.94
233.243	80.94
233.477	77.94
233.711	73.94
233.945	86.94
234.179	82.94
234.413	80.94
234.647	75.94
234.881	70.94
235.115	83.94
235.349	68.94
235.583	87.94
235.817	78.94
236.051	78.94
236.285	70.94
236.519	62.94
236.753	78.94
236.987	82.94
237.221	80.94
237.455	86.94
237.689	67.94
237.922	72.94
238.156	60.94
238.39	63.94
238.624	69.94
238.858	73.94
239.091	87.94
239.325	79.94
239.559	89.94
239.793	93.94
240.027	68.94
240.26	84.94
240.494	73.94
240.728	79.94
240.961	94.94
241.195	84.94
241.429	94.94
241.662	76.94
241.896	65.94
242.13	68.94
242.363	75.94
242.597	67.94
242.83	70.94
243.064	81.94
243.298	83.94
243.531	76.94
243.765	85.94
243.998	74.94
244.232	92.94
244.465	84.94
244.699	91.94
244.932	81.94
245.166	83.94
245.399	75.94
245.633	85.94
245.866	79.94
246.099	65.94
246.333	75.94
246.566	81.94
246.8	75.94
247.033	74.94
247.266	84.94
247.5	89.94
247.733	86.94
247.966	74.94
248.2	80.94
248.433	97.94
248.666	78.94
248.899	93.94
249.133	102.94
249.366	104.94
249.599	105.94
249.832	91.94
250.066	76.94
250.299	68.94
250.532	86.94
250.765	71.94
250.998	76.94
251.231	85.94
251.465	75.94
251.698	87.94
251.931	83.94
252.164	92.94
252.397	76.94
252.63	77.94
252.863	68.94
253.096	78.94
253.329	80.94
253.562	88.94
253.795	79.94
254.028	79.94
254.261	73.94
254.494	72.94
254.727	74.94
254.96	68.94
255.193	79.94
255.426	87.94
255.659	79.94
255.892	89.94
256.124	90.94
256.357	90.94
256.59	62.94
256.823	74.94
257.056	90.94
257.289	89.94
257.521	74.94
257.754	86.94
257.987	84.94
258.22	98.94
258.452	95.94
258.685	100.94
258.918	80.94
259.151	79.94
259.383	91.94
259.616	81.94
259.849	71.94
260.081	77.94
260.314	85.94
260.547	74.94
260.779	101.94
261.012	124.94
261.244	117.94
261.477	97.94
261.71	97.94
261.942	150.94
262.175	151.94
262.407	94.94
262.64	73.94
262.872	78.94
263.105	69.94
263.337	84.94
263.57	94.94
263.802	86.94
264.035	79.94
264.267	82.94
264.499	58.94
264.732	71.94
264.964	78.94
265.197	81.94
265.429	81.94
265.661	83.94
265.894	81.94
266.126	85.94
266.358	93.94
266.591	88.94
266.823	84.94
267.055	100.94
267.287	91.94
267.52	83.94
267.752	86.94
267.984	67.94
268.216	81.94
268.448	91.94
268.681	83.94
268.913	83.94
269.145	85.94
269.377	81.94
269.609	71.94
269.841	85.94
270.073	72.94
270.306	77.94
270.538	71.94
270.77	71.94
271.002	94.94
271.234	89.94
271.466	98.94
271.698	97.94
271.93	85.94
272.162	84.94
272.394	98.94
272.626	82.94
272.858	77.94
273.09	79.94
273.322	83.94
273.553	85.94
273.785	85.94
274.017	76.94
274.249	71.94
274.481	89.94
274.713	99.94
274.945	78.94
275.176	95.94
275.408	113.94
275.64	131.94
275.872	138.94
276.104	119.94
276.335	107.94
276.567	126.94
276.799	177.94
277.031	204.94
277.262	271.94
277.494	189.94
277.726	103.94
277.957	96.94
278.189	102.94
278.421	81.94
278.652	83.94
278.884	77.94
279.115	94.94
279.347	109.94
279.579	99.94
279.81	149.94
280.042	269.94
280.273	387.94
280.505	230.94
280.736	115.94
280.968	94.94
281.199	91.94
281.431	91.94
281.662	96.94
281.894	92.94
282.125	95.94
282.356	143.94
282.588	203.94
282.819	114.94
283.051	88.94
283.282	91.94
283.513	85.94
283.745	81.94
283.976	85.94
284.207	80.94
284.439	89.94
284.67	75.94
284.901	78.94
285.132	97.94
285.364	84.94
285.595	86.94
285.826	79.94
286.057	93.94
286.288	92.94
286.52	81.94
286.751	85.94
286.982	78.94
287.213	76.94
287.444	84.94
287.675	84.94
287.906	83.94
288.138	86.94
288.369	90.94
288.6	86.94
288.831	87.94
289.062	85.94
289.293	74.94
289.524	96.94
289.755	73.94
289.986	88.94
290.217	67.94
290.448	77.94
290.679	85.94
290.91	82.94
291.141	82.94
291.371	74.94
291.602	87.94
291.833	94.94
292.064	82.94
292.295	83.94
292.526	108.94
292.757	89.94
292.987	74.94
293.218	74.94
293.449	74.94
293.68	78.94
293.91	88.94
294.141	91.94
294.372	70.94
294.603	91.94
294.833	87.94
295.064	89.94
295.295	87.94
295.525	94.94
295.756	109.94
295.987	143.94
296.217	197.94
296.448	159.94
296.679	107.94
296.909	72.94
297.14	79.94
297.37	86.94
297.601	81.94
297.831	85.94
298.062	97.94
298.292	79.94
298.523	81.94
298.753	82.94
298.984	81.94
299.214	90.94
299.445	84.94
299.675	82.94
299.905	99.94
300.136	82.94
300.366	82.94
300.597	107.94
300.827	92.94
301.057	104.94
301.288	107.94
301.518	105.94
301.748	100.94
301.979	113.94
302.209	102.94
302.439	97.94
302.669	101.94
302.9	93.94
303.13	96.94
303.36	113.94
303.59	153.94
303.82	163.94
304.051	108.94
304.281	92.94
304.511	86.94
304.741	98.94
304.971	89.94
305.201	91.94
305.431	89.94
305.661	90.94
305.891	84.94
306.121	107.94
306.352	105.94
306.582	122.94
306.812	123.94
307.042	136.94
307.272	195.94
307.502	233.94
307.731	206.94
307.961	129.94
308.191	93.94
308.421	95.94
308.651	83.94
308.881	95.94
309.111	95.94
309.341	109.94
309.571	109.94
309.8	102.94
310.03	102.94
310.26	93.94
310.49	93.94
310.72	112.94
310.949	129.94
311.179	108.94
311.409	89.94
311.639	104.94
311.868	99.94
312.098	118.94
312.328	99.94
312.557	126.94
312.787	138.94
313.017	116.94
313.246	111.94
313.476	88.94
313.706	95.94
313.935	107.94
314.165	117.94
314.394	112.94
314.624	106.94
314.853	111.94
315.083	89.94
315.312	85.94
315.542	84.94
315.771	87.94
316.001	91.94
316.23	93.94
316.46	88.94
316.689	94.94
316.919	86.94
317.148	118.94
317.377	90.94
317.607	91.94
317.836	105.94
318.065	85.94
318.295	93.94
318.524	82.94
318.753	94.94
318.983	97.94
319.212	112.94
319.441	123.94
319.67	130.94
319.9	97.94
320.129	99.94
320.358	91.94
320.587	117.94
320.816	107.94
321.046	118.94
321.275	99.94
321.504	120.94
321.733	110.94
321.962	102.94
322.191	126.94
322.42	134.94
322.649	126.94
322.878	117.94
323.108	139.94
323.337	161.94
323.566	166.94
323.795	210.94
324.024	259.94
324.253	538.94
324.482	1140.94
324.71	2336.94
324.939	3086.94
325.168	1177.94
325.397	327.94
325.626	177.94
325.855	145.94
326.084	136.94
326.313	142.94
326.542	195.94
326.77	284.94
326.999	577.94
327.228	1165.94
327.457	2169.94
327.686	1753.94
327.914	663.94
328.143	746.94
328.372	967.94
328.6	531.94
328.829	220.94
329.058	217.94
329.287	245.94
329.515	211.94
329.744	333.94
329.972	694.94
330.201	1490.94
330.43	2226.94
330.658	945.94
330.887	397.94
331.115	244.94
331.344	139.94
331.572	139.94
331.801	128.94
332.03	130.94
332.258	119.94
332.486	117.94
332.715	127.94
332.943	129.94
333.172	131.94
333.4	149.94
333.629	200.94
333.857	297.94
334.085	588.94
334.314	1289.94
334.542	2641.94
334.771	2503.94
334.999	611.94
335.227	220.94
335.455	153.94
335.684	129.94
335.912	98.94
336.14	102.94
336.369	120.94
336.597	124.94
336.825	113.94
337.053	114.94
337.281	87.94
337.51	83.94
337.738	83.94
337.966	98.94
338.194	113.94
338.422	117.94
338.65	92.94
338.878	93.94
339.106	94.94
339.334	93.94
339.562	88.94
339.79	89.94
340.018	97.94
340.246	103.94
340.474	107.94
340.702	101.94
340.93	108.94
341.158	114.94
341.386	99.94
341.614	97.94
341.842	94.94
342.07	102.94
342.298	99.94
342.526	91.94
342.754	77.94
342.981	66.94
343.209	75.94
343.437	96.94
343.665	92.94
343.893	86.94
344.12	90.94
344.348	90.94
344.576	98.94
344.804	82.94
345.031	110.94
345.259	113.94
345.487	109.94
345.714	105.94
345.942	91.94
346.17	77.94
346.397	94.94
346.625	100.94
346.853	96.94
347.08	69.94
347.308	89.94
347.535	112.94
347.763	116.94
347.99	109.94
348.218	113.94
348.445	121.94
348.673	117.94
348.9	109.94
349.128	87.94
349.355	96.94
349.583	86.94
349.81	93.94
350.037	94.94
350.265	90.94
350.492	100.94
350.72	102.94
350.947	102.94
351.174	123.94
351.402	124.94
351.629	115.94
351.856	103.94
352.083	102.94
352.311	133.94
352.538	120.94
352.765	125.94
352.992	135.94
353.22	111.94
353.447	105.94
353.674	101.94
353.901	78.94
354.128	97.94
354.355	95.94
354.583	105.94
354.81	87.94
355.037	86.94
355.264	86.94
355.491	85.94
355.718	84.94
355.945	87.94
356.172	75.94
356.399	84.94
356.626	88.94
356.853	83.94
357.08	85.94
357.307	77.94
357.534	81.94
357.761	82.94
357.988	83.94
358.215	91.94
358.441	84.94
358.668	92.94
358.895	88.94
359.122	84.94
359.349	106.94
359.576	112.94
359.802	126.94
360.029	150.94
360.256	149.94
360.483	121.94
360.709	92.94
360.936	87.94
361.163	97.94
361.39	92.94
361.616	100.94
361.843	93.94
362.07	114.94
362.296	95.94
362.523	108.94
362.749	98.94
362.976	92.94
363.203	85.94
363.429	101.94
363.656	82.94
363.882	94.94
364.109	86.94
364.335	92.94
364.562	94.94
364.788	95.94
365.015	98.94
365.241	95.94
365.468	120.94
365.694	108.94
365.92	126.94
366.147	115.94
366.373	95.94
366.599	89.94
366.826	77.94
367.052	91.94
367.278	94.94
367.505	100.94
367.731	110.94
367.957	89.94
368.184	104.94
368.41	130.94
368.636	120.94
368.862	129.94
369.089	124.94
369.315	107.94
369.541	90.94
369.767	98.94
369.993	89.94
370.219	95.94
370.445	86.94
370.672	94.94
370.898	89.94
371.124	82.94
371.35	97.94
371.576	91.94
371.802	90.94
372.028	79.94
372.254	88.94
372.48	75.94
372.706	91.94
372.932	86.94
373.158	93.94
373.384	88.94
373.61	94.94
373.835	81.94
374.061	87.94
374.287	105.94
374.513	89.94
374.739	96.94
374.965	102.94
375.191	99.94
375.416	89.94
375.642	92.94
375.868	79.94
376.094	81.94
376.319	90.94
376.545	85.94
376.771	72.94
376.997	91.94
377.222	90.94
377.448	82.94
377.674	79.94
377.899	81.94
378.125	89.94
378.35	87.94
378.576	87.94
378.802	63.94
379.027	69.94
379.253	82.94
379.478	87.94
379.704	87.94
379.929	85.94
380.155	97.94
380.38	80.94
380.606	88.94
380.831	92.94
381.057	88.94
381.282	101.94
381.507	93.94
381.733	97.94
381.958	84.94
382.184	79.94
382.409	98.94
382.634	99.94
382.86	80.94
383.085	80.94
383.31	95.94
383.535	93.94
383.761	77.94
383.986	84.94
384.211	73.94
384.436	87.94
384.662	93.94
384.887	98.94
385.112	108.94
385.337	110.94
385.562	91.94
385.787	104.94
386.013	118.94
386.238	133.94
386.463	104.94
386.688	92.94
386.913	95.94
387.138	96.94
387.363	101.94
387.588	91.94
387.813	93.94
388.038	97.94
388.263	102.94
388.488	85.94
388.713	81.94
388.938	89.94
389.163	84.94
389.387	98.94
389.612	84.94
389.837	71.94
390.062	81.94
390.287	90.94
390.512	81.94
390.736	70.94
390.961	79.94
391.186	92.94
391.411	92.94
391.636	81.94
391.86	80.94
392.085	81.94
392.31	81.94
392.534	80.94
392.759	78.94
392.984	87.94
393.208	95.94
393.433	88.94
393.658	81.94
393.882	75.94
394.107	77.94
394.331	84.94
394.556	71.94
394.78	73.94
395.005	70.94
395.229	73.94
395.454	69.94
395.678	78.94
395.903	84.94
396.127	94.94
396.352	93.94
396.576	85.94
396.801	81.94
397.025	90.94
397.249	72.94
397.474	71.94
397.698	90.94
397.922	90.94
398.147	88.94
398.371	88.94
398.595	76.94
398.82	93.94
399.044	78.94
399.268	83.94
399.492	89.94
399.717	78.94
399.941	83.94
400.165	90.94
400.389	105.94
400.613	77.94
400.837	82.94
401.062	100.94
401.286	77.94
401.51	86.94
401.734	94.94
401.958	108.94
402.182	151.94
402.406	209.94
402.63	163.94
402.854	113.94
403.078	78.94
403.302	80.94
403.526	86.94
403.75	90.94
403.974	83.94
404.198	96.94
404.422	101.94
404.645	88.94
404.869	101.94
405.093	119.94
405.317	171.94
405.541	147.94
405.765	119.94
405.988	145.94
406.212	260.94
406.436	387.94
406.66	257.94
406.883	125.94
407.107	108.94
407.331	102.94
407.555	106.94
407.778	106.94
408.002	94.94
408.226	97.94
408.449	102.94
408.673	100.94
408.896	100.94
409.12	90.94
409.344	85.94
409.567	85.94
409.791	94.94
410.014	91.94
410.238	81.94
410.461	97.94
410.685	89.94
410.908	93.94
411.132	79.94
411.355	111.94
411.578	82.94
411.802	103.94
412.025	89.94
412.249	91.94
412.472	106.94
412.695	138.94
412.919	113.94
413.142	83.94
413.365	83.94
413.589	77.94
413.812	78.94
414.035	86.94
414.258	97.94
414.482	91.94
414.705	89.94
414.928	87.94
415.151	87.94
415.374	84.94
415.597	72.94
415.821	82.94
416.044	86.94
416.267	90.94
416.49	86.94
416.713	82.94
416.936	87.94
417.159	89.94
417.382	98.94
417.605	118.94
417.828	116.94
418.051	104.94
418.274	85.94
418.497	87.94
418.72	80.94
418.943	85.94
419.166	85.94
419.389	100.94
419.611	87.94
419.834	73.94
420.057	85.94
420.28	89.94
420.503	78.94
420.726	85.94
420.948	99.94
421.171	101.94
421.394	81.94
421.617	88.94
421.839	85.94
422.062	106.94
422.285	81.94
422.507	101.94
422.73	116.94
422.953	95.94
423.175	77.94
423.398	86.94
423.621	79.94
423.843	75.94
424.066	86.94
424.288	87.94
424.511	84.94
424.733	117.94
424.956	133.94
425.178	115.94
425.401	105.94
425.623	114.94
425.846	100.94
426.068	106.94
426.291	101.94
426.513	98.94
426.735	104.94
426.958	95.94
427.18	122.94
427.402	193.94
427.625	291.94
427.847	277.94
428.069	231.94
428.292	135.94
428.514	102.94
428.736	97.94
428.958	87.94
429.181	85.94
429.403	90.94
429.625	84.94
429.847	82.94
430.069	125.94
430.292	94.94
430.514	88.94
430.736	77.94
430.958	95.94
431.18	89.94
431.402	92.94
431.624	83.94
431.846	86.94
432.068	84.94
432.29	79.94
432.512	73.94
432.734	89.94
432.956	91.94
433.178	112.94
433.4	90.94
433.622	89.94
433.844	80.94
434.066	81.94
434.287	74.94
434.509	102.94
434.731	90.94
434.953	95.94
435.175	91.94
435.397	83.94
435.618	95.94
435.84	100.94
436.062	131.94
436.284	129.94
436.505	92.94
436.727	106.94
436.949	99.94
437.17	93.94
437.392	97.94
437.614	102.94
437.835	127.94
438.057	165.94
438.278	149.94
438.5	118.94
438.721	153.94
438.943	111.94
439.165	95.94
439.386	89.94
439.608	85.94
439.829	109.94
440.05	155.94
440.272	195.94
440.493	115.94
440.715	94.94
440.936	77.94
441.158	83.94
441.379	83.94
441.6	109.94
441.822	100.94
442.043	102.94
442.264	115.94
442.486	118.94
442.707	82.94
442.928	137.94
443.149	197.94
443.371	178.94
443.592	151.94
443.813	133.94
444.034	111.94
444.255	101.94
444.476	83.94
444.698	94.94
444.919	87.94
445.14	138.94
445.361	130.94
445.582	143.94
445.803	198.94
446.024	188.94
446.245	173.94
446.466	138.94
446.687	89.94
446.908	88.94
447.129	93.94
447.35	97.94
447.571	101.94
447.792	94.94
448.013	105.94
448.234	129.94
448.455	111.94
448.675	127.94
448.896	152.94
449.117	108.94
449.338	106.94
449.559	141.94
449.779	152.94
450	110.94
450.221	89.94
450.442	105.94
450.662	97.94
450.883	129.94
451.104	165.94
451.324	113.94
451.545	96.94
451.766	76.94
451.986	94.94
452.207	87.94
452.428	90.94
452.648	110.94
452.869	140.94
453.089	158.94
453.31	158.94
453.53	121.94
453.751	105.94
453.971	130.94
454.192	144.94
454.412	106.94
454.633	87.94
454.853	87.94
455.073	60.94
455.294	95.94
455.514	109.94
455.734	78.94
455.955	82.94
456.175	99.94
456.395	77.94
456.616	84.94
456.836	78.94
457.056	88.94
457.276	73.94
457.497	82.94
457.717	91.94
457.937	88.94
458.157	104.94
458.377	109.94
458.598	124.94
458.818	254.94
459.038	264.94
459.258	159.94
459.478	101.94
459.698	88.94
459.918	71.94
460.138	90.94
460.358	75.94
460.578	87.94
460.798	85.94
461.018	76.94
461.238	97.94
461.458	67.94
461.678	79.94
461.898	89.94
462.118	82.94
462.338	80.94
462.558	81.94
462.777	85.94
462.997	108.94
463.217	119.94
463.437	99.94
463.657	94.94
463.876	98.94
464.096	92.94
464.316	89.94
464.536	90.94
464.755	108.94
464.975	139.94
465.195	296.94
465.414	302.94
465.634	122.94
465.854	87.94
466.073	101.94
466.293	84.94
466.512	93.94
466.732	91.94
466.951	82.94
467.171	105.94
467.391	122.94
467.61	170.94
467.829	268.94
468.049	843.94
468.268	1359.94
468.488	307.94
468.707	109.94
468.927	97.94
469.146	100.94
469.365	97.94
469.585	98.94
469.804	123.94
470.023	120.94
470.243	123.94
470.462	130.94
470.681	149.94
470.901	112.94
471.12	106.94
471.339	116.94
471.558	137.94
471.777	183.94
471.997	398.94
472.216	1609.94
472.435	3974.94
472.654	856.94
472.873	196.94
473.092	122.94
473.311	107.94
473.53	97.94
473.749	86.94
473.968	99.94
474.187	123.94
474.406	113.94
474.625	85.94
474.844	92.94
475.063	86.94
475.282	93.94
475.501	89.94
475.72	80.94
475.939	85.94
476.158	83.94
476.377	91.94
476.596	91.94
476.814	91.94
477.033	116.94
477.252	95.94
477.471	89.94
477.69	84.94
477.908	90.94
478.127	100.94
478.346	83.94
478.564	90.94
478.783	106.94
479.002	107.94
479.22	118.94
479.439	147.94
479.658	159.94
479.876	135.94
480.095	135.94
480.313	157.94
480.532	209.94
480.751	380.94
480.969	1473.94
481.188	6437.94
481.406	3688.94
481.624	480.94
481.843	164.94
482.061	136.94
482.28	94.94
482.498	100.94
482.717	103.94
482.935	86.94
483.153	81.94
483.372	80.94
483.59	84.94
483.808	81.94
484.027	106.94
484.245	95.94
484.463	109.94
484.681	103.94
484.9	94.94
485.118	97.94
485.336	94.94
485.554	100.94
485.772	114.94
485.99	106.94
486.209	119.94
486.427	105.94
486.645	141.94
486.863	126.94
487.081	115.94
487.299	101.94
487.517	99.94
487.735	94.94
487.953	101.94
488.171	81.94
488.389	92.94
488.607	120.94
488.825	94.94
489.043	88.94
489.261	81.94
489.479	84.94
489.696	86.94
489.914	77.94
490.132	87.94
490.35	101.94
490.568	87.94
490.786	89.94
491.003	75.94
491.221	89.94
491.439	100.94
491.657	101.94
491.874	87.94
492.092	99.94
492.31	90.94
492.527	99.94
492.745	107.94
492.963	79.94
493.18	93.94
493.398	90.94
493.615	94.94
493.833	93.94
494.05	74.94
494.268	77.94
494.485	101.94
494.703	85.94
494.92	105.94
495.138	78.94
495.355	85.94
495.573	80.94
495.79	81.94
496.008	87.94
496.225	86.94
496.442	89.94
496.66	83.94
496.877	90.94
497.094	94.94
497.312	83.94
497.529	79.94
497.746	106.94
497.963	91.94
498.181	90.94
498.398	89.94
498.615	130.94
498.832	102.94
499.049	84.94
499.267	91.94
499.484	88.94
499.701	93.94
499.918	87.94
500.135	90.94
500.352	92.94
500.569	94.94
500.786	93.94
501.003	70.94
501.22	86.94
501.437	85.94
501.654	91.94
501.871	149.94
502.088	109.94
502.305	103.94
502.522	95.94
502.739	86.94
502.956	105.94
503.172	99.94
503.389	107.94
503.606	129.94
503.823	122.94
504.04	79.94
504.256	88.94
504.473	80.94
504.69	88.94
504.907	97.94
505.123	84.94
505.34	80.94
505.557	68.94
505.773	85.94
505.99	99.94
506.207	94.94
506.423	87.94
506.64	98.94
506.856	96.94
507.073	74.94
507.289	100.94
507.506	122.94
507.722	149.94
507.939	147.94
508.155	111.94
508.372	85.94
508.588	103.94
508.805	90.94
509.021	100.94
509.238	107.94
509.454	105.94
509.67	85.94
509.887	137.94
510.103	151.94
510.319	269.94
510.536	1164.94
510.752	4119.94
510.968	1049.94
511.184	201.94
511.401	147.94
511.617	125.94
511.833	113.94
512.049	112.94
512.265	97.94
512.481	101.94
512.698	99.94
512.914	97.94
513.13	96.94
513.346	105.94
