Data from Circ_1995_H10_HRD10591_00040.txt Node
Date: Wed Jan 03 11:36:54 EST 2024
User: Yrep
Spectrometer: HR+D1059
Trigger mode: 1
Integration Time (sec): 1.000000E-1
Scans to average: 1
Electric dark correction enabled: true
Nonlinearity correction enabled: false
Boxcar width: 0
XAxis mode: Wavelengths
Number of Pixels in Spectrum: 2048
>>>>>Begin Spectral Data<<<<<
223.165	-24.81
223.4	-24.81
223.635	-24.81
223.869	-19.81
224.104	-23.81
224.338	-17.81
224.573	-23.81
224.808	-11.81
225.042	-0.81
225.277	5.19
225.511	-9.81
225.746	2.19
225.98	13.19
226.215	15.19
226.449	13.19
226.683	27.19
226.918	21.19
227.152	35.19
227.387	25.19
227.621	38.19
227.856	37.19
228.09	57.19
228.324	64.19
228.559	64.19
228.793	55.19
229.027	75.19
229.262	68.19
229.496	75.19
229.73	112.19
229.964	103.19
230.199	90.19
230.433	84.19
230.667	97.19
230.901	88.19
231.136	70.19
231.37	81.19
231.604	95.19
231.838	87.19
232.072	101.19
232.306	95.19
232.541	90.19
232.775	81.19
233.009	85.19
233.243	86.19
233.477	84.19
233.711	89.19
233.945	83.19
234.179	90.19
234.413	91.19
234.647	85.19
234.881	76.19
235.115	89.19
235.349	66.19
235.583	93.19
235.817	80.19
236.051	89.19
236.285	82.19
236.519	88.19
236.753	83.19
236.987	105.19
237.221	86.19
237.455	114.19
237.689	108.19
237.922	94.19
238.156	87.19
238.39	81.19
238.624	90.19
238.858	89.19
239.091	79.19
239.325	100.19
239.559	82.19
239.793	91.19
240.027	92.19
240.26	80.19
240.494	91.19
240.728	87.19
240.961	86.19
241.195	86.19
241.429	74.19
241.662	66.19
241.896	73.19
242.13	78.19
242.363	82.19
242.597	73.19
242.83	77.19
243.064	79.19
243.298	81.19
243.531	81.19
243.765	84.19
243.998	82.19
244.232	84.19
244.465	99.19
244.699	88.19
244.932	68.19
245.166	72.19
245.399	81.19
245.633	85.19
245.866	85.19
246.099	82.19
246.333	77.19
246.566	83.19
246.8	94.19
247.033	93.19
247.266	78.19
247.5	77.19
247.733	96.19
247.966	97.19
248.2	82.19
248.433	84.19
248.666	82.19
248.899	82.19
249.133	86.19
249.366	97.19
249.599	103.19
249.832	84.19
250.066	94.19
250.299	82.19
250.532	98.19
250.765	94.19
250.998	94.19
251.231	76.19
251.465	80.19
251.698	92.19
251.931	96.19
252.164	93.19
252.397	88.19
252.63	87.19
252.863	73.19
253.096	70.19
253.329	82.19
253.562	90.19
253.795	90.19
254.028	86.19
254.261	101.19
254.494	95.19
254.727	79.19
254.96	94.19
255.193	99.19
255.426	67.19
255.659	90.19
255.892	99.19
256.124	100.19
256.357	94.19
256.59	90.19
256.823	85.19
257.056	95.19
257.289	98.19
257.521	83.19
257.754	81.19
257.987	96.19
258.22	94.19
258.452	114.19
258.685	99.19
258.918	93.19
259.151	93.19
259.383	82.19
259.616	93.19
259.849	93.19
260.081	85.19
260.314	99.19
260.547	91.19
260.779	108.19
261.012	113.19
261.244	114.19
261.477	126.19
261.71	122.19
261.942	149.19
262.175	173.19
262.407	104.19
262.64	91.19
262.872	81.19
263.105	94.19
263.337	88.19
263.57	85.19
263.802	88.19
264.035	71.19
264.267	81.19
264.499	77.19
264.732	97.19
264.964	92.19
265.197	85.19
265.429	81.19
265.661	91.19
265.894	83.19
266.126	88.19
266.358	82.19
266.591	91.19
266.823	95.19
267.055	102.19
267.287	92.19
267.52	98.19
267.752	86.19
267.984	94.19
268.216	108.19
268.448	102.19
268.681	101.19
268.913	94.19
269.145	100.19
269.377	69.19
269.609	87.19
269.841	95.19
270.073	85.19
270.306	94.19
270.538	90.19
270.77	92.19
271.002	93.19
271.234	100.19
271.466	94.19
271.698	94.19
271.93	89.19
272.162	97.19
272.394	85.19
272.626	90.19
272.858	81.19
273.09	87.19
273.322	97.19
273.553	81.19
273.785	89.19
274.017	82.19
274.249	85.19
274.481	87.19
274.713	109.19
274.945	100.19
275.176	97.19
275.408	104.19
275.64	134.19
275.872	153.19
276.104	116.19
276.335	114.19
276.567	125.19
276.799	160.19
277.031	217.19
277.262	254.19
277.494	193.19
277.726	118.19
277.957	93.19
278.189	90.19
278.421	90.19
278.652	98.19
278.884	97.19
279.115	100.19
279.347	107.19
279.579	104.19
279.81	161.19
280.042	239.19
280.273	335.19
280.505	238.19
280.736	114.19
280.968	102.19
281.199	99.19
281.431	106.19
281.662	92.19
281.894	100.19
282.125	108.19
282.356	143.19
282.588	204.19
282.819	143.19
283.051	111.19
283.282	89.19
283.513	99.19
283.745	85.19
283.976	97.19
284.207	86.19
284.439	91.19
284.67	96.19
284.901	83.19
285.132	111.19
285.364	93.19
285.595	90.19
285.826	98.19
286.057	100.19
286.288	99.19
286.52	89.19
286.751	84.19
286.982	100.19
287.213	92.19
287.444	103.19
287.675	81.19
287.906	74.19
288.138	101.19
288.369	99.19
288.6	90.19
288.831	85.19
289.062	102.19
289.293	94.19
289.524	92.19
289.755	96.19
289.986	73.19
290.217	87.19
290.448	76.19
290.679	89.19
290.91	91.19
291.141	92.19
291.371	104.19
291.602	102.19
291.833	88.19
292.064	101.19
292.295	103.19
292.526	99.19
292.757	92.19
292.987	97.19
293.218	79.19
293.449	79.19
293.68	101.19
293.91	99.19
294.141	87.19
294.372	101.19
294.603	109.19
294.833	101.19
295.064	96.19
295.295	118.19
295.525	99.19
295.756	92.19
295.987	140.19
296.217	180.19
296.448	176.19
296.679	112.19
296.909	97.19
297.14	102.19
297.37	90.19
297.601	95.19
297.831	94.19
298.062	95.19
298.292	82.19
298.523	109.19
298.753	94.19
298.984	96.19
299.214	88.19
299.445	89.19
299.675	104.19
299.905	106.19
300.136	101.19
300.366	110.19
300.597	88.19
300.827	112.19
301.057	106.19
301.288	127.19
301.518	116.19
301.748	102.19
301.979	101.19
302.209	106.19
302.439	103.19
302.669	95.19
302.9	94.19
303.13	105.19
303.36	125.19
303.59	145.19
303.82	178.19
304.051	122.19
304.281	101.19
304.511	86.19
304.741	75.19
304.971	89.19
305.201	102.19
305.431	97.19
305.661	89.19
305.891	97.19
306.121	94.19
306.352	105.19
306.582	121.19
306.812	114.19
307.042	140.19
307.272	191.19
307.502	213.19
307.731	202.19
307.961	138.19
308.191	107.19
308.421	97.19
308.651	98.19
308.881	106.19
309.111	102.19
309.341	122.19
309.571	115.19
309.8	107.19
310.03	121.19
310.26	102.19
310.49	101.19
310.72	100.19
310.949	131.19
311.179	145.19
311.409	102.19
311.639	109.19
311.868	103.19
312.098	101.19
312.328	109.19
312.557	122.19
312.787	138.19
313.017	130.19
313.246	98.19
313.476	103.19
313.706	110.19
313.935	116.19
314.165	119.19
314.394	132.19
314.624	109.19
314.853	114.19
315.083	107.19
315.312	101.19
315.542	90.19
315.771	94.19
316.001	103.19
316.23	98.19
316.46	102.19
316.689	86.19
316.919	99.19
317.148	115.19
317.377	106.19
317.607	124.19
317.836	86.19
318.065	101.19
318.295	105.19
318.524	106.19
318.753	102.19
318.983	98.19
319.212	116.19
319.441	121.19
319.67	127.19
319.9	101.19
320.129	95.19
320.358	108.19
320.587	102.19
320.816	110.19
321.046	124.19
321.275	107.19
321.504	103.19
321.733	103.19
321.962	108.19
322.191	111.19
322.42	148.19
322.649	133.19
322.878	125.19
323.108	140.19
323.337	182.19
323.566	171.19
323.795	216.19
324.024	293.19
324.253	609.19
324.482	1354.19
324.71	2919.19
324.939	3985.19
325.168	1382.19
325.397	346.19
325.626	209.19
325.855	171.19
326.084	173.19
326.313	173.19
326.542	222.19
326.77	334.19
326.999	677.19
327.228	1485.19
327.457	2763.19
327.686	2245.19
327.914	743.19
328.143	713.19
328.372	971.19
328.6	533.19
328.829	255.19
329.058	248.19
329.287	251.19
329.515	225.19
329.744	324.19
329.972	651.19
330.201	1411.19
330.43	2122.19
330.658	903.19
330.887	399.19
331.115	234.19
331.344	145.19
331.572	147.19
331.801	139.19
332.03	134.19
332.258	133.19
332.486	120.19
332.715	133.19
332.943	133.19
333.172	148.19
333.4	153.19
333.629	183.19
333.857	293.19
334.085	578.19
334.314	1294.19
334.542	2599.19
334.771	2452.19
334.999	585.19
335.227	225.19
335.455	149.19
335.684	143.19
335.912	119.19
336.14	113.19
336.369	102.19
336.597	118.19
336.825	118.19
337.053	101.19
337.281	109.19
337.51	102.19
337.738	110.19
337.966	100.19
338.194	106.19
338.422	117.19
338.65	100.19
338.878	112.19
339.106	103.19
339.334	105.19
339.562	101.19
339.79	104.19
340.018	95.19
340.246	107.19
340.474	113.19
340.702	105.19
340.93	101.19
341.158	97.19
341.386	105.19
341.614	122.19
341.842	114.19
342.07	86.19
342.298	99.19
342.526	89.19
342.754	98.19
342.981	98.19
343.209	96.19
343.437	87.19
343.665	102.19
343.893	93.19
344.12	86.19
344.348	75.19
344.576	95.19
344.804	104.19
345.031	123.19
345.259	126.19
345.487	109.19
345.714	112.19
345.942	112.19
346.17	97.19
346.397	106.19
346.625	110.19
346.853	102.19
347.08	111.19
347.308	107.19
347.535	119.19
347.763	107.19
347.99	103.19
348.218	102.19
348.445	133.19
348.673	124.19
348.9	104.19
349.128	101.19
349.355	93.19
349.583	116.19
349.81	89.19
350.037	102.19
350.265	98.19
350.492	111.19
350.72	106.19
350.947	114.19
351.174	123.19
351.402	126.19
351.629	130.19
351.856	131.19
352.083	113.19
352.311	137.19
352.538	132.19
352.765	130.19
352.992	135.19
353.22	124.19
353.447	114.19
353.674	111.19
353.901	109.19
354.128	116.19
354.355	102.19
354.583	103.19
354.81	94.19
355.037	88.19
355.264	95.19
355.491	86.19
355.718	94.19
355.945	77.19
356.172	100.19
356.399	98.19
356.626	90.19
356.853	97.19
357.08	93.19
357.307	90.19
357.534	98.19
357.761	99.19
357.988	90.19
358.215	82.19
358.441	95.19
358.668	103.19
358.895	88.19
359.122	93.19
359.349	89.19
359.576	107.19
359.802	128.19
360.029	167.19
360.256	163.19
360.483	128.19
360.709	103.19
360.936	99.19
361.163	117.19
361.39	113.19
361.616	121.19
361.843	102.19
362.07	109.19
362.296	110.19
362.523	103.19
362.749	103.19
362.976	101.19
363.203	103.19
363.429	89.19
363.656	110.19
363.882	113.19
364.109	98.19
364.335	97.19
364.562	90.19
364.788	103.19
365.015	113.19
365.241	114.19
365.468	121.19
365.694	114.19
365.92	109.19
366.147	128.19
366.373	88.19
366.599	108.19
366.826	98.19
367.052	108.19
367.278	102.19
367.505	92.19
367.731	101.19
367.957	109.19
368.184	89.19
368.41	110.19
368.636	130.19
368.862	124.19
369.089	120.19
369.315	111.19
369.541	110.19
369.767	97.19
369.993	97.19
370.219	110.19
370.445	91.19
370.672	91.19
370.898	97.19
371.124	86.19
371.35	93.19
371.576	99.19
371.802	86.19
372.028	78.19
372.254	94.19
372.48	93.19
372.706	101.19
372.932	96.19
373.158	99.19
373.384	91.19
373.61	105.19
373.835	93.19
374.061	96.19
374.287	83.19
374.513	98.19
374.739	97.19
374.965	87.19
375.191	109.19
375.416	80.19
375.642	97.19
375.868	99.19
376.094	110.19
376.319	108.19
376.545	104.19
376.771	84.19
376.997	82.19
377.222	97.19
377.448	99.19
377.674	92.19
377.899	99.19
378.125	85.19
378.35	100.19
378.576	97.19
378.802	111.19
379.027	98.19
379.253	102.19
379.478	93.19
379.704	109.19
379.929	94.19
380.155	90.19
380.38	100.19
380.606	98.19
380.831	114.19
381.057	113.19
381.282	98.19
381.507	103.19
381.733	101.19
381.958	97.19
382.184	108.19
382.409	110.19
382.634	113.19
382.86	112.19
383.085	102.19
383.31	102.19
383.535	98.19
383.761	114.19
383.986	105.19
384.211	100.19
384.436	114.19
384.662	107.19
384.887	113.19
385.112	100.19
385.337	109.19
385.562	100.19
385.787	121.19
386.013	112.19
386.238	153.19
386.463	125.19
386.688	109.19
386.913	103.19
387.138	106.19
387.363	102.19
387.588	95.19
387.813	116.19
388.038	113.19
388.263	102.19
388.488	111.19
388.713	109.19
388.938	95.19
389.163	101.19
389.387	93.19
389.612	105.19
389.837	80.19
390.062	101.19
390.287	90.19
390.512	111.19
390.736	88.19
390.961	105.19
391.186	85.19
391.411	89.19
391.636	96.19
391.86	89.19
392.085	90.19
392.31	110.19
392.534	99.19
392.759	85.19
392.984	92.19
393.208	79.19
393.433	98.19
393.658	94.19
393.882	93.19
394.107	95.19
394.331	92.19
394.556	89.19
394.78	98.19
395.005	87.19
395.229	87.19
395.454	83.19
395.678	96.19
395.903	94.19
396.127	110.19
396.352	96.19
396.576	85.19
396.801	106.19
397.025	99.19
397.249	93.19
397.474	90.19
397.698	94.19
397.922	93.19
398.147	98.19
398.371	102.19
398.595	90.19
398.82	80.19
399.044	95.19
399.268	113.19
399.492	91.19
399.717	101.19
399.941	97.19
400.165	86.19
400.389	93.19
400.613	95.19
400.837	91.19
401.062	100.19
401.286	96.19
401.51	87.19
401.734	98.19
401.958	105.19
402.182	164.19
402.406	237.19
402.63	174.19
402.854	115.19
403.078	105.19
403.302	90.19
403.526	108.19
403.75	94.19
403.974	87.19
404.198	90.19
404.422	95.19
404.645	106.19
404.869	107.19
405.093	125.19
405.317	161.19
405.541	162.19
405.765	138.19
405.988	157.19
406.212	256.19
406.436	372.19
406.66	253.19
406.883	154.19
407.107	116.19
407.331	120.19
407.555	118.19
407.778	115.19
408.002	106.19
408.226	98.19
408.449	110.19
408.673	115.19
408.896	109.19
409.12	101.19
409.344	99.19
409.567	92.19
409.791	95.19
410.014	102.19
410.238	96.19
410.461	105.19
410.685	100.19
410.908	112.19
411.132	114.19
411.355	106.19
411.578	84.19
411.802	91.19
412.025	82.19
412.249	106.19
412.472	132.19
412.695	155.19
412.919	124.19
413.142	86.19
413.365	90.19
413.589	93.19
413.812	100.19
414.035	102.19
414.258	112.19
414.482	107.19
414.705	78.19
414.928	86.19
415.151	74.19
415.374	103.19
415.597	96.19
415.821	90.19
416.044	106.19
416.267	84.19
416.49	90.19
416.713	99.19
416.936	89.19
417.159	88.19
417.382	108.19
417.605	114.19
417.828	122.19
418.051	114.19
418.274	95.19
418.497	98.19
418.72	98.19
418.943	78.19
419.166	92.19
419.389	105.19
419.611	90.19
419.834	99.19
420.057	99.19
420.28	91.19
420.503	94.19
420.726	92.19
420.948	98.19
421.171	130.19
421.394	101.19
421.617	101.19
421.839	92.19
422.062	92.19
422.285	87.19
422.507	120.19
422.73	121.19
422.953	98.19
423.175	91.19
423.398	94.19
423.621	79.19
423.843	86.19
424.066	85.19
424.288	90.19
424.511	101.19
424.733	101.19
424.956	123.19
425.178	111.19
425.401	103.19
425.623	108.19
425.846	108.19
426.068	114.19
426.291	112.19
426.513	94.19
426.735	89.19
426.958	106.19
427.18	123.19
427.402	211.19
427.625	319.19
427.847	301.19
428.069	298.19
428.292	159.19
428.514	115.19
428.736	92.19
428.958	108.19
429.181	97.19
429.403	95.19
429.625	96.19
429.847	102.19
430.069	112.19
430.292	106.19
430.514	98.19
430.736	97.19
430.958	89.19
431.18	92.19
431.402	90.19
431.624	79.19
431.846	98.19
432.068	79.19
432.29	79.19
432.512	98.19
432.734	76.19
432.956	101.19
433.178	93.19
433.4	101.19
433.622	107.19
433.844	101.19
434.066	90.19
434.287	92.19
434.509	96.19
434.731	98.19
434.953	83.19
435.175	106.19
435.397	101.19
435.618	111.19
435.84	127.19
436.062	168.19
436.284	145.19
436.505	124.19
436.727	124.19
436.949	93.19
437.17	88.19
437.392	81.19
437.614	103.19
437.835	121.19
438.057	172.19
438.278	155.19
438.5	116.19
438.721	151.19
438.943	119.19
439.165	89.19
439.386	102.19
439.608	114.19
439.829	118.19
440.05	193.19
440.272	230.19
440.493	131.19
440.715	96.19
440.936	107.19
441.158	109.19
441.379	110.19
441.6	100.19
441.822	108.19
442.043	119.19
442.264	126.19
442.486	122.19
442.707	113.19
442.928	154.19
443.149	210.19
443.371	191.19
443.592	153.19
443.813	146.19
444.034	128.19
444.255	98.19
444.476	92.19
444.698	102.19
444.919	99.19
445.14	149.19
445.361	146.19
445.582	170.19
445.803	218.19
446.024	217.19
446.245	201.19
446.466	155.19
446.687	93.19
446.908	105.19
447.129	93.19
447.35	104.19
447.571	108.19
447.792	111.19
448.013	117.19
448.234	126.19
448.455	128.19
448.675	137.19
448.896	154.19
449.117	110.19
449.338	132.19
449.559	166.19
449.779	164.19
450	103.19
450.221	106.19
450.442	97.19
450.662	123.19
450.883	143.19
451.104	161.19
451.324	127.19
451.545	105.19
451.766	87.19
451.986	98.19
452.207	96.19
452.428	114.19
452.648	100.19
452.869	149.19
453.089	164.19
453.31	163.19
453.53	107.19
453.751	111.19
453.971	142.19
454.192	163.19
454.412	122.19
454.633	96.19
454.853	107.19
455.073	98.19
455.294	98.19
455.514	103.19
455.734	92.19
455.955	92.19
456.175	83.19
456.395	86.19
456.616	86.19
456.836	93.19
457.056	83.19
457.276	80.19
457.497	87.19
457.717	106.19
457.937	81.19
458.157	94.19
458.377	109.19
458.598	147.19
458.818	262.19
459.038	281.19
459.258	177.19
459.478	107.19
459.698	94.19
459.918	94.19
460.138	84.19
460.358	97.19
460.578	91.19
460.798	99.19
461.018	83.19
461.238	92.19
461.458	98.19
461.678	85.19
461.898	86.19
462.118	88.19
462.338	85.19
462.558	89.19
462.777	102.19
462.997	116.19
463.217	115.19
463.437	96.19
463.657	86.19
463.876	95.19
464.096	92.19
464.316	114.19
464.536	109.19
464.755	116.19
464.975	129.19
465.195	294.19
465.414	301.19
465.634	139.19
465.854	97.19
466.073	93.19
466.293	97.19
466.512	89.19
466.732	91.19
466.951	107.19
467.171	119.19
467.391	128.19
467.61	171.19
467.829	265.19
468.049	779.19
468.268	1192.19
468.488	301.19
468.707	147.19
468.927	108.19
469.146	109.19
469.365	93.19
469.585	86.19
469.804	106.19
470.023	130.19
470.243	115.19
470.462	141.19
470.681	157.19
470.901	115.19
471.12	116.19
471.339	116.19
471.558	130.19
471.777	182.19
471.997	374.19
472.216	1461.19
472.435	3627.19
472.654	794.19
472.873	218.19
473.092	114.19
473.311	104.19
473.53	115.19
473.749	102.19
473.968	118.19
474.187	134.19
474.406	103.19
474.625	102.19
474.844	85.19
475.063	80.19
475.282	97.19
475.501	93.19
475.72	100.19
475.939	97.19
476.158	103.19
476.377	81.19
476.596	115.19
476.814	113.19
477.033	97.19
477.252	95.19
477.471	84.19
477.69	92.19
477.908	99.19
478.127	92.19
478.346	94.19
478.564	103.19
478.783	131.19
479.002	115.19
479.22	116.19
479.439	141.19
479.658	140.19
479.876	133.19
480.095	142.19
480.313	162.19
480.532	198.19
480.751	359.19
480.969	1304.19
481.188	5958.19
481.406	3453.19
481.624	480.19
481.843	166.19
482.061	124.19
482.28	112.19
482.498	97.19
482.717	101.19
482.935	97.19
483.153	100.19
483.372	86.19
483.59	88.19
483.808	90.19
484.027	106.19
484.245	96.19
484.463	102.19
484.681	100.19
484.9	88.19
485.118	94.19
485.336	99.19
485.554	101.19
485.772	106.19
485.99	122.19
486.209	117.19
486.427	122.19
486.645	140.19
486.863	136.19
487.081	109.19
487.299	102.19
487.517	95.19
487.735	111.19
487.953	107.19
488.171	108.19
488.389	100.19
488.607	111.19
488.825	102.19
489.043	95.19
489.261	106.19
489.479	86.19
489.696	94.19
489.914	105.19
490.132	79.19
490.35	109.19
490.568	93.19
490.786	90.19
491.003	99.19
491.221	97.19
491.439	109.19
491.657	99.19
491.874	103.19
492.092	90.19
492.31	89.19
492.527	96.19
492.745	108.19
492.963	101.19
493.18	84.19
493.398	99.19
493.615	122.19
493.833	102.19
494.05	95.19
494.268	68.19
494.485	91.19
494.703	97.19
494.92	100.19
495.138	99.19
495.355	97.19
495.573	102.19
495.79	98.19
496.008	97.19
496.225	90.19
496.442	86.19
496.66	99.19
496.877	89.19
497.094	104.19
497.312	84.19
497.529	93.19
497.746	95.19
497.963	100.19
498.181	94.19
498.398	101.19
498.615	135.19
498.832	111.19
499.049	91.19
499.267	94.19
499.484	96.19
499.701	87.19
499.918	94.19
500.135	84.19
500.352	101.19
500.569	108.19
500.786	96.19
501.003	93.19
501.22	109.19
501.437	102.19
501.654	110.19
501.871	138.19
502.088	114.19
502.305	103.19
502.522	101.19
502.739	91.19
502.956	103.19
503.172	90.19
503.389	115.19
503.606	130.19
503.823	121.19
504.04	93.19
504.256	96.19
504.473	109.19
504.69	91.19
504.907	97.19
505.123	93.19
505.34	100.19
505.557	95.19
505.773	99.19
505.99	103.19
506.207	95.19
506.423	86.19
506.64	91.19
506.856	85.19
507.073	91.19
507.289	90.19
507.506	110.19
507.722	148.19
507.939	144.19
508.155	118.19
508.372	97.19
508.588	101.19
508.805	98.19
509.021	99.19
509.238	113.19
509.454	115.19
509.67	100.19
509.887	121.19
510.103	154.19
510.319	267.19
