Data from Circ_1995_H10_HRD10591_00087.txt Node
Date: Wed Jan 03 11:37:04 EST 2024
User: Yrep
Spectrometer: HR+D1059
Trigger mode: 1
Integration Time (sec): 1.000000E-1
Scans to average: 1
Electric dark correction enabled: true
Nonlinearity correction enabled: false
Boxcar width: 0
XAxis mode: Wavelengths
Number of Pixels in Spectrum: 2048
>>>>>Begin Spectral Data<<<<<
223.165	-23.69
223.4	-23.69
223.635	-23.69
223.869	-20.69
224.104	-18.69
224.338	11.31
224.573	-21.69
224.808	-17.69
225.042	-14.69
225.277	-7.69
225.511	6.31
225.746	-2.69
225.98	3.31
226.215	9.31
226.449	12.31
226.683	30.31
226.918	25.31
227.152	29.31
227.387	40.31
227.621	37.31
227.856	44.31
228.09	53.31
228.324	40.31
228.559	66.31
228.793	67.31
229.027	67.31
229.262	74.31
229.496	89.31
229.73	105.31
229.964	112.31
230.199	78.31
230.433	84.31
230.667	84.31
230.901	94.31
231.136	63.31
231.37	88.31
231.604	89.31
231.838	64.31
232.072	74.31
232.306	66.31
232.541	83.31
232.775	77.31
233.009	80.31
233.243	85.31
233.477	97.31
233.711	95.31
233.945	82.31
234.179	66.31
234.413	94.31
234.647	89.31
234.881	92.31
235.115	96.31
235.349	92.31
235.583	85.31
235.817	76.31
236.051	79.31
236.285	81.31
236.519	81.31
236.753	94.31
236.987	80.31
237.221	88.31
237.455	101.31
237.689	88.31
237.922	94.31
238.156	83.31
238.39	71.31
238.624	86.31
238.858	89.31
239.091	74.31
239.325	82.31
239.559	84.31
239.793	84.31
240.027	81.31
240.26	77.31
240.494	77.31
240.728	93.31
240.961	77.31
241.195	84.31
241.429	88.31
241.662	69.31
241.896	73.31
242.13	86.31
242.363	86.31
242.597	85.31
242.83	89.31
243.064	90.31
243.298	89.31
243.531	75.31
243.765	88.31
243.998	74.31
244.232	92.31
244.465	96.31
244.699	93.31
244.932	84.31
245.166	70.31
245.399	92.31
245.633	85.31
245.866	84.31
246.099	81.31
246.333	86.31
246.566	78.31
246.8	85.31
247.033	88.31
247.266	92.31
247.5	82.31
247.733	70.31
247.966	91.31
248.2	85.31
248.433	80.31
248.666	81.31
248.899	82.31
249.133	105.31
249.366	109.31
249.599	123.31
249.832	95.31
250.066	92.31
250.299	80.31
250.532	86.31
250.765	85.31
250.998	78.31
251.231	93.31
251.465	101.31
251.698	94.31
251.931	85.31
252.164	90.31
252.397	85.31
252.63	94.31
252.863	90.31
253.096	83.31
253.329	104.31
253.562	85.31
253.795	90.31
254.028	104.31
254.261	84.31
254.494	84.31
254.727	86.31
254.96	94.31
255.193	76.31
255.426	78.31
255.659	88.31
255.892	90.31
256.124	101.31
256.357	105.31
256.59	82.31
256.823	75.31
257.056	100.31
257.289	95.31
257.521	101.31
257.754	97.31
257.987	98.31
258.22	101.31
258.452	124.31
258.685	104.31
258.918	99.31
259.151	88.31
259.383	95.31
259.616	80.31
259.849	85.31
260.081	85.31
260.314	88.31
260.547	93.31
260.779	113.31
261.012	143.31
261.244	148.31
261.477	124.31
261.71	118.31
261.942	164.31
262.175	176.31
262.407	102.31
262.64	90.31
262.872	85.31
263.105	88.31
263.337	102.31
263.57	94.31
263.802	76.31
264.035	77.31
264.267	85.31
264.499	88.31
264.732	97.31
264.964	81.31
265.197	90.31
265.429	84.31
265.661	92.31
265.894	89.31
266.126	94.31
266.358	77.31
266.591	81.31
266.823	88.31
267.055	93.31
267.287	84.31
267.52	78.31
267.752	92.31
267.984	93.31
268.216	90.31
268.448	97.31
268.681	92.31
268.913	91.31
269.145	97.31
269.377	101.31
269.609	84.31
269.841	95.31
270.073	91.31
270.306	81.31
270.538	88.31
270.77	93.31
271.002	89.31
271.234	95.31
271.466	92.31
271.698	99.31
271.93	89.31
272.162	87.31
272.394	85.31
272.626	107.31
272.858	95.31
273.09	97.31
273.322	88.31
273.553	85.31
273.785	98.31
274.017	83.31
274.249	102.31
274.481	99.31
274.713	90.31
274.945	95.31
275.176	107.31
275.408	129.31
275.64	150.31
275.872	154.31
276.104	132.31
276.335	114.31
276.567	158.31
276.799	198.31
277.031	246.31
277.262	320.31
277.494	234.31
277.726	138.31
277.957	96.31
278.189	110.31
278.421	90.31
278.652	92.31
278.884	101.31
279.115	96.31
279.347	107.31
279.579	120.31
279.81	181.31
280.042	317.31
280.273	481.31
280.505	294.31
280.736	120.31
280.968	115.31
281.199	109.31
281.431	106.31
281.662	90.31
281.894	101.31
282.125	112.31
282.356	153.31
282.588	208.31
282.819	150.31
283.051	97.31
283.282	85.31
283.513	91.31
283.745	94.31
283.976	95.31
284.207	94.31
284.439	100.31
284.67	89.31
284.901	97.31
285.132	90.31
285.364	97.31
285.595	92.31
285.826	91.31
286.057	97.31
286.288	88.31
286.52	93.31
286.751	88.31
286.982	95.31
287.213	81.31
287.444	86.31
287.675	99.31
287.906	85.31
288.138	111.31
288.369	113.31
288.6	97.31
288.831	96.31
289.062	96.31
289.293	95.31
289.524	93.31
289.755	91.31
289.986	91.31
290.217	92.31
290.448	80.31
290.679	91.31
290.91	112.31
291.141	96.31
291.371	97.31
291.602	100.31
291.833	84.31
292.064	95.31
292.295	102.31
292.526	98.31
292.757	91.31
292.987	108.31
293.218	93.31
293.449	90.31
293.68	106.31
293.91	92.31
294.141	90.31
294.372	81.31
294.603	104.31
294.833	88.31
295.064	107.31
295.295	90.31
295.525	101.31
295.756	130.31
295.987	155.31
296.217	192.31
296.448	178.31
296.679	110.31
296.909	100.31
297.14	99.31
297.37	97.31
297.601	93.31
297.831	85.31
298.062	93.31
298.292	111.31
298.523	95.31
298.753	99.31
298.984	104.31
299.214	94.31
299.445	93.31
299.675	102.31
299.905	110.31
300.136	95.31
300.366	99.31
300.597	90.31
300.827	104.31
301.057	116.31
301.288	126.31
301.518	109.31
301.748	128.31
301.979	121.31
302.209	93.31
302.439	101.31
302.669	100.31
302.9	95.31
303.13	89.31
303.36	124.31
303.59	179.31
303.82	186.31
304.051	126.31
304.281	104.31
304.511	85.31
304.741	77.31
304.971	83.31
305.201	89.31
305.431	92.31
305.661	90.31
305.891	107.31
306.121	114.31
306.352	109.31
306.582	141.31
306.812	122.31
307.042	148.31
307.272	226.31
307.502	275.31
307.731	242.31
307.961	168.31
308.191	105.31
308.421	109.31
308.651	104.31
308.881	103.31
309.111	94.31
309.341	105.31
309.571	110.31
309.8	116.31
310.03	109.31
310.26	116.31
310.49	120.31
310.72	138.31
310.949	138.31
311.179	131.31
311.409	117.31
311.639	97.31
311.868	110.31
312.098	113.31
312.328	110.31
312.557	120.31
312.787	140.31
313.017	126.31
313.246	118.31
313.476	99.31
313.706	108.31
313.935	122.31
314.165	132.31
314.394	125.31
314.624	118.31
314.853	109.31
315.083	110.31
315.312	85.31
315.542	93.31
315.771	115.31
316.001	107.31
316.23	99.31
316.46	98.31
316.689	113.31
316.919	113.31
317.148	107.31
317.377	117.31
317.607	98.31
317.836	113.31
318.065	101.31
318.295	100.31
318.524	91.31
318.753	108.31
318.983	108.31
319.212	116.31
319.441	125.31
319.67	127.31
319.9	109.31
320.129	106.31
320.358	111.31
320.587	120.31
320.816	109.31
321.046	125.31
321.275	111.31
321.504	100.31
321.733	118.31
321.962	111.31
322.191	110.31
322.42	122.31
322.649	134.31
322.878	144.31
323.108	164.31
323.337	163.31
323.566	210.31
323.795	228.31
324.024	317.31
324.253	606.31
324.482	1378.31
324.71	2844.31
324.939	3819.31
325.168	1352.31
325.397	377.31
325.626	210.31
325.855	188.31
326.084	168.31
326.313	172.31
326.542	224.31
326.77	342.31
326.999	688.31
327.228	1422.31
327.457	2660.31
327.686	2136.31
327.914	791.31
328.143	869.31
328.372	1240.31
328.6	649.31
328.829	278.31
329.058	274.31
329.287	276.31
329.515	250.31
329.744	394.31
329.972	844.31
330.201	1804.31
330.43	2707.31
330.658	1143.31
330.887	470.31
331.115	266.31
331.344	181.31
331.572	149.31
331.801	153.31
332.03	166.31
332.258	150.31
332.486	130.31
332.715	124.31
332.943	130.31
333.172	142.31
333.4	164.31
333.629	222.31
333.857	309.31
334.085	698.31
334.314	1608.31
334.542	3250.31
334.771	3078.31
334.999	734.31
335.227	254.31
335.455	179.31
335.684	126.31
335.912	139.31
336.14	123.31
336.369	126.31
336.597	126.31
336.825	121.31
337.053	106.31
337.281	98.31
337.51	107.31
337.738	123.31
337.966	113.31
338.194	137.31
338.422	112.31
338.65	109.31
338.878	105.31
339.106	106.31
339.334	99.31
339.562	105.31
339.79	114.31
340.018	106.31
340.246	116.31
340.474	99.31
340.702	102.31
340.93	101.31
341.158	108.31
341.386	97.31
341.614	132.31
341.842	105.31
342.07	108.31
342.298	102.31
342.526	101.31
342.754	90.31
342.981	109.31
343.209	88.31
343.437	101.31
343.665	103.31
343.893	96.31
344.12	105.31
344.348	92.31
344.576	94.31
344.804	109.31
345.031	105.31
345.259	132.31
345.487	114.31
345.714	128.31
345.942	107.31
346.17	110.31
346.397	99.31
346.625	106.31
346.853	112.31
347.08	81.31
347.308	107.31
347.535	115.31
347.763	118.31
347.99	103.31
348.218	120.31
348.445	142.31
348.673	128.31
348.9	103.31
349.128	107.31
349.355	94.31
349.583	85.31
349.81	111.31
350.037	97.31
350.265	99.31
350.492	125.31
350.72	110.31
350.947	127.31
351.174	140.31
351.402	148.31
351.629	125.31
351.856	133.31
352.083	126.31
352.311	119.31
352.538	146.31
352.765	148.31
352.992	146.31
353.22	131.31
353.447	115.31
353.674	101.31
353.901	100.31
354.128	97.31
354.355	104.31
354.583	115.31
354.81	109.31
355.037	106.31
355.264	96.31
355.491	101.31
355.718	99.31
355.945	110.31
356.172	82.31
356.399	109.31
356.626	105.31
356.853	89.31
357.08	94.31
357.307	98.31
357.534	104.31
357.761	102.31
357.988	101.31
358.215	94.31
358.441	116.31
358.668	91.31
358.895	96.31
359.122	94.31
359.349	92.31
359.576	100.31
359.802	148.31
360.029	202.31
360.256	177.31
360.483	136.31
360.709	98.31
360.936	94.31
361.163	119.31
361.39	124.31
361.616	106.31
361.843	104.31
362.07	101.31
362.296	130.31
362.523	107.31
362.749	96.31
362.976	99.31
363.203	102.31
363.429	112.31
363.656	110.31
363.882	98.31
364.109	90.31
364.335	88.31
364.562	99.31
364.788	112.31
365.015	105.31
365.241	134.31
365.468	149.31
365.694	146.31
365.92	116.31
366.147	116.31
366.373	97.31
366.599	102.31
366.826	90.31
367.052	85.31
367.278	123.31
367.505	115.31
367.731	102.31
367.957	107.31
368.184	112.31
368.41	118.31
368.636	141.31
368.862	149.31
369.089	134.31
369.315	109.31
369.541	108.31
369.767	123.31
369.993	106.31
370.219	102.31
370.445	92.31
370.672	93.31
370.898	105.31
371.124	88.31
371.35	105.31
371.576	87.31
371.802	106.31
372.028	99.31
372.254	92.31
372.48	99.31
372.706	92.31
372.932	91.31
373.158	86.31
373.384	107.31
373.61	100.31
373.835	99.31
374.061	104.31
374.287	109.31
374.513	94.31
374.739	91.31
374.965	89.31
375.191	78.31
375.416	98.31
375.642	98.31
375.868	98.31
376.094	94.31
376.319	100.31
376.545	92.31
376.771	104.31
376.997	108.31
377.222	97.31
377.448	98.31
377.674	86.31
377.899	96.31
378.125	93.31
378.35	96.31
378.576	93.31
378.802	94.31
379.027	95.31
379.253	100.31
379.478	99.31
379.704	81.31
379.929	115.31
380.155	107.31
380.38	105.31
380.606	81.31
380.831	106.31
381.057	100.31
381.282	97.31
381.507	102.31
381.733	98.31
381.958	94.31
382.184	102.31
382.409	100.31
382.634	102.31
382.86	110.31
383.085	106.31
383.31	106.31
383.535	97.31
383.761	105.31
383.986	103.31
384.211	97.31
384.436	106.31
384.662	99.31
384.887	98.31
385.112	103.31
385.337	112.31
385.562	95.31
385.787	112.31
386.013	106.31
386.238	144.31
386.463	111.31
386.688	124.31
386.913	109.31
387.138	86.31
387.363	105.31
387.588	106.31
387.813	97.31
388.038	106.31
388.263	110.31
388.488	103.31
388.713	102.31
388.938	109.31
389.163	98.31
389.387	117.31
389.612	111.31
389.837	101.31
390.062	92.31
390.287	76.31
390.512	91.31
390.736	101.31
390.961	92.31
391.186	103.31
391.411	92.31
391.636	95.31
391.86	86.31
392.085	76.31
392.31	85.31
392.534	101.31
392.759	94.31
392.984	88.31
393.208	88.31
393.433	91.31
393.658	96.31
393.882	91.31
394.107	101.31
394.331	79.31
394.556	85.31
394.78	92.31
395.005	87.31
395.229	76.31
395.454	95.31
395.678	79.31
395.903	91.31
396.127	97.31
396.352	98.31
396.576	90.31
396.801	88.31
397.025	95.31
397.249	92.31
397.474	90.31
397.698	98.31
397.922	96.31
398.147	85.31
398.371	80.31
398.595	76.31
398.82	93.31
399.044	101.31
399.268	94.31
399.492	93.31
399.717	102.31
399.941	85.31
400.165	94.31
400.389	96.31
400.613	92.31
400.837	105.31
401.062	96.31
401.286	90.31
401.51	98.31
401.734	95.31
401.958	123.31
402.182	177.31
402.406	244.31
402.63	204.31
402.854	125.31
403.078	93.31
403.302	109.31
403.526	101.31
403.75	102.31
403.974	85.31
404.198	102.31
404.422	95.31
404.645	100.31
404.869	123.31
405.093	140.31
405.317	184.31
405.541	177.31
405.765	141.31
405.988	156.31
406.212	268.31
406.436	432.31
406.66	284.31
406.883	177.31
407.107	136.31
407.331	107.31
407.555	113.31
407.778	120.31
408.002	104.31
408.226	94.31
408.449	102.31
408.673	110.31
408.896	102.31
409.12	107.31
409.344	83.31
409.567	83.31
409.791	93.31
410.014	92.31
410.238	102.31
410.461	82.31
410.685	98.31
410.908	110.31
411.132	116.31
411.355	105.31
411.578	107.31
411.802	118.31
412.025	102.31
412.249	107.31
412.472	133.31
412.695	159.31
412.919	134.31
413.142	98.31
413.365	93.31
413.589	87.31
413.812	100.31
414.035	105.31
414.258	106.31
414.482	93.31
414.705	87.31
414.928	101.31
415.151	96.31
415.374	96.31
415.597	100.31
415.821	87.31
416.044	105.31
416.267	92.31
416.49	99.31
416.713	101.31
416.936	105.31
417.159	111.31
417.382	112.31
417.605	136.31
417.828	128.31
418.051	104.31
418.274	108.31
418.497	85.31
418.72	90.31
418.943	99.31
419.166	88.31
419.389	116.31
419.611	103.31
419.834	89.31
420.057	96.31
420.28	102.31
420.503	95.31
420.726	103.31
420.948	106.31
421.171	115.31
421.394	116.31
421.617	105.31
421.839	98.31
422.062	111.31
422.285	94.31
422.507	103.31
422.73	114.31
422.953	97.31
423.175	94.31
423.398	99.31
423.621	96.31
423.843	76.31
424.066	92.31
424.288	92.31
424.511	96.31
424.733	136.31
424.956	140.31
425.178	138.31
425.401	115.31
425.623	107.31
425.846	99.31
426.068	106.31
426.291	112.31
426.513	107.31
426.735	102.31
426.958	113.31
427.18	152.31
427.402	221.31
427.625	383.31
427.847	326.31
428.069	291.31
428.292	165.31
428.514	101.31
428.736	110.31
428.958	90.31
429.181	92.31
429.403	89.31
429.625	101.31
429.847	88.31
430.069	124.31
430.292	112.31
430.514	82.31
430.736	84.31
430.958	99.31
431.18	85.31
431.402	96.31
431.624	101.31
431.846	81.31
432.068	102.31
432.29	90.31
432.512	96.31
432.734	91.31
432.956	106.31
433.178	94.31
433.4	108.31
433.622	97.31
433.844	103.31
434.066	114.31
434.287	111.31
434.509	93.31
434.731	114.31
434.953	103.31
435.175	109.31
435.397	88.31
435.618	108.31
435.84	133.31
436.062	163.31
436.284	144.31
436.505	122.31
436.727	116.31
436.949	99.31
437.17	88.31
437.392	99.31
437.614	90.31
437.835	145.31
438.057	187.31
438.278	149.31
438.5	131.31
438.721	166.31
438.943	105.31
439.165	104.31
439.386	101.31
439.608	102.31
439.829	131.31
440.05	188.31
440.272	240.31
440.493	129.31
440.715	108.31
440.936	96.31
441.158	76.31
441.379	98.31
441.6	112.31
441.822	127.31
442.043	100.31
442.264	138.31
442.486	127.31
442.707	123.31
442.928	145.31
443.149	224.31
443.371	206.31
443.592	165.31
443.813	150.31
444.034	142.31
444.255	112.31
444.476	100.31
444.698	101.31
444.919	102.31
445.14	143.31
445.361	149.31
445.582	154.31
445.803	237.31
446.024	205.31
446.245	210.31
446.466	141.31
446.687	113.31
446.908	83.31
447.129	108.31
447.35	114.31
447.571	97.31
447.792	97.31
448.013	133.31
448.234	148.31
448.455	125.31
448.675	140.31
448.896	163.31
449.117	120.31
449.338	120.31
449.559	165.31
449.779	173.31
450	112.31
450.221	92.31
450.442	106.31
450.662	112.31
450.883	156.31
451.104	163.31
451.324	112.31
451.545	83.31
451.766	103.31
451.986	102.31
452.207	96.31
452.428	109.31
452.648	124.31
452.869	154.31
453.089	162.31
453.31	178.31
453.53	120.31
453.751	122.31
453.971	133.31
454.192	150.31
454.412	110.31
454.633	94.31
454.853	93.31
455.073	94.31
455.294	101.31
455.514	129.31
455.734	118.31
455.955	90.31
456.175	95.31
456.395	82.31
456.616	98.31
456.836	89.31
457.056	94.31
457.276	82.31
457.497	96.31
457.717	105.31
457.937	89.31
458.157	101.31
458.377	117.31
458.598	168.31
458.818	298.31
459.038	329.31
459.258	204.31
459.478	118.31
459.698	107.31
459.918	92.31
460.138	91.31
460.358	105.31
460.578	93.31
460.798	109.31
461.018	98.31
461.238	87.31
461.458	110.31
461.678	94.31
461.898	108.31
462.118	92.31
462.338	95.31
462.558	102.31
462.777	89.31
462.997	100.31
463.217	143.31
463.437	109.31
463.657	101.31
463.876	98.31
464.096	110.31
464.316	119.31
464.536	120.31
464.755	115.31
464.975	164.31
465.195	350.31
465.414	332.31
465.634	131.31
465.854	110.31
466.073	107.31
466.293	101.31
466.512	98.31
466.732	97.31
466.951	112.31
467.171	111.31
467.391	129.31
467.61	189.31
467.829	320.31
468.049	1024.31
468.268	1604.31
468.488	377.31
468.707	138.31
468.927	97.31
469.146	100.31
469.365	108.31
469.585	115.31
469.804	133.31
470.023	124.31
470.243	127.31
470.462	142.31
470.681	190.31
470.901	113.31
471.12	120.31
471.339	120.31
471.558	144.31
471.777	190.31
471.997	474.31
472.216	1961.31
472.435	4667.31
472.654	1013.31
472.873	241.31
473.092	131.31
473.311	108.31
473.53	106.31
473.749	112.31
473.968	120.31
474.187	145.31
474.406	127.31
474.625	104.31
474.844	86.31
475.063	100.31
475.282	83.31
475.501	102.31
475.72	102.31
475.939	94.31
476.158	85.31
476.377	106.31
476.596	110.31
476.814	128.31
477.033	123.31
477.252	112.31
477.471	108.31
477.69	92.31
477.908	111.31
478.127	101.31
478.346	107.31
478.564	114.31
478.783	133.31
479.002	124.31
479.22	124.31
479.439	158.31
479.658	188.31
479.876	159.31
480.095	141.31
480.313	174.31
480.532	243.31
480.751	429.31
480.969	1698.31
481.188	7710.31
481.406	4398.31
481.624	576.31
481.843	185.31
482.061	138.31
482.28	125.31
482.498	101.31
482.717	91.31
482.935	105.31
483.153	112.31
483.372	100.31
483.59	92.31
483.808	94.31
484.027	98.31
484.245	105.31
484.463	102.31
484.681	100.31
484.9	89.31
485.118	90.31
485.336	92.31
485.554	104.31
485.772	110.31
485.99	113.31
486.209	111.31
486.427	136.31
486.645	145.31
486.863	155.31
487.081	106.31
487.299	114.31
487.517	101.31
487.735	100.31
487.953	97.31
488.171	96.31
488.389	104.31
488.607	120.31
488.825	93.31
489.043	94.31
489.261	93.31
489.479	100.31
489.696	98.31
489.914	84.31
490.132	94.31
490.35	84.31
490.568	94.31
490.786	114.31
491.003	86.31
491.221	113.31
491.439	108.31
491.657	109.31
491.874	99.31
492.092	86.31
492.31	108.31
492.527	100.31
492.745	117.31
492.963	106.31
493.18	97.31
493.398	103.31
493.615	107.31
493.833	112.31
494.05	89.31
494.268	103.31
494.485	100.31
494.703	91.31
494.92	97.31
495.138	85.31
495.355	101.31
495.573	99.31
495.79	93.31
496.008	109.31
496.225	99.31
496.442	94.31
496.66	96.31
496.877	105.31
497.094	86.31
497.312	82.31
497.529	96.31
497.746	96.31
497.963	102.31
498.181	103.31
498.398	115.31
498.615	130.31
498.832	110.31
499.049	100.31
499.267	94.31
499.484	91.31
499.701	89.31
499.918	100.31
500.135	96.31
500.352	85.31
500.569	100.31
500.786	117.31
501.003	106.31
501.22	89.31
501.437	108.31
501.654	101.31
501.871	157.31
502.088	102.31
502.305	104.31
502.522	106.31
502.739	88.31
502.956	109.31
503.172	109.31
503.389	113.31
503.606	153.31
503.823	123.31
504.04	103.31
504.256	110.31
504.473	97.31
504.69	88.31
504.907	113.31
505.123	81.31
505.34	82.31
505.557	109.31
505.773	98.31
505.99	101.31
506.207	111.31
506.423	105.31
506.64	100.31
506.856	103.31
507.073	107.31
507.289	109.31
507.506	111.31
507.722	174.31
507.939	173.31
508.155	103.31
508.372	104.31
508.588	101.31
508.805	85.31
509.021	128.31
509.238	105.31
509.454	115.31
