Data from Circ_1995_H10_HRD10591_00047.txt Node
Date: Wed Jan 03 11:36:56 EST 2024
User: Yrep
Spectrometer: HR+D1059
Trigger mode: 1
Integration Time (sec): 1.000000E-1
Scans to average: 1
Electric dark correction enabled: true
Nonlinearity correction enabled: false
Boxcar width: 0
XAxis mode: Wavelengths
Number of Pixels in Spectrum: 2048
>>>>>Begin Spectral Data<<<<<
223.165	-27.44
223.4	-27.44
223.635	-27.44
223.869	-24.44
224.104	-14.44
224.338	-20.44
224.573	-11.44
224.808	-17.44
225.042	-8.44
225.277	-18.44
225.511	5.56
225.746	-1.44
225.98	6.56
226.215	29.56
226.449	17.56
226.683	28.56
226.918	24.56
227.152	31.56
227.387	34.56
227.621	47.56
227.856	45.56
228.09	53.56
228.324	56.56
228.559	57.56
228.793	68.56
229.027	60.56
229.262	67.56
229.496	78.56
229.73	109.56
229.964	104.56
230.199	70.56
230.433	83.56
230.667	97.56
230.901	80.56
231.136	93.56
231.37	86.56
231.604	74.56
231.838	80.56
232.072	70.56
232.306	86.56
232.541	86.56
232.775	76.56
233.009	79.56
233.243	76.56
233.477	88.56
233.711	82.56
233.945	77.56
234.179	84.56
234.413	78.56
234.647	71.56
234.881	90.56
235.115	91.56
235.349	90.56
235.583	90.56
235.817	88.56
236.051	76.56
236.285	77.56
236.519	87.56
236.753	81.56
236.987	84.56
237.221	94.56
237.455	96.56
237.689	84.56
237.922	88.56
238.156	68.56
238.39	80.56
238.624	79.56
238.858	69.56
239.091	74.56
239.325	83.56
239.559	91.56
239.793	98.56
240.027	99.56
240.26	83.56
240.494	111.56
240.728	92.56
240.961	84.56
241.195	79.56
241.429	92.56
241.662	92.56
241.896	89.56
242.13	63.56
242.363	87.56
242.597	79.56
242.83	100.56
243.064	74.56
243.298	81.56
243.531	83.56
243.765	82.56
243.998	83.56
244.232	87.56
244.465	99.56
244.699	88.56
244.932	90.56
245.166	77.56
245.399	91.56
245.633	83.56
245.866	87.56
246.099	85.56
246.333	87.56
246.566	85.56
246.8	79.56
247.033	84.56
247.266	90.56
247.5	67.56
247.733	74.56
247.966	74.56
248.2	82.56
248.433	88.56
248.666	87.56
248.899	110.56
249.133	99.56
249.366	110.56
249.599	103.56
249.832	95.56
250.066	87.56
250.299	90.56
250.532	95.56
250.765	82.56
250.998	78.56
251.231	76.56
251.465	90.56
251.698	94.56
251.931	89.56
252.164	98.56
252.397	72.56
252.63	91.56
252.863	88.56
253.096	82.56
253.329	86.56
253.562	80.56
253.795	84.56
254.028	76.56
254.261	82.56
254.494	86.56
254.727	89.56
254.96	81.56
255.193	91.56
255.426	88.56
255.659	83.56
255.892	92.56
256.124	113.56
256.357	90.56
256.59	90.56
256.823	95.56
257.056	95.56
257.289	92.56
257.521	96.56
257.754	84.56
257.987	98.56
258.22	106.56
258.452	108.56
258.685	104.56
258.918	98.56
259.151	78.56
259.383	78.56
259.616	97.56
259.849	94.56
260.081	90.56
260.314	79.56
260.547	96.56
260.779	96.56
261.012	119.56
261.244	102.56
261.477	108.56
261.71	111.56
261.942	147.56
262.175	168.56
262.407	102.56
262.64	104.56
262.872	102.56
263.105	94.56
263.337	100.56
263.57	93.56
263.802	97.56
264.035	82.56
264.267	87.56
264.499	95.56
264.732	77.56
264.964	87.56
265.197	93.56
265.429	104.56
265.661	92.56
265.894	93.56
266.126	100.56
266.358	92.56
266.591	91.56
266.823	91.56
267.055	92.56
267.287	98.56
267.52	90.56
267.752	90.56
267.984	99.56
268.216	76.56
268.448	100.56
268.681	102.56
268.913	107.56
269.145	96.56
269.377	92.56
269.609	86.56
269.841	82.56
270.073	92.56
270.306	87.56
270.538	86.56
270.77	74.56
271.002	90.56
271.234	91.56
271.466	85.56
271.698	91.56
271.93	104.56
272.162	108.56
272.394	87.56
272.626	90.56
272.858	89.56
273.09	81.56
273.322	104.56
273.553	84.56
273.785	100.56
274.017	86.56
274.249	79.56
274.481	99.56
274.713	100.56
274.945	100.56
275.176	101.56
275.408	115.56
275.64	118.56
275.872	142.56
276.104	120.56
276.335	112.56
276.567	130.56
276.799	164.56
277.031	220.56
277.262	254.56
277.494	191.56
277.726	110.56
277.957	97.56
278.189	98.56
278.421	108.56
278.652	115.56
278.884	96.56
279.115	98.56
279.347	104.56
279.579	114.56
279.81	166.56
280.042	236.56
280.273	357.56
280.505	223.56
280.736	125.56
280.968	99.56
281.199	98.56
281.431	95.56
281.662	101.56
281.894	93.56
282.125	111.56
282.356	161.56
282.588	198.56
282.819	168.56
283.051	101.56
283.282	89.56
283.513	100.56
283.745	98.56
283.976	87.56
284.207	105.56
284.439	95.56
284.67	116.56
284.901	84.56
285.132	90.56
285.364	88.56
285.595	98.56
285.826	103.56
286.057	91.56
286.288	91.56
286.52	87.56
286.751	89.56
286.982	88.56
287.213	90.56
287.444	94.56
287.675	101.56
287.906	109.56
288.138	98.56
288.369	86.56
288.6	95.56
288.831	95.56
289.062	100.56
289.293	101.56
289.524	97.56
289.755	99.56
289.986	87.56
290.217	94.56
290.448	80.56
290.679	109.56
290.91	102.56
291.141	87.56
291.371	101.56
291.602	72.56
291.833	80.56
292.064	76.56
292.295	90.56
292.526	100.56
292.757	91.56
292.987	86.56
293.218	85.56
293.449	95.56
293.68	96.56
293.91	89.56
294.141	96.56
294.372	106.56
294.603	94.56
294.833	97.56
295.064	95.56
295.295	97.56
295.525	98.56
295.756	118.56
295.987	116.56
296.217	193.56
296.448	158.56
296.679	102.56
296.909	93.56
297.14	95.56
297.37	104.56
297.601	87.56
297.831	88.56
298.062	82.56
298.292	92.56
298.523	86.56
298.753	96.56
298.984	96.56
299.214	101.56
299.445	110.56
299.675	115.56
299.905	100.56
300.136	96.56
300.366	79.56
300.597	97.56
300.827	104.56
301.057	114.56
301.288	131.56
301.518	103.56
301.748	98.56
301.979	123.56
302.209	126.56
302.439	105.56
302.669	101.56
302.9	94.56
303.13	98.56
303.36	120.56
303.59	156.56
303.82	160.56
304.051	117.56
304.281	98.56
304.511	94.56
304.741	99.56
304.971	105.56
305.201	104.56
305.431	102.56
305.661	92.56
305.891	94.56
306.121	102.56
306.352	135.56
306.582	127.56
306.812	118.56
307.042	140.56
307.272	211.56
307.502	209.56
307.731	219.56
307.961	136.56
308.191	103.56
308.421	88.56
308.651	113.56
308.881	114.56
309.111	119.56
309.341	109.56
309.571	108.56
309.8	114.56
310.03	116.56
310.26	129.56
310.49	105.56
310.72	112.56
310.949	130.56
311.179	124.56
311.409	100.56
311.639	120.56
311.868	102.56
312.098	123.56
312.328	111.56
312.557	124.56
312.787	152.56
313.017	125.56
313.246	101.56
313.476	99.56
313.706	91.56
313.935	103.56
314.165	114.56
314.394	139.56
314.624	117.56
314.853	120.56
315.083	103.56
315.312	93.56
315.542	87.56
315.771	100.56
316.001	98.56
316.23	81.56
316.46	105.56
316.689	110.56
316.919	106.56
317.148	122.56
317.377	128.56
317.607	101.56
317.836	103.56
318.065	107.56
318.295	106.56
318.524	88.56
318.753	98.56
318.983	111.56
319.212	111.56
319.441	132.56
319.67	122.56
319.9	98.56
320.129	102.56
320.358	100.56
320.587	109.56
320.816	122.56
321.046	117.56
321.275	104.56
321.504	109.56
321.733	104.56
321.962	114.56
322.191	125.56
322.42	134.56
322.649	137.56
322.878	131.56
323.108	155.56
323.337	160.56
323.566	169.56
323.795	194.56
324.024	299.56
324.253	603.56
324.482	1303.56
324.71	2792.56
324.939	3619.56
325.168	1297.56
325.397	366.56
325.626	199.56
325.855	185.56
326.084	158.56
326.313	167.56
326.542	194.56
326.77	330.56
326.999	670.56
327.228	1365.56
327.457	2602.56
327.686	2105.56
327.914	715.56
328.143	679.56
328.372	928.56
328.6	490.56
328.829	233.56
329.058	236.56
329.287	231.56
329.515	228.56
329.744	336.56
329.972	655.56
330.201	1386.56
330.43	2071.56
330.658	876.56
330.887	387.56
331.115	231.56
331.344	148.56
331.572	136.56
331.801	148.56
332.03	139.56
332.258	126.56
332.486	116.56
332.715	117.56
332.943	122.56
333.172	162.56
333.4	154.56
333.629	191.56
333.857	304.56
334.085	549.56
334.314	1221.56
334.542	2514.56
334.771	2370.56
334.999	587.56
335.227	218.56
335.455	148.56
335.684	123.56
335.912	126.56
336.14	114.56
336.369	124.56
336.597	138.56
336.825	110.56
337.053	103.56
337.281	103.56
337.51	101.56
337.738	109.56
337.966	99.56
338.194	128.56
338.422	110.56
338.65	101.56
338.878	105.56
339.106	94.56
339.334	91.56
339.562	94.56
339.79	98.56
340.018	93.56
340.246	99.56
340.474	114.56
340.702	104.56
340.93	103.56
341.158	93.56
341.386	113.56
341.614	121.56
341.842	113.56
342.07	101.56
342.298	106.56
342.526	100.56
342.754	99.56
342.981	88.56
343.209	93.56
343.437	104.56
343.665	85.56
343.893	105.56
344.12	101.56
344.348	98.56
344.576	95.56
344.804	108.56
345.031	112.56
345.259	122.56
345.487	113.56
345.714	110.56
345.942	102.56
346.17	96.56
346.397	102.56
346.625	104.56
346.853	103.56
347.08	110.56
347.308	116.56
347.535	112.56
347.763	127.56
347.99	117.56
348.218	127.56
348.445	138.56
348.673	127.56
348.9	96.56
349.128	98.56
349.355	97.56
349.583	93.56
349.81	106.56
350.037	112.56
350.265	114.56
350.492	106.56
350.72	115.56
350.947	116.56
351.174	131.56
351.402	134.56
351.629	119.56
351.856	119.56
352.083	136.56
352.311	128.56
352.538	139.56
352.765	135.56
352.992	120.56
353.22	115.56
353.447	118.56
353.674	107.56
353.901	96.56
354.128	103.56
354.355	91.56
354.583	111.56
354.81	107.56
355.037	92.56
355.264	104.56
355.491	115.56
355.718	84.56
355.945	90.56
356.172	101.56
356.399	100.56
356.626	97.56
356.853	105.56
357.08	96.56
357.307	96.56
357.534	104.56
357.761	88.56
357.988	101.56
358.215	98.56
358.441	98.56
358.668	101.56
358.895	99.56
359.122	114.56
359.349	100.56
359.576	93.56
359.802	122.56
360.029	147.56
360.256	166.56
360.483	139.56
360.709	103.56
360.936	100.56
361.163	97.56
361.39	101.56
361.616	113.56
361.843	103.56
362.07	101.56
362.296	111.56
362.523	106.56
362.749	111.56
362.976	99.56
363.203	107.56
363.429	93.56
363.656	105.56
363.882	96.56
364.109	100.56
364.335	104.56
364.562	92.56
364.788	100.56
365.015	112.56
365.241	115.56
365.468	127.56
365.694	134.56
365.92	111.56
366.147	97.56
366.373	107.56
366.599	104.56
366.826	105.56
367.052	102.56
367.278	108.56
367.505	99.56
367.731	78.56
367.957	109.56
368.184	92.56
368.41	116.56
368.636	128.56
368.862	164.56
369.089	139.56
369.315	111.56
369.541	99.56
369.767	86.56
369.993	111.56
370.219	99.56
370.445	93.56
370.672	92.56
370.898	96.56
371.124	89.56
371.35	100.56
371.576	108.56
371.802	95.56
372.028	101.56
372.254	87.56
372.48	87.56
372.706	101.56
372.932	102.56
373.158	86.56
373.384	107.56
373.61	82.56
373.835	84.56
374.061	85.56
374.287	88.56
374.513	97.56
374.739	99.56
374.965	94.56
375.191	95.56
375.416	99.56
375.642	101.56
375.868	99.56
376.094	96.56
376.319	95.56
376.545	94.56
376.771	83.56
376.997	106.56
377.222	95.56
377.448	100.56
377.674	96.56
377.899	90.56
378.125	83.56
378.35	102.56
378.576	94.56
378.802	87.56
379.027	103.56
379.253	99.56
379.478	88.56
379.704	91.56
379.929	90.56
380.155	103.56
380.38	109.56
380.606	102.56
380.831	118.56
381.057	105.56
381.282	103.56
381.507	102.56
381.733	97.56
381.958	102.56
382.184	121.56
382.409	97.56
382.634	121.56
382.86	107.56
383.085	101.56
383.31	102.56
383.535	113.56
383.761	99.56
383.986	95.56
384.211	100.56
384.436	106.56
384.662	109.56
384.887	104.56
385.112	110.56
385.337	114.56
385.562	114.56
385.787	113.56
386.013	126.56
386.238	138.56
386.463	127.56
386.688	118.56
386.913	99.56
387.138	112.56
387.363	101.56
387.588	85.56
387.813	100.56
388.038	112.56
388.263	131.56
388.488	113.56
388.713	107.56
388.938	100.56
389.163	99.56
389.387	94.56
389.612	103.56
389.837	83.56
390.062	106.56
390.287	103.56
390.512	100.56
390.736	93.56
390.961	103.56
391.186	98.56
391.411	97.56
391.636	91.56
391.86	97.56
392.085	96.56
392.31	94.56
392.534	96.56
392.759	79.56
392.984	86.56
393.208	103.56
393.433	101.56
393.658	108.56
393.882	86.56
394.107	88.56
394.331	86.56
394.556	90.56
394.78	78.56
395.005	89.56
395.229	83.56
395.454	107.56
395.678	90.56
395.903	88.56
396.127	87.56
396.352	99.56
396.576	100.56
396.801	98.56
397.025	82.56
397.249	91.56
397.474	90.56
397.698	93.56
397.922	85.56
398.147	93.56
398.371	93.56
398.595	96.56
398.82	79.56
399.044	103.56
399.268	87.56
399.492	85.56
399.717	83.56
399.941	86.56
400.165	108.56
400.389	97.56
400.613	98.56
400.837	106.56
401.062	90.56
401.286	114.56
401.51	89.56
401.734	102.56
401.958	118.56
402.182	173.56
402.406	247.56
402.63	175.56
402.854	123.56
403.078	101.56
403.302	104.56
403.526	87.56
403.75	100.56
403.974	96.56
404.198	99.56
404.422	106.56
404.645	100.56
404.869	108.56
405.093	126.56
405.317	152.56
405.541	150.56
405.765	142.56
405.988	144.56
406.212	272.56
406.436	381.56
406.66	248.56
406.883	134.56
407.107	111.56
407.331	125.56
407.555	136.56
407.778	108.56
408.002	103.56
408.226	104.56
408.449	104.56
408.673	117.56
408.896	113.56
409.12	118.56
409.344	102.56
409.567	89.56
409.791	96.56
410.014	107.56
410.238	92.56
410.461	92.56
410.685	96.56
410.908	95.56
411.132	114.56
411.355	111.56
411.578	110.56
411.802	92.56
412.025	104.56
412.249	119.56
412.472	135.56
412.695	152.56
412.919	120.56
413.142	94.56
413.365	94.56
413.589	102.56
413.812	97.56
414.035	98.56
414.258	95.56
414.482	100.56
414.705	92.56
414.928	102.56
415.151	98.56
415.374	106.56
415.597	96.56
415.821	95.56
416.044	110.56
416.267	96.56
416.49	98.56
416.713	101.56
416.936	101.56
417.159	101.56
417.382	119.56
417.605	111.56
417.828	120.56
418.051	120.56
418.274	116.56
418.497	99.56
418.72	89.56
418.943	104.56
419.166	101.56
419.389	97.56
419.611	105.56
419.834	97.56
420.057	94.56
420.28	98.56
420.503	86.56
420.726	101.56
420.948	107.56
421.171	120.56
421.394	111.56
421.617	92.56
421.839	102.56
422.062	99.56
422.285	92.56
422.507	107.56
422.73	121.56
422.953	101.56
423.175	107.56
423.398	99.56
423.621	92.56
423.843	95.56
424.066	84.56
424.288	100.56
424.511	96.56
424.733	117.56
424.956	134.56
425.178	125.56
425.401	112.56
425.623	124.56
425.846	100.56
426.068	106.56
426.291	101.56
426.513	98.56
426.735	101.56
426.958	111.56
427.18	114.56
427.402	198.56
427.625	327.56
427.847	295.56
428.069	275.56
428.292	152.56
428.514	110.56
428.736	96.56
428.958	95.56
429.181	98.56
429.403	95.56
429.625	86.56
429.847	111.56
430.069	117.56
430.292	107.56
430.514	111.56
430.736	97.56
430.958	95.56
431.18	97.56
431.402	93.56
431.624	89.56
431.846	97.56
432.068	99.56
432.29	97.56
432.512	93.56
432.734	81.56
432.956	116.56
433.178	91.56
433.4	108.56
433.622	96.56
433.844	102.56
434.066	94.56
434.287	96.56
434.509	94.56
434.731	97.56
434.953	99.56
435.175	96.56
435.397	104.56
435.618	110.56
435.84	118.56
436.062	153.56
436.284	131.56
436.505	109.56
436.727	127.56
436.949	101.56
437.17	103.56
437.392	91.56
437.614	98.56
437.835	147.56
438.057	171.56
438.278	147.56
438.5	109.56
438.721	162.56
438.943	121.56
439.165	97.56
439.386	81.56
439.608	108.56
439.829	128.56
440.05	166.56
440.272	206.56
440.493	103.56
440.715	94.56
440.936	104.56
441.158	91.56
441.379	103.56
441.6	114.56
441.822	105.56
442.043	107.56
442.264	137.56
442.486	126.56
442.707	113.56
442.928	149.56
443.149	210.56
443.371	207.56
443.592	142.56
443.813	167.56
444.034	133.56
444.255	102.56
444.476	103.56
444.698	80.56
444.919	97.56
445.14	143.56
445.361	143.56
445.582	155.56
445.803	197.56
446.024	206.56
446.245	194.56
446.466	114.56
446.687	96.56
446.908	92.56
447.129	91.56
447.35	108.56
447.571	107.56
447.792	107.56
448.013	111.56
448.234	133.56
448.455	132.56
448.675	135.56
448.896	131.56
449.117	120.56
449.338	114.56
449.559	168.56
449.779	169.56
450	103.56
450.221	102.56
450.442	94.56
450.662	111.56
450.883	157.56
451.104	170.56
451.324	132.56
451.545	114.56
451.766	100.56
451.986	106.56
452.207	94.56
452.428	110.56
452.648	111.56
452.869	149.56
453.089	174.56
453.31	166.56
453.53	115.56
453.751	115.56
453.971	137.56
454.192	167.56
454.412	114.56
454.633	94.56
454.853	100.56
455.073	102.56
455.294	103.56
455.514	131.56
455.734	101.56
455.955	99.56
456.175	100.56
456.395	79.56
456.616	90.56
456.836	106.56
457.056	90.56
457.276	90.56
457.497	88.56
457.717	92.56
457.937	85.56
458.157	87.56
458.377	107.56
458.598	156.56
458.818	274.56
459.038	301.56
459.258	176.56
459.478	111.56
459.698	106.56
459.918	104.56
460.138	99.56
460.358	94.56
460.578	108.56
460.798	107.56
461.018	108.56
461.238	88.56
461.458	100.56
461.678	90.56
461.898	98.56
462.118	100.56
462.338	99.56
462.558	94.56
462.777	96.56
462.997	116.56
463.217	126.56
463.437	115.56
463.657	109.56
463.876	92.56
464.096	98.56
464.316	95.56
464.536	116.56
464.755	95.56
464.975	145.56
465.195	287.56
465.414	297.56
465.634	135.56
465.854	88.56
466.073	93.56
466.293	103.56
466.512	92.56
466.732	83.56
466.951	92.56
467.171	119.56
467.391	134.56
467.61	190.56
467.829	277.56
468.049	800.56
468.268	1219.56
468.488	291.56
468.707	127.56
468.927	106.56
469.146	110.56
469.365	97.56
469.585	103.56
469.804	120.56
470.023	109.56
470.243	123.56
470.462	135.56
470.681	183.56
470.901	133.56
471.12	98.56
471.339	121.56
471.558	136.56
471.777	187.56
471.997	402.56
472.216	1533.56
472.435	3628.56
472.654	781.56
472.873	191.56
473.092	119.56
473.311	115.56
473.53	123.56
473.749	100.56
473.968	103.56
474.187	137.56
474.406	118.56
474.625	115.56
474.844	96.56
475.063	107.56
475.282	87.56
475.501	95.56
475.72	98.56
475.939	86.56
476.158	90.56
476.377	94.56
476.596	102.56
476.814	113.56
477.033	118.56
477.252	103.56
477.471	84.56
477.69	116.56
477.908	95.56
478.127	103.56
478.346	100.56
478.564	115.56
478.783	128.56
479.002	106.56
479.22	109.56
479.439	140.56
479.658	143.56
479.876	130.56
480.095	134.56
480.313	151.56
480.532	192.56
480.751	354.56
480.969	1370.56
481.188	6150.56
481.406	3396.56
481.624	460.56
481.843	170.56
482.061	132.56
482.28	101.56
482.498	103.56
482.717	104.56
482.935	102.56
483.153	109.56
483.372	111.56
483.59	106.56
483.808	95.56
484.027	90.56
484.245	105.56
484.463	98.56
484.681	104.56
484.9	99.56
485.118	98.56
485.336	91.56
485.554	104.56
485.772	110.56
485.99	110.56
486.209	97.56
486.427	104.56
486.645	126.56
486.863	145.56
487.081	116.56
487.299	109.56
487.517	90.56
487.735	91.56
487.953	105.56
488.171	98.56
488.389	97.56
488.607	106.56
488.825	92.56
489.043	82.56
489.261	104.56
489.479	95.56
489.696	103.56
489.914	79.56
490.132	82.56
490.35	101.56
490.568	77.56
490.786	98.56
491.003	102.56
491.221	98.56
491.439	100.56
491.657	84.56
491.874	93.56
492.092	94.56
492.31	94.56
492.527	107.56
492.745	110.56
492.963	100.56
493.18	118.56
493.398	100.56
493.615	117.56
493.833	99.56
494.05	91.56
494.268	104.56
494.485	93.56
494.703	112.56
494.92	94.56
495.138	93.56
495.355	99.56
495.573	102.56
495.79	91.56
496.008	101.56
496.225	108.56
496.442	98.56
496.66	88.56
496.877	95.56
497.094	87.56
497.312	96.56
497.529	97.56
497.746	93.56
497.963	85.56
498.181	100.56
498.398	94.56
498.615	135.56
498.832	128.56
499.049	100.56
499.267	87.56
499.484	104.56
499.701	96.56
499.918	86.56
500.135	97.56
500.352	105.56
500.569	97.56
500.786	110.56
501.003	93.56
501.22	102.56
501.437	104.56
501.654	99.56
501.871	134.56
502.088	114.56
502.305	102.56
502.522	98.56
502.739	99.56
502.956	101.56
503.172	117.56
503.389	121.56
503.606	164.56
503.823	111.56
504.04	108.56
504.256	116.56
504.473	93.56
504.69	84.56
504.907	101.56
505.123	95.56
505.34	91.56
505.557	80.56
505.773	93.56
505.99	87.56
506.207	94.56
506.423	96.56
506.64	98.56
506.856	106.56
507.073	104.56
507.289	94.56
507.506	107.56
507.722	156.56
507.939	161.56
508.155	119.56
508.372	107.56
508.588	109.56
508.805	107.56
509.021	111.56
509.238	112.56
509.454	101.56
509.67	123.56
