Data from Circ_1995_H10_HRD10591_00066.txt Node
Date: Wed Jan 03 11:36:59 EST 2024
User: Yrep
Spectrometer: HR+D1059
Trigger mode: 1
Integration Time (sec): 1.000000E-1
Scans to average: 1
Electric dark correction enabled: true
Nonlinearity correction enabled: false
Boxcar width: 0
XAxis mode: Wavelengths
Number of Pixels in Spectrum: 2048
>>>>>Begin Spectral Data<<<<<
223.165	-31.81
223.4	-31.81
223.635	-31.81
223.869	-19.81
224.104	-28.81
224.338	-21.81
224.573	-15.81
224.808	-13.81
225.042	-3.81
225.277	-6.81
225.511	8.19
225.746	10.19
225.98	2.19
226.215	13.19
226.449	17.19
226.683	26.19
226.918	33.19
227.152	32.19
227.387	28.19
227.621	36.19
227.856	36.19
228.09	52.19
228.324	66.19
228.559	50.19
228.793	59.19
229.027	56.19
229.262	77.19
229.496	86.19
229.73	109.19
229.964	111.19
230.199	81.19
230.433	73.19
230.667	70.19
230.901	93.19
231.136	84.19
231.37	76.19
231.604	85.19
231.838	72.19
232.072	66.19
232.306	82.19
232.541	67.19
232.775	88.19
233.009	84.19
233.243	94.19
233.477	83.19
233.711	80.19
233.945	82.19
234.179	85.19
234.413	83.19
234.647	78.19
234.881	76.19
235.115	84.19
235.349	78.19
235.583	87.19
235.817	76.19
236.051	83.19
236.285	78.19
236.519	84.19
236.753	75.19
236.987	78.19
237.221	84.19
237.455	98.19
237.689	90.19
237.922	76.19
238.156	83.19
238.39	80.19
238.624	79.19
238.858	74.19
239.091	83.19
239.325	94.19
239.559	91.19
239.793	99.19
240.027	85.19
240.26	93.19
240.494	80.19
240.728	83.19
240.961	78.19
241.195	66.19
241.429	93.19
241.662	83.19
241.896	60.19
242.13	72.19
242.363	87.19
242.597	67.19
242.83	84.19
243.064	76.19
243.298	75.19
243.531	85.19
243.765	89.19
243.998	78.19
244.232	85.19
244.465	93.19
244.699	80.19
244.932	88.19
245.166	96.19
245.399	86.19
245.633	88.19
245.866	68.19
246.099	60.19
246.333	84.19
246.566	97.19
246.8	85.19
247.033	76.19
247.266	93.19
247.5	91.19
247.733	86.19
247.966	94.19
248.2	87.19
248.433	81.19
248.666	85.19
248.899	83.19
249.133	69.19
249.366	96.19
249.599	88.19
249.832	85.19
250.066	88.19
250.299	92.19
250.532	87.19
250.765	85.19
250.998	95.19
251.231	97.19
251.465	90.19
251.698	89.19
251.931	88.19
252.164	99.19
252.397	89.19
252.63	78.19
252.863	76.19
253.096	82.19
253.329	86.19
253.562	90.19
253.795	80.19
254.028	94.19
254.261	95.19
254.494	89.19
254.727	86.19
254.96	73.19
255.193	75.19
255.426	82.19
255.659	92.19
255.892	91.19
256.124	93.19
256.357	91.19
256.59	81.19
256.823	93.19
257.056	95.19
257.289	98.19
257.521	88.19
257.754	94.19
257.987	78.19
258.22	91.19
258.452	104.19
258.685	101.19
258.918	89.19
259.151	79.19
259.383	87.19
259.616	75.19
259.849	80.19
260.081	85.19
260.314	84.19
260.547	90.19
260.779	100.19
261.012	112.19
261.244	117.19
261.477	88.19
261.71	109.19
261.942	134.19
262.175	156.19
262.407	98.19
262.64	89.19
262.872	92.19
263.105	80.19
263.337	107.19
263.57	80.19
263.802	99.19
264.035	92.19
264.267	81.19
264.499	69.19
264.732	78.19
264.964	74.19
265.197	94.19
265.429	93.19
265.661	83.19
265.894	92.19
266.126	89.19
266.358	93.19
266.591	79.19
266.823	89.19
267.055	87.19
267.287	82.19
267.52	68.19
267.752	88.19
267.984	88.19
268.216	91.19
268.448	96.19
268.681	96.19
268.913	92.19
269.145	87.19
269.377	80.19
269.609	95.19
269.841	83.19
270.073	83.19
270.306	65.19
270.538	98.19
270.77	86.19
271.002	97.19
271.234	97.19
271.466	85.19
271.698	97.19
271.93	85.19
272.162	97.19
272.394	98.19
272.626	82.19
272.858	91.19
273.09	98.19
273.322	86.19
273.553	90.19
273.785	93.19
274.017	92.19
274.249	106.19
274.481	98.19
274.713	110.19
274.945	102.19
275.176	94.19
275.408	109.19
275.64	129.19
275.872	150.19
276.104	122.19
276.335	93.19
276.567	123.19
276.799	163.19
277.031	226.19
277.262	269.19
277.494	179.19
277.726	122.19
277.957	106.19
278.189	94.19
278.421	96.19
278.652	85.19
278.884	92.19
279.115	88.19
279.347	81.19
279.579	102.19
279.81	169.19
280.042	256.19
280.273	355.19
280.505	230.19
280.736	136.19
280.968	97.19
281.199	96.19
281.431	86.19
281.662	91.19
281.894	106.19
282.125	97.19
282.356	121.19
282.588	188.19
282.819	134.19
283.051	105.19
283.282	80.19
283.513	104.19
283.745	96.19
283.976	94.19
284.207	91.19
284.439	97.19
284.67	90.19
284.901	96.19
285.132	87.19
285.364	89.19
285.595	86.19
285.826	88.19
286.057	88.19
286.288	92.19
286.52	80.19
286.751	92.19
286.982	107.19
287.213	81.19
287.444	86.19
287.675	79.19
287.906	98.19
288.138	92.19
288.369	93.19
288.6	87.19
288.831	85.19
289.062	97.19
289.293	101.19
289.524	91.19
289.755	89.19
289.986	79.19
290.217	96.19
290.448	93.19
290.679	85.19
290.91	91.19
291.141	88.19
291.371	80.19
291.602	90.19
291.833	69.19
292.064	98.19
292.295	92.19
292.526	109.19
292.757	108.19
292.987	89.19
293.218	87.19
293.449	89.19
293.68	82.19
293.91	75.19
294.141	87.19
294.372	89.19
294.603	92.19
294.833	96.19
295.064	92.19
295.295	92.19
295.525	96.19
295.756	113.19
295.987	138.19
296.217	176.19
296.448	170.19
296.679	93.19
296.909	99.19
297.14	74.19
297.37	85.19
297.601	101.19
297.831	102.19
298.062	103.19
298.292	90.19
298.523	82.19
298.753	99.19
298.984	92.19
299.214	103.19
299.445	102.19
299.675	109.19
299.905	96.19
300.136	103.19
300.366	96.19
300.597	88.19
300.827	108.19
301.057	92.19
301.288	110.19
301.518	109.19
301.748	102.19
301.979	124.19
302.209	108.19
302.439	89.19
302.669	85.19
302.9	94.19
303.13	107.19
303.36	109.19
303.59	149.19
303.82	158.19
304.051	110.19
304.281	115.19
304.511	107.19
304.741	99.19
304.971	96.19
305.201	88.19
305.431	96.19
305.661	94.19
305.891	92.19
306.121	106.19
306.352	115.19
306.582	124.19
306.812	117.19
307.042	123.19
307.272	187.19
307.502	232.19
307.731	205.19
307.961	145.19
308.191	109.19
308.421	102.19
308.651	88.19
308.881	98.19
309.111	106.19
309.341	116.19
309.571	117.19
309.8	112.19
310.03	108.19
310.26	113.19
310.49	102.19
310.72	89.19
310.949	119.19
311.179	110.19
311.409	99.19
311.639	107.19
311.868	101.19
312.098	106.19
312.328	120.19
312.557	112.19
312.787	142.19
313.017	104.19
313.246	102.19
313.476	97.19
313.706	98.19
313.935	100.19
314.165	107.19
314.394	110.19
314.624	118.19
314.853	105.19
315.083	117.19
315.312	99.19
315.542	95.19
315.771	97.19
316.001	96.19
316.23	87.19
316.46	86.19
316.689	95.19
316.919	93.19
317.148	113.19
317.377	99.19
317.607	103.19
317.836	100.19
318.065	87.19
318.295	85.19
318.524	95.19
318.753	92.19
318.983	98.19
319.212	105.19
319.441	135.19
319.67	122.19
319.9	99.19
320.129	93.19
320.358	90.19
320.587	99.19
320.816	131.19
321.046	124.19
321.275	105.19
321.504	91.19
321.733	115.19
321.962	106.19
322.191	103.19
322.42	132.19
322.649	132.19
322.878	127.19
323.108	144.19
323.337	150.19
323.566	166.19
323.795	193.19
324.024	250.19
324.253	519.19
324.482	1087.19
324.71	2354.19
324.939	3222.19
325.168	1164.19
325.397	350.19
325.626	186.19
325.855	158.19
326.084	152.19
326.313	147.19
326.542	178.19
326.77	286.19
326.999	585.19
327.228	1208.19
327.457	2227.19
327.686	1818.19
327.914	666.19
328.143	670.19
328.372	922.19
328.6	486.19
328.829	219.19
329.058	222.19
329.287	244.19
329.515	223.19
329.744	304.19
329.972	608.19
330.201	1332.19
330.43	2022.19
330.658	884.19
330.887	372.19
331.115	238.19
331.344	144.19
331.572	137.19
331.801	136.19
332.03	115.19
332.258	112.19
332.486	118.19
332.715	117.19
332.943	127.19
333.172	119.19
333.4	133.19
333.629	201.19
333.857	264.19
334.085	564.19
334.314	1189.19
334.542	2392.19
334.771	2354.19
334.999	571.19
335.227	219.19
335.455	146.19
335.684	130.19
335.912	120.19
336.14	126.19
336.369	115.19
336.597	110.19
336.825	103.19
337.053	96.19
337.281	101.19
337.51	92.19
337.738	112.19
337.966	99.19
338.194	114.19
338.422	129.19
338.65	105.19
338.878	94.19
339.106	95.19
339.334	107.19
339.562	111.19
339.79	94.19
340.018	97.19
340.246	116.19
340.474	92.19
340.702	94.19
340.93	80.19
341.158	97.19
341.386	114.19
341.614	108.19
341.842	96.19
342.07	100.19
342.298	100.19
342.526	100.19
342.754	86.19
342.981	88.19
343.209	85.19
343.437	104.19
343.665	87.19
343.893	84.19
344.12	108.19
344.348	83.19
344.576	91.19
344.804	102.19
345.031	106.19
345.259	101.19
345.487	107.19
345.714	112.19
345.942	94.19
346.17	101.19
346.397	92.19
346.625	108.19
346.853	92.19
347.08	94.19
347.308	96.19
347.535	119.19
347.763	111.19
347.99	105.19
348.218	119.19
348.445	132.19
348.673	110.19
348.9	105.19
349.128	89.19
349.355	96.19
349.583	95.19
349.81	101.19
350.037	99.19
350.265	87.19
350.492	99.19
350.72	96.19
350.947	104.19
351.174	117.19
351.402	124.19
351.629	99.19
351.856	107.19
352.083	123.19
352.311	130.19
352.538	135.19
352.765	127.19
352.992	118.19
353.22	126.19
353.447	128.19
353.674	108.19
353.901	98.19
354.128	94.19
354.355	94.19
354.583	117.19
354.81	107.19
355.037	105.19
355.264	99.19
355.491	90.19
355.718	86.19
355.945	89.19
356.172	84.19
356.399	84.19
356.626	91.19
356.853	89.19
357.08	104.19
357.307	94.19
357.534	89.19
357.761	91.19
357.988	97.19
358.215	99.19
358.441	95.19
358.668	105.19
358.895	108.19
359.122	97.19
359.349	91.19
359.576	107.19
359.802	121.19
360.029	144.19
360.256	147.19
360.483	115.19
360.709	84.19
360.936	106.19
361.163	96.19
361.39	94.19
361.616	101.19
361.843	98.19
362.07	94.19
362.296	105.19
362.523	102.19
362.749	97.19
362.976	107.19
363.203	84.19
363.429	82.19
363.656	106.19
363.882	100.19
364.109	93.19
364.335	95.19
364.562	107.19
364.788	108.19
365.015	105.19
365.241	117.19
365.468	112.19
365.694	124.19
365.92	120.19
366.147	102.19
366.373	90.19
366.599	95.19
366.826	106.19
367.052	102.19
367.278	94.19
367.505	94.19
367.731	111.19
367.957	100.19
368.184	102.19
368.41	110.19
368.636	109.19
368.862	141.19
369.089	123.19
369.315	105.19
369.541	105.19
369.767	104.19
369.993	101.19
370.219	92.19
370.445	92.19
370.672	92.19
370.898	92.19
371.124	100.19
371.35	99.19
371.576	103.19
371.802	92.19
372.028	93.19
372.254	86.19
372.48	93.19
372.706	85.19
372.932	89.19
373.158	84.19
373.384	79.19
373.61	81.19
373.835	90.19
374.061	91.19
374.287	93.19
374.513	94.19
374.739	77.19
374.965	92.19
375.191	94.19
375.416	96.19
375.642	87.19
375.868	88.19
376.094	112.19
376.319	98.19
376.545	100.19
376.771	83.19
376.997	105.19
377.222	106.19
377.448	100.19
377.674	78.19
377.899	91.19
378.125	101.19
378.35	95.19
378.576	87.19
378.802	103.19
379.027	86.19
379.253	81.19
379.478	92.19
379.704	87.19
379.929	101.19
380.155	96.19
380.38	97.19
380.606	91.19
380.831	91.19
381.057	107.19
381.282	99.19
381.507	101.19
381.733	97.19
381.958	108.19
382.184	104.19
382.409	104.19
382.634	117.19
382.86	104.19
383.085	101.19
383.31	97.19
383.535	108.19
383.761	91.19
383.986	104.19
384.211	104.19
384.436	97.19
384.662	102.19
384.887	124.19
385.112	110.19
385.337	95.19
385.562	117.19
385.787	121.19
386.013	130.19
386.238	120.19
386.463	101.19
386.688	107.19
386.913	94.19
387.138	110.19
387.363	100.19
387.588	98.19
387.813	107.19
388.038	100.19
388.263	113.19
388.488	112.19
388.713	86.19
388.938	95.19
389.163	83.19
389.387	95.19
389.612	101.19
389.837	91.19
390.062	93.19
390.287	91.19
390.512	95.19
390.736	86.19
390.961	88.19
391.186	90.19
391.411	98.19
391.636	97.19
391.86	82.19
392.085	88.19
392.31	101.19
392.534	83.19
392.759	91.19
392.984	109.19
393.208	85.19
393.433	90.19
393.658	90.19
393.882	84.19
394.107	94.19
394.331	89.19
394.556	101.19
394.78	88.19
395.005	92.19
395.229	90.19
395.454	71.19
395.678	89.19
395.903	100.19
396.127	82.19
396.352	90.19
396.576	88.19
396.801	89.19
397.025	90.19
397.249	101.19
397.474	76.19
397.698	105.19
397.922	84.19
398.147	94.19
398.371	91.19
398.595	87.19
398.82	90.19
399.044	74.19
399.268	85.19
399.492	91.19
399.717	99.19
399.941	86.19
400.165	109.19
400.389	103.19
400.613	114.19
400.837	76.19
401.062	89.19
401.286	98.19
401.51	107.19
401.734	108.19
401.958	108.19
402.182	152.19
402.406	209.19
402.63	170.19
402.854	114.19
403.078	105.19
403.302	101.19
403.526	105.19
403.75	92.19
403.974	100.19
404.198	96.19
404.422	103.19
404.645	96.19
404.869	105.19
405.093	129.19
405.317	157.19
405.541	169.19
405.765	139.19
405.988	129.19
406.212	220.19
406.436	340.19
406.66	223.19
406.883	136.19
407.107	105.19
407.331	113.19
407.555	109.19
407.778	92.19
408.002	104.19
408.226	92.19
408.449	102.19
408.673	106.19
408.896	109.19
409.12	102.19
409.344	94.19
409.567	88.19
409.791	97.19
410.014	105.19
410.238	90.19
410.461	77.19
410.685	101.19
410.908	108.19
411.132	108.19
411.355	97.19
411.578	96.19
411.802	85.19
412.025	93.19
412.249	94.19
412.472	116.19
412.695	160.19
412.919	109.19
413.142	84.19
413.365	81.19
413.589	75.19
413.812	85.19
414.035	91.19
414.258	90.19
414.482	101.19
414.705	96.19
414.928	97.19
415.151	108.19
415.374	109.19
415.597	82.19
415.821	84.19
416.044	83.19
416.267	94.19
416.49	97.19
416.713	96.19
416.936	105.19
417.159	97.19
417.382	110.19
417.605	119.19
417.828	109.19
418.051	112.19
418.274	101.19
418.497	82.19
418.72	79.19
418.943	96.19
419.166	92.19
419.389	84.19
419.611	81.19
419.834	92.19
420.057	95.19
420.28	106.19
420.503	89.19
420.726	94.19
420.948	109.19
421.171	98.19
421.394	105.19
421.617	99.19
421.839	109.19
422.062	96.19
422.285	81.19
422.507	93.19
422.73	97.19
422.953	93.19
423.175	94.19
423.398	93.19
423.621	85.19
423.843	74.19
424.066	99.19
424.288	104.19
424.511	95.19
424.733	94.19
424.956	114.19
425.178	110.19
425.401	115.19
425.623	102.19
425.846	92.19
426.068	125.19
426.291	105.19
426.513	102.19
426.735	89.19
426.958	105.19
427.18	123.19
427.402	182.19
427.625	281.19
427.847	302.19
428.069	249.19
428.292	133.19
428.514	96.19
428.736	102.19
428.958	103.19
429.181	93.19
429.403	86.19
429.625	90.19
429.847	113.19
430.069	112.19
430.292	98.19
430.514	78.19
430.736	90.19
430.958	81.19
431.18	96.19
431.402	88.19
431.624	91.19
431.846	101.19
432.068	94.19
432.29	93.19
432.512	92.19
432.734	96.19
432.956	92.19
433.178	114.19
433.4	106.19
433.622	104.19
433.844	108.19
434.066	87.19
434.287	92.19
434.509	97.19
434.731	102.19
434.953	93.19
435.175	82.19
435.397	91.19
435.618	99.19
435.84	128.19
436.062	146.19
436.284	152.19
436.505	106.19
436.727	109.19
436.949	93.19
437.17	104.19
437.392	101.19
437.614	107.19
437.835	130.19
438.057	162.19
438.278	123.19
438.5	112.19
438.721	140.19
438.943	117.19
439.165	99.19
439.386	105.19
439.608	94.19
439.829	122.19
440.05	164.19
440.272	190.19
440.493	131.19
440.715	85.19
440.936	99.19
441.158	97.19
441.379	99.19
441.6	90.19
441.822	112.19
442.043	116.19
442.264	127.19
442.486	105.19
442.707	97.19
442.928	128.19
443.149	183.19
443.371	180.19
443.592	120.19
443.813	139.19
444.034	123.19
444.255	94.19
444.476	95.19
444.698	94.19
444.919	102.19
445.14	158.19
445.361	135.19
445.582	147.19
445.803	205.19
446.024	188.19
446.245	171.19
446.466	137.19
446.687	94.19
446.908	96.19
447.129	84.19
447.35	90.19
447.571	114.19
447.792	101.19
448.013	109.19
448.234	144.19
448.455	127.19
448.675	124.19
448.896	149.19
449.117	119.19
449.338	120.19
449.559	149.19
449.779	148.19
450	111.19
450.221	88.19
450.442	87.19
450.662	108.19
450.883	133.19
451.104	145.19
451.324	118.19
451.545	84.19
451.766	95.19
451.986	88.19
452.207	95.19
452.428	90.19
452.648	114.19
452.869	156.19
453.089	156.19
453.31	152.19
453.53	101.19
453.751	117.19
453.971	129.19
454.192	141.19
454.412	102.19
454.633	88.19
454.853	95.19
455.073	95.19
455.294	102.19
455.514	120.19
455.734	91.19
455.955	83.19
456.175	78.19
456.395	84.19
456.616	88.19
456.836	79.19
457.056	98.19
457.276	88.19
457.497	94.19
457.717	103.19
457.937	100.19
458.157	103.19
458.377	104.19
458.598	113.19
458.818	220.19
459.038	260.19
459.258	166.19
459.478	116.19
459.698	98.19
459.918	77.19
460.138	95.19
460.358	99.19
460.578	97.19
460.798	100.19
461.018	95.19
461.238	105.19
461.458	89.19
461.678	90.19
461.898	94.19
462.118	94.19
462.338	75.19
462.558	103.19
462.777	98.19
462.997	98.19
463.217	124.19
463.437	112.19
463.657	92.19
463.876	98.19
464.096	98.19
464.316	106.19
464.536	104.19
464.755	124.19
464.975	121.19
465.195	272.19
465.414	267.19
465.634	114.19
465.854	96.19
466.073	100.19
466.293	94.19
466.512	102.19
466.732	95.19
466.951	99.19
467.171	91.19
467.391	131.19
467.61	159.19
467.829	280.19
468.049	737.19
468.268	1212.19
468.488	280.19
468.707	127.19
468.927	102.19
469.146	101.19
469.365	111.19
469.585	105.19
469.804	112.19
470.023	129.19
470.243	110.19
470.462	138.19
470.681	160.19
470.901	117.19
471.12	95.19
471.339	131.19
471.558	134.19
471.777	179.19
471.997	382.19
472.216	1474.19
472.435	3539.19
472.654	780.19
472.873	200.19
473.092	131.19
473.311	95.19
473.53	107.19
473.749	88.19
473.968	98.19
474.187	132.19
474.406	116.19
474.625	101.19
474.844	108.19
475.063	82.19
475.282	96.19
475.501	93.19
475.72	93.19
475.939	96.19
476.158	85.19
476.377	105.19
476.596	97.19
476.814	131.19
477.033	121.19
477.252	107.19
477.471	113.19
477.69	87.19
477.908	91.19
478.127	115.19
478.346	97.19
478.564	95.19
478.783	121.19
479.002	96.19
479.22	110.19
479.439	140.19
479.658	149.19
479.876	130.19
480.095	135.19
480.313	148.19
480.532	190.19
480.751	344.19
480.969	1252.19
481.188	5728.19
481.406	3414.19
481.624	479.19
481.843	163.19
482.061	122.19
482.28	108.19
482.498	110.19
482.717	108.19
482.935	91.19
483.153	91.19
483.372	83.19
483.59	94.19
483.808	93.19
484.027	105.19
484.245	108.19
484.463	105.19
484.681	89.19
484.9	101.19
485.118	106.19
485.336	101.19
485.554	98.19
485.772	98.19
485.99	107.19
486.209	117.19
486.427	116.19
486.645	121.19
486.863	137.19
487.081	109.19
487.299	92.19
487.517	97.19
487.735	94.19
487.953	96.19
488.171	89.19
488.389	106.19
488.607	102.19
488.825	96.19
489.043	86.19
489.261	97.19
489.479	88.19
489.696	105.19
489.914	90.19
490.132	96.19
490.35	80.19
490.568	97.19
490.786	88.19
491.003	112.19
491.221	92.19
491.439	98.19
491.657	97.19
491.874	102.19
492.092	91.19
492.31	91.19
492.527	94.19
492.745	94.19
492.963	98.19
493.18	98.19
493.398	99.19
493.615	95.19
493.833	92.19
494.05	109.19
494.268	83.19
494.485	96.19
494.703	108.19
494.92	98.19
495.138	96.19
495.355	95.19
495.573	104.19
495.79	104.19
496.008	94.19
496.225	94.19
496.442	84.19
496.66	97.19
496.877	82.19
497.094	83.19
497.312	93.19
497.529	84.19
497.746	82.19
497.963	94.19
498.181	98.19
498.398	97.19
498.615	116.19
498.832	115.19
499.049	83.19
499.267	88.19
499.484	91.19
499.701	105.19
499.918	107.19
500.135	76.19
500.352	97.19
500.569	108.19
500.786	101.19
501.003	89.19
501.22	93.19
501.437	96.19
501.654	102.19
501.871	153.19
502.088	105.19
502.305	90.19
502.522	92.19
502.739	85.19
502.956	95.19
503.172	95.19
503.389	115.19
503.606	134.19
503.823	114.19
504.04	114.19
504.256	85.19
504.473	93.19
504.69	98.19
504.907	98.19
505.123	89.19
505.34	89.19
505.557	98.19
505.773	95.19
505.99	89.19
506.207	88.19
506.423	105.19
506.64	99.19
506.856	90.19
507.073	99.19
507.289	93.19
507.506	126.19
507.722	134.19
507.939	157.19
508.155	104.19
508.372	102.19
508.588	96.19
508.805	116.19
509.021	93.19
509.238	105.19
509.454	110.19
509.67	87.19
509.887	114.19
510.103	164.19
510.319	257.19
510.536	909.19
510.752	3315.19
510.968	898.19
511.184	186.19
511.401	134.19
511.617	109.19
