Data from Circ_1995_H10_HRD10591_00042.txt Node
Date: Wed Jan 03 11:36:55 EST 2024
User: Yrep
Spectrometer: HR+D1059
Trigger mode: 1
Integration Time (sec): 1.000000E-1
Scans to average: 1
Electric dark correction enabled: true
Nonlinearity correction enabled: false
Boxcar width: 0
XAxis mode: Wavelengths
Number of Pixels in Spectrum: 2048
>>>>>Begin Spectral Data<<<<<
223.165	-1.62
223.4	-1.62
223.635	-1.62
223.869	-18.62
224.104	-17.62
224.338	-24.62
224.573	-19.62
224.808	-25.62
225.042	-9.62
225.277	1.38
225.511	9.38
225.746	4.38
225.98	12.38
226.215	-6.62
226.449	18.38
226.683	23.38
226.918	26.38
227.152	28.38
227.387	42.38
227.621	37.38
227.856	34.38
228.09	58.38
228.324	51.38
228.559	64.38
228.793	67.38
229.027	53.38
229.262	62.38
229.496	78.38
229.73	94.38
229.964	87.38
230.199	77.38
230.433	76.38
230.667	83.38
230.901	81.38
231.136	87.38
231.37	69.38
231.604	76.38
231.838	76.38
232.072	89.38
232.306	99.38
232.541	92.38
232.775	92.38
233.009	73.38
233.243	69.38
233.477	77.38
233.711	83.38
233.945	90.38
234.179	87.38
234.413	83.38
234.647	81.38
234.881	82.38
235.115	95.38
235.349	79.38
235.583	78.38
235.817	94.38
236.051	97.38
236.285	86.38
236.519	76.38
236.753	81.38
236.987	88.38
237.221	87.38
237.455	96.38
237.689	84.38
237.922	83.38
238.156	78.38
238.39	82.38
238.624	86.38
238.858	85.38
239.091	78.38
239.325	91.38
239.559	100.38
239.793	103.38
240.027	78.38
240.26	78.38
240.494	67.38
240.728	70.38
240.961	71.38
241.195	92.38
241.429	71.38
241.662	81.38
241.896	69.38
242.13	82.38
242.363	77.38
242.597	78.38
242.83	95.38
243.064	78.38
243.298	68.38
243.531	69.38
243.765	85.38
243.998	76.38
244.232	79.38
244.465	90.38
244.699	77.38
244.932	85.38
245.166	82.38
245.399	68.38
245.633	85.38
245.866	90.38
246.099	73.38
246.333	84.38
246.566	98.38
246.8	87.38
247.033	89.38
247.266	76.38
247.5	68.38
247.733	92.38
247.966	85.38
248.2	76.38
248.433	83.38
248.666	92.38
248.899	96.38
249.133	93.38
249.366	98.38
249.599	119.38
249.832	81.38
250.066	91.38
250.299	80.38
250.532	104.38
250.765	94.38
250.998	83.38
251.231	76.38
251.465	83.38
251.698	96.38
251.931	86.38
252.164	93.38
252.397	82.38
252.63	85.38
252.863	78.38
253.096	70.38
253.329	85.38
253.562	96.38
253.795	90.38
254.028	95.38
254.261	91.38
254.494	74.38
254.727	90.38
254.96	76.38
255.193	70.38
255.426	89.38
255.659	103.38
255.892	109.38
256.124	105.38
256.357	100.38
256.59	98.38
256.823	94.38
257.056	86.38
257.289	96.38
257.521	83.38
257.754	93.38
257.987	84.38
258.22	93.38
258.452	97.38
258.685	101.38
258.918	71.38
259.151	86.38
259.383	86.38
259.616	92.38
259.849	98.38
260.081	98.38
260.314	90.38
260.547	88.38
260.779	100.38
261.012	117.38
261.244	112.38
261.477	103.38
261.71	96.38
261.942	129.38
262.175	143.38
262.407	100.38
262.64	93.38
262.872	101.38
263.105	86.38
263.337	85.38
263.57	97.38
263.802	89.38
264.035	93.38
264.267	91.38
264.499	88.38
264.732	93.38
264.964	85.38
265.197	94.38
265.429	92.38
265.661	89.38
265.894	86.38
266.126	89.38
266.358	81.38
266.591	95.38
266.823	98.38
267.055	93.38
267.287	93.38
267.52	76.38
267.752	82.38
267.984	86.38
268.216	83.38
268.448	95.38
268.681	105.38
268.913	77.38
269.145	81.38
269.377	87.38
269.609	85.38
269.841	89.38
270.073	101.38
270.306	85.38
270.538	95.38
270.77	82.38
271.002	97.38
271.234	81.38
271.466	95.38
271.698	86.38
271.93	87.38
272.162	93.38
272.394	101.38
272.626	95.38
272.858	73.38
273.09	81.38
273.322	86.38
273.553	85.38
273.785	97.38
274.017	78.38
274.249	85.38
274.481	91.38
274.713	97.38
274.945	95.38
275.176	96.38
275.408	108.38
275.64	123.38
275.872	138.38
276.104	117.38
276.335	99.38
276.567	122.38
276.799	142.38
277.031	195.38
277.262	228.38
277.494	166.38
277.726	114.38
277.957	89.38
278.189	101.38
278.421	98.38
278.652	89.38
278.884	91.38
279.115	104.38
279.347	93.38
279.579	113.38
279.81	156.38
280.042	212.38
280.273	287.38
280.505	183.38
280.736	117.38
280.968	94.38
281.199	81.38
281.431	97.38
281.662	99.38
281.894	83.38
282.125	103.38
282.356	132.38
282.588	163.38
282.819	140.38
283.051	99.38
283.282	95.38
283.513	97.38
283.745	94.38
283.976	83.38
284.207	86.38
284.439	87.38
284.67	97.38
284.901	92.38
285.132	91.38
285.364	87.38
285.595	85.38
285.826	88.38
286.057	102.38
286.288	89.38
286.52	95.38
286.751	91.38
286.982	82.38
287.213	87.38
287.444	95.38
287.675	90.38
287.906	100.38
288.138	96.38
288.369	86.38
288.6	96.38
288.831	92.38
289.062	109.38
289.293	102.38
289.524	103.38
289.755	96.38
289.986	89.38
290.217	81.38
290.448	95.38
290.679	91.38
290.91	90.38
291.141	86.38
291.371	78.38
291.602	101.38
291.833	85.38
292.064	91.38
292.295	89.38
292.526	113.38
292.757	98.38
292.987	102.38
293.218	90.38
293.449	87.38
293.68	85.38
293.91	92.38
294.141	88.38
294.372	94.38
294.603	89.38
294.833	90.38
295.064	95.38
295.295	98.38
295.525	98.38
295.756	103.38
295.987	126.38
296.217	169.38
296.448	147.38
296.679	121.38
296.909	94.38
297.14	90.38
297.37	102.38
297.601	96.38
297.831	99.38
298.062	106.38
298.292	99.38
298.523	94.38
298.753	80.38
298.984	91.38
299.214	112.38
299.445	100.38
299.675	100.38
299.905	103.38
300.136	103.38
300.366	97.38
300.597	105.38
300.827	101.38
301.057	99.38
301.288	117.38
301.518	107.38
301.748	101.38
301.979	108.38
302.209	102.38
302.439	120.38
302.669	78.38
302.9	103.38
303.13	110.38
303.36	116.38
303.59	139.38
303.82	154.38
304.051	110.38
304.281	101.38
304.511	103.38
304.741	109.38
304.971	106.38
305.201	89.38
305.431	101.38
305.661	95.38
305.891	84.38
306.121	100.38
306.352	108.38
306.582	130.38
306.812	119.38
307.042	123.38
307.272	167.38
307.502	175.38
307.731	194.38
307.961	153.38
308.191	92.38
308.421	90.38
308.651	107.38
308.881	105.38
309.111	98.38
309.341	105.38
309.571	108.38
309.8	102.38
310.03	114.38
310.26	115.38
310.49	94.38
310.72	101.38
310.949	123.38
311.179	120.38
311.409	88.38
311.639	92.38
311.868	102.38
312.098	95.38
312.328	113.38
312.557	107.38
312.787	142.38
313.017	113.38
313.246	108.38
313.476	99.38
313.706	103.38
313.935	110.38
314.165	113.38
314.394	113.38
314.624	122.38
314.853	116.38
315.083	119.38
315.312	98.38
315.542	93.38
315.771	89.38
316.001	102.38
316.23	94.38
316.46	101.38
316.689	89.38
316.919	102.38
317.148	97.38
317.377	94.38
317.607	97.38
317.836	114.38
318.065	83.38
318.295	93.38
318.524	99.38
318.753	98.38
318.983	100.38
319.212	110.38
319.441	120.38
319.67	118.38
319.9	98.38
320.129	93.38
320.358	104.38
320.587	92.38
320.816	97.38
321.046	98.38
321.275	99.38
321.504	104.38
321.733	96.38
321.962	108.38
322.191	114.38
322.42	110.38
322.649	139.38
322.878	121.38
323.108	140.38
323.337	148.38
323.566	164.38
323.795	195.38
324.024	250.38
324.253	561.38
324.482	1180.38
324.71	2507.38
324.939	3372.38
325.168	1161.38
325.397	331.38
325.626	177.38
325.855	151.38
326.084	152.38
326.313	140.38
326.542	188.38
326.77	286.38
326.999	622.38
327.228	1281.38
327.457	2471.38
327.686	1957.38
327.914	629.38
328.143	562.38
328.372	761.38
328.6	419.38
328.829	214.38
329.058	203.38
329.287	210.38
329.515	180.38
329.744	270.38
329.972	558.38
330.201	1189.38
330.43	1734.38
330.658	758.38
330.887	311.38
331.115	210.38
331.344	144.38
331.572	147.38
331.801	135.38
332.03	133.38
332.258	119.38
332.486	120.38
332.715	115.38
332.943	110.38
333.172	137.38
333.4	125.38
333.629	177.38
333.857	265.38
334.085	513.38
334.314	1065.38
334.542	2154.38
334.771	1993.38
334.999	508.38
335.227	181.38
335.455	136.38
335.684	126.38
335.912	109.38
336.14	103.38
336.369	107.38
336.597	122.38
336.825	124.38
337.053	104.38
337.281	99.38
337.51	97.38
337.738	102.38
337.966	100.38
338.194	105.38
338.422	94.38
338.65	102.38
338.878	89.38
339.106	93.38
339.334	101.38
339.562	94.38
339.79	92.38
340.018	108.38
340.246	101.38
340.474	107.38
340.702	103.38
340.93	98.38
341.158	101.38
341.386	109.38
341.614	122.38
341.842	103.38
342.07	91.38
342.298	82.38
342.526	102.38
342.754	98.38
342.981	96.38
343.209	85.38
343.437	94.38
343.665	98.38
343.893	91.38
344.12	106.38
344.348	97.38
344.576	81.38
344.804	100.38
345.031	111.38
345.259	110.38
345.487	102.38
345.714	99.38
345.942	85.38
346.17	98.38
346.397	92.38
346.625	101.38
346.853	98.38
347.08	95.38
347.308	94.38
347.535	100.38
347.763	98.38
347.99	109.38
348.218	127.38
348.445	128.38
348.673	125.38
348.9	110.38
349.128	100.38
349.355	103.38
349.583	98.38
349.81	106.38
350.037	97.38
350.265	123.38
350.492	100.38
350.72	107.38
350.947	106.38
351.174	122.38
351.402	134.38
351.629	124.38
351.856	86.38
352.083	111.38
352.311	126.38
352.538	125.38
352.765	124.38
352.992	131.38
353.22	123.38
353.447	101.38
353.674	100.38
353.901	100.38
354.128	99.38
354.355	97.38
354.583	98.38
354.81	111.38
355.037	96.38
355.264	97.38
355.491	83.38
355.718	102.38
355.945	94.38
356.172	93.38
356.399	98.38
356.626	100.38
356.853	90.38
357.08	89.38
357.307	93.38
357.534	90.38
357.761	103.38
357.988	107.38
358.215	97.38
358.441	93.38
358.668	92.38
358.895	87.38
359.122	87.38
359.349	94.38
359.576	103.38
359.802	123.38
360.029	140.38
360.256	145.38
360.483	114.38
360.709	100.38
360.936	104.38
361.163	91.38
361.39	113.38
361.616	122.38
361.843	102.38
362.07	95.38
362.296	105.38
362.523	112.38
362.749	83.38
362.976	100.38
363.203	104.38
363.429	110.38
363.656	100.38
363.882	95.38
364.109	101.38
364.335	102.38
364.562	102.38
364.788	91.38
365.015	90.38
365.241	88.38
365.468	138.38
365.694	116.38
365.92	113.38
366.147	94.38
366.373	99.38
366.599	111.38
366.826	94.38
367.052	85.38
367.278	99.38
367.505	93.38
367.731	118.38
367.957	93.38
368.184	107.38
368.41	111.38
368.636	139.38
368.862	156.38
369.089	130.38
369.315	105.38
369.541	101.38
369.767	94.38
369.993	91.38
370.219	109.38
370.445	109.38
370.672	82.38
370.898	86.38
371.124	87.38
371.35	79.38
371.576	83.38
371.802	92.38
372.028	77.38
372.254	86.38
372.48	85.38
372.706	87.38
372.932	77.38
373.158	90.38
373.384	82.38
373.61	88.38
373.835	82.38
374.061	91.38
374.287	104.38
374.513	94.38
374.739	90.38
374.965	92.38
375.191	96.38
375.416	108.38
375.642	79.38
375.868	89.38
376.094	87.38
376.319	96.38
376.545	86.38
376.771	96.38
376.997	89.38
377.222	92.38
377.448	91.38
377.674	92.38
377.899	90.38
378.125	97.38
378.35	92.38
378.576	86.38
378.802	92.38
379.027	89.38
379.253	99.38
379.478	97.38
379.704	96.38
379.929	94.38
380.155	99.38
380.38	102.38
380.606	115.38
380.831	107.38
381.057	99.38
381.282	95.38
381.507	100.38
381.733	94.38
381.958	94.38
382.184	102.38
382.409	108.38
382.634	109.38
382.86	95.38
383.085	82.38
383.31	98.38
383.535	97.38
383.761	109.38
383.986	102.38
384.211	93.38
384.436	107.38
384.662	109.38
384.887	103.38
385.112	110.38
385.337	118.38
385.562	111.38
385.787	116.38
386.013	133.38
386.238	138.38
386.463	117.38
386.688	111.38
386.913	102.38
387.138	115.38
387.363	107.38
387.588	93.38
387.813	110.38
388.038	104.38
388.263	105.38
388.488	104.38
388.713	85.38
388.938	89.38
389.163	93.38
389.387	95.38
389.612	86.38
389.837	99.38
390.062	105.38
390.287	101.38
390.512	91.38
390.736	82.38
390.961	102.38
391.186	98.38
391.411	80.38
391.636	86.38
391.86	83.38
392.085	100.38
392.31	92.38
392.534	95.38
392.759	85.38
392.984	88.38
393.208	101.38
393.433	106.38
393.658	94.38
393.882	93.38
394.107	93.38
394.331	95.38
394.556	94.38
394.78	97.38
395.005	101.38
395.229	79.38
395.454	90.38
395.678	108.38
395.903	93.38
396.127	92.38
396.352	104.38
396.576	84.38
396.801	81.38
397.025	88.38
397.249	93.38
397.474	90.38
397.698	100.38
397.922	101.38
398.147	95.38
398.371	95.38
398.595	89.38
398.82	77.38
399.044	84.38
399.268	87.38
399.492	98.38
399.717	89.38
399.941	108.38
400.165	110.38
400.389	107.38
400.613	96.38
400.837	96.38
401.062	86.38
401.286	90.38
401.51	112.38
401.734	82.38
401.958	116.38
402.182	151.38
402.406	219.38
402.63	163.38
402.854	103.38
403.078	93.38
403.302	93.38
403.526	107.38
403.75	92.38
403.974	101.38
404.198	91.38
404.422	93.38
404.645	90.38
404.869	101.38
405.093	117.38
405.317	146.38
405.541	143.38
405.765	129.38
405.988	141.38
406.212	213.38
406.436	302.38
406.66	210.38
406.883	113.38
407.107	111.38
407.331	114.38
407.555	110.38
407.778	110.38
408.002	116.38
408.226	101.38
408.449	99.38
408.673	103.38
408.896	108.38
409.12	96.38
409.344	95.38
409.567	101.38
409.791	93.38
410.014	100.38
410.238	90.38
410.461	93.38
410.685	85.38
410.908	111.38
411.132	94.38
411.355	105.38
411.578	106.38
411.802	97.38
412.025	97.38
412.249	111.38
412.472	127.38
412.695	155.38
412.919	120.38
413.142	99.38
413.365	86.38
413.589	88.38
413.812	92.38
414.035	104.38
414.258	110.38
414.482	84.38
414.705	92.38
414.928	89.38
415.151	99.38
415.374	113.38
415.597	82.38
415.821	115.38
416.044	102.38
416.267	102.38
416.49	93.38
416.713	82.38
416.936	101.38
417.159	100.38
417.382	98.38
417.605	104.38
417.828	117.38
418.051	94.38
418.274	98.38
418.497	102.38
418.72	99.38
418.943	92.38
419.166	96.38
419.389	108.38
419.611	109.38
419.834	100.38
420.057	99.38
420.28	104.38
420.503	89.38
420.726	110.38
420.948	88.38
421.171	109.38
421.394	103.38
421.617	107.38
421.839	93.38
422.062	85.38
422.285	98.38
422.507	102.38
422.73	115.38
422.953	85.38
423.175	106.38
423.398	86.38
423.621	93.38
423.843	92.38
424.066	87.38
424.288	88.38
424.511	93.38
424.733	102.38
424.956	120.38
425.178	117.38
425.401	117.38
425.623	113.38
425.846	99.38
426.068	98.38
426.291	103.38
426.513	98.38
426.735	101.38
426.958	116.38
427.18	131.38
427.402	195.38
427.625	272.38
427.847	273.38
428.069	258.38
428.292	142.38
428.514	103.38
428.736	82.38
428.958	93.38
429.181	86.38
429.403	79.38
429.625	94.38
429.847	98.38
430.069	119.38
430.292	117.38
430.514	98.38
430.736	101.38
430.958	105.38
431.18	89.38
431.402	93.38
431.624	88.38
431.846	88.38
432.068	85.38
432.29	81.38
432.512	68.38
432.734	88.38
432.956	100.38
433.178	100.38
433.4	110.38
433.622	99.38
433.844	83.38
434.066	89.38
434.287	83.38
434.509	102.38
434.731	100.38
434.953	93.38
435.175	99.38
435.397	96.38
435.618	79.38
435.84	123.38
436.062	151.38
436.284	127.38
436.505	108.38
436.727	108.38
436.949	95.38
437.17	109.38
437.392	86.38
437.614	108.38
437.835	134.38
438.057	149.38
438.278	130.38
438.5	126.38
438.721	153.38
438.943	116.38
439.165	105.38
439.386	100.38
439.608	99.38
439.829	114.38
440.05	169.38
440.272	202.38
440.493	138.38
440.715	98.38
440.936	95.38
441.158	93.38
441.379	89.38
441.6	107.38
441.822	103.38
442.043	112.38
442.264	127.38
442.486	116.38
442.707	120.38
442.928	131.38
443.149	188.38
443.371	180.38
443.592	139.38
443.813	141.38
444.034	126.38
444.255	95.38
444.476	98.38
444.698	98.38
444.919	89.38
445.14	153.38
445.361	145.38
445.582	177.38
445.803	183.38
446.024	205.38
446.245	182.38
446.466	139.38
446.687	98.38
446.908	99.38
447.129	91.38
447.35	99.38
447.571	103.38
447.792	103.38
448.013	118.38
448.234	120.38
448.455	113.38
448.675	149.38
448.896	161.38
449.117	109.38
449.338	130.38
449.559	154.38
449.779	166.38
450	103.38
450.221	83.38
450.442	105.38
450.662	127.38
450.883	105.38
451.104	142.38
451.324	109.38
451.545	97.38
451.766	94.38
451.986	85.38
452.207	96.38
452.428	102.38
452.648	113.38
452.869	122.38
453.089	149.38
453.31	143.38
453.53	109.38
453.751	106.38
453.971	128.38
454.192	151.38
454.412	105.38
454.633	99.38
454.853	79.38
455.073	103.38
455.294	92.38
455.514	122.38
455.734	99.38
455.955	87.38
456.175	84.38
456.395	84.38
456.616	95.38
456.836	83.38
457.056	89.38
457.276	90.38
457.497	88.38
457.717	92.38
457.937	84.38
458.157	101.38
458.377	102.38
458.598	129.38
458.818	225.38
459.038	248.38
459.258	166.38
459.478	104.38
459.698	95.38
459.918	94.38
460.138	83.38
460.358	96.38
460.578	84.38
460.798	98.38
461.018	110.38
461.238	100.38
461.458	69.38
461.678	103.38
461.898	99.38
462.118	98.38
462.338	86.38
462.558	94.38
462.777	93.38
462.997	87.38
463.217	103.38
463.437	98.38
463.657	93.38
463.876	99.38
464.096	97.38
464.316	90.38
464.536	107.38
464.755	116.38
464.975	125.38
465.195	250.38
465.414	269.38
465.634	117.38
465.854	106.38
466.073	105.38
466.293	101.38
466.512	90.38
466.732	100.38
466.951	99.38
467.171	92.38
467.391	112.38
467.61	163.38
467.829	223.38
468.049	657.38
468.268	970.38
468.488	241.38
468.707	116.38
468.927	84.38
469.146	82.38
469.365	109.38
469.585	112.38
469.804	115.38
470.023	114.38
470.243	109.38
470.462	115.38
470.681	139.38
470.901	102.38
471.12	112.38
471.339	126.38
471.558	127.38
471.777	164.38
471.997	339.38
472.216	1276.38
472.435	2934.38
472.654	668.38
472.873	179.38
473.092	113.38
473.311	94.38
473.53	97.38
473.749	99.38
473.968	112.38
474.187	132.38
474.406	137.38
474.625	101.38
474.844	110.38
475.063	88.38
475.282	100.38
475.501	94.38
475.72	99.38
475.939	87.38
476.158	96.38
476.377	90.38
476.596	95.38
476.814	115.38
477.033	91.38
477.252	115.38
477.471	101.38
477.69	95.38
477.908	100.38
478.127	109.38
478.346	94.38
478.564	102.38
478.783	120.38
479.002	125.38
479.22	105.38
479.439	128.38
479.658	133.38
479.876	138.38
480.095	122.38
480.313	148.38
480.532	176.38
480.751	327.38
480.969	1171.38
481.188	5063.38
481.406	2885.38
481.624	407.38
481.843	139.38
482.061	127.38
482.28	113.38
482.498	92.38
482.717	100.38
482.935	86.38
483.153	102.38
483.372	101.38
483.59	103.38
483.808	101.38
484.027	94.38
484.245	92.38
484.463	110.38
484.681	105.38
484.9	91.38
485.118	107.38
485.336	100.38
485.554	109.38
485.772	100.38
485.99	121.38
486.209	110.38
486.427	110.38
486.645	127.38
486.863	124.38
487.081	115.38
487.299	106.38
487.517	102.38
487.735	93.38
487.953	100.38
488.171	97.38
488.389	95.38
488.607	115.38
488.825	97.38
489.043	105.38
489.261	103.38
489.479	94.38
489.696	90.38
489.914	91.38
490.132	87.38
490.35	104.38
490.568	92.38
490.786	89.38
491.003	93.38
491.221	100.38
491.439	114.38
491.657	107.38
491.874	109.38
492.092	105.38
492.31	101.38
492.527	102.38
492.745	100.38
492.963	103.38
493.18	102.38
493.398	96.38
493.615	88.38
493.833	91.38
494.05	102.38
494.268	107.38
494.485	72.38
494.703	99.38
494.92	85.38
495.138	102.38
495.355	97.38
495.573	78.38
495.79	105.38
496.008	102.38
496.225	89.38
496.442	92.38
496.66	98.38
496.877	91.38
497.094	90.38
497.312	95.38
497.529	94.38
497.746	92.38
497.963	85.38
498.181	118.38
498.398	100.38
498.615	121.38
498.832	100.38
499.049	94.38
499.267	101.38
499.484	88.38
499.701	94.38
499.918	97.38
500.135	91.38
500.352	86.38
500.569	100.38
500.786	96.38
501.003	91.38
501.22	91.38
501.437	86.38
501.654	107.38
501.871	126.38
502.088	109.38
502.305	87.38
502.522	86.38
502.739	94.38
502.956	101.38
503.172	106.38
503.389	99.38
503.606	131.38
503.823	109.38
504.04	97.38
504.256	111.38
504.473	83.38
504.69	101.38
504.907	101.38
505.123	106.38
505.34	107.38
505.557	94.38
505.773	91.38
505.99	93.38
506.207	90.38
506.423	86.38
506.64	93.38
506.856	85.38
507.073	94.38
507.289	117.38
507.506	119.38
507.722	150.38
507.939	140.38
508.155	106.38
508.372	95.38
508.588	111.38
508.805	101.38
509.021	90.38
509.238	108.38
509.454	106.38
509.67	104.38
509.887	116.38
510.103	125.38
510.319	240.38
510.536	863.38
510.752	3003.38
510.968	841.38
511.184	161.38
