Data from Circ_1995_H10_HRD10591_00028.txt Node
Date: Wed Jan 03 11:36:52 EST 2024
User: Yrep
Spectrometer: HR+D1059
Trigger mode: 1
Integration Time (sec): 1.000000E-1
Scans to average: 1
Electric dark correction enabled: true
Nonlinearity correction enabled: false
Boxcar width: 0
XAxis mode: Wavelengths
Number of Pixels in Spectrum: 2048
>>>>>Begin Spectral Data<<<<<
223.165	-13.38
223.4	-13.38
223.635	-13.38
223.869	-18.38
224.104	-35.38
224.338	-7.38
224.573	-10.38
224.808	-11.38
225.042	-11.38
225.277	-11.38
225.511	-6.38
225.746	3.62
225.98	17.62
226.215	11.62
226.449	7.62
226.683	23.62
226.918	29.62
227.152	31.62
227.387	31.62
227.621	36.62
227.856	45.62
228.09	56.62
228.324	45.62
228.559	65.62
228.793	64.62
229.027	59.62
229.262	71.62
229.496	81.62
229.73	102.62
229.964	91.62
230.199	73.62
230.433	60.62
230.667	88.62
230.901	78.62
231.136	97.62
231.37	76.62
231.604	89.62
231.838	85.62
232.072	73.62
232.306	84.62
232.541	85.62
232.775	87.62
233.009	92.62
233.243	72.62
233.477	97.62
233.711	89.62
233.945	81.62
234.179	87.62
234.413	82.62
234.647	87.62
234.881	78.62
235.115	88.62
235.349	81.62
235.583	84.62
235.817	79.62
236.051	80.62
236.285	81.62
236.519	82.62
236.753	88.62
236.987	91.62
237.221	99.62
237.455	92.62
237.689	71.62
237.922	80.62
238.156	90.62
238.39	71.62
238.624	76.62
238.858	66.62
239.091	87.62
239.325	83.62
239.559	91.62
239.793	84.62
240.027	85.62
240.26	79.62
240.494	79.62
240.728	78.62
240.961	80.62
241.195	78.62
241.429	83.62
241.662	74.62
241.896	69.62
242.13	73.62
242.363	74.62
242.597	84.62
242.83	83.62
243.064	65.62
243.298	79.62
243.531	81.62
243.765	99.62
243.998	89.62
244.232	87.62
244.465	82.62
244.699	80.62
244.932	77.62
245.166	77.62
245.399	78.62
245.633	90.62
245.866	75.62
246.099	72.62
246.333	85.62
246.566	82.62
246.8	88.62
247.033	87.62
247.266	78.62
247.5	84.62
247.733	85.62
247.966	79.62
248.2	91.62
248.433	95.62
248.666	85.62
248.899	79.62
249.133	96.62
249.366	112.62
249.599	100.62
249.832	103.62
250.066	83.62
250.299	79.62
250.532	70.62
250.765	77.62
250.998	78.62
251.231	72.62
251.465	85.62
251.698	95.62
251.931	91.62
252.164	106.62
252.397	100.62
252.63	81.62
252.863	86.62
253.096	76.62
253.329	91.62
253.562	73.62
253.795	107.62
254.028	77.62
254.261	80.62
254.494	85.62
254.727	72.62
254.96	82.62
255.193	87.62
255.426	89.62
255.659	88.62
255.892	99.62
256.124	97.62
256.357	96.62
256.59	75.62
256.823	87.62
257.056	90.62
257.289	109.62
257.521	77.62
257.754	97.62
257.987	87.62
258.22	103.62
258.452	108.62
258.685	93.62
258.918	95.62
259.151	92.62
259.383	86.62
259.616	83.62
259.849	92.62
260.081	97.62
260.314	98.62
260.547	95.62
260.779	93.62
261.012	105.62
261.244	124.62
261.477	106.62
261.71	117.62
261.942	137.62
262.175	160.62
262.407	98.62
262.64	95.62
262.872	88.62
263.105	92.62
263.337	89.62
263.57	98.62
263.802	89.62
264.035	84.62
264.267	73.62
264.499	68.62
264.732	77.62
264.964	83.62
265.197	76.62
265.429	80.62
265.661	93.62
265.894	68.62
266.126	84.62
266.358	81.62
266.591	89.62
266.823	85.62
267.055	96.62
267.287	98.62
267.52	74.62
267.752	86.62
267.984	85.62
268.216	92.62
268.448	92.62
268.681	89.62
268.913	76.62
269.145	75.62
269.377	83.62
269.609	90.62
269.841	99.62
270.073	97.62
270.306	88.62
270.538	83.62
270.77	85.62
271.002	85.62
271.234	80.62
271.466	100.62
271.698	89.62
271.93	80.62
272.162	78.62
272.394	89.62
272.626	79.62
272.858	94.62
273.09	89.62
273.322	99.62
273.553	77.62
273.785	100.62
274.017	87.62
274.249	84.62
274.481	83.62
274.713	71.62
274.945	82.62
275.176	94.62
275.408	91.62
275.64	123.62
275.872	113.62
276.104	102.62
276.335	97.62
276.567	126.62
276.799	138.62
277.031	156.62
277.262	207.62
277.494	148.62
277.726	107.62
277.957	93.62
278.189	93.62
278.421	92.62
278.652	75.62
278.884	102.62
279.115	91.62
279.347	93.62
279.579	101.62
279.81	127.62
280.042	191.62
280.273	265.62
280.505	189.62
280.736	127.62
280.968	92.62
281.199	98.62
281.431	80.62
281.662	85.62
281.894	83.62
282.125	106.62
282.356	129.62
282.588	172.62
282.819	128.62
283.051	92.62
283.282	84.62
283.513	97.62
283.745	88.62
283.976	79.62
284.207	89.62
284.439	81.62
284.67	93.62
284.901	77.62
285.132	97.62
285.364	82.62
285.595	92.62
285.826	94.62
286.057	95.62
286.288	98.62
286.52	84.62
286.751	92.62
286.982	82.62
287.213	78.62
287.444	94.62
287.675	93.62
287.906	83.62
288.138	73.62
288.369	97.62
288.6	93.62
288.831	88.62
289.062	73.62
289.293	84.62
289.524	75.62
289.755	76.62
289.986	87.62
290.217	83.62
290.448	95.62
290.679	82.62
290.91	85.62
291.141	93.62
291.371	90.62
291.602	88.62
291.833	82.62
292.064	93.62
292.295	83.62
292.526	97.62
292.757	98.62
292.987	96.62
293.218	83.62
293.449	93.62
293.68	94.62
293.91	78.62
294.141	99.62
294.372	91.62
294.603	89.62
294.833	85.62
295.064	93.62
295.295	92.62
295.525	81.62
295.756	95.62
295.987	121.62
296.217	154.62
296.448	143.62
296.679	109.62
296.909	70.62
297.14	96.62
297.37	88.62
297.601	93.62
297.831	93.62
298.062	96.62
298.292	88.62
298.523	92.62
298.753	91.62
298.984	79.62
299.214	87.62
299.445	96.62
299.675	82.62
299.905	101.62
300.136	101.62
300.366	95.62
300.597	94.62
300.827	99.62
301.057	108.62
301.288	112.62
301.518	106.62
301.748	91.62
301.979	99.62
302.209	105.62
302.439	103.62
302.669	81.62
302.9	93.62
303.13	93.62
303.36	121.62
303.59	131.62
303.82	151.62
304.051	110.62
304.281	91.62
304.511	94.62
304.741	97.62
304.971	111.62
305.201	100.62
305.431	104.62
305.661	89.62
305.891	96.62
306.121	97.62
306.352	100.62
306.582	113.62
306.812	99.62
307.042	115.62
307.272	166.62
307.502	187.62
307.731	171.62
307.961	120.62
308.191	97.62
308.421	94.62
308.651	92.62
308.881	101.62
309.111	89.62
309.341	103.62
309.571	123.62
309.8	92.62
310.03	105.62
310.26	101.62
310.49	99.62
310.72	100.62
310.949	123.62
311.179	110.62
311.409	101.62
311.639	100.62
311.868	97.62
312.098	108.62
312.328	115.62
312.557	110.62
312.787	121.62
313.017	106.62
313.246	92.62
313.476	89.62
313.706	104.62
313.935	93.62
314.165	114.62
314.394	119.62
314.624	99.62
314.853	114.62
315.083	105.62
315.312	97.62
315.542	99.62
315.771	107.62
316.001	91.62
316.23	77.62
316.46	90.62
316.689	86.62
316.919	88.62
317.148	95.62
317.377	93.62
317.607	96.62
317.836	111.62
318.065	96.62
318.295	81.62
318.524	82.62
318.753	87.62
318.983	92.62
319.212	94.62
319.441	105.62
319.67	105.62
319.9	100.62
320.129	103.62
320.358	96.62
320.587	104.62
320.816	100.62
321.046	103.62
321.275	107.62
321.504	91.62
321.733	101.62
321.962	107.62
322.191	116.62
322.42	117.62
322.649	125.62
322.878	138.62
323.108	136.62
323.337	132.62
323.566	166.62
323.795	184.62
324.024	260.62
324.253	521.62
324.482	1119.62
324.71	2366.62
324.939	3130.62
325.168	1086.62
325.397	304.62
325.626	179.62
325.855	159.62
326.084	146.62
326.313	151.62
326.542	184.62
326.77	285.62
326.999	586.62
327.228	1235.62
327.457	2339.62
327.686	1851.62
327.914	600.62
328.143	506.62
328.372	672.62
328.6	407.62
328.829	187.62
329.058	202.62
329.287	190.62
329.515	170.62
329.744	261.62
329.972	497.62
330.201	960.62
330.43	1445.62
330.658	651.62
330.887	287.62
331.115	189.62
331.344	139.62
331.572	111.62
331.801	124.62
332.03	121.62
332.258	121.62
332.486	111.62
332.715	119.62
332.943	105.62
333.172	131.62
333.4	132.62
333.629	174.62
333.857	223.62
334.085	437.62
334.314	880.62
334.542	1756.62
334.771	1709.62
334.999	432.62
335.227	171.62
335.455	120.62
335.684	122.62
335.912	124.62
336.14	118.62
336.369	116.62
336.597	112.62
336.825	114.62
337.053	96.62
337.281	103.62
337.51	89.62
337.738	91.62
337.966	98.62
338.194	104.62
338.422	92.62
338.65	117.62
338.878	95.62
339.106	89.62
339.334	105.62
339.562	88.62
339.79	100.62
340.018	98.62
340.246	92.62
340.474	102.62
340.702	99.62
340.93	95.62
341.158	89.62
341.386	109.62
341.614	106.62
341.842	104.62
342.07	103.62
342.298	101.62
342.526	95.62
342.754	113.62
342.981	94.62
343.209	97.62
343.437	92.62
343.665	93.62
343.893	85.62
344.12	100.62
344.348	95.62
344.576	96.62
344.804	91.62
345.031	106.62
345.259	101.62
345.487	96.62
345.714	93.62
345.942	84.62
346.17	103.62
346.397	88.62
346.625	92.62
346.853	96.62
347.08	94.62
347.308	105.62
347.535	98.62
347.763	108.62
347.99	105.62
348.218	111.62
348.445	115.62
348.673	121.62
348.9	96.62
349.128	87.62
349.355	92.62
349.583	89.62
349.81	101.62
350.037	92.62
350.265	105.62
350.492	97.62
350.72	97.62
350.947	99.62
351.174	114.62
351.402	116.62
351.629	89.62
351.856	91.62
352.083	119.62
352.311	101.62
352.538	120.62
352.765	121.62
352.992	111.62
353.22	140.62
353.447	99.62
353.674	109.62
353.901	96.62
354.128	110.62
354.355	101.62
354.583	107.62
354.81	99.62
355.037	91.62
355.264	99.62
355.491	84.62
355.718	98.62
355.945	95.62
356.172	107.62
356.399	112.62
356.626	95.62
356.853	89.62
357.08	76.62
357.307	109.62
357.534	87.62
357.761	98.62
357.988	90.62
358.215	95.62
358.441	100.62
358.668	95.62
358.895	110.62
359.122	98.62
359.349	85.62
359.576	97.62
359.802	115.62
360.029	139.62
360.256	126.62
360.483	115.62
360.709	90.62
360.936	106.62
361.163	88.62
361.39	83.62
361.616	106.62
361.843	90.62
362.07	93.62
362.296	108.62
362.523	104.62
362.749	90.62
362.976	97.62
363.203	94.62
363.429	102.62
363.656	92.62
363.882	96.62
364.109	106.62
364.335	86.62
364.562	102.62
364.788	89.62
365.015	105.62
365.241	92.62
365.468	116.62
365.694	117.62
365.92	108.62
366.147	93.62
366.373	89.62
366.599	93.62
366.826	77.62
367.052	98.62
367.278	91.62
367.505	106.62
367.731	93.62
367.957	97.62
368.184	109.62
368.41	112.62
368.636	117.62
368.862	139.62
369.089	118.62
369.315	94.62
369.541	98.62
369.767	94.62
369.993	89.62
370.219	86.62
370.445	109.62
370.672	84.62
370.898	97.62
371.124	95.62
371.35	95.62
371.576	98.62
371.802	82.62
372.028	84.62
372.254	90.62
372.48	83.62
372.706	95.62
372.932	78.62
373.158	83.62
373.384	87.62
373.61	102.62
373.835	89.62
374.061	100.62
374.287	104.62
374.513	99.62
374.739	92.62
374.965	99.62
375.191	100.62
375.416	87.62
375.642	90.62
375.868	106.62
376.094	100.62
376.319	84.62
376.545	97.62
376.771	90.62
376.997	83.62
377.222	97.62
377.448	87.62
377.674	93.62
377.899	94.62
378.125	89.62
378.35	108.62
378.576	96.62
378.802	79.62
379.027	96.62
379.253	84.62
379.478	99.62
379.704	93.62
379.929	89.62
380.155	97.62
380.38	78.62
380.606	114.62
380.831	94.62
381.057	99.62
381.282	96.62
381.507	101.62
381.733	113.62
381.958	97.62
382.184	99.62
382.409	112.62
382.634	109.62
382.86	108.62
383.085	108.62
383.31	118.62
383.535	105.62
383.761	106.62
383.986	105.62
384.211	106.62
384.436	109.62
384.662	111.62
384.887	112.62
385.112	105.62
385.337	109.62
385.562	110.62
385.787	123.62
386.013	111.62
386.238	136.62
386.463	98.62
386.688	114.62
386.913	110.62
387.138	108.62
387.363	116.62
387.588	115.62
387.813	107.62
388.038	106.62
388.263	126.62
388.488	126.62
388.713	88.62
388.938	91.62
389.163	74.62
389.387	81.62
389.612	98.62
389.837	97.62
390.062	77.62
390.287	96.62
390.512	99.62
390.736	95.62
390.961	98.62
391.186	93.62
391.411	91.62
391.636	92.62
391.86	80.62
392.085	77.62
392.31	95.62
392.534	77.62
392.759	79.62
392.984	84.62
393.208	96.62
393.433	99.62
393.658	85.62
393.882	90.62
394.107	91.62
394.331	84.62
394.556	83.62
394.78	87.62
395.005	91.62
395.229	95.62
395.454	79.62
395.678	80.62
395.903	71.62
396.127	103.62
396.352	90.62
396.576	90.62
396.801	86.62
397.025	88.62
397.249	96.62
397.474	94.62
397.698	92.62
397.922	82.62
398.147	82.62
398.371	109.62
398.595	86.62
398.82	83.62
399.044	100.62
399.268	84.62
399.492	85.62
399.717	84.62
399.941	85.62
400.165	103.62
400.389	101.62
400.613	90.62
400.837	83.62
401.062	95.62
401.286	91.62
401.51	102.62
401.734	92.62
401.958	109.62
402.182	155.62
402.406	193.62
402.63	147.62
402.854	98.62
403.078	96.62
403.302	103.62
403.526	90.62
403.75	104.62
403.974	77.62
404.198	95.62
404.422	97.62
404.645	107.62
404.869	104.62
405.093	107.62
405.317	153.62
405.541	142.62
405.765	122.62
405.988	127.62
406.212	206.62
406.436	301.62
406.66	201.62
406.883	126.62
407.107	95.62
407.331	96.62
407.555	101.62
407.778	93.62
408.002	95.62
408.226	98.62
408.449	93.62
408.673	89.62
408.896	99.62
409.12	99.62
409.344	95.62
409.567	90.62
409.791	91.62
410.014	111.62
410.238	95.62
410.461	83.62
410.685	103.62
410.908	99.62
411.132	97.62
411.355	90.62
411.578	100.62
411.802	109.62
412.025	99.62
412.249	107.62
412.472	113.62
412.695	130.62
412.919	111.62
413.142	92.62
413.365	101.62
413.589	96.62
413.812	91.62
414.035	88.62
414.258	98.62
414.482	95.62
414.705	100.62
414.928	92.62
415.151	93.62
415.374	103.62
415.597	84.62
415.821	79.62
416.044	90.62
416.267	84.62
416.49	92.62
416.713	95.62
416.936	85.62
417.159	86.62
417.382	87.62
417.605	86.62
417.828	108.62
418.051	107.62
418.274	98.62
418.497	87.62
418.72	89.62
418.943	80.62
419.166	91.62
419.389	84.62
419.611	108.62
419.834	93.62
420.057	95.62
420.28	85.62
420.503	102.62
420.726	84.62
420.948	112.62
421.171	114.62
421.394	111.62
421.617	72.62
421.839	88.62
422.062	83.62
422.285	89.62
422.507	108.62
422.73	108.62
422.953	95.62
423.175	80.62
423.398	85.62
423.621	101.62
423.843	90.62
424.066	100.62
424.288	87.62
424.511	98.62
424.733	107.62
424.956	110.62
425.178	116.62
425.401	102.62
425.623	110.62
425.846	93.62
426.068	109.62
426.291	88.62
426.513	91.62
426.735	99.62
426.958	95.62
427.18	112.62
427.402	169.62
427.625	267.62
427.847	250.62
428.069	220.62
428.292	138.62
428.514	87.62
428.736	96.62
428.958	87.62
429.181	94.62
429.403	97.62
429.625	93.62
429.847	96.62
430.069	129.62
430.292	99.62
430.514	105.62
430.736	95.62
430.958	84.62
431.18	76.62
431.402	102.62
431.624	80.62
431.846	79.62
432.068	84.62
432.29	79.62
432.512	80.62
432.734	79.62
432.956	96.62
433.178	93.62
433.4	97.62
433.622	89.62
433.844	83.62
434.066	85.62
434.287	92.62
434.509	85.62
434.731	92.62
434.953	89.62
435.175	88.62
435.397	91.62
435.618	94.62
435.84	100.62
436.062	139.62
436.284	114.62
436.505	102.62
436.727	109.62
436.949	94.62
437.17	98.62
437.392	96.62
437.614	94.62
437.835	129.62
438.057	123.62
438.278	143.62
438.5	110.62
438.721	153.62
438.943	119.62
439.165	104.62
439.386	82.62
439.608	98.62
439.829	106.62
440.05	140.62
440.272	203.62
440.493	120.62
440.715	90.62
440.936	68.62
441.158	98.62
441.379	80.62
441.6	97.62
441.822	111.62
442.043	79.62
442.264	114.62
442.486	116.62
442.707	104.62
442.928	122.62
443.149	164.62
443.371	168.62
443.592	125.62
443.813	127.62
444.034	128.62
444.255	85.62
444.476	92.62
444.698	78.62
444.919	95.62
445.14	127.62
445.361	127.62
445.582	135.62
445.803	176.62
446.024	169.62
446.245	163.62
446.466	116.62
446.687	96.62
446.908	85.62
447.129	94.62
447.35	107.62
447.571	94.62
447.792	88.62
448.013	100.62
448.234	116.62
448.455	114.62
448.675	128.62
448.896	144.62
449.117	112.62
449.338	109.62
449.559	141.62
449.779	161.62
450	101.62
450.221	80.62
450.442	89.62
450.662	91.62
450.883	139.62
451.104	145.62
451.324	105.62
451.545	96.62
451.766	92.62
451.986	79.62
452.207	89.62
452.428	95.62
452.648	104.62
452.869	125.62
453.089	139.62
453.31	136.62
453.53	102.62
453.751	99.62
453.971	112.62
454.192	105.62
454.412	92.62
454.633	98.62
454.853	97.62
455.073	87.62
455.294	87.62
455.514	111.62
455.734	99.62
455.955	92.62
456.175	93.62
456.395	86.62
456.616	81.62
456.836	93.62
457.056	78.62
457.276	93.62
457.497	83.62
457.717	76.62
457.937	96.62
458.157	79.62
458.377	93.62
458.598	137.62
458.818	223.62
459.038	234.62
459.258	147.62
459.478	101.62
459.698	87.62
459.918	80.62
460.138	89.62
460.358	88.62
460.578	91.62
460.798	93.62
461.018	81.62
461.238	87.62
461.458	95.62
461.678	98.62
461.898	87.62
462.118	107.62
462.338	98.62
462.558	83.62
462.777	91.62
462.997	100.62
463.217	119.62
463.437	91.62
463.657	81.62
463.876	105.62
464.096	114.62
464.316	91.62
464.536	90.62
464.755	93.62
464.975	113.62
465.195	229.62
465.414	233.62
465.634	123.62
465.854	107.62
466.073	109.62
466.293	86.62
466.512	90.62
466.732	89.62
466.951	93.62
467.171	112.62
467.391	120.62
467.61	153.62
467.829	205.62
468.049	561.62
468.268	868.62
468.488	237.62
468.707	100.62
468.927	100.62
469.146	104.62
469.365	92.62
469.585	101.62
469.804	101.62
470.023	84.62
470.243	103.62
470.462	137.62
470.681	129.62
470.901	100.62
471.12	88.62
471.339	110.62
471.558	119.62
471.777	153.62
471.997	296.62
472.216	1067.62
472.435	2521.62
472.654	578.62
472.873	159.62
473.092	105.62
473.311	103.62
473.53	93.62
473.749	89.62
473.968	106.62
474.187	116.62
474.406	112.62
474.625	100.62
474.844	92.62
475.063	76.62
475.282	83.62
475.501	93.62
475.72	83.62
475.939	89.62
476.158	79.62
476.377	72.62
476.596	88.62
476.814	99.62
477.033	102.62
477.252	92.62
477.471	87.62
477.69	78.62
477.908	82.62
478.127	101.62
478.346	88.62
478.564	109.62
478.783	106.62
479.002	103.62
479.22	111.62
479.439	124.62
479.658	123.62
479.876	109.62
480.095	114.62
480.313	125.62
480.532	166.62
480.751	285.62
480.969	991.62
481.188	4335.62
481.406	2511.62
481.624	364.62
481.843	144.62
482.061	115.62
482.28	92.62
482.498	84.62
482.717	83.62
482.935	92.62
483.153	84.62
483.372	96.62
483.59	88.62
483.808	100.62
484.027	98.62
484.245	96.62
484.463	91.62
484.681	104.62
484.9	88.62
485.118	111.62
485.336	87.62
485.554	102.62
485.772	95.62
485.99	108.62
486.209	115.62
486.427	113.62
486.645	102.62
486.863	130.62
487.081	122.62
487.299	91.62
487.517	115.62
487.735	96.62
487.953	98.62
488.171	108.62
488.389	105.62
488.607	119.62
488.825	89.62
489.043	88.62
489.261	82.62
489.479	89.62
489.696	97.62
489.914	87.62
490.132	89.62
490.35	94.62
490.568	97.62
490.786	71.62
491.003	82.62
491.221	94.62
491.439	93.62
491.657	101.62
491.874	93.62
492.092	89.62
492.31	89.62
492.527	99.62
492.745	100.62
492.963	99.62
493.18	113.62
493.398	82.62
493.615	86.62
493.833	93.62
494.05	94.62
494.268	89.62
494.485	82.62
494.703	106.62
494.92	88.62
495.138	91.62
495.355	87.62
495.573	101.62
495.79	92.62
496.008	98.62
496.225	98.62
496.442	78.62
496.66	92.62
496.877	100.62
497.094	79.62
497.312	88.62
497.529	80.62
497.746	84.62
497.963	100.62
498.181	91.62
498.398	101.62
498.615	121.62
498.832	108.62
499.049	83.62
499.267	99.62
499.484	94.62
499.701	90.62
499.918	100.62
500.135	102.62
500.352	98.62
500.569	99.62
500.786	108.62
501.003	103.62
501.22	94.62
501.437	96.62
501.654	93.62
501.871	126.62
502.088	103.62
502.305	92.62
502.522	106.62
502.739	89.62
502.956	93.62
503.172	87.62
503.389	92.62
503.606	119.62
503.823	111.62
504.04	74.62
504.256	91.62
504.473	102.62
504.69	89.62
504.907	91.62
505.123	100.62
505.34	97.62
505.557	76.62
505.773	90.62
505.99	109.62
506.207	87.62
506.423	106.62
506.64	91.62
506.856	84.62
507.073	101.62
507.289	105.62
507.506	103.62
507.722	131.62
507.939	128.62
508.155	81.62
508.372	99.62
508.588	103.62
508.805	99.62
509.021	97.62
509.238	99.62
509.454	100.62
509.67	108.62
509.887	120.62
510.103	160.62
510.319	225.62
510.536	862.62
510.752	3017.62
510.968	800.62
511.184	185.62
511.401	123.62
511.617	109.62
511.833	110.62
512.049	99.62
512.265	79.62
512.481	92.62
512.698	105.62
