Data from Circ_1995_H10_HRD10591_00094.txt Node
Date: Wed Jan 03 11:37:05 EST 2024
User: Yrep
Spectrometer: HR+D1059
Trigger mode: 1
Integration Time (sec): 1.000000E-1
Scans to average: 1
Electric dark correction enabled: true
Nonlinearity correction enabled: false
Boxcar width: 0
XAxis mode: Wavelengths
Number of Pixels in Spectrum: 2048
>>>>>Begin Spectral Data<<<<<
223.165	-23.44
223.4	-23.44
223.635	-23.44
223.869	-17.44
224.104	-16.44
224.338	-5.44
224.573	-10.44
224.808	-18.44
225.042	-2.44
225.277	0.56
225.511	-17.44
225.746	13.56
225.98	-0.44
226.215	4.56
226.449	21.56
226.683	12.56
226.918	28.56
227.152	30.56
227.387	30.56
227.621	26.56
227.856	34.56
228.09	34.56
228.324	53.56
228.559	53.56
228.793	62.56
229.027	46.56
229.262	58.56
229.496	78.56
229.73	95.56
229.964	79.56
230.199	78.56
230.433	72.56
230.667	72.56
230.901	85.56
231.136	75.56
231.37	85.56
231.604	80.56
231.838	74.56
232.072	73.56
232.306	81.56
232.541	93.56
232.775	96.56
233.009	72.56
233.243	78.56
233.477	73.56
233.711	89.56
233.945	71.56
234.179	67.56
234.413	82.56
234.647	72.56
234.881	91.56
235.115	73.56
235.349	76.56
235.583	66.56
235.817	71.56
236.051	84.56
236.285	64.56
236.519	80.56
236.753	71.56
236.987	90.56
237.221	88.56
237.455	95.56
237.689	71.56
237.922	71.56
238.156	66.56
238.39	76.56
238.624	71.56
238.858	84.56
239.091	77.56
239.325	77.56
239.559	80.56
239.793	83.56
240.027	100.56
240.26	81.56
240.494	70.56
240.728	76.56
240.961	78.56
241.195	76.56
241.429	65.56
241.662	70.56
241.896	77.56
242.13	70.56
242.363	74.56
242.597	65.56
242.83	81.56
243.064	75.56
243.298	74.56
243.531	81.56
243.765	84.56
243.998	72.56
244.232	88.56
244.465	82.56
244.699	83.56
244.932	87.56
245.166	75.56
245.399	60.56
245.633	79.56
245.866	68.56
246.099	80.56
246.333	72.56
246.566	80.56
246.8	86.56
247.033	92.56
247.266	89.56
247.5	83.56
247.733	74.56
247.966	76.56
248.2	74.56
248.433	86.56
248.666	78.56
248.899	82.56
249.133	98.56
249.366	116.56
249.599	112.56
249.832	94.56
250.066	75.56
250.299	93.56
250.532	80.56
250.765	76.56
250.998	88.56
251.231	75.56
251.465	79.56
251.698	81.56
251.931	77.56
252.164	74.56
252.397	70.56
252.63	72.56
252.863	81.56
253.096	78.56
253.329	68.56
253.562	88.56
253.795	76.56
254.028	70.56
254.261	78.56
254.494	90.56
254.727	78.56
254.96	85.56
255.193	82.56
255.426	80.56
255.659	84.56
255.892	86.56
256.124	97.56
256.357	87.56
256.59	73.56
256.823	89.56
257.056	87.56
257.289	95.56
257.521	98.56
257.754	91.56
257.987	79.56
258.22	88.56
258.452	109.56
258.685	103.56
258.918	87.56
259.151	77.56
259.383	76.56
259.616	83.56
259.849	73.56
260.081	84.56
260.314	80.56
260.547	80.56
260.779	101.56
261.012	109.56
261.244	115.56
261.477	93.56
261.71	99.56
261.942	121.56
262.175	135.56
262.407	105.56
262.64	81.56
262.872	77.56
263.105	95.56
263.337	83.56
263.57	74.56
263.802	78.56
264.035	62.56
264.267	73.56
264.499	89.56
264.732	78.56
264.964	90.56
265.197	80.56
265.429	92.56
265.661	86.56
265.894	89.56
266.126	70.56
266.358	79.56
266.591	76.56
266.823	97.56
267.055	87.56
267.287	99.56
267.52	89.56
267.752	93.56
267.984	82.56
268.216	91.56
268.448	93.56
268.681	84.56
268.913	91.56
269.145	88.56
269.377	93.56
269.609	77.56
269.841	94.56
270.073	95.56
270.306	83.56
270.538	84.56
270.77	73.56
271.002	90.56
271.234	88.56
271.466	92.56
271.698	70.56
271.93	69.56
272.162	73.56
272.394	90.56
272.626	88.56
272.858	84.56
273.09	91.56
273.322	95.56
273.553	82.56
273.785	83.56
274.017	80.56
274.249	75.56
274.481	97.56
274.713	70.56
274.945	96.56
275.176	102.56
275.408	89.56
275.64	127.56
275.872	140.56
276.104	97.56
276.335	102.56
276.567	108.56
276.799	150.56
277.031	198.56
277.262	248.56
277.494	186.56
277.726	105.56
277.957	87.56
278.189	84.56
278.421	102.56
278.652	92.56
278.884	90.56
279.115	97.56
279.347	102.56
279.579	111.56
279.81	153.56
280.042	243.56
280.273	350.56
280.505	221.56
280.736	110.56
280.968	99.56
281.199	98.56
281.431	97.56
281.662	94.56
281.894	91.56
282.125	101.56
282.356	128.56
282.588	166.56
282.819	128.56
283.051	88.56
283.282	69.56
283.513	79.56
283.745	99.56
283.976	94.56
284.207	88.56
284.439	97.56
284.67	77.56
284.901	84.56
285.132	76.56
285.364	87.56
285.595	87.56
285.826	72.56
286.057	72.56
286.288	80.56
286.52	84.56
286.751	81.56
286.982	102.56
287.213	76.56
287.444	89.56
287.675	102.56
287.906	85.56
288.138	86.56
288.369	89.56
288.6	86.56
288.831	79.56
289.062	97.56
289.293	97.56
289.524	91.56
289.755	88.56
289.986	80.56
290.217	91.56
290.448	81.56
290.679	82.56
290.91	95.56
291.141	87.56
291.371	81.56
291.602	70.56
291.833	87.56
292.064	93.56
292.295	86.56
292.526	60.56
292.757	76.56
292.987	93.56
293.218	98.56
293.449	88.56
293.68	91.56
293.91	84.56
294.141	90.56
294.372	83.56
294.603	93.56
294.833	86.56
295.064	98.56
295.295	96.56
295.525	97.56
295.756	114.56
295.987	129.56
296.217	155.56
296.448	138.56
296.679	105.56
296.909	100.56
297.14	92.56
297.37	80.56
297.601	85.56
297.831	88.56
298.062	86.56
298.292	93.56
298.523	85.56
298.753	91.56
298.984	95.56
299.214	85.56
299.445	97.56
299.675	106.56
299.905	81.56
300.136	90.56
300.366	93.56
300.597	92.56
300.827	96.56
301.057	123.56
301.288	106.56
301.518	100.56
301.748	94.56
301.979	124.56
302.209	105.56
302.439	96.56
302.669	89.56
302.9	94.56
303.13	105.56
303.36	106.56
303.59	136.56
303.82	174.56
304.051	101.56
304.281	104.56
304.511	97.56
304.741	96.56
304.971	84.56
305.201	98.56
305.431	96.56
305.661	103.56
305.891	81.56
306.121	96.56
306.352	96.56
306.582	117.56
306.812	113.56
307.042	144.56
307.272	183.56
307.502	217.56
307.731	200.56
307.961	132.56
308.191	90.56
308.421	86.56
308.651	85.56
308.881	89.56
309.111	94.56
309.341	101.56
309.571	118.56
309.8	98.56
310.03	113.56
310.26	114.56
310.49	97.56
310.72	104.56
310.949	112.56
311.179	127.56
311.409	99.56
311.639	106.56
311.868	108.56
312.098	108.56
312.328	104.56
312.557	95.56
312.787	119.56
313.017	105.56
313.246	92.56
313.476	97.56
313.706	108.56
313.935	98.56
314.165	99.56
314.394	106.56
314.624	84.56
314.853	98.56
315.083	93.56
315.312	91.56
315.542	89.56
315.771	80.56
316.001	86.56
316.23	76.56
316.46	89.56
316.689	89.56
316.919	91.56
317.148	96.56
317.377	113.56
317.607	104.56
317.836	87.56
318.065	101.56
318.295	89.56
318.524	86.56
318.753	90.56
318.983	103.56
319.212	119.56
319.441	126.56
319.67	124.56
319.9	99.56
320.129	96.56
320.358	80.56
320.587	99.56
320.816	93.56
321.046	102.56
321.275	105.56
321.504	84.56
321.733	107.56
321.962	110.56
322.191	101.56
322.42	115.56
322.649	137.56
322.878	135.56
323.108	131.56
323.337	143.56
323.566	162.56
323.795	178.56
324.024	278.56
324.253	560.56
324.482	1205.56
324.71	2535.56
324.939	3292.56
325.168	1201.56
325.397	316.56
325.626	186.56
325.855	158.56
326.084	157.56
326.313	165.56
326.542	158.56
326.77	311.56
326.999	601.56
327.228	1310.56
327.457	2395.56
327.686	1964.56
327.914	678.56
328.143	690.56
328.372	948.56
328.6	486.56
328.829	205.56
329.058	214.56
329.287	218.56
329.515	210.56
329.744	331.56
329.972	674.56
330.201	1403.56
330.43	2076.56
330.658	878.56
330.887	352.56
331.115	201.56
331.344	125.56
331.572	121.56
331.801	126.56
332.03	122.56
332.258	112.56
332.486	102.56
332.715	106.56
332.943	123.56
333.172	134.56
333.4	144.56
333.629	179.56
333.857	274.56
334.085	574.56
334.314	1283.56
334.542	2577.56
334.771	2406.56
334.999	572.56
335.227	219.56
335.455	130.56
335.684	132.56
335.912	113.56
336.14	122.56
336.369	112.56
336.597	105.56
336.825	108.56
337.053	111.56
337.281	109.56
337.51	104.56
337.738	103.56
337.966	92.56
338.194	98.56
338.422	98.56
338.65	97.56
338.878	100.56
339.106	84.56
339.334	105.56
339.562	94.56
339.79	92.56
340.018	85.56
340.246	110.56
340.474	97.56
340.702	103.56
340.93	104.56
341.158	99.56
341.386	102.56
341.614	107.56
341.842	86.56
342.07	93.56
342.298	93.56
342.526	107.56
342.754	83.56
342.981	84.56
343.209	88.56
343.437	84.56
343.665	91.56
343.893	95.56
344.12	95.56
344.348	84.56
344.576	100.56
344.804	91.56
345.031	109.56
345.259	92.56
345.487	120.56
345.714	98.56
345.942	106.56
346.17	97.56
346.397	91.56
346.625	93.56
346.853	107.56
347.08	104.56
347.308	97.56
347.535	96.56
347.763	120.56
347.99	107.56
348.218	102.56
348.445	111.56
348.673	112.56
348.9	102.56
349.128	93.56
349.355	96.56
349.583	91.56
349.81	91.56
350.037	112.56
350.265	91.56
350.492	81.56
350.72	100.56
350.947	114.56
351.174	121.56
351.402	107.56
351.629	105.56
351.856	101.56
352.083	103.56
352.311	119.56
352.538	108.56
352.765	119.56
352.992	101.56
353.22	144.56
353.447	123.56
353.674	95.56
353.901	98.56
354.128	95.56
354.355	107.56
354.583	94.56
354.81	94.56
355.037	72.56
355.264	100.56
355.491	97.56
355.718	105.56
355.945	98.56
356.172	92.56
356.399	91.56
356.626	90.56
356.853	97.56
357.08	70.56
357.307	80.56
357.534	88.56
357.761	92.56
357.988	98.56
358.215	78.56
358.441	73.56
358.668	88.56
358.895	97.56
359.122	75.56
359.349	87.56
359.576	92.56
359.802	118.56
360.029	141.56
360.256	140.56
360.483	126.56
360.709	93.56
360.936	93.56
361.163	99.56
361.39	98.56
361.616	99.56
361.843	90.56
362.07	98.56
362.296	118.56
362.523	95.56
362.749	85.56
362.976	95.56
363.203	97.56
363.429	87.56
363.656	100.56
363.882	104.56
364.109	105.56
364.335	98.56
364.562	98.56
364.788	109.56
365.015	92.56
365.241	98.56
365.468	136.56
365.694	122.56
365.92	104.56
366.147	96.56
366.373	96.56
366.599	87.56
366.826	96.56
367.052	81.56
367.278	84.56
367.505	100.56
367.731	94.56
367.957	86.56
368.184	109.56
368.41	116.56
368.636	122.56
368.862	122.56
369.089	119.56
369.315	109.56
369.541	95.56
369.767	97.56
369.993	94.56
370.219	95.56
370.445	92.56
370.672	88.56
370.898	85.56
371.124	108.56
371.35	89.56
371.576	89.56
371.802	93.56
372.028	76.56
372.254	62.56
372.48	92.56
372.706	80.56
372.932	77.56
373.158	89.56
373.384	106.56
373.61	78.56
373.835	78.56
374.061	98.56
374.287	100.56
374.513	82.56
374.739	97.56
374.965	77.56
375.191	94.56
375.416	95.56
375.642	92.56
375.868	94.56
376.094	78.56
376.319	76.56
376.545	84.56
376.771	85.56
376.997	88.56
377.222	100.56
377.448	80.56
377.674	77.56
377.899	76.56
378.125	93.56
378.35	80.56
378.576	89.56
378.802	88.56
379.027	85.56
379.253	96.56
379.478	90.56
379.704	87.56
379.929	81.56
380.155	94.56
380.38	73.56
380.606	96.56
380.831	99.56
381.057	88.56
381.282	90.56
381.507	86.56
381.733	82.56
381.958	84.56
382.184	84.56
382.409	99.56
382.634	98.56
382.86	117.56
383.085	98.56
383.31	85.56
383.535	95.56
383.761	104.56
383.986	88.56
384.211	88.56
384.436	91.56
384.662	111.56
384.887	102.56
385.112	89.56
385.337	96.56
385.562	109.56
385.787	106.56
386.013	119.56
386.238	128.56
386.463	111.56
386.688	98.56
386.913	112.56
387.138	101.56
387.363	93.56
387.588	102.56
387.813	98.56
388.038	94.56
388.263	106.56
388.488	94.56
388.713	102.56
388.938	89.56
389.163	85.56
389.387	84.56
389.612	92.56
389.837	98.56
390.062	92.56
390.287	84.56
390.512	84.56
390.736	84.56
390.961	97.56
391.186	89.56
391.411	84.56
391.636	90.56
391.86	89.56
392.085	79.56
392.31	88.56
392.534	94.56
392.759	80.56
392.984	87.56
393.208	88.56
393.433	82.56
393.658	85.56
393.882	88.56
394.107	87.56
394.331	89.56
394.556	77.56
394.78	89.56
395.005	86.56
395.229	88.56
395.454	89.56
395.678	83.56
395.903	96.56
396.127	87.56
396.352	93.56
396.576	94.56
396.801	88.56
397.025	74.56
397.249	84.56
397.474	87.56
397.698	76.56
397.922	86.56
398.147	84.56
398.371	74.56
398.595	100.56
398.82	75.56
399.044	80.56
399.268	75.56
399.492	98.56
399.717	96.56
399.941	81.56
400.165	84.56
400.389	92.56
400.613	89.56
400.837	87.56
401.062	81.56
401.286	94.56
401.51	95.56
401.734	100.56
401.958	119.56
402.182	148.56
402.406	197.56
402.63	150.56
402.854	111.56
403.078	95.56
403.302	86.56
403.526	97.56
403.75	84.56
403.974	94.56
404.198	91.56
404.422	105.56
404.645	97.56
404.869	110.56
405.093	121.56
405.317	152.56
405.541	152.56
405.765	132.56
405.988	143.56
406.212	231.56
406.436	318.56
406.66	212.56
406.883	114.56
407.107	99.56
407.331	106.56
407.555	107.56
407.778	98.56
408.002	97.56
408.226	91.56
408.449	97.56
408.673	93.56
408.896	93.56
409.12	96.56
409.344	91.56
409.567	83.56
409.791	95.56
410.014	98.56
410.238	95.56
410.461	97.56
410.685	85.56
410.908	90.56
411.132	105.56
411.355	109.56
411.578	92.56
411.802	72.56
412.025	92.56
412.249	95.56
412.472	117.56
412.695	148.56
412.919	118.56
413.142	100.56
413.365	84.56
413.589	80.56
413.812	101.56
414.035	86.56
414.258	93.56
414.482	93.56
414.705	86.56
414.928	86.56
415.151	90.56
415.374	104.56
415.597	85.56
415.821	98.56
416.044	97.56
416.267	113.56
416.49	102.56
416.713	82.56
416.936	92.56
417.159	98.56
417.382	105.56
417.605	110.56
417.828	105.56
418.051	99.56
418.274	97.56
418.497	102.56
418.72	97.56
418.943	96.56
419.166	89.56
419.389	82.56
419.611	89.56
419.834	88.56
420.057	91.56
420.28	104.56
420.503	97.56
420.726	90.56
420.948	88.56
421.171	103.56
421.394	92.56
421.617	95.56
421.839	97.56
422.062	103.56
422.285	107.56
422.507	107.56
422.73	107.56
422.953	98.56
423.175	85.56
423.398	82.56
423.621	84.56
423.843	84.56
424.066	76.56
424.288	95.56
424.511	104.56
424.733	104.56
424.956	116.56
425.178	114.56
425.401	106.56
425.623	102.56
425.846	106.56
426.068	100.56
426.291	108.56
426.513	92.56
426.735	97.56
426.958	99.56
427.18	122.56
427.402	194.56
427.625	296.56
427.847	282.56
428.069	268.56
428.292	137.56
428.514	112.56
428.736	98.56
428.958	78.56
429.181	93.56
429.403	88.56
429.625	89.56
429.847	111.56
430.069	113.56
430.292	91.56
430.514	94.56
430.736	90.56
430.958	87.56
431.18	66.56
431.402	80.56
431.624	90.56
431.846	91.56
432.068	93.56
432.29	92.56
432.512	84.56
432.734	85.56
432.956	92.56
433.178	118.56
433.4	106.56
433.622	90.56
433.844	106.56
434.066	88.56
434.287	90.56
434.509	94.56
434.731	88.56
434.953	65.56
435.175	95.56
435.397	108.56
435.618	90.56
435.84	110.56
436.062	150.56
436.284	124.56
436.505	111.56
436.727	100.56
436.949	78.56
437.17	89.56
437.392	80.56
437.614	97.56
437.835	136.56
438.057	159.56
438.278	128.56
438.5	106.56
438.721	138.56
438.943	79.56
439.165	93.56
439.386	90.56
439.608	97.56
439.829	108.56
440.05	174.56
440.272	198.56
440.493	114.56
440.715	96.56
440.936	88.56
441.158	88.56
441.379	89.56
441.6	98.56
441.822	107.56
442.043	113.56
442.264	109.56
442.486	111.56
442.707	107.56
442.928	125.56
443.149	183.56
443.371	176.56
443.592	142.56
443.813	137.56
444.034	113.56
444.255	96.56
444.476	80.56
444.698	86.56
444.919	101.56
445.14	135.56
445.361	143.56
445.582	127.56
445.803	184.56
446.024	184.56
446.245	187.56
446.466	136.56
446.687	109.56
446.908	92.56
447.129	94.56
447.35	78.56
447.571	94.56
447.792	90.56
448.013	116.56
448.234	119.56
448.455	96.56
448.675	124.56
448.896	143.56
449.117	100.56
449.338	108.56
449.559	158.56
449.779	167.56
450	102.56
450.221	84.56
450.442	97.56
450.662	97.56
450.883	122.56
451.104	126.56
451.324	112.56
451.545	102.56
451.766	75.56
451.986	85.56
452.207	94.56
452.428	88.56
452.648	106.56
452.869	132.56
453.089	139.56
453.31	143.56
453.53	101.56
453.751	102.56
453.971	115.56
454.192	162.56
454.412	91.56
454.633	90.56
454.853	90.56
455.073	94.56
455.294	101.56
455.514	104.56
455.734	102.56
455.955	72.56
456.175	83.56
456.395	87.56
456.616	87.56
456.836	96.56
457.056	88.56
457.276	80.56
457.497	82.56
457.717	81.56
457.937	98.56
458.157	95.56
458.377	116.56
458.598	139.56
458.818	212.56
459.038	254.56
459.258	154.56
459.478	102.56
459.698	84.56
459.918	80.56
460.138	90.56
460.358	81.56
460.578	98.56
460.798	94.56
461.018	96.56
461.238	79.56
461.458	96.56
461.678	92.56
461.898	94.56
462.118	96.56
462.338	87.56
462.558	82.56
462.777	89.56
462.997	97.56
463.217	110.56
463.437	101.56
463.657	98.56
463.876	108.56
464.096	81.56
464.316	96.56
464.536	103.56
464.755	107.56
464.975	133.56
465.195	252.56
465.414	256.56
465.634	107.56
465.854	79.56
466.073	94.56
466.293	101.56
466.512	71.56
466.732	96.56
466.951	97.56
467.171	101.56
467.391	112.56
467.61	158.56
467.829	272.56
468.049	820.56
468.268	1240.56
468.488	288.56
468.707	121.56
468.927	98.56
469.146	104.56
469.365	86.56
469.585	99.56
469.804	95.56
470.023	100.56
470.243	98.56
470.462	125.56
470.681	156.56
470.901	110.56
471.12	93.56
471.339	113.56
471.558	123.56
471.777	181.56
471.997	387.56
472.216	1606.56
472.435	3713.56
472.654	792.56
472.873	193.56
473.092	117.56
473.311	98.56
473.53	83.56
473.749	116.56
473.968	89.56
474.187	122.56
474.406	111.56
474.625	76.56
474.844	90.56
475.063	95.56
475.282	97.56
475.501	77.56
475.72	101.56
475.939	84.56
476.158	87.56
476.377	85.56
476.596	90.56
476.814	98.56
477.033	106.56
477.252	98.56
477.471	101.56
477.69	93.56
477.908	96.56
478.127	85.56
478.346	96.56
478.564	95.56
478.783	107.56
479.002	109.56
479.22	96.56
479.439	121.56
479.658	160.56
479.876	114.56
480.095	128.56
480.313	158.56
480.532	202.56
480.751	354.56
480.969	1387.56
481.188	6253.56
481.406	3543.56
481.624	486.56
481.843	160.56
482.061	116.56
482.28	112.56
482.498	96.56
482.717	99.56
482.935	94.56
483.153	85.56
483.372	94.56
483.59	88.56
483.808	88.56
484.027	78.56
484.245	103.56
484.463	84.56
484.681	97.56
484.9	108.56
485.118	101.56
485.336	99.56
485.554	91.56
485.772	98.56
485.99	114.56
486.209	116.56
486.427	103.56
486.645	115.56
486.863	138.56
487.081	104.56
487.299	95.56
487.517	110.56
487.735	98.56
487.953	99.56
488.171	113.56
488.389	103.56
488.607	103.56
488.825	86.56
489.043	113.56
489.261	97.56
489.479	80.56
489.696	82.56
489.914	91.56
490.132	100.56
490.35	94.56
490.568	90.56
490.786	91.56
491.003	77.56
491.221	84.56
491.439	101.56
491.657	76.56
491.874	98.56
492.092	81.56
492.31	98.56
492.527	108.56
492.745	96.56
492.963	93.56
493.18	89.56
493.398	89.56
493.615	111.56
493.833	97.56
494.05	87.56
494.268	95.56
494.485	95.56
494.703	85.56
494.92	80.56
495.138	95.56
495.355	76.56
495.573	84.56
495.79	94.56
496.008	90.56
496.225	69.56
496.442	84.56
496.66	82.56
496.877	79.56
497.094	93.56
497.312	97.56
497.529	96.56
497.746	80.56
497.963	104.56
498.181	84.56
498.398	95.56
498.615	101.56
498.832	95.56
499.049	92.56
499.267	90.56
499.484	95.56
499.701	91.56
499.918	92.56
500.135	92.56
500.352	77.56
500.569	103.56
500.786	100.56
501.003	97.56
501.22	84.56
501.437	92.56
501.654	105.56
501.871	138.56
502.088	95.56
502.305	85.56
502.522	84.56
502.739	88.56
502.956	89.56
503.172	85.56
503.389	114.56
503.606	134.56
503.823	107.56
504.04	84.56
504.256	95.56
504.473	85.56
504.69	90.56
504.907	97.56
505.123	87.56
505.34	87.56
505.557	86.56
505.773	71.56
505.99	87.56
506.207	82.56
506.423	74.56
506.64	72.56
506.856	93.56
507.073	88.56
507.289	100.56
507.506	97.56
507.722	129.56
507.939	145.56
508.155	93.56
508.372	104.56
508.588	95.56
508.805	103.56
509.021	96.56
509.238	96.56
509.454	106.56
509.67	109.56
509.887	105.56
510.103	151.56
510.319	242.56
510.536	1000.56
510.752	3414.56
510.968	896.56
511.184	175.56
511.401	123.56
511.617	110.56
511.833	108.56
512.049	105.56
512.265	95.56
512.481	100.56
512.698	101.56
512.914	96.56
513.13	104.56
513.346	104.56
