Data from Circ_1995_H10_HRD10591_00008.txt Node
Date: Wed Jan 03 11:36:48 EST 2024
User: Yrep
Spectrometer: HR+D1059
Trigger mode: 1
Integration Time (sec): 1.000000E-1
Scans to average: 1
Electric dark correction enabled: true
Nonlinearity correction enabled: false
Boxcar width: 0
XAxis mode: Wavelengths
Number of Pixels in Spectrum: 2048
>>>>>Begin Spectral Data<<<<<
223.165	-12.5
223.4	-12.5
223.635	-12.5
223.869	-24.5
224.104	-21.5
224.338	-10.5
224.573	-18.5
224.808	-17.5
225.042	-0.5
225.277	-13.5
225.511	-7.5
225.746	12.5
225.98	2.5
226.215	15.5
226.449	10.5
226.683	12.5
226.918	27.5
227.152	45.5
227.387	24.5
227.621	40.5
227.856	51.5
228.09	35.5
228.324	46.5
228.559	57.5
228.793	58.5
229.027	67.5
229.262	73.5
229.496	88.5
229.73	84.5
229.964	88.5
230.199	69.5
230.433	87.5
230.667	66.5
230.901	93.5
231.136	85.5
231.37	75.5
231.604	78.5
231.838	70.5
232.072	78.5
232.306	88.5
232.541	80.5
232.775	75.5
233.009	85.5
233.243	74.5
233.477	80.5
233.711	98.5
233.945	74.5
234.179	87.5
234.413	92.5
234.647	90.5
234.881	79.5
235.115	84.5
235.349	81.5
235.583	76.5
235.817	88.5
236.051	100.5
236.285	79.5
236.519	76.5
236.753	89.5
236.987	74.5
237.221	84.5
237.455	102.5
237.689	69.5
237.922	77.5
238.156	73.5
238.39	77.5
238.624	76.5
238.858	75.5
239.091	73.5
239.325	74.5
239.559	86.5
239.793	92.5
240.027	89.5
240.26	81.5
240.494	69.5
240.728	81.5
240.961	80.5
241.195	70.5
241.429	80.5
241.662	81.5
241.896	74.5
242.13	76.5
242.363	82.5
242.597	67.5
242.83	81.5
243.064	84.5
243.298	82.5
243.531	80.5
243.765	80.5
243.998	77.5
244.232	91.5
244.465	79.5
244.699	87.5
244.932	83.5
245.166	69.5
245.399	90.5
245.633	86.5
245.866	86.5
246.099	73.5
246.333	84.5
246.566	66.5
246.8	82.5
247.033	80.5
247.266	103.5
247.5	81.5
247.733	76.5
247.966	86.5
248.2	86.5
248.433	80.5
248.666	86.5
248.899	86.5
249.133	93.5
249.366	101.5
249.599	106.5
249.832	92.5
250.066	89.5
250.299	92.5
250.532	88.5
250.765	91.5
250.998	83.5
251.231	66.5
251.465	84.5
251.698	82.5
251.931	85.5
252.164	91.5
252.397	87.5
252.63	74.5
252.863	82.5
253.096	83.5
253.329	66.5
253.562	90.5
253.795	88.5
254.028	85.5
254.261	79.5
254.494	81.5
254.727	88.5
254.96	88.5
255.193	88.5
255.426	84.5
255.659	85.5
255.892	97.5
256.124	77.5
256.357	94.5
256.59	94.5
256.823	78.5
257.056	99.5
257.289	90.5
257.521	94.5
257.754	105.5
257.987	86.5
258.22	81.5
258.452	108.5
258.685	108.5
258.918	82.5
259.151	92.5
259.383	104.5
259.616	90.5
259.849	96.5
260.081	112.5
260.314	86.5
260.547	79.5
260.779	92.5
261.012	105.5
261.244	112.5
261.477	93.5
261.71	97.5
261.942	142.5
262.175	134.5
262.407	98.5
262.64	99.5
262.872	110.5
263.105	70.5
263.337	96.5
263.57	97.5
263.802	94.5
264.035	81.5
264.267	86.5
264.499	85.5
264.732	89.5
264.964	81.5
265.197	93.5
265.429	96.5
265.661	77.5
265.894	88.5
266.126	86.5
266.358	76.5
266.591	90.5
266.823	90.5
267.055	87.5
267.287	94.5
267.52	96.5
267.752	89.5
267.984	81.5
268.216	92.5
268.448	97.5
268.681	84.5
268.913	92.5
269.145	87.5
269.377	93.5
269.609	93.5
269.841	92.5
270.073	85.5
270.306	82.5
270.538	98.5
270.77	77.5
271.002	88.5
271.234	89.5
271.466	93.5
271.698	103.5
271.93	92.5
272.162	91.5
272.394	90.5
272.626	93.5
272.858	91.5
273.09	94.5
273.322	85.5
273.553	85.5
273.785	102.5
274.017	94.5
274.249	70.5
274.481	85.5
274.713	97.5
274.945	99.5
275.176	88.5
275.408	102.5
275.64	99.5
275.872	110.5
276.104	100.5
276.335	102.5
276.567	118.5
276.799	136.5
277.031	160.5
277.262	169.5
277.494	150.5
277.726	114.5
277.957	100.5
278.189	93.5
278.421	96.5
278.652	93.5
278.884	82.5
279.115	96.5
279.347	90.5
279.579	102.5
279.81	123.5
280.042	161.5
280.273	223.5
280.505	163.5
280.736	102.5
280.968	95.5
281.199	101.5
281.431	96.5
281.662	83.5
281.894	112.5
282.125	111.5
282.356	137.5
282.588	182.5
282.819	114.5
283.051	99.5
283.282	82.5
283.513	103.5
283.745	105.5
283.976	102.5
284.207	85.5
284.439	83.5
284.67	101.5
284.901	100.5
285.132	109.5
285.364	92.5
285.595	97.5
285.826	83.5
286.057	93.5
286.288	99.5
286.52	85.5
286.751	77.5
286.982	90.5
287.213	76.5
287.444	97.5
287.675	92.5
287.906	86.5
288.138	89.5
288.369	105.5
288.6	89.5
288.831	93.5
289.062	100.5
289.293	91.5
289.524	85.5
289.755	92.5
289.986	89.5
290.217	95.5
290.448	99.5
290.679	85.5
290.91	100.5
291.141	82.5
291.371	76.5
291.602	95.5
291.833	100.5
292.064	89.5
292.295	101.5
292.526	91.5
292.757	80.5
292.987	107.5
293.218	89.5
293.449	93.5
293.68	96.5
293.91	100.5
294.141	103.5
294.372	99.5
294.603	93.5
294.833	87.5
295.064	93.5
295.295	97.5
295.525	99.5
295.756	108.5
295.987	123.5
296.217	165.5
296.448	150.5
296.679	102.5
296.909	101.5
297.14	93.5
297.37	88.5
297.601	100.5
297.831	102.5
298.062	86.5
298.292	90.5
298.523	83.5
298.753	85.5
298.984	86.5
299.214	86.5
299.445	104.5
299.675	98.5
299.905	97.5
300.136	105.5
300.366	98.5
300.597	101.5
300.827	92.5
301.057	96.5
301.288	113.5
301.518	102.5
301.748	109.5
301.979	124.5
302.209	89.5
302.439	87.5
302.669	109.5
302.9	90.5
303.13	88.5
303.36	99.5
303.59	122.5
303.82	133.5
304.051	100.5
304.281	85.5
304.511	80.5
304.741	87.5
304.971	90.5
305.201	91.5
305.431	96.5
305.661	96.5
305.891	99.5
306.121	81.5
306.352	120.5
306.582	114.5
306.812	97.5
307.042	107.5
307.272	157.5
307.502	166.5
307.731	171.5
307.961	128.5
308.191	98.5
308.421	76.5
308.651	99.5
308.881	96.5
309.111	97.5
309.341	102.5
309.571	95.5
309.8	101.5
310.03	113.5
310.26	114.5
310.49	112.5
310.72	98.5
310.949	113.5
311.179	101.5
311.409	110.5
311.639	107.5
311.868	118.5
312.098	102.5
312.328	115.5
312.557	125.5
312.787	123.5
313.017	113.5
313.246	96.5
313.476	98.5
313.706	101.5
313.935	92.5
314.165	119.5
314.394	109.5
314.624	104.5
314.853	119.5
315.083	90.5
315.312	91.5
315.542	92.5
315.771	106.5
316.001	102.5
316.23	97.5
316.46	91.5
316.689	93.5
316.919	87.5
317.148	108.5
317.377	102.5
317.607	112.5
317.836	94.5
318.065	84.5
318.295	103.5
318.524	91.5
318.753	96.5
318.983	114.5
319.212	106.5
319.441	113.5
319.67	122.5
319.9	93.5
320.129	109.5
320.358	102.5
320.587	105.5
320.816	91.5
321.046	104.5
321.275	90.5
321.504	110.5
321.733	96.5
321.962	98.5
322.191	109.5
322.42	112.5
322.649	125.5
322.878	121.5
323.108	129.5
323.337	144.5
323.566	139.5
323.795	166.5
324.024	251.5
324.253	465.5
324.482	1039.5
324.71	2172.5
324.939	2936.5
325.168	1038.5
325.397	300.5
325.626	173.5
325.855	151.5
326.084	131.5
326.313	149.5
326.542	181.5
326.77	266.5
326.999	526.5
327.228	1114.5
327.457	2122.5
327.686	1720.5
327.914	567.5
328.143	461.5
328.372	588.5
328.6	341.5
328.829	173.5
329.058	179.5
329.287	188.5
329.515	162.5
329.744	226.5
329.972	406.5
330.201	834.5
330.43	1226.5
330.658	568.5
330.887	264.5
331.115	186.5
331.344	123.5
331.572	122.5
331.801	126.5
332.03	129.5
332.258	123.5
332.486	105.5
332.715	97.5
332.943	110.5
333.172	126.5
333.4	132.5
333.629	158.5
333.857	210.5
334.085	372.5
334.314	788.5
334.542	1486.5
334.771	1468.5
334.999	396.5
335.227	154.5
335.455	116.5
335.684	118.5
335.912	102.5
336.14	120.5
336.369	97.5
336.597	112.5
336.825	108.5
337.053	97.5
337.281	101.5
337.51	106.5
337.738	97.5
337.966	102.5
338.194	112.5
338.422	110.5
338.65	93.5
338.878	79.5
339.106	93.5
339.334	84.5
339.562	85.5
339.79	91.5
340.018	94.5
340.246	92.5
340.474	108.5
340.702	93.5
340.93	101.5
341.158	108.5
341.386	111.5
341.614	107.5
341.842	110.5
342.07	100.5
342.298	109.5
342.526	101.5
342.754	96.5
342.981	99.5
343.209	100.5
343.437	109.5
343.665	104.5
343.893	89.5
344.12	86.5
344.348	81.5
344.576	100.5
344.804	101.5
345.031	100.5
345.259	124.5
345.487	114.5
345.714	108.5
345.942	95.5
346.17	83.5
346.397	106.5
346.625	86.5
346.853	98.5
347.08	84.5
347.308	91.5
347.535	107.5
347.763	112.5
347.99	116.5
348.218	108.5
348.445	127.5
348.673	111.5
348.9	96.5
349.128	100.5
349.355	92.5
349.583	89.5
349.81	97.5
350.037	86.5
350.265	95.5
350.492	91.5
350.72	105.5
350.947	110.5
351.174	118.5
351.402	120.5
351.629	115.5
351.856	108.5
352.083	105.5
352.311	114.5
352.538	117.5
352.765	98.5
352.992	122.5
353.22	111.5
353.447	94.5
353.674	121.5
353.901	106.5
354.128	91.5
354.355	102.5
354.583	103.5
354.81	108.5
355.037	102.5
355.264	92.5
355.491	90.5
355.718	92.5
355.945	107.5
356.172	89.5
356.399	105.5
356.626	102.5
356.853	87.5
357.08	111.5
357.307	103.5
357.534	103.5
357.761	97.5
357.988	101.5
358.215	107.5
358.441	95.5
358.668	101.5
358.895	92.5
359.122	102.5
359.349	93.5
359.576	103.5
359.802	109.5
360.029	143.5
360.256	134.5
360.483	110.5
360.709	100.5
360.936	94.5
361.163	100.5
361.39	104.5
361.616	93.5
361.843	99.5
362.07	97.5
362.296	92.5
362.523	103.5
362.749	115.5
362.976	92.5
363.203	95.5
363.429	94.5
363.656	88.5
363.882	98.5
364.109	83.5
364.335	92.5
364.562	86.5
364.788	97.5
365.015	117.5
365.241	113.5
365.468	126.5
365.694	121.5
365.92	101.5
366.147	96.5
366.373	84.5
366.599	99.5
366.826	93.5
367.052	96.5
367.278	100.5
367.505	115.5
367.731	107.5
367.957	108.5
368.184	104.5
368.41	108.5
368.636	120.5
368.862	142.5
369.089	123.5
369.315	101.5
369.541	106.5
369.767	98.5
369.993	92.5
370.219	114.5
370.445	101.5
370.672	80.5
370.898	81.5
371.124	87.5
371.35	78.5
371.576	102.5
371.802	87.5
372.028	91.5
372.254	79.5
372.48	102.5
372.706	98.5
372.932	85.5
373.158	89.5
373.384	84.5
373.61	84.5
373.835	90.5
374.061	104.5
374.287	100.5
374.513	99.5
374.739	98.5
374.965	79.5
375.191	94.5
375.416	91.5
375.642	97.5
375.868	84.5
376.094	88.5
376.319	92.5
376.545	101.5
376.771	92.5
376.997	82.5
377.222	100.5
377.448	85.5
377.674	96.5
377.899	90.5
378.125	104.5
378.35	111.5
378.576	109.5
378.802	86.5
379.027	92.5
379.253	100.5
379.478	96.5
379.704	89.5
379.929	97.5
380.155	108.5
380.38	112.5
380.606	123.5
380.831	101.5
381.057	111.5
381.282	106.5
381.507	97.5
381.733	104.5
381.958	99.5
382.184	100.5
382.409	108.5
382.634	107.5
382.86	117.5
383.085	116.5
383.31	111.5
383.535	126.5
383.761	106.5
383.986	104.5
384.211	111.5
384.436	97.5
384.662	110.5
384.887	120.5
385.112	113.5
385.337	123.5
385.562	132.5
385.787	100.5
386.013	126.5
386.238	153.5
386.463	113.5
386.688	131.5
386.913	112.5
387.138	115.5
387.363	110.5
387.588	114.5
387.813	121.5
388.038	137.5
388.263	147.5
388.488	122.5
388.713	98.5
388.938	84.5
389.163	95.5
389.387	92.5
389.612	89.5
389.837	91.5
390.062	85.5
390.287	93.5
390.512	96.5
390.736	99.5
390.961	83.5
391.186	96.5
391.411	81.5
391.636	88.5
391.86	89.5
392.085	82.5
392.31	83.5
392.534	93.5
392.759	96.5
392.984	94.5
393.208	98.5
393.433	88.5
393.658	103.5
393.882	86.5
394.107	65.5
394.331	100.5
394.556	83.5
394.78	93.5
395.005	87.5
395.229	84.5
395.454	109.5
395.678	80.5
395.903	103.5
396.127	100.5
396.352	76.5
396.576	86.5
396.801	92.5
397.025	95.5
397.249	96.5
397.474	100.5
397.698	91.5
397.922	101.5
398.147	93.5
398.371	82.5
398.595	85.5
398.82	91.5
399.044	98.5
399.268	83.5
399.492	92.5
399.717	95.5
399.941	90.5
400.165	118.5
400.389	92.5
400.613	94.5
400.837	102.5
401.062	82.5
401.286	86.5
401.51	96.5
401.734	86.5
401.958	123.5
402.182	122.5
402.406	187.5
402.63	141.5
402.854	111.5
403.078	108.5
403.302	102.5
403.526	90.5
403.75	106.5
403.974	88.5
404.198	95.5
404.422	102.5
404.645	102.5
404.869	98.5
405.093	106.5
405.317	133.5
405.541	114.5
405.765	118.5
405.988	129.5
406.212	192.5
406.436	300.5
406.66	202.5
406.883	131.5
407.107	108.5
407.331	118.5
407.555	106.5
407.778	108.5
408.002	96.5
408.226	88.5
408.449	105.5
408.673	99.5
408.896	84.5
409.12	110.5
409.344	103.5
409.567	88.5
409.791	94.5
410.014	92.5
410.238	105.5
410.461	99.5
410.685	96.5
410.908	109.5
411.132	103.5
411.355	98.5
411.578	112.5
411.802	86.5
412.025	82.5
412.249	105.5
412.472	114.5
412.695	138.5
412.919	97.5
413.142	101.5
413.365	83.5
413.589	87.5
413.812	89.5
414.035	85.5
414.258	109.5
414.482	94.5
414.705	113.5
414.928	100.5
415.151	103.5
415.374	112.5
415.597	106.5
415.821	88.5
416.044	109.5
416.267	84.5
416.49	97.5
416.713	97.5
416.936	90.5
417.159	105.5
417.382	90.5
417.605	110.5
417.828	117.5
418.051	106.5
418.274	116.5
418.497	89.5
418.72	94.5
418.943	84.5
419.166	104.5
419.389	97.5
419.611	89.5
419.834	81.5
420.057	95.5
420.28	89.5
420.503	106.5
420.726	88.5
420.948	91.5
421.171	105.5
421.394	104.5
421.617	111.5
421.839	102.5
422.062	96.5
422.285	101.5
422.507	92.5
422.73	105.5
422.953	99.5
423.175	91.5
423.398	88.5
423.621	104.5
423.843	83.5
424.066	103.5
424.288	92.5
424.511	106.5
424.733	106.5
424.956	119.5
425.178	118.5
425.401	112.5
425.623	102.5
425.846	93.5
426.068	102.5
426.291	104.5
426.513	97.5
426.735	92.5
426.958	92.5
427.18	125.5
427.402	202.5
427.625	241.5
427.847	225.5
428.069	213.5
428.292	147.5
428.514	106.5
428.736	92.5
428.958	75.5
429.181	92.5
429.403	91.5
429.625	91.5
429.847	95.5
430.069	112.5
430.292	93.5
430.514	90.5
430.736	82.5
430.958	87.5
431.18	90.5
431.402	84.5
431.624	94.5
431.846	102.5
432.068	84.5
432.29	79.5
432.512	92.5
432.734	102.5
432.956	83.5
433.178	109.5
433.4	101.5
433.622	90.5
433.844	108.5
434.066	84.5
434.287	112.5
434.509	98.5
434.731	77.5
434.953	83.5
435.175	102.5
435.397	94.5
435.618	103.5
435.84	103.5
436.062	136.5
436.284	132.5
436.505	110.5
436.727	114.5
436.949	96.5
437.17	88.5
437.392	96.5
437.614	98.5
437.835	108.5
438.057	144.5
438.278	140.5
438.5	118.5
438.721	136.5
438.943	101.5
439.165	107.5
439.386	95.5
439.608	87.5
439.829	108.5
440.05	159.5
440.272	169.5
440.493	115.5
440.715	84.5
440.936	101.5
441.158	107.5
441.379	108.5
441.6	111.5
441.822	108.5
442.043	102.5
442.264	120.5
442.486	118.5
442.707	106.5
442.928	123.5
443.149	174.5
443.371	170.5
443.592	126.5
443.813	128.5
444.034	124.5
444.255	92.5
444.476	90.5
444.698	88.5
444.919	95.5
445.14	139.5
445.361	141.5
445.582	131.5
445.803	186.5
446.024	178.5
446.245	164.5
446.466	121.5
446.687	105.5
446.908	81.5
447.129	84.5
447.35	91.5
447.571	99.5
447.792	100.5
448.013	106.5
448.234	112.5
448.455	113.5
448.675	118.5
448.896	133.5
449.117	113.5
449.338	109.5
449.559	147.5
449.779	147.5
450	99.5
450.221	85.5
450.442	85.5
450.662	100.5
450.883	127.5
451.104	125.5
451.324	111.5
451.545	100.5
451.766	81.5
451.986	89.5
452.207	107.5
452.428	97.5
452.648	110.5
452.869	123.5
453.089	120.5
453.31	139.5
453.53	109.5
453.751	96.5
453.971	112.5
454.192	132.5
454.412	105.5
454.633	92.5
454.853	97.5
455.073	97.5
455.294	104.5
455.514	116.5
455.734	96.5
455.955	109.5
456.175	97.5
456.395	82.5
456.616	97.5
456.836	79.5
457.056	82.5
457.276	77.5
457.497	104.5
457.717	93.5
457.937	85.5
458.157	94.5
458.377	83.5
458.598	112.5
458.818	213.5
459.038	220.5
459.258	136.5
459.478	101.5
459.698	80.5
459.918	84.5
460.138	84.5
460.358	75.5
460.578	93.5
460.798	77.5
461.018	100.5
461.238	98.5
461.458	81.5
461.678	88.5
461.898	97.5
462.118	84.5
462.338	83.5
462.558	80.5
462.777	101.5
462.997	96.5
463.217	99.5
463.437	100.5
463.657	86.5
463.876	90.5
464.096	98.5
464.316	113.5
464.536	100.5
464.755	89.5
464.975	115.5
465.195	206.5
465.414	220.5
465.634	93.5
465.854	98.5
466.073	89.5
466.293	88.5
466.512	93.5
466.732	104.5
466.951	97.5
467.171	99.5
467.391	112.5
467.61	145.5
467.829	200.5
468.049	492.5
468.268	734.5
468.488	203.5
468.707	111.5
468.927	92.5
469.146	93.5
469.365	94.5
469.585	102.5
469.804	104.5
470.023	107.5
470.243	106.5
470.462	116.5
470.681	138.5
470.901	101.5
471.12	89.5
471.339	113.5
471.558	112.5
471.777	143.5
471.997	260.5
472.216	940.5
472.435	2146.5
472.654	526.5
472.873	164.5
473.092	102.5
473.311	92.5
473.53	101.5
473.749	90.5
473.968	117.5
474.187	118.5
474.406	115.5
474.625	101.5
474.844	90.5
475.063	78.5
475.282	94.5
475.501	84.5
475.72	87.5
475.939	89.5
476.158	87.5
476.377	96.5
476.596	101.5
476.814	102.5
477.033	94.5
477.252	96.5
477.471	93.5
477.69	66.5
477.908	96.5
478.127	105.5
478.346	101.5
478.564	100.5
478.783	105.5
479.002	107.5
479.22	105.5
479.439	111.5
479.658	110.5
479.876	116.5
480.095	117.5
480.313	132.5
480.532	161.5
480.751	267.5
480.969	851.5
481.188	3718.5
481.406	2098.5
481.624	330.5
481.843	123.5
482.061	96.5
482.28	97.5
482.498	110.5
482.717	101.5
482.935	91.5
483.153	88.5
483.372	103.5
483.59	89.5
483.808	98.5
484.027	91.5
484.245	93.5
484.463	113.5
484.681	112.5
484.9	90.5
485.118	98.5
485.336	97.5
485.554	106.5
485.772	95.5
485.99	111.5
486.209	105.5
486.427	113.5
486.645	129.5
486.863	115.5
487.081	115.5
487.299	99.5
487.517	118.5
487.735	110.5
487.953	89.5
488.171	95.5
488.389	95.5
488.607	106.5
488.825	88.5
489.043	102.5
489.261	106.5
489.479	98.5
489.696	86.5
489.914	94.5
490.132	89.5
490.35	97.5
490.568	85.5
490.786	90.5
491.003	87.5
491.221	100.5
491.439	93.5
491.657	100.5
491.874	101.5
492.092	95.5
492.31	79.5
492.527	94.5
492.745	105.5
492.963	91.5
493.18	105.5
493.398	93.5
493.615	90.5
493.833	97.5
494.05	88.5
494.268	88.5
494.485	101.5
494.703	97.5
494.92	94.5
495.138	78.5
495.355	101.5
495.573	101.5
495.79	96.5
496.008	103.5
496.225	100.5
496.442	96.5
496.66	95.5
496.877	93.5
497.094	99.5
497.312	88.5
497.529	77.5
497.746	90.5
497.963	99.5
498.181	94.5
498.398	113.5
498.615	117.5
498.832	104.5
499.049	94.5
499.267	78.5
499.484	98.5
499.701	81.5
499.918	99.5
500.135	97.5
500.352	106.5
500.569	90.5
500.786	94.5
501.003	83.5
501.22	96.5
501.437	87.5
501.654	99.5
501.871	139.5
502.088	95.5
502.305	91.5
502.522	85.5
502.739	96.5
502.956	84.5
503.172	93.5
503.389	96.5
503.606	125.5
503.823	107.5
504.04	117.5
504.256	99.5
504.473	83.5
504.69	77.5
504.907	95.5
505.123	88.5
505.34	91.5
505.557	93.5
505.773	93.5
505.99	100.5
506.207	90.5
506.423	85.5
506.64	100.5
506.856	95.5
507.073	95.5
507.289	105.5
507.506	107.5
507.722	133.5
507.939	122.5
508.155	111.5
508.372	99.5
508.588	108.5
508.805	96.5
509.021	99.5
509.238	104.5
509.454	109.5
509.67	110.5
509.887	102.5
510.103	144.5
510.319	225.5
510.536	865.5
510.752	2974.5
510.968	810.5
511.184	191.5
511.401	118.5
511.617	118.5
511.833	109.5
512.049	102.5
512.265	95.5
512.481	90.5
512.698	106.5
512.914	117.5
513.13	96.5
513.346	98.5
513.562	109.5
513.778	106.5
513.994	121.5
514.21	121.5
514.426	154.5
514.642	172.5
514.858	161.5
515.074	214.5
515.29	629.5
515.506	2282.5
515.721	816.5
515.937	194.5
516.153	137.5
516.369	122.5
516.585	105.5
516.801	99.5
517.016	102.5
517.232	96.5
517.448	98.5
517.664	101.5
517.879	95.5
518.095	85.5
518.311	111.5
518.527	103.5
518.742	100.5
518.958	87.5
519.173	83.5
519.389	104.5
519.605	99.5
519.82	110.5
520.036	126.5
520.251	153.5
520.467	128.5
520.682	120.5
520.898	119.5
521.113	131.5
521.329	170.5
521.544	285.5
521.76	805.5
521.975	3798.5
522.19	2288.5
522.406	454.5
522.621	165.5
522.836	117.5
523.052	108.5
523.267	105.5
523.482	108.5
523.698	117.5
523.913	133.5
524.128	130.5
524.343	101.5
524.559	106.5
524.774	94.5
524.989	99.5
525.204	120.5
525.419	118.5
525.634	94.5
525.849	99.5
526.064	90.5
526.28	92.5
526.495	91.5
526.71	89.5
526.925	101.5
527.14	95.5
527.355	106.5
527.57	87.5
527.785	94.5
527.999	88.5
528.214	105.5
528.429	97.5
528.644	107.5
528.859	112.5
529.074	105.5
529.289	152.5
529.503	260.5
529.718	122.5
529.933	88.5
530.148	105.5
530.363	109.5
