Data from Circ_1995_H10_HRD10591_00073.txt Node
Date: Wed Jan 03 11:37:01 EST 2024
User: Yrep
Spectrometer: HR+D1059
Trigger mode: 1
Integration Time (sec): 1.000000E-1
Scans to average: 1
Electric dark correction enabled: true
Nonlinearity correction enabled: false
Boxcar width: 0
XAxis mode: Wavelengths
Number of Pixels in Spectrum: 2048
>>>>>Begin Spectral Data<<<<<
223.165	-27.5
223.4	-27.5
223.635	-27.5
223.869	-25.5
224.104	-20.5
224.338	-8.5
224.573	-10.5
224.808	-4.5
225.042	2.5
225.277	-8.5
225.511	-0.5
225.746	-2.5
225.98	19.5
226.215	12.5
226.449	17.5
226.683	15.5
226.918	11.5
227.152	29.5
227.387	19.5
227.621	45.5
227.856	34.5
228.09	52.5
228.324	50.5
228.559	58.5
228.793	51.5
229.027	70.5
229.262	74.5
229.496	74.5
229.73	105.5
229.964	93.5
230.199	81.5
230.433	79.5
230.667	84.5
230.901	67.5
231.136	72.5
231.37	82.5
231.604	62.5
231.838	70.5
232.072	88.5
232.306	87.5
232.541	97.5
232.775	81.5
233.009	84.5
233.243	72.5
233.477	86.5
233.711	76.5
233.945	80.5
234.179	70.5
234.413	86.5
234.647	85.5
234.881	92.5
235.115	79.5
235.349	81.5
235.583	74.5
235.817	76.5
236.051	75.5
236.285	93.5
236.519	83.5
236.753	95.5
236.987	106.5
237.221	100.5
237.455	81.5
237.689	86.5
237.922	64.5
238.156	68.5
238.39	66.5
238.624	82.5
238.858	81.5
239.091	77.5
239.325	81.5
239.559	91.5
239.793	92.5
240.027	86.5
240.26	87.5
240.494	87.5
240.728	76.5
240.961	75.5
241.195	91.5
241.429	82.5
241.662	63.5
241.896	83.5
242.13	76.5
242.363	89.5
242.597	70.5
242.83	80.5
243.064	71.5
243.298	84.5
243.531	84.5
243.765	83.5
243.998	84.5
244.232	93.5
244.465	84.5
244.699	79.5
244.932	87.5
245.166	80.5
245.399	71.5
245.633	81.5
245.866	82.5
246.099	87.5
246.333	90.5
246.566	87.5
246.8	82.5
247.033	65.5
247.266	74.5
247.5	80.5
247.733	76.5
247.966	82.5
248.2	86.5
248.433	78.5
248.666	86.5
248.899	92.5
249.133	106.5
249.366	119.5
249.599	105.5
249.832	82.5
250.066	81.5
250.299	90.5
250.532	103.5
250.765	72.5
250.998	88.5
251.231	84.5
251.465	88.5
251.698	78.5
251.931	85.5
252.164	95.5
252.397	80.5
252.63	82.5
252.863	78.5
253.096	85.5
253.329	88.5
253.562	82.5
253.795	74.5
254.028	95.5
254.261	97.5
254.494	85.5
254.727	74.5
254.96	79.5
255.193	99.5
255.426	101.5
255.659	100.5
255.892	94.5
256.124	103.5
256.357	97.5
256.59	81.5
256.823	87.5
257.056	90.5
257.289	113.5
257.521	107.5
257.754	84.5
257.987	81.5
258.22	87.5
258.452	96.5
258.685	100.5
258.918	76.5
259.151	77.5
259.383	79.5
259.616	96.5
259.849	94.5
260.081	98.5
260.314	98.5
260.547	105.5
260.779	108.5
261.012	113.5
261.244	116.5
261.477	107.5
261.71	99.5
261.942	142.5
262.175	164.5
262.407	113.5
262.64	104.5
262.872	87.5
263.105	84.5
263.337	78.5
263.57	100.5
263.802	93.5
264.035	95.5
264.267	82.5
264.499	89.5
264.732	87.5
264.964	86.5
265.197	85.5
265.429	83.5
265.661	91.5
265.894	88.5
266.126	94.5
266.358	75.5
266.591	85.5
266.823	75.5
267.055	72.5
267.287	92.5
267.52	83.5
267.752	83.5
267.984	98.5
268.216	85.5
268.448	95.5
268.681	82.5
268.913	101.5
269.145	82.5
269.377	87.5
269.609	86.5
269.841	89.5
270.073	95.5
270.306	93.5
270.538	85.5
270.77	95.5
271.002	87.5
271.234	75.5
271.466	85.5
271.698	79.5
271.93	79.5
272.162	91.5
272.394	83.5
272.626	87.5
272.858	88.5
273.09	94.5
273.322	109.5
273.553	83.5
273.785	87.5
274.017	87.5
274.249	84.5
274.481	89.5
274.713	86.5
274.945	94.5
275.176	117.5
275.408	108.5
275.64	129.5
275.872	134.5
276.104	120.5
276.335	106.5
276.567	125.5
276.799	166.5
277.031	211.5
277.262	234.5
277.494	183.5
277.726	107.5
277.957	95.5
278.189	91.5
278.421	83.5
278.652	96.5
278.884	74.5
279.115	84.5
279.347	100.5
279.579	121.5
279.81	155.5
280.042	253.5
280.273	355.5
280.505	229.5
280.736	118.5
280.968	94.5
281.199	95.5
281.431	86.5
281.662	95.5
281.894	95.5
282.125	128.5
282.356	149.5
282.588	172.5
282.819	135.5
283.051	92.5
283.282	90.5
283.513	100.5
283.745	107.5
283.976	96.5
284.207	87.5
284.439	88.5
284.67	96.5
284.901	74.5
285.132	80.5
285.364	82.5
285.595	91.5
285.826	87.5
286.057	105.5
286.288	86.5
286.52	81.5
286.751	84.5
286.982	92.5
287.213	86.5
287.444	91.5
287.675	100.5
287.906	90.5
288.138	95.5
288.369	94.5
288.6	84.5
288.831	80.5
289.062	92.5
289.293	88.5
289.524	92.5
289.755	104.5
289.986	85.5
290.217	83.5
290.448	93.5
290.679	97.5
290.91	86.5
291.141	76.5
291.371	90.5
291.602	86.5
291.833	85.5
292.064	91.5
292.295	90.5
292.526	85.5
292.757	85.5
292.987	94.5
293.218	91.5
293.449	96.5
293.68	92.5
293.91	91.5
294.141	95.5
294.372	83.5
294.603	88.5
294.833	67.5
295.064	94.5
295.295	88.5
295.525	93.5
295.756	106.5
295.987	131.5
296.217	176.5
296.448	146.5
296.679	116.5
296.909	106.5
297.14	80.5
297.37	96.5
297.601	91.5
297.831	86.5
298.062	106.5
298.292	92.5
298.523	102.5
298.753	95.5
298.984	95.5
299.214	79.5
299.445	100.5
299.675	117.5
299.905	96.5
300.136	99.5
300.366	102.5
300.597	99.5
300.827	95.5
301.057	121.5
301.288	125.5
301.518	94.5
301.748	89.5
301.979	111.5
302.209	114.5
302.439	107.5
302.669	95.5
302.9	100.5
303.13	106.5
303.36	110.5
303.59	146.5
303.82	174.5
304.051	100.5
304.281	79.5
304.511	97.5
304.741	99.5
304.971	92.5
305.201	87.5
305.431	92.5
305.661	93.5
305.891	96.5
306.121	110.5
306.352	104.5
306.582	105.5
306.812	122.5
307.042	152.5
307.272	199.5
307.502	230.5
307.731	214.5
307.961	155.5
308.191	99.5
308.421	100.5
308.651	93.5
308.881	86.5
309.111	87.5
309.341	106.5
309.571	105.5
309.8	109.5
310.03	107.5
310.26	98.5
310.49	100.5
310.72	119.5
310.949	114.5
311.179	123.5
311.409	95.5
311.639	97.5
311.868	113.5
312.098	105.5
312.328	93.5
312.557	111.5
312.787	124.5
313.017	109.5
313.246	101.5
313.476	95.5
313.706	101.5
313.935	99.5
314.165	128.5
314.394	123.5
314.624	109.5
314.853	110.5
315.083	95.5
315.312	101.5
315.542	86.5
315.771	97.5
316.001	103.5
316.23	98.5
316.46	98.5
316.689	96.5
316.919	86.5
317.148	104.5
317.377	102.5
317.607	112.5
317.836	96.5
318.065	93.5
318.295	94.5
318.524	100.5
318.753	95.5
318.983	116.5
319.212	109.5
319.441	120.5
319.67	123.5
319.9	93.5
320.129	85.5
320.358	111.5
320.587	108.5
320.816	117.5
321.046	123.5
321.275	99.5
321.504	105.5
321.733	107.5
321.962	86.5
322.191	116.5
322.42	110.5
322.649	124.5
322.878	120.5
323.108	122.5
323.337	160.5
323.566	164.5
323.795	194.5
324.024	270.5
324.253	527.5
324.482	1147.5
324.71	2407.5
324.939	3167.5
325.168	1158.5
325.397	323.5
325.626	180.5
325.855	162.5
326.084	166.5
326.313	138.5
326.542	196.5
326.77	298.5
326.999	584.5
327.228	1208.5
327.457	2250.5
327.686	1822.5
327.914	648.5
328.143	699.5
328.372	941.5
328.6	509.5
328.829	231.5
329.058	217.5
329.287	212.5
329.515	228.5
329.744	316.5
329.972	644.5
330.201	1405.5
330.43	2044.5
330.658	871.5
330.887	360.5
331.115	218.5
331.344	140.5
331.572	135.5
331.801	134.5
332.03	136.5
332.258	115.5
332.486	124.5
332.715	119.5
332.943	115.5
333.172	127.5
333.4	158.5
333.629	185.5
333.857	282.5
334.085	561.5
334.314	1268.5
334.542	2558.5
334.771	2378.5
334.999	589.5
335.227	212.5
335.455	142.5
335.684	129.5
335.912	118.5
336.14	114.5
336.369	103.5
336.597	123.5
336.825	107.5
337.053	106.5
337.281	89.5
337.51	104.5
337.738	106.5
337.966	100.5
338.194	115.5
338.422	127.5
338.65	104.5
338.878	108.5
339.106	103.5
339.334	105.5
339.562	88.5
339.79	92.5
340.018	97.5
340.246	99.5
340.474	113.5
340.702	108.5
340.93	85.5
341.158	103.5
341.386	105.5
341.614	111.5
341.842	113.5
342.07	102.5
342.298	88.5
342.526	90.5
342.754	88.5
342.981	91.5
343.209	92.5
343.437	88.5
343.665	87.5
343.893	103.5
344.12	96.5
344.348	78.5
344.576	99.5
344.804	80.5
345.031	100.5
345.259	110.5
345.487	108.5
345.714	119.5
345.942	110.5
346.17	84.5
346.397	93.5
346.625	102.5
346.853	92.5
347.08	101.5
347.308	101.5
347.535	99.5
347.763	118.5
347.99	111.5
348.218	129.5
348.445	117.5
348.673	122.5
348.9	106.5
349.128	96.5
349.355	86.5
349.583	94.5
349.81	89.5
350.037	100.5
350.265	104.5
350.492	94.5
350.72	88.5
350.947	113.5
351.174	125.5
351.402	123.5
351.629	108.5
351.856	108.5
352.083	107.5
352.311	131.5
352.538	141.5
352.765	120.5
352.992	134.5
353.22	116.5
353.447	112.5
353.674	106.5
353.901	89.5
354.128	99.5
354.355	103.5
354.583	105.5
354.81	87.5
355.037	93.5
355.264	80.5
355.491	80.5
355.718	105.5
355.945	80.5
356.172	91.5
356.399	83.5
356.626	92.5
356.853	81.5
357.08	95.5
357.307	90.5
357.534	88.5
357.761	101.5
357.988	105.5
358.215	98.5
358.441	95.5
358.668	82.5
358.895	104.5
359.122	97.5
359.349	93.5
359.576	99.5
359.802	127.5
360.029	154.5
360.256	150.5
360.483	112.5
360.709	94.5
360.936	83.5
361.163	111.5
361.39	103.5
361.616	99.5
361.843	110.5
362.07	118.5
362.296	100.5
362.523	100.5
362.749	98.5
362.976	105.5
363.203	98.5
363.429	93.5
363.656	105.5
363.882	98.5
364.109	104.5
364.335	74.5
364.562	93.5
364.788	103.5
365.015	101.5
365.241	122.5
365.468	118.5
365.694	112.5
365.92	108.5
366.147	86.5
366.373	85.5
366.599	94.5
366.826	92.5
367.052	91.5
367.278	95.5
367.505	99.5
367.731	100.5
367.957	103.5
368.184	102.5
368.41	118.5
368.636	119.5
368.862	130.5
369.089	127.5
369.315	105.5
369.541	101.5
369.767	96.5
369.993	89.5
370.219	93.5
370.445	99.5
370.672	95.5
370.898	98.5
371.124	90.5
371.35	96.5
371.576	95.5
371.802	95.5
372.028	74.5
372.254	89.5
372.48	82.5
372.706	97.5
372.932	84.5
373.158	95.5
373.384	101.5
373.61	93.5
373.835	90.5
374.061	86.5
374.287	88.5
374.513	85.5
374.739	71.5
374.965	95.5
375.191	84.5
375.416	100.5
375.642	83.5
375.868	90.5
376.094	96.5
376.319	82.5
376.545	93.5
376.771	97.5
376.997	91.5
377.222	107.5
377.448	97.5
377.674	89.5
377.899	96.5
378.125	97.5
378.35	93.5
378.576	88.5
378.802	79.5
379.027	72.5
379.253	73.5
379.478	93.5
379.704	90.5
379.929	100.5
380.155	98.5
380.38	91.5
380.606	90.5
380.831	101.5
381.057	119.5
381.282	99.5
381.507	89.5
381.733	81.5
381.958	89.5
382.184	108.5
382.409	92.5
382.634	97.5
382.86	97.5
383.085	103.5
383.31	105.5
383.535	97.5
383.761	112.5
383.986	91.5
384.211	81.5
384.436	85.5
384.662	87.5
384.887	106.5
385.112	103.5
385.337	106.5
385.562	97.5
385.787	91.5
386.013	113.5
386.238	113.5
386.463	99.5
386.688	113.5
386.913	103.5
387.138	104.5
387.363	98.5
387.588	89.5
387.813	101.5
388.038	102.5
388.263	113.5
388.488	102.5
388.713	107.5
388.938	89.5
389.163	92.5
389.387	92.5
389.612	94.5
389.837	80.5
390.062	92.5
390.287	105.5
390.512	94.5
390.736	92.5
390.961	90.5
391.186	95.5
391.411	84.5
391.636	104.5
391.86	89.5
392.085	92.5
392.31	101.5
392.534	81.5
392.759	89.5
392.984	95.5
393.208	78.5
393.433	87.5
393.658	100.5
393.882	94.5
394.107	96.5
394.331	90.5
394.556	75.5
394.78	95.5
395.005	79.5
395.229	86.5
395.454	93.5
395.678	76.5
395.903	94.5
396.127	98.5
396.352	93.5
396.576	97.5
396.801	90.5
397.025	70.5
397.249	86.5
397.474	95.5
397.698	94.5
397.922	82.5
398.147	87.5
398.371	97.5
398.595	88.5
398.82	78.5
399.044	87.5
399.268	86.5
399.492	90.5
399.717	88.5
399.941	95.5
400.165	83.5
400.389	106.5
400.613	102.5
400.837	91.5
401.062	87.5
401.286	85.5
401.51	93.5
401.734	96.5
401.958	109.5
402.182	148.5
402.406	217.5
402.63	154.5
402.854	99.5
403.078	108.5
403.302	85.5
403.526	85.5
403.75	96.5
403.974	82.5
404.198	86.5
404.422	87.5
404.645	91.5
404.869	107.5
405.093	130.5
405.317	170.5
405.541	161.5
405.765	125.5
405.988	134.5
406.212	219.5
406.436	334.5
406.66	236.5
406.883	125.5
407.107	110.5
407.331	109.5
407.555	98.5
407.778	105.5
408.002	108.5
408.226	98.5
408.449	86.5
408.673	99.5
408.896	104.5
409.12	119.5
409.344	86.5
409.567	82.5
409.791	88.5
410.014	93.5
410.238	83.5
410.461	99.5
410.685	81.5
410.908	92.5
411.132	112.5
411.355	121.5
411.578	96.5
411.802	80.5
412.025	86.5
412.249	93.5
412.472	116.5
412.695	154.5
412.919	117.5
413.142	100.5
413.365	90.5
413.589	92.5
413.812	87.5
414.035	93.5
414.258	97.5
414.482	87.5
414.705	88.5
414.928	101.5
415.151	83.5
415.374	104.5
415.597	90.5
415.821	87.5
416.044	94.5
416.267	104.5
416.49	93.5
416.713	92.5
416.936	99.5
417.159	89.5
417.382	97.5
417.605	105.5
417.828	129.5
418.051	103.5
418.274	95.5
418.497	108.5
418.72	87.5
418.943	70.5
419.166	98.5
419.389	95.5
419.611	108.5
419.834	82.5
420.057	95.5
420.28	92.5
420.503	88.5
420.726	95.5
420.948	90.5
421.171	119.5
421.394	97.5
421.617	72.5
421.839	81.5
422.062	99.5
422.285	84.5
422.507	98.5
422.73	116.5
422.953	97.5
423.175	93.5
423.398	82.5
423.621	81.5
423.843	99.5
424.066	95.5
424.288	84.5
424.511	100.5
424.733	114.5
424.956	118.5
425.178	116.5
425.401	112.5
425.623	118.5
425.846	110.5
426.068	97.5
426.291	96.5
426.513	92.5
426.735	93.5
426.958	112.5
427.18	136.5
427.402	189.5
427.625	294.5
427.847	278.5
428.069	264.5
428.292	130.5
428.514	96.5
428.736	95.5
428.958	70.5
429.181	104.5
429.403	81.5
429.625	96.5
429.847	109.5
430.069	112.5
430.292	86.5
430.514	77.5
430.736	87.5
430.958	96.5
431.18	87.5
431.402	78.5
431.624	78.5
431.846	83.5
432.068	86.5
432.29	97.5
432.512	97.5
432.734	92.5
432.956	97.5
433.178	108.5
433.4	100.5
433.622	101.5
433.844	97.5
434.066	95.5
434.287	98.5
434.509	81.5
434.731	97.5
434.953	95.5
435.175	95.5
435.397	74.5
435.618	97.5
435.84	122.5
436.062	143.5
436.284	135.5
436.505	114.5
436.727	99.5
436.949	96.5
437.17	87.5
437.392	79.5
437.614	92.5
437.835	135.5
438.057	161.5
438.278	143.5
438.5	124.5
438.721	148.5
438.943	114.5
439.165	106.5
439.386	85.5
439.608	106.5
439.829	113.5
440.05	168.5
440.272	191.5
440.493	106.5
440.715	120.5
440.936	95.5
441.158	81.5
441.379	90.5
441.6	100.5
441.822	100.5
442.043	110.5
442.264	119.5
442.486	124.5
442.707	108.5
442.928	106.5
443.149	187.5
443.371	188.5
443.592	136.5
443.813	127.5
444.034	119.5
444.255	105.5
444.476	93.5
444.698	86.5
444.919	81.5
445.14	129.5
445.361	134.5
445.582	150.5
445.803	208.5
446.024	187.5
446.245	170.5
446.466	143.5
446.687	88.5
446.908	99.5
447.129	112.5
447.35	92.5
447.571	97.5
447.792	86.5
448.013	111.5
448.234	127.5
448.455	125.5
448.675	129.5
448.896	151.5
449.117	118.5
449.338	111.5
449.559	147.5
449.779	169.5
450	107.5
450.221	108.5
450.442	100.5
450.662	123.5
450.883	137.5
451.104	157.5
451.324	114.5
451.545	99.5
451.766	83.5
451.986	94.5
452.207	95.5
452.428	99.5
452.648	115.5
452.869	138.5
453.089	142.5
453.31	160.5
453.53	101.5
453.751	100.5
453.971	115.5
454.192	154.5
454.412	113.5
454.633	99.5
454.853	87.5
455.073	89.5
455.294	95.5
455.514	116.5
455.734	106.5
455.955	93.5
456.175	90.5
456.395	95.5
456.616	90.5
456.836	80.5
457.056	75.5
457.276	96.5
457.497	96.5
457.717	75.5
457.937	99.5
458.157	98.5
458.377	101.5
458.598	135.5
458.818	229.5
459.038	267.5
459.258	156.5
459.478	110.5
459.698	83.5
459.918	85.5
460.138	96.5
460.358	83.5
460.578	92.5
460.798	98.5
461.018	94.5
461.238	84.5
461.458	89.5
461.678	88.5
461.898	76.5
462.118	102.5
462.338	90.5
462.558	97.5
462.777	101.5
462.997	110.5
463.217	132.5
463.437	106.5
463.657	94.5
463.876	84.5
464.096	100.5
464.316	94.5
464.536	108.5
464.755	111.5
464.975	130.5
465.195	270.5
465.414	268.5
465.634	110.5
465.854	88.5
466.073	100.5
466.293	95.5
466.512	88.5
466.732	95.5
466.951	84.5
467.171	111.5
467.391	131.5
467.61	179.5
467.829	262.5
468.049	814.5
468.268	1210.5
468.488	297.5
468.707	117.5
468.927	110.5
469.146	94.5
469.365	94.5
469.585	103.5
469.804	127.5
470.023	135.5
470.243	120.5
470.462	112.5
470.681	176.5
470.901	108.5
471.12	99.5
471.339	114.5
471.558	142.5
471.777	186.5
471.997	378.5
472.216	1552.5
472.435	3686.5
472.654	781.5
472.873	192.5
473.092	119.5
473.311	87.5
473.53	94.5
473.749	97.5
473.968	104.5
474.187	120.5
474.406	112.5
474.625	94.5
474.844	94.5
475.063	82.5
475.282	95.5
475.501	96.5
475.72	90.5
475.939	95.5
476.158	89.5
476.377	103.5
476.596	95.5
476.814	112.5
477.033	100.5
477.252	93.5
477.471	104.5
477.69	118.5
477.908	99.5
478.127	96.5
478.346	97.5
478.564	112.5
478.783	126.5
479.002	104.5
479.22	123.5
479.439	146.5
479.658	158.5
479.876	139.5
480.095	116.5
480.313	150.5
480.532	187.5
480.751	346.5
480.969	1390.5
481.188	6092.5
481.406	3423.5
481.624	465.5
481.843	161.5
482.061	116.5
482.28	119.5
482.498	109.5
482.717	109.5
482.935	81.5
483.153	90.5
483.372	84.5
483.59	96.5
483.808	95.5
484.027	97.5
484.245	77.5
484.463	110.5
484.681	106.5
484.9	95.5
485.118	118.5
485.336	112.5
485.554	102.5
485.772	105.5
485.99	103.5
486.209	114.5
486.427	118.5
486.645	130.5
486.863	138.5
487.081	118.5
487.299	98.5
487.517	97.5
487.735	116.5
487.953	79.5
488.171	96.5
488.389	91.5
488.607	95.5
488.825	98.5
489.043	91.5
489.261	88.5
489.479	100.5
489.696	92.5
489.914	88.5
490.132	90.5
490.35	87.5
490.568	90.5
490.786	95.5
491.003	99.5
491.221	101.5
491.439	101.5
491.657	83.5
491.874	83.5
492.092	94.5
492.31	95.5
492.527	119.5
492.745	104.5
492.963	99.5
493.18	105.5
493.398	91.5
493.615	94.5
493.833	100.5
494.05	87.5
494.268	98.5
494.485	93.5
494.703	94.5
494.92	88.5
495.138	85.5
495.355	90.5
495.573	90.5
495.79	84.5
496.008	108.5
496.225	96.5
496.442	108.5
496.66	98.5
496.877	90.5
497.094	90.5
497.312	100.5
497.529	88.5
497.746	94.5
497.963	112.5
498.181	111.5
498.398	112.5
498.615	119.5
498.832	111.5
499.049	96.5
499.267	97.5
499.484	85.5
499.701	96.5
499.918	93.5
500.135	87.5
500.352	84.5
500.569	100.5
500.786	89.5
501.003	79.5
501.22	102.5
501.437	90.5
501.654	107.5
501.871	131.5
502.088	104.5
502.305	94.5
502.522	89.5
502.739	80.5
502.956	92.5
503.172	84.5
503.389	94.5
503.606	142.5
503.823	116.5
504.04	98.5
504.256	88.5
504.473	86.5
504.69	94.5
504.907	104.5
505.123	88.5
505.34	103.5
505.557	89.5
505.773	111.5
505.99	108.5
506.207	98.5
506.423	94.5
506.64	104.5
506.856	92.5
507.073	88.5
507.289	104.5
507.506	109.5
507.722	143.5
507.939	129.5
508.155	96.5
508.372	100.5
508.588	101.5
508.805	108.5
509.021	111.5
509.238	114.5
509.454	101.5
509.67	95.5
509.887	120.5
510.103	150.5
510.319	269.5
510.536	987.5
510.752	3557.5
510.968	926.5
511.184	189.5
511.401	147.5
511.617	125.5
511.833	115.5
512.049	84.5
512.265	101.5
512.481	98.5
512.698	92.5
512.914	97.5
513.13	92.5
513.346	103.5
513.562	87.5
513.778	106.5
513.994	107.5
514.21	132.5
514.426	151.5
514.642	208.5
514.858	176.5
515.074	237.5
515.29	794.5
515.506	3026.5
515.721	1042.5
515.937	240.5
516.153	141.5
516.369	113.5
516.585	123.5
516.801	124.5
517.016	106.5
517.232	96.5
517.448	91.5
517.664	107.5
517.879	91.5
518.095	96.5
518.311	126.5
518.527	102.5
518.742	94.5
518.958	98.5
519.173	107.5
519.389	100.5
519.605	109.5
519.82	111.5
520.036	129.5
520.251	164.5
520.467	125.5
520.682	123.5
520.898	136.5
521.113	146.5
521.329	197.5
521.544	319.5
521.76	1057.5
521.975	5022.5
522.19	2952.5
522.406	550.5
522.621	188.5
522.836	136.5
523.052	120.5
523.267	104.5
523.482	96.5
523.698	118.5
523.913	164.5
524.128	129.5
524.343	106.5
524.559	98.5
524.774	105.5
524.989	104.5
525.204	131.5
525.419	119.5
525.634	109.5
525.849	94.5
526.064	102.5
526.28	105.5
526.495	97.5
526.71	91.5
526.925	91.5
527.14	89.5
527.355	102.5
527.57	96.5
527.785	96.5
527.999	98.5
528.214	89.5
528.429	96.5
528.644	99.5
528.859	104.5
529.074	113.5
529.289	166.5
529.503	301.5
529.718	156.5
529.933	106.5
530.148	88.5
530.363	89.5
530.577	98.5
530.792	99.5
