Data from Circ_1995_H10_HRD10591_00014.txt Node
Date: Wed Jan 03 11:36:49 EST 2024
User: Yrep
Spectrometer: HR+D1059
Trigger mode: 1
Integration Time (sec): 1.000000E-1
Scans to average: 1
Electric dark correction enabled: true
Nonlinearity correction enabled: false
Boxcar width: 0
XAxis mode: Wavelengths
Number of Pixels in Spectrum: 2048
>>>>>Begin Spectral Data<<<<<
223.165	-13.56
223.4	-13.56
223.635	-13.56
223.869	-24.56
224.104	-12.56
224.338	-21.56
224.573	0.44
224.808	-9.56
225.042	-5.56
225.277	2.44
225.511	-10.56
225.746	-6.56
225.98	-3.56
226.215	8.44
226.449	22.44
226.683	16.44
226.918	23.44
227.152	34.44
227.387	47.44
227.621	36.44
227.856	45.44
228.09	55.44
228.324	56.44
228.559	57.44
228.793	63.44
229.027	67.44
229.262	64.44
229.496	82.44
229.73	98.44
229.964	94.44
230.199	58.44
230.433	88.44
230.667	77.44
230.901	85.44
231.136	72.44
231.37	73.44
231.604	93.44
231.838	80.44
232.072	78.44
232.306	86.44
232.541	88.44
232.775	73.44
233.009	83.44
233.243	78.44
233.477	93.44
233.711	79.44
233.945	81.44
234.179	83.44
234.413	91.44
234.647	87.44
234.881	67.44
235.115	70.44
235.349	74.44
235.583	80.44
235.817	79.44
236.051	91.44
236.285	92.44
236.519	78.44
236.753	74.44
236.987	76.44
237.221	85.44
237.455	105.44
237.689	87.44
237.922	79.44
238.156	86.44
238.39	76.44
238.624	74.44
238.858	80.44
239.091	77.44
239.325	81.44
239.559	88.44
239.793	71.44
240.027	90.44
240.26	83.44
240.494	74.44
240.728	76.44
240.961	91.44
241.195	88.44
241.429	70.44
241.662	79.44
241.896	81.44
242.13	83.44
242.363	64.44
242.597	90.44
242.83	83.44
243.064	72.44
243.298	73.44
243.531	72.44
243.765	83.44
243.998	79.44
244.232	83.44
244.465	81.44
244.699	88.44
244.932	84.44
245.166	76.44
245.399	87.44
245.633	79.44
245.866	79.44
246.099	65.44
246.333	91.44
246.566	77.44
246.8	73.44
247.033	74.44
247.266	91.44
247.5	77.44
247.733	79.44
247.966	82.44
248.2	74.44
248.433	84.44
248.666	80.44
248.899	83.44
249.133	103.44
249.366	106.44
249.599	90.44
249.832	94.44
250.066	80.44
250.299	76.44
250.532	81.44
250.765	87.44
250.998	83.44
251.231	91.44
251.465	90.44
251.698	79.44
251.931	76.44
252.164	60.44
252.397	83.44
252.63	79.44
252.863	87.44
253.096	85.44
253.329	97.44
253.562	81.44
253.795	81.44
254.028	86.44
254.261	75.44
254.494	67.44
254.727	88.44
254.96	74.44
255.193	90.44
255.426	79.44
255.659	79.44
255.892	108.44
256.124	95.44
256.357	82.44
256.59	88.44
256.823	72.44
257.056	72.44
257.289	90.44
257.521	81.44
257.754	87.44
257.987	86.44
258.22	79.44
258.452	90.44
258.685	88.44
258.918	89.44
259.151	95.44
259.383	92.44
259.616	78.44
259.849	82.44
260.081	77.44
260.314	81.44
260.547	86.44
260.779	87.44
261.012	111.44
261.244	95.44
261.477	108.44
261.71	109.44
261.942	136.44
262.175	150.44
262.407	105.44
262.64	93.44
262.872	74.44
263.105	78.44
263.337	86.44
263.57	80.44
263.802	82.44
264.035	80.44
264.267	73.44
264.499	91.44
264.732	78.44
264.964	90.44
265.197	90.44
265.429	95.44
265.661	82.44
265.894	77.44
266.126	82.44
266.358	85.44
266.591	94.44
266.823	74.44
267.055	88.44
267.287	86.44
267.52	94.44
267.752	86.44
267.984	93.44
268.216	86.44
268.448	75.44
268.681	77.44
268.913	90.44
269.145	86.44
269.377	83.44
269.609	76.44
269.841	83.44
270.073	95.44
270.306	88.44
270.538	75.44
270.77	88.44
271.002	82.44
271.234	85.44
271.466	90.44
271.698	83.44
271.93	71.44
272.162	81.44
272.394	82.44
272.626	80.44
272.858	95.44
273.09	85.44
273.322	97.44
273.553	89.44
273.785	85.44
274.017	67.44
274.249	72.44
274.481	92.44
274.713	80.44
274.945	84.44
275.176	93.44
275.408	99.44
275.64	111.44
275.872	118.44
276.104	118.44
276.335	95.44
276.567	120.44
276.799	158.44
277.031	180.44
277.262	186.44
277.494	132.44
277.726	92.44
277.957	88.44
278.189	93.44
278.421	100.44
278.652	90.44
278.884	87.44
279.115	87.44
279.347	91.44
279.579	96.44
279.81	131.44
280.042	184.44
280.273	244.44
280.505	179.44
280.736	112.44
280.968	87.44
281.199	97.44
281.431	95.44
281.662	85.44
281.894	90.44
282.125	104.44
282.356	143.44
282.588	177.44
282.819	131.44
283.051	94.44
283.282	83.44
283.513	89.44
283.745	92.44
283.976	67.44
284.207	98.44
284.439	95.44
284.67	107.44
284.901	81.44
285.132	73.44
285.364	97.44
285.595	87.44
285.826	90.44
286.057	90.44
286.288	80.44
286.52	76.44
286.751	84.44
286.982	77.44
287.213	82.44
287.444	82.44
287.675	90.44
287.906	92.44
288.138	90.44
288.369	103.44
288.6	102.44
288.831	94.44
289.062	97.44
289.293	88.44
289.524	98.44
289.755	94.44
289.986	83.44
290.217	80.44
290.448	94.44
290.679	71.44
290.91	86.44
291.141	89.44
291.371	97.44
291.602	91.44
291.833	91.44
292.064	88.44
292.295	89.44
292.526	80.44
292.757	86.44
292.987	84.44
293.218	91.44
293.449	83.44
293.68	83.44
293.91	100.44
294.141	95.44
294.372	85.44
294.603	93.44
294.833	94.44
295.064	96.44
295.295	90.44
295.525	98.44
295.756	111.44
295.987	124.44
296.217	165.44
296.448	154.44
296.679	119.44
296.909	96.44
297.14	93.44
297.37	92.44
297.601	95.44
297.831	92.44
298.062	89.44
298.292	93.44
298.523	88.44
298.753	102.44
298.984	77.44
299.214	110.44
299.445	91.44
299.675	99.44
299.905	105.44
300.136	99.44
300.366	87.44
300.597	88.44
300.827	93.44
301.057	98.44
301.288	120.44
301.518	116.44
301.748	107.44
301.979	108.44
302.209	106.44
302.439	96.44
302.669	91.44
302.9	80.44
303.13	95.44
303.36	102.44
303.59	137.44
303.82	150.44
304.051	98.44
304.281	101.44
304.511	95.44
304.741	88.44
304.971	103.44
305.201	96.44
305.431	92.44
305.661	95.44
305.891	95.44
306.121	99.44
306.352	95.44
306.582	114.44
306.812	114.44
307.042	128.44
307.272	166.44
307.502	176.44
307.731	171.44
307.961	124.44
308.191	103.44
308.421	102.44
308.651	99.44
308.881	91.44
309.111	105.44
309.341	108.44
309.571	95.44
309.8	127.44
310.03	107.44
310.26	110.44
310.49	94.44
310.72	104.44
310.949	109.44
311.179	120.44
311.409	92.44
311.639	118.44
311.868	95.44
312.098	86.44
312.328	94.44
312.557	100.44
312.787	127.44
313.017	103.44
313.246	98.44
313.476	90.44
313.706	80.44
313.935	99.44
314.165	113.44
314.394	112.44
314.624	106.44
314.853	102.44
315.083	91.44
315.312	95.44
315.542	97.44
315.771	103.44
316.001	93.44
316.23	96.44
316.46	100.44
316.689	108.44
316.919	91.44
317.148	103.44
317.377	94.44
317.607	97.44
317.836	103.44
318.065	88.44
318.295	108.44
318.524	101.44
318.753	92.44
318.983	103.44
319.212	102.44
319.441	108.44
319.67	120.44
319.9	92.44
320.129	101.44
320.358	84.44
320.587	110.44
320.816	112.44
321.046	107.44
321.275	100.44
321.504	112.44
321.733	103.44
321.962	99.44
322.191	92.44
322.42	111.44
322.649	132.44
322.878	142.44
323.108	134.44
323.337	151.44
323.566	156.44
323.795	181.44
324.024	268.44
324.253	510.44
324.482	1148.44
324.71	2431.44
324.939	3192.44
325.168	1147.44
325.397	323.44
325.626	175.44
325.855	140.44
326.084	129.44
326.313	167.44
326.542	180.44
326.77	288.44
326.999	569.44
327.228	1259.44
327.457	2334.44
327.686	1859.44
327.914	617.44
328.143	518.44
328.372	644.44
328.6	366.44
328.829	198.44
329.058	193.44
329.287	192.44
329.515	175.44
329.744	241.44
329.972	455.44
330.201	934.44
330.43	1396.44
330.658	626.44
330.887	301.44
331.115	203.44
331.344	124.44
331.572	123.44
331.801	129.44
332.03	142.44
332.258	118.44
332.486	117.44
332.715	111.44
332.943	113.44
333.172	123.44
333.4	126.44
333.629	168.44
333.857	227.44
334.085	411.44
334.314	846.44
334.542	1739.44
334.771	1646.44
334.999	435.44
335.227	168.44
335.455	134.44
335.684	119.44
335.912	111.44
336.14	100.44
336.369	100.44
336.597	94.44
336.825	107.44
337.053	88.44
337.281	80.44
337.51	106.44
337.738	113.44
337.966	103.44
338.194	118.44
338.422	111.44
338.65	94.44
338.878	103.44
339.106	98.44
339.334	92.44
339.562	89.44
339.79	100.44
340.018	96.44
340.246	100.44
340.474	94.44
340.702	89.44
340.93	103.44
341.158	98.44
341.386	102.44
341.614	102.44
341.842	109.44
342.07	101.44
342.298	90.44
342.526	93.44
342.754	95.44
342.981	84.44
343.209	83.44
343.437	102.44
343.665	95.44
343.893	90.44
344.12	97.44
344.348	104.44
344.576	106.44
344.804	115.44
345.031	97.44
345.259	98.44
345.487	112.44
345.714	97.44
345.942	105.44
346.17	114.44
346.397	103.44
346.625	103.44
346.853	103.44
347.08	93.44
347.308	106.44
347.535	111.44
347.763	99.44
347.99	119.44
348.218	117.44
348.445	135.44
348.673	110.44
348.9	98.44
349.128	102.44
349.355	96.44
349.583	91.44
349.81	98.44
350.037	108.44
350.265	107.44
350.492	90.44
350.72	97.44
350.947	98.44
351.174	120.44
351.402	108.44
351.629	114.44
351.856	106.44
352.083	131.44
352.311	109.44
352.538	124.44
352.765	134.44
352.992	144.44
353.22	122.44
353.447	105.44
353.674	108.44
353.901	100.44
354.128	100.44
354.355	99.44
354.583	98.44
354.81	102.44
355.037	104.44
355.264	82.44
355.491	108.44
355.718	88.44
355.945	102.44
356.172	100.44
356.399	99.44
356.626	82.44
356.853	105.44
357.08	97.44
357.307	102.44
357.534	89.44
357.761	89.44
357.988	90.44
358.215	96.44
358.441	112.44
358.668	105.44
358.895	99.44
359.122	89.44
359.349	92.44
359.576	105.44
359.802	122.44
360.029	146.44
360.256	149.44
360.483	116.44
360.709	95.44
360.936	109.44
361.163	111.44
361.39	115.44
361.616	115.44
361.843	101.44
362.07	98.44
362.296	96.44
362.523	107.44
362.749	100.44
362.976	105.44
363.203	92.44
363.429	91.44
363.656	107.44
363.882	89.44
364.109	97.44
364.335	92.44
364.562	107.44
364.788	99.44
365.015	97.44
365.241	102.44
365.468	105.44
365.694	125.44
365.92	104.44
366.147	94.44
366.373	100.44
366.599	108.44
366.826	100.44
367.052	105.44
367.278	103.44
367.505	81.44
367.731	102.44
367.957	93.44
368.184	96.44
368.41	110.44
368.636	117.44
368.862	142.44
369.089	122.44
369.315	93.44
369.541	102.44
369.767	104.44
369.993	98.44
370.219	88.44
370.445	95.44
370.672	92.44
370.898	92.44
371.124	100.44
371.35	75.44
371.576	77.44
371.802	85.44
372.028	87.44
372.254	88.44
372.48	82.44
372.706	81.44
372.932	95.44
373.158	79.44
373.384	100.44
373.61	89.44
373.835	90.44
374.061	97.44
374.287	90.44
374.513	99.44
374.739	85.44
374.965	84.44
375.191	107.44
375.416	86.44
375.642	100.44
375.868	107.44
376.094	111.44
376.319	113.44
376.545	92.44
376.771	76.44
376.997	90.44
377.222	99.44
377.448	96.44
377.674	88.44
377.899	95.44
378.125	100.44
378.35	97.44
378.576	105.44
378.802	94.44
379.027	88.44
379.253	93.44
379.478	100.44
379.704	97.44
379.929	104.44
380.155	99.44
380.38	106.44
380.606	98.44
380.831	104.44
381.057	99.44
381.282	86.44
381.507	100.44
381.733	102.44
381.958	99.44
382.184	112.44
382.409	106.44
382.634	110.44
382.86	102.44
383.085	101.44
383.31	105.44
383.535	106.44
383.761	99.44
383.986	106.44
384.211	121.44
384.436	99.44
384.662	96.44
384.887	113.44
385.112	126.44
385.337	114.44
385.562	137.44
385.787	120.44
386.013	143.44
386.238	140.44
386.463	120.44
386.688	107.44
386.913	114.44
387.138	123.44
387.363	113.44
387.588	112.44
387.813	102.44
388.038	113.44
388.263	142.44
388.488	123.44
388.713	94.44
388.938	97.44
389.163	100.44
389.387	104.44
389.612	99.44
389.837	104.44
390.062	71.44
390.287	108.44
390.512	99.44
390.736	78.44
390.961	86.44
391.186	75.44
391.411	111.44
391.636	87.44
391.86	99.44
392.085	93.44
392.31	88.44
392.534	90.44
392.759	85.44
392.984	99.44
393.208	86.44
393.433	97.44
393.658	78.44
393.882	78.44
394.107	94.44
394.331	93.44
394.556	88.44
394.78	94.44
395.005	97.44
395.229	98.44
395.454	79.44
395.678	82.44
395.903	92.44
396.127	86.44
396.352	97.44
396.576	86.44
396.801	83.44
397.025	96.44
397.249	79.44
397.474	86.44
397.698	94.44
397.922	92.44
398.147	88.44
398.371	89.44
398.595	96.44
398.82	92.44
399.044	78.44
399.268	88.44
399.492	87.44
399.717	90.44
399.941	99.44
400.165	101.44
400.389	98.44
400.613	95.44
400.837	81.44
401.062	102.44
401.286	97.44
401.51	94.44
401.734	107.44
401.958	131.44
402.182	163.44
402.406	188.44
402.63	137.44
402.854	127.44
403.078	92.44
403.302	90.44
403.526	105.44
403.75	91.44
403.974	89.44
404.198	91.44
404.422	99.44
404.645	100.44
404.869	96.44
405.093	102.44
405.317	154.44
405.541	139.44
405.765	104.44
405.988	155.44
406.212	239.44
406.436	328.44
406.66	214.44
406.883	120.44
407.107	110.44
407.331	115.44
407.555	114.44
407.778	122.44
408.002	105.44
408.226	91.44
408.449	88.44
408.673	98.44
408.896	107.44
409.12	100.44
409.344	105.44
409.567	87.44
409.791	92.44
410.014	104.44
410.238	86.44
410.461	98.44
410.685	83.44
410.908	93.44
411.132	106.44
411.355	105.44
411.578	109.44
411.802	89.44
412.025	82.44
412.249	86.44
412.472	120.44
412.695	125.44
412.919	111.44
413.142	95.44
413.365	103.44
413.589	97.44
413.812	79.44
414.035	92.44
414.258	115.44
414.482	92.44
414.705	95.44
414.928	94.44
415.151	91.44
415.374	93.44
415.597	99.44
415.821	95.44
416.044	98.44
416.267	83.44
416.49	89.44
416.713	95.44
416.936	100.44
417.159	90.44
417.382	98.44
417.605	108.44
417.828	117.44
418.051	103.44
418.274	100.44
418.497	87.44
418.72	67.44
418.943	92.44
419.166	83.44
419.389	91.44
419.611	95.44
419.834	98.44
420.057	90.44
420.28	108.44
420.503	83.44
420.726	88.44
420.948	94.44
421.171	109.44
421.394	95.44
421.617	72.44
421.839	98.44
422.062	81.44
422.285	89.44
422.507	103.44
422.73	112.44
422.953	102.44
423.175	97.44
423.398	99.44
423.621	99.44
423.843	97.44
424.066	87.44
424.288	90.44
424.511	100.44
424.733	115.44
424.956	117.44
425.178	122.44
425.401	118.44
425.623	136.44
425.846	113.44
426.068	99.44
426.291	91.44
426.513	97.44
426.735	86.44
426.958	96.44
427.18	110.44
427.402	186.44
427.625	256.44
427.847	233.44
428.069	221.44
428.292	119.44
428.514	108.44
428.736	92.44
428.958	98.44
429.181	87.44
429.403	87.44
429.625	88.44
429.847	98.44
430.069	120.44
430.292	98.44
430.514	89.44
430.736	97.44
430.958	78.44
431.18	81.44
431.402	88.44
431.624	84.44
431.846	87.44
432.068	81.44
432.29	87.44
432.512	90.44
432.734	86.44
432.956	108.44
433.178	100.44
433.4	94.44
433.622	92.44
433.844	99.44
434.066	90.44
434.287	87.44
434.509	96.44
434.731	89.44
434.953	100.44
435.175	89.44
435.397	96.44
435.618	100.44
435.84	126.44
436.062	142.44
436.284	153.44
436.505	121.44
436.727	116.44
436.949	101.44
437.17	94.44
437.392	106.44
437.614	105.44
437.835	116.44
438.057	138.44
438.278	105.44
438.5	125.44
438.721	149.44
438.943	98.44
439.165	85.44
439.386	87.44
439.608	93.44
439.829	121.44
440.05	150.44
440.272	192.44
440.493	110.44
440.715	105.44
440.936	91.44
441.158	98.44
441.379	100.44
441.6	101.44
441.822	114.44
442.043	92.44
442.264	113.44
442.486	125.44
442.707	103.44
442.928	140.44
443.149	173.44
443.371	167.44
443.592	126.44
443.813	135.44
444.034	115.44
444.255	102.44
444.476	90.44
444.698	87.44
444.919	87.44
445.14	144.44
445.361	129.44
445.582	130.44
445.803	207.44
446.024	192.44
446.245	178.44
446.466	135.44
446.687	93.44
446.908	96.44
447.129	82.44
447.35	85.44
447.571	98.44
447.792	108.44
448.013	108.44
448.234	118.44
448.455	121.44
448.675	126.44
448.896	151.44
449.117	108.44
449.338	110.44
449.559	166.44
449.779	164.44
450	118.44
450.221	94.44
450.442	92.44
450.662	109.44
450.883	134.44
451.104	134.44
451.324	108.44
451.545	93.44
451.766	87.44
451.986	87.44
452.207	87.44
452.428	105.44
452.648	102.44
452.869	125.44
453.089	123.44
453.31	132.44
453.53	97.44
453.751	102.44
453.971	126.44
454.192	141.44
454.412	106.44
454.633	100.44
454.853	100.44
455.073	95.44
455.294	108.44
455.514	114.44
455.734	93.44
455.955	83.44
456.175	81.44
456.395	80.44
456.616	97.44
456.836	88.44
457.056	75.44
457.276	83.44
457.497	98.44
457.717	84.44
457.937	84.44
458.157	99.44
458.377	89.44
458.598	134.44
458.818	211.44
459.038	247.44
459.258	163.44
459.478	101.44
459.698	86.44
459.918	92.44
460.138	95.44
460.358	96.44
460.578	93.44
460.798	104.44
461.018	94.44
461.238	95.44
461.458	98.44
461.678	87.44
461.898	83.44
462.118	87.44
462.338	89.44
462.558	81.44
462.777	100.44
462.997	107.44
463.217	117.44
463.437	104.44
463.657	90.44
463.876	96.44
464.096	99.44
464.316	91.44
464.536	104.44
464.755	99.44
464.975	115.44
465.195	228.44
465.414	230.44
465.634	109.44
465.854	95.44
466.073	102.44
466.293	89.44
466.512	74.44
466.732	87.44
466.951	96.44
467.171	106.44
467.391	105.44
467.61	143.44
467.829	201.44
468.049	537.44
468.268	802.44
468.488	217.44
468.707	105.44
468.927	102.44
469.146	80.44
469.365	75.44
469.585	96.44
469.804	127.44
470.023	119.44
470.243	101.44
470.462	116.44
470.681	124.44
470.901	111.44
471.12	106.44
471.339	108.44
471.558	135.44
471.777	157.44
471.997	300.44
472.216	1024.44
472.435	2409.44
472.654	574.44
472.873	166.44
473.092	112.44
473.311	92.44
473.53	104.44
473.749	95.44
473.968	107.44
474.187	119.44
474.406	111.44
474.625	82.44
474.844	70.44
475.063	87.44
475.282	92.44
475.501	99.44
475.72	99.44
475.939	90.44
476.158	89.44
476.377	94.44
476.596	89.44
476.814	110.44
477.033	97.44
477.252	85.44
477.471	91.44
477.69	107.44
477.908	90.44
478.127	90.44
478.346	88.44
478.564	96.44
478.783	109.44
479.002	119.44
479.22	111.44
479.439	125.44
479.658	133.44
479.876	118.44
480.095	112.44
480.313	125.44
480.532	153.44
480.751	282.44
480.969	952.44
481.188	4072.44
481.406	2399.44
481.624	348.44
481.843	137.44
482.061	126.44
482.28	105.44
482.498	96.44
482.717	95.44
482.935	103.44
483.153	99.44
483.372	88.44
483.59	83.44
483.808	86.44
484.027	90.44
484.245	95.44
484.463	100.44
484.681	100.44
484.9	90.44
485.118	108.44
485.336	103.44
485.554	105.44
485.772	87.44
485.99	107.44
486.209	109.44
486.427	106.44
486.645	106.44
486.863	139.44
487.081	109.44
487.299	108.44
487.517	91.44
487.735	89.44
487.953	106.44
488.171	99.44
488.389	91.44
488.607	110.44
488.825	99.44
489.043	80.44
489.261	82.44
489.479	96.44
489.696	89.44
489.914	99.44
490.132	92.44
490.35	99.44
490.568	84.44
490.786	83.44
491.003	84.44
491.221	90.44
491.439	89.44
491.657	86.44
491.874	84.44
492.092	92.44
492.31	89.44
492.527	91.44
492.745	109.44
492.963	88.44
493.18	87.44
493.398	96.44
493.615	102.44
493.833	94.44
494.05	88.44
494.268	95.44
494.485	91.44
494.703	95.44
494.92	90.44
495.138	83.44
495.355	83.44
495.573	89.44
495.79	91.44
496.008	101.44
496.225	82.44
496.442	102.44
496.66	93.44
496.877	101.44
497.094	96.44
497.312	93.44
497.529	91.44
497.746	86.44
497.963	93.44
498.181	107.44
498.398	109.44
498.615	123.44
498.832	103.44
499.049	94.44
499.267	98.44
499.484	89.44
499.701	83.44
499.918	87.44
500.135	95.44
500.352	90.44
500.569	90.44
500.786	94.44
501.003	80.44
501.22	96.44
501.437	92.44
501.654	108.44
501.871	137.44
502.088	100.44
502.305	81.44
502.522	95.44
502.739	87.44
502.956	73.44
503.172	114.44
503.389	108.44
503.606	132.44
503.823	100.44
504.04	90.44
504.256	87.44
504.473	97.44
504.69	88.44
504.907	97.44
505.123	101.44
505.34	106.44
505.557	89.44
505.773	93.44
505.99	82.44
506.207	104.44
506.423	93.44
506.64	105.44
506.856	87.44
507.073	93.44
507.289	91.44
507.506	98.44
507.722	137.44
507.939	148.44
508.155	112.44
508.372	98.44
508.588	86.44
508.805	113.44
509.021	101.44
509.238	105.44
509.454	110.44
509.67	110.44
509.887	128.44
510.103	132.44
510.319	258.44
510.536	911.44
510.752	3235.44
510.968	864.44
511.184	183.44
511.401	118.44
511.617	103.44
511.833	120.44
512.049	98.44
512.265	89.44
