Data from Circ_1995_H10_HRD10591_00079.txt Node
Date: Wed Jan 03 11:37:02 EST 2024
User: Yrep
Spectrometer: HR+D1059
Trigger mode: 1
Integration Time (sec): 1.000000E-1
Scans to average: 1
Electric dark correction enabled: true
Nonlinearity correction enabled: false
Boxcar width: 0
XAxis mode: Wavelengths
Number of Pixels in Spectrum: 2048
>>>>>Begin Spectral Data<<<<<
223.165	-25.06
223.4	-25.06
223.635	-25.06
223.869	-22.06
224.104	-18.06
224.338	-20.06
224.573	-5.06
224.808	-11.06
225.042	-16.06
225.277	-3.06
225.511	-4.06
225.746	0.94
225.98	24.94
226.215	14.94
226.449	11.94
226.683	23.94
226.918	19.94
227.152	27.94
227.387	36.94
227.621	32.94
227.856	37.94
228.09	46.94
228.324	53.94
228.559	48.94
228.793	64.94
229.027	62.94
229.262	82.94
229.496	85.94
229.73	108.94
229.964	95.94
230.199	87.94
230.433	77.94
230.667	91.94
230.901	59.94
231.136	72.94
231.37	73.94
231.604	91.94
231.838	83.94
232.072	86.94
232.306	78.94
232.541	86.94
232.775	67.94
233.009	86.94
233.243	79.94
233.477	83.94
233.711	84.94
233.945	74.94
234.179	77.94
234.413	79.94
234.647	75.94
234.881	79.94
235.115	76.94
235.349	76.94
235.583	75.94
235.817	85.94
236.051	74.94
236.285	74.94
236.519	89.94
236.753	90.94
236.987	84.94
237.221	90.94
237.455	110.94
237.689	87.94
237.922	87.94
238.156	81.94
238.39	88.94
238.624	82.94
238.858	83.94
239.091	83.94
239.325	75.94
239.559	81.94
239.793	66.94
240.027	74.94
240.26	65.94
240.494	78.94
240.728	86.94
240.961	81.94
241.195	77.94
241.429	87.94
241.662	81.94
241.896	81.94
242.13	68.94
242.363	92.94
242.597	79.94
242.83	76.94
243.064	78.94
243.298	83.94
243.531	88.94
243.765	83.94
243.998	79.94
244.232	92.94
244.465	97.94
244.699	77.94
244.932	89.94
245.166	71.94
245.399	88.94
245.633	79.94
245.866	72.94
246.099	78.94
246.333	84.94
246.566	63.94
246.8	70.94
247.033	92.94
247.266	76.94
247.5	73.94
247.733	84.94
247.966	66.94
248.2	81.94
248.433	78.94
248.666	96.94
248.899	84.94
249.133	83.94
249.366	103.94
249.599	114.94
249.832	80.94
250.066	94.94
250.299	84.94
250.532	92.94
250.765	99.94
250.998	91.94
251.231	70.94
251.465	88.94
251.698	99.94
251.931	90.94
252.164	86.94
252.397	75.94
252.63	82.94
252.863	82.94
253.096	80.94
253.329	91.94
253.562	75.94
253.795	86.94
254.028	74.94
254.261	75.94
254.494	78.94
254.727	91.94
254.96	79.94
255.193	83.94
255.426	92.94
255.659	82.94
255.892	96.94
256.124	103.94
256.357	94.94
256.59	92.94
256.823	87.94
257.056	110.94
257.289	102.94
257.521	83.94
257.754	92.94
257.987	87.94
258.22	97.94
258.452	107.94
258.685	116.94
258.918	101.94
259.151	91.94
259.383	92.94
259.616	99.94
259.849	87.94
260.081	89.94
260.314	82.94
260.547	104.94
260.779	101.94
261.012	115.94
261.244	139.94
261.477	120.94
261.71	106.94
261.942	135.94
262.175	166.94
262.407	102.94
262.64	90.94
262.872	83.94
263.105	92.94
263.337	104.94
263.57	79.94
263.802	95.94
264.035	83.94
264.267	84.94
264.499	88.94
264.732	81.94
264.964	68.94
265.197	80.94
265.429	88.94
265.661	90.94
265.894	88.94
266.126	77.94
266.358	87.94
266.591	83.94
266.823	91.94
267.055	94.94
267.287	88.94
267.52	86.94
267.752	84.94
267.984	93.94
268.216	87.94
268.448	95.94
268.681	90.94
268.913	94.94
269.145	93.94
269.377	93.94
269.609	93.94
269.841	90.94
270.073	93.94
270.306	93.94
270.538	84.94
270.77	99.94
271.002	84.94
271.234	94.94
271.466	110.94
271.698	87.94
271.93	89.94
272.162	86.94
272.394	105.94
272.626	97.94
272.858	99.94
273.09	98.94
273.322	99.94
273.553	94.94
273.785	90.94
274.017	88.94
274.249	98.94
274.481	87.94
274.713	91.94
274.945	98.94
275.176	106.94
275.408	104.94
275.64	118.94
275.872	135.94
276.104	119.94
276.335	121.94
276.567	136.94
276.799	171.94
277.031	229.94
277.262	264.94
277.494	200.94
277.726	121.94
277.957	80.94
278.189	92.94
278.421	86.94
278.652	92.94
278.884	108.94
279.115	91.94
279.347	114.94
279.579	97.94
279.81	155.94
280.042	251.94
280.273	382.94
280.505	230.94
280.736	127.94
280.968	96.94
281.199	98.94
281.431	91.94
281.662	91.94
281.894	78.94
282.125	119.94
282.356	147.94
282.588	187.94
282.819	155.94
283.051	100.94
283.282	88.94
283.513	97.94
283.745	93.94
283.976	80.94
284.207	69.94
284.439	99.94
284.67	87.94
284.901	84.94
285.132	108.94
285.364	94.94
285.595	82.94
285.826	91.94
286.057	90.94
286.288	91.94
286.52	88.94
286.751	88.94
286.982	90.94
287.213	81.94
287.444	95.94
287.675	87.94
287.906	87.94
288.138	107.94
288.369	98.94
288.6	94.94
288.831	95.94
289.062	98.94
289.293	97.94
289.524	91.94
289.755	86.94
289.986	88.94
290.217	98.94
290.448	99.94
290.679	94.94
290.91	90.94
291.141	91.94
291.371	105.94
291.602	98.94
291.833	72.94
292.064	75.94
292.295	91.94
292.526	91.94
292.757	93.94
292.987	75.94
293.218	88.94
293.449	92.94
293.68	95.94
293.91	90.94
294.141	82.94
294.372	86.94
294.603	87.94
294.833	91.94
295.064	86.94
295.295	88.94
295.525	93.94
295.756	99.94
295.987	123.94
296.217	186.94
296.448	152.94
296.679	111.94
296.909	104.94
297.14	88.94
297.37	81.94
297.601	94.94
297.831	106.94
298.062	78.94
298.292	100.94
298.523	93.94
298.753	80.94
298.984	99.94
299.214	98.94
299.445	89.94
299.675	98.94
299.905	104.94
300.136	81.94
300.366	99.94
300.597	88.94
300.827	95.94
301.057	99.94
301.288	113.94
301.518	112.94
301.748	106.94
301.979	110.94
302.209	114.94
302.439	101.94
302.669	86.94
302.9	92.94
303.13	108.94
303.36	113.94
303.59	159.94
303.82	182.94
304.051	102.94
304.281	95.94
304.511	115.94
304.741	94.94
304.971	82.94
305.201	79.94
305.431	99.94
305.661	103.94
305.891	95.94
306.121	103.94
306.352	94.94
306.582	129.94
306.812	113.94
307.042	136.94
307.272	191.94
307.502	243.94
307.731	205.94
307.961	153.94
308.191	103.94
308.421	88.94
308.651	100.94
308.881	90.94
309.111	99.94
309.341	105.94
309.571	105.94
309.8	92.94
310.03	116.94
310.26	107.94
310.49	90.94
310.72	104.94
310.949	135.94
311.179	127.94
311.409	95.94
311.639	104.94
311.868	110.94
312.098	100.94
312.328	104.94
312.557	125.94
312.787	125.94
313.017	142.94
313.246	115.94
313.476	89.94
313.706	100.94
313.935	106.94
314.165	118.94
314.394	123.94
314.624	106.94
314.853	105.94
315.083	103.94
315.312	104.94
315.542	100.94
315.771	96.94
316.001	99.94
316.23	87.94
316.46	98.94
316.689	84.94
316.919	84.94
317.148	103.94
317.377	108.94
317.607	98.94
317.836	92.94
318.065	103.94
318.295	90.94
318.524	99.94
318.753	102.94
318.983	100.94
319.212	112.94
319.441	112.94
319.67	105.94
319.9	100.94
320.129	103.94
320.358	96.94
320.587	104.94
320.816	109.94
321.046	104.94
321.275	101.94
321.504	90.94
321.733	107.94
321.962	105.94
322.191	115.94
322.42	128.94
322.649	135.94
322.878	130.94
323.108	131.94
323.337	156.94
323.566	169.94
323.795	208.94
324.024	270.94
324.253	543.94
324.482	1174.94
324.71	2402.94
324.939	3236.94
325.168	1158.94
325.397	322.94
325.626	176.94
325.855	160.94
326.084	146.94
326.313	159.94
326.542	198.94
326.77	315.94
326.999	602.94
327.228	1219.94
327.457	2310.94
327.686	1832.94
327.914	679.94
328.143	733.94
328.372	969.94
328.6	518.94
328.829	231.94
329.058	225.94
329.287	241.94
329.515	220.94
329.744	331.94
329.972	674.94
330.201	1461.94
330.43	2218.94
330.658	949.94
330.887	373.94
331.115	232.94
331.344	133.94
331.572	141.94
331.801	135.94
332.03	161.94
332.258	112.94
332.486	125.94
332.715	129.94
332.943	116.94
333.172	152.94
333.4	144.94
333.629	192.94
333.857	287.94
334.085	588.94
334.314	1330.94
334.542	2724.94
334.771	2550.94
334.999	611.94
335.227	223.94
335.455	136.94
335.684	118.94
335.912	102.94
336.14	113.94
336.369	128.94
336.597	119.94
336.825	122.94
337.053	99.94
337.281	100.94
337.51	85.94
337.738	94.94
337.966	119.94
338.194	112.94
338.422	107.94
338.65	95.94
338.878	107.94
339.106	102.94
339.334	98.94
339.562	117.94
339.79	102.94
340.018	92.94
340.246	97.94
340.474	87.94
340.702	88.94
340.93	89.94
341.158	99.94
341.386	104.94
341.614	106.94
341.842	91.94
342.07	86.94
342.298	102.94
342.526	99.94
342.754	110.94
342.981	87.94
343.209	83.94
343.437	91.94
343.665	79.94
343.893	95.94
344.12	78.94
344.348	99.94
344.576	108.94
344.804	97.94
345.031	98.94
345.259	120.94
345.487	107.94
345.714	107.94
345.942	104.94
346.17	86.94
346.397	87.94
346.625	98.94
346.853	101.94
347.08	102.94
347.308	117.94
347.535	102.94
347.763	116.94
347.99	99.94
348.218	115.94
348.445	135.94
348.673	111.94
348.9	107.94
349.128	106.94
349.355	88.94
349.583	95.94
349.81	107.94
350.037	106.94
350.265	106.94
350.492	97.94
350.72	115.94
350.947	105.94
351.174	119.94
351.402	142.94
351.629	130.94
351.856	111.94
352.083	106.94
352.311	123.94
352.538	136.94
352.765	133.94
352.992	125.94
353.22	123.94
353.447	107.94
353.674	122.94
353.901	90.94
354.128	100.94
354.355	103.94
354.583	96.94
354.81	94.94
355.037	88.94
355.264	101.94
355.491	90.94
355.718	96.94
355.945	94.94
356.172	105.94
356.399	97.94
356.626	87.94
356.853	82.94
357.08	103.94
357.307	110.94
357.534	93.94
357.761	98.94
357.988	89.94
358.215	110.94
358.441	95.94
358.668	92.94
358.895	95.94
359.122	93.94
359.349	97.94
359.576	88.94
359.802	125.94
360.029	154.94
360.256	158.94
360.483	120.94
360.709	102.94
360.936	104.94
361.163	108.94
361.39	107.94
361.616	114.94
361.843	84.94
362.07	95.94
362.296	98.94
362.523	94.94
362.749	104.94
362.976	91.94
363.203	87.94
363.429	100.94
363.656	108.94
363.882	91.94
364.109	92.94
364.335	84.94
364.562	83.94
364.788	92.94
365.015	102.94
365.241	125.94
365.468	136.94
365.694	119.94
365.92	112.94
366.147	106.94
366.373	91.94
366.599	91.94
366.826	78.94
367.052	83.94
367.278	100.94
367.505	105.94
367.731	98.94
367.957	88.94
368.184	113.94
368.41	123.94
368.636	136.94
368.862	128.94
369.089	140.94
369.315	123.94
369.541	100.94
369.767	83.94
369.993	100.94
370.219	98.94
370.445	90.94
370.672	92.94
370.898	82.94
371.124	90.94
371.35	106.94
371.576	80.94
371.802	74.94
372.028	98.94
372.254	74.94
372.48	79.94
372.706	92.94
372.932	86.94
373.158	89.94
373.384	82.94
373.61	82.94
373.835	84.94
374.061	92.94
374.287	98.94
374.513	98.94
374.739	97.94
374.965	86.94
375.191	72.94
375.416	95.94
375.642	90.94
375.868	90.94
376.094	83.94
376.319	83.94
376.545	69.94
376.771	83.94
376.997	82.94
377.222	101.94
377.448	97.94
377.674	81.94
377.899	63.94
378.125	92.94
378.35	84.94
378.576	88.94
378.802	100.94
379.027	76.94
379.253	97.94
379.478	103.94
379.704	85.94
379.929	93.94
380.155	104.94
380.38	96.94
380.606	88.94
380.831	97.94
381.057	95.94
381.282	87.94
381.507	94.94
381.733	97.94
381.958	92.94
382.184	93.94
382.409	98.94
382.634	113.94
382.86	97.94
383.085	102.94
383.31	94.94
383.535	109.94
383.761	106.94
383.986	91.94
384.211	91.94
384.436	91.94
384.662	94.94
384.887	96.94
385.112	93.94
385.337	101.94
385.562	113.94
385.787	106.94
386.013	117.94
386.238	126.94
386.463	117.94
386.688	104.94
386.913	106.94
387.138	115.94
387.363	106.94
387.588	89.94
387.813	103.94
388.038	112.94
388.263	102.94
388.488	104.94
388.713	81.94
388.938	91.94
389.163	94.94
389.387	86.94
389.612	99.94
389.837	92.94
390.062	92.94
390.287	82.94
390.512	93.94
390.736	100.94
390.961	78.94
391.186	104.94
391.411	95.94
391.636	75.94
391.86	88.94
392.085	92.94
392.31	87.94
392.534	87.94
392.759	90.94
392.984	99.94
393.208	92.94
393.433	84.94
393.658	84.94
393.882	77.94
394.107	91.94
394.331	86.94
394.556	91.94
394.78	110.94
395.005	99.94
395.229	81.94
395.454	94.94
395.678	82.94
395.903	72.94
396.127	97.94
396.352	77.94
396.576	92.94
396.801	92.94
397.025	85.94
397.249	88.94
397.474	98.94
397.698	94.94
397.922	86.94
398.147	90.94
398.371	83.94
398.595	74.94
398.82	86.94
399.044	92.94
399.268	99.94
399.492	86.94
399.717	87.94
399.941	88.94
400.165	89.94
400.389	99.94
400.613	93.94
400.837	97.94
401.062	92.94
401.286	105.94
401.51	102.94
401.734	94.94
401.958	107.94
402.182	154.94
402.406	218.94
402.63	159.94
402.854	119.94
403.078	90.94
403.302	95.94
403.526	79.94
403.75	83.94
403.974	89.94
404.198	107.94
404.422	91.94
404.645	85.94
404.869	119.94
405.093	131.94
405.317	162.94
405.541	167.94
405.765	118.94
405.988	150.94
406.212	224.94
406.436	347.94
406.66	231.94
406.883	150.94
407.107	106.94
407.331	98.94
407.555	123.94
407.778	115.94
408.002	101.94
408.226	97.94
408.449	94.94
408.673	96.94
408.896	94.94
409.12	102.94
409.344	93.94
409.567	79.94
409.791	99.94
410.014	100.94
410.238	107.94
410.461	101.94
410.685	98.94
410.908	88.94
411.132	110.94
411.355	106.94
411.578	100.94
411.802	111.94
412.025	84.94
412.249	103.94
412.472	119.94
412.695	153.94
412.919	113.94
413.142	107.94
413.365	90.94
413.589	103.94
413.812	84.94
414.035	107.94
414.258	107.94
414.482	82.94
414.705	88.94
414.928	79.94
415.151	84.94
415.374	100.94
415.597	92.94
415.821	83.94
416.044	90.94
416.267	80.94
416.49	91.94
416.713	98.94
416.936	86.94
417.159	109.94
417.382	98.94
417.605	123.94
417.828	127.94
418.051	118.94
418.274	93.94
418.497	100.94
418.72	97.94
418.943	99.94
419.166	88.94
419.389	91.94
419.611	84.94
419.834	94.94
420.057	90.94
420.28	106.94
420.503	103.94
420.726	86.94
420.948	97.94
421.171	110.94
421.394	120.94
421.617	84.94
421.839	90.94
422.062	82.94
422.285	82.94
422.507	105.94
422.73	115.94
422.953	94.94
423.175	107.94
423.398	86.94
423.621	83.94
423.843	83.94
424.066	96.94
424.288	99.94
424.511	102.94
424.733	115.94
424.956	122.94
425.178	115.94
425.401	115.94
425.623	101.94
425.846	100.94
426.068	111.94
426.291	108.94
426.513	104.94
426.735	97.94
426.958	102.94
427.18	115.94
427.402	195.94
427.625	300.94
427.847	283.94
428.069	258.94
428.292	137.94
428.514	119.94
428.736	101.94
428.958	87.94
429.181	98.94
429.403	94.94
429.625	93.94
429.847	103.94
430.069	118.94
430.292	105.94
430.514	82.94
430.736	79.94
430.958	93.94
431.18	83.94
431.402	100.94
431.624	77.94
431.846	99.94
432.068	100.94
432.29	86.94
432.512	92.94
432.734	96.94
432.956	89.94
433.178	111.94
433.4	102.94
433.622	84.94
433.844	90.94
434.066	103.94
434.287	104.94
434.509	92.94
434.731	83.94
434.953	92.94
435.175	90.94
435.397	89.94
435.618	88.94
435.84	111.94
436.062	134.94
436.284	141.94
436.505	114.94
436.727	99.94
436.949	95.94
437.17	93.94
437.392	87.94
437.614	105.94
437.835	116.94
438.057	155.94
438.278	140.94
438.5	134.94
438.721	149.94
438.943	115.94
439.165	95.94
439.386	87.94
439.608	98.94
439.829	126.94
440.05	164.94
440.272	206.94
440.493	118.94
440.715	86.94
440.936	87.94
441.158	104.94
441.379	83.94
441.6	107.94
441.822	107.94
442.043	108.94
442.264	127.94
442.486	112.94
442.707	115.94
442.928	155.94
443.149	176.94
443.371	196.94
443.592	135.94
443.813	156.94
444.034	126.94
444.255	98.94
444.476	83.94
444.698	88.94
444.919	78.94
445.14	124.94
445.361	136.94
445.582	148.94
445.803	191.94
446.024	188.94
446.245	183.94
446.466	118.94
446.687	98.94
446.908	100.94
447.129	97.94
447.35	86.94
447.571	112.94
447.792	108.94
448.013	116.94
448.234	134.94
448.455	125.94
448.675	136.94
448.896	142.94
449.117	114.94
449.338	112.94
449.559	173.94
449.779	155.94
450	96.94
450.221	76.94
450.442	89.94
450.662	111.94
450.883	144.94
451.104	164.94
451.324	103.94
451.545	94.94
451.766	82.94
451.986	85.94
452.207	97.94
452.428	118.94
452.648	113.94
452.869	142.94
453.089	156.94
453.31	162.94
453.53	107.94
453.751	107.94
453.971	120.94
454.192	142.94
454.412	122.94
454.633	104.94
454.853	95.94
455.073	92.94
455.294	96.94
455.514	104.94
455.734	96.94
455.955	88.94
456.175	96.94
456.395	86.94
456.616	99.94
456.836	94.94
457.056	91.94
457.276	85.94
457.497	81.94
457.717	93.94
457.937	74.94
458.157	94.94
458.377	110.94
458.598	156.94
458.818	246.94
459.038	278.94
459.258	162.94
459.478	101.94
459.698	88.94
459.918	115.94
460.138	95.94
460.358	94.94
460.578	88.94
460.798	81.94
461.018	107.94
461.238	98.94
461.458	82.94
461.678	95.94
461.898	90.94
462.118	79.94
462.338	91.94
462.558	96.94
462.777	81.94
462.997	94.94
463.217	107.94
463.437	95.94
463.657	86.94
463.876	108.94
464.096	99.94
464.316	115.94
464.536	95.94
464.755	100.94
464.975	144.94
465.195	294.94
465.414	283.94
465.634	124.94
465.854	94.94
466.073	95.94
466.293	104.94
466.512	81.94
466.732	90.94
466.951	96.94
467.171	112.94
467.391	117.94
467.61	171.94
467.829	281.94
468.049	829.94
468.268	1305.94
468.488	306.94
468.707	129.94
468.927	107.94
469.146	93.94
469.365	103.94
469.585	104.94
469.804	113.94
470.023	114.94
470.243	107.94
470.462	141.94
470.681	151.94
470.901	135.94
471.12	106.94
471.339	112.94
471.558	151.94
471.777	178.94
471.997	401.94
472.216	1584.94
472.435	3827.94
472.654	828.94
472.873	204.94
473.092	110.94
473.311	92.94
473.53	98.94
473.749	90.94
473.968	114.94
474.187	137.94
474.406	127.94
474.625	100.94
474.844	89.94
475.063	109.94
475.282	90.94
475.501	90.94
475.72	97.94
475.939	89.94
476.158	93.94
476.377	98.94
476.596	100.94
476.814	108.94
477.033	118.94
477.252	90.94
477.471	87.94
477.69	95.94
477.908	110.94
478.127	96.94
478.346	108.94
478.564	107.94
478.783	119.94
479.002	103.94
479.22	119.94
479.439	145.94
479.658	164.94
479.876	148.94
480.095	145.94
480.313	161.94
480.532	177.94
480.751	370.94
480.969	1408.94
481.188	6309.94
481.406	3576.94
481.624	476.94
481.843	174.94
482.061	141.94
482.28	97.94
482.498	106.94
482.717	84.94
482.935	91.94
483.153	88.94
483.372	84.94
483.59	82.94
483.808	99.94
484.027	88.94
484.245	96.94
484.463	103.94
484.681	89.94
484.9	97.94
485.118	99.94
485.336	103.94
485.554	93.94
485.772	118.94
485.99	98.94
486.209	109.94
486.427	100.94
486.645	116.94
486.863	144.94
487.081	111.94
487.299	104.94
487.517	114.94
487.735	98.94
487.953	103.94
488.171	97.94
488.389	101.94
488.607	104.94
488.825	95.94
489.043	96.94
489.261	102.94
489.479	98.94
489.696	94.94
489.914	89.94
490.132	85.94
490.35	104.94
490.568	77.94
490.786	89.94
491.003	98.94
491.221	108.94
491.439	93.94
491.657	102.94
491.874	104.94
492.092	93.94
492.31	104.94
492.527	93.94
492.745	93.94
492.963	102.94
493.18	78.94
493.398	79.94
493.615	96.94
493.833	104.94
494.05	96.94
494.268	100.94
494.485	108.94
494.703	81.94
494.92	87.94
495.138	109.94
495.355	88.94
495.573	105.94
495.79	91.94
496.008	112.94
496.225	106.94
496.442	94.94
496.66	94.94
496.877	97.94
497.094	95.94
497.312	97.94
497.529	94.94
497.746	96.94
497.963	74.94
498.181	103.94
498.398	96.94
498.615	114.94
498.832	111.94
499.049	95.94
499.267	81.94
499.484	96.94
499.701	97.94
499.918	91.94
500.135	87.94
500.352	91.94
500.569	99.94
500.786	96.94
501.003	104.94
501.22	108.94
501.437	95.94
501.654	107.94
501.871	141.94
502.088	104.94
502.305	99.94
502.522	84.94
502.739	79.94
502.956	99.94
503.172	83.94
503.389	107.94
503.606	145.94
503.823	118.94
504.04	96.94
504.256	95.94
504.473	82.94
504.69	88.94
504.907	94.94
505.123	91.94
505.34	101.94
505.557	93.94
505.773	100.94
505.99	95.94
506.207	107.94
506.423	91.94
506.64	92.94
506.856	101.94
507.073	94.94
507.289	92.94
507.506	122.94
507.722	147.94
507.939	123.94
508.155	106.94
508.372	104.94
508.588	99.94
508.805	99.94
509.021	96.94
509.238	105.94
509.454	100.94
509.67	96.94
509.887	120.94
510.103	142.94
510.319	250.94
510.536	964.94
510.752	3502.94
510.968	929.94
511.184	194.94
511.401	152.94
511.617	118.94
511.833	126.94
