Data from Circ_1995_H10_HRD10591_00090.txt Node
Date: Wed Jan 03 11:37:04 EST 2024
User: Yrep
Spectrometer: HR+D1059
Trigger mode: 1
Integration Time (sec): 1.000000E-1
Scans to average: 1
Electric dark correction enabled: true
Nonlinearity correction enabled: false
Boxcar width: 0
XAxis mode: Wavelengths
Number of Pixels in Spectrum: 2048
>>>>>Begin Spectral Data<<<<<
223.165	-23.88
223.4	-23.88
223.635	-23.88
223.869	-24.88
224.104	-27.88
224.338	-7.88
224.573	-7.88
224.808	-6.88
225.042	-14.88
225.277	3.12
225.511	1.12
225.746	14.12
225.98	20.12
226.215	1.12
226.449	3.12
226.683	24.12
226.918	21.12
227.152	26.12
227.387	32.12
227.621	42.12
227.856	44.12
228.09	53.12
228.324	48.12
228.559	60.12
228.793	67.12
229.027	60.12
229.262	74.12
229.496	87.12
229.73	110.12
229.964	101.12
230.199	86.12
230.433	64.12
230.667	91.12
230.901	78.12
231.136	72.12
231.37	76.12
231.604	79.12
231.838	80.12
232.072	82.12
232.306	85.12
232.541	84.12
232.775	82.12
233.009	90.12
233.243	85.12
233.477	86.12
233.711	92.12
233.945	86.12
234.179	86.12
234.413	78.12
234.647	75.12
234.881	82.12
235.115	70.12
235.349	84.12
235.583	76.12
235.817	93.12
236.051	81.12
236.285	75.12
236.519	88.12
236.753	90.12
236.987	82.12
237.221	101.12
237.455	98.12
237.689	93.12
237.922	80.12
238.156	85.12
238.39	69.12
238.624	74.12
238.858	70.12
239.091	78.12
239.325	88.12
239.559	91.12
239.793	114.12
240.027	76.12
240.26	88.12
240.494	73.12
240.728	85.12
240.961	82.12
241.195	81.12
241.429	70.12
241.662	81.12
241.896	83.12
242.13	90.12
242.363	85.12
242.597	84.12
242.83	81.12
243.064	77.12
243.298	85.12
243.531	78.12
243.765	78.12
243.998	89.12
244.232	84.12
244.465	95.12
244.699	85.12
244.932	80.12
245.166	74.12
245.399	80.12
245.633	82.12
245.866	83.12
246.099	78.12
246.333	89.12
246.566	90.12
246.8	89.12
247.033	83.12
247.266	91.12
247.5	85.12
247.733	73.12
247.966	86.12
248.2	84.12
248.433	89.12
248.666	92.12
248.899	89.12
249.133	94.12
249.366	116.12
249.599	119.12
249.832	106.12
250.066	95.12
250.299	89.12
250.532	72.12
250.765	89.12
250.998	81.12
251.231	80.12
251.465	90.12
251.698	78.12
251.931	93.12
252.164	92.12
252.397	84.12
252.63	81.12
252.863	92.12
253.096	84.12
253.329	91.12
253.562	86.12
253.795	82.12
254.028	93.12
254.261	88.12
254.494	83.12
254.727	80.12
254.96	79.12
255.193	88.12
255.426	98.12
255.659	103.12
255.892	105.12
256.124	123.12
256.357	106.12
256.59	83.12
256.823	86.12
257.056	84.12
257.289	107.12
257.521	90.12
257.754	98.12
257.987	89.12
258.22	101.12
258.452	109.12
258.685	109.12
258.918	84.12
259.151	93.12
259.383	80.12
259.616	88.12
259.849	74.12
260.081	89.12
260.314	98.12
260.547	84.12
260.779	117.12
261.012	135.12
261.244	127.12
261.477	110.12
261.71	109.12
261.942	147.12
262.175	172.12
262.407	119.12
262.64	86.12
262.872	81.12
263.105	87.12
263.337	90.12
263.57	88.12
263.802	89.12
264.035	86.12
264.267	94.12
264.499	87.12
264.732	90.12
264.964	99.12
265.197	90.12
265.429	83.12
265.661	83.12
265.894	92.12
266.126	89.12
266.358	78.12
266.591	84.12
266.823	76.12
267.055	90.12
267.287	99.12
267.52	91.12
267.752	97.12
267.984	101.12
268.216	96.12
268.448	92.12
268.681	82.12
268.913	79.12
269.145	86.12
269.377	86.12
269.609	93.12
269.841	93.12
270.073	87.12
270.306	79.12
270.538	83.12
270.77	85.12
271.002	100.12
271.234	102.12
271.466	98.12
271.698	89.12
271.93	102.12
272.162	95.12
272.394	99.12
272.626	104.12
272.858	92.12
273.09	85.12
273.322	96.12
273.553	100.12
273.785	88.12
274.017	84.12
274.249	105.12
274.481	77.12
274.713	91.12
274.945	93.12
275.176	100.12
275.408	122.12
275.64	126.12
275.872	177.12
276.104	123.12
276.335	108.12
276.567	153.12
276.799	170.12
277.031	224.12
277.262	294.12
277.494	227.12
277.726	109.12
277.957	107.12
278.189	104.12
278.421	108.12
278.652	98.12
278.884	106.12
279.115	90.12
279.347	111.12
279.579	120.12
279.81	182.12
280.042	291.12
280.273	429.12
280.505	274.12
280.736	132.12
280.968	100.12
281.199	109.12
281.431	93.12
281.662	106.12
281.894	110.12
282.125	114.12
282.356	165.12
282.588	204.12
282.819	152.12
283.051	105.12
283.282	86.12
283.513	101.12
283.745	84.12
283.976	100.12
284.207	93.12
284.439	109.12
284.67	94.12
284.901	93.12
285.132	87.12
285.364	100.12
285.595	98.12
285.826	97.12
286.057	98.12
286.288	105.12
286.52	108.12
286.751	86.12
286.982	79.12
287.213	90.12
287.444	98.12
287.675	89.12
287.906	99.12
288.138	81.12
288.369	98.12
288.6	104.12
288.831	102.12
289.062	82.12
289.293	90.12
289.524	97.12
289.755	85.12
289.986	82.12
290.217	94.12
290.448	90.12
290.679	85.12
290.91	86.12
291.141	98.12
291.371	93.12
291.602	84.12
291.833	82.12
292.064	100.12
292.295	99.12
292.526	106.12
292.757	82.12
292.987	102.12
293.218	91.12
293.449	96.12
293.68	89.12
293.91	102.12
294.141	99.12
294.372	113.12
294.603	89.12
294.833	96.12
295.064	98.12
295.295	100.12
295.525	94.12
295.756	117.12
295.987	148.12
296.217	191.12
296.448	150.12
296.679	99.12
296.909	96.12
297.14	90.12
297.37	93.12
297.601	99.12
297.831	93.12
298.062	104.12
298.292	100.12
298.523	91.12
298.753	88.12
298.984	82.12
299.214	102.12
299.445	100.12
299.675	105.12
299.905	117.12
300.136	98.12
300.366	87.12
300.597	109.12
300.827	108.12
301.057	116.12
301.288	110.12
301.518	111.12
301.748	106.12
301.979	133.12
302.209	102.12
302.439	89.12
302.669	96.12
302.9	98.12
303.13	116.12
303.36	130.12
303.59	167.12
303.82	183.12
304.051	116.12
304.281	108.12
304.511	99.12
304.741	88.12
304.971	95.12
305.201	105.12
305.431	78.12
305.661	87.12
305.891	106.12
306.121	103.12
306.352	120.12
306.582	133.12
306.812	124.12
307.042	156.12
307.272	216.12
307.502	250.12
307.731	224.12
307.961	160.12
308.191	108.12
308.421	117.12
308.651	93.12
308.881	102.12
309.111	98.12
309.341	94.12
309.571	108.12
309.8	117.12
310.03	108.12
310.26	118.12
310.49	101.12
310.72	118.12
310.949	136.12
311.179	125.12
311.409	105.12
311.639	121.12
311.868	106.12
312.098	113.12
312.328	115.12
312.557	120.12
312.787	120.12
313.017	133.12
313.246	92.12
313.476	90.12
313.706	94.12
313.935	117.12
314.165	130.12
314.394	125.12
314.624	116.12
314.853	112.12
315.083	105.12
315.312	102.12
315.542	100.12
315.771	99.12
316.001	98.12
316.23	95.12
316.46	107.12
316.689	106.12
316.919	115.12
317.148	101.12
317.377	116.12
317.607	108.12
317.836	108.12
318.065	96.12
318.295	109.12
318.524	95.12
318.753	95.12
318.983	109.12
319.212	110.12
319.441	137.12
319.67	128.12
319.9	98.12
320.129	100.12
320.358	106.12
320.587	106.12
320.816	112.12
321.046	120.12
321.275	104.12
321.504	95.12
321.733	105.12
321.962	117.12
322.191	123.12
322.42	124.12
322.649	136.12
322.878	147.12
323.108	158.12
323.337	167.12
323.566	190.12
323.795	231.12
324.024	324.12
324.253	671.12
324.482	1529.12
324.71	3180.12
324.939	4238.12
325.168	1470.12
325.397	381.12
325.626	219.12
325.855	178.12
326.084	168.12
326.313	177.12
326.542	207.12
326.77	370.12
326.999	736.12
327.228	1589.12
327.457	3028.12
327.686	2392.12
327.914	829.12
328.143	857.12
328.372	1168.12
328.6	621.12
328.829	276.12
329.058	255.12
329.287	268.12
329.515	272.12
329.744	402.12
329.972	829.12
330.201	1826.12
330.43	2673.12
330.658	1108.12
330.887	426.12
331.115	258.12
331.344	166.12
331.572	152.12
331.801	158.12
332.03	152.12
332.258	132.12
332.486	139.12
332.715	125.12
332.943	127.12
333.172	142.12
333.4	162.12
333.629	208.12
333.857	324.12
334.085	716.12
334.314	1610.12
334.542	3357.12
334.771	3056.12
334.999	716.12
335.227	264.12
335.455	177.12
335.684	138.12
335.912	126.12
336.14	121.12
336.369	138.12
336.597	138.12
336.825	151.12
337.053	101.12
337.281	106.12
337.51	98.12
337.738	103.12
337.966	113.12
338.194	102.12
338.422	104.12
338.65	104.12
338.878	111.12
339.106	96.12
339.334	112.12
339.562	94.12
339.79	107.12
340.018	108.12
340.246	123.12
340.474	120.12
340.702	110.12
340.93	118.12
341.158	105.12
341.386	107.12
341.614	110.12
341.842	100.12
342.07	100.12
342.298	99.12
342.526	100.12
342.754	89.12
342.981	101.12
343.209	87.12
343.437	100.12
343.665	96.12
343.893	93.12
344.12	105.12
344.348	94.12
344.576	97.12
344.804	109.12
345.031	106.12
345.259	128.12
345.487	108.12
345.714	101.12
345.942	116.12
346.17	82.12
346.397	93.12
346.625	91.12
346.853	109.12
347.08	76.12
347.308	108.12
347.535	107.12
347.763	113.12
347.99	126.12
348.218	101.12
348.445	143.12
348.673	127.12
348.9	104.12
349.128	99.12
349.355	98.12
349.583	87.12
349.81	106.12
350.037	107.12
350.265	104.12
350.492	106.12
350.72	115.12
350.947	139.12
351.174	123.12
351.402	128.12
351.629	117.12
351.856	123.12
352.083	126.12
352.311	133.12
352.538	139.12
352.765	124.12
352.992	149.12
353.22	126.12
353.447	119.12
353.674	116.12
353.901	109.12
354.128	88.12
354.355	97.12
354.583	108.12
354.81	102.12
355.037	102.12
355.264	101.12
355.491	89.12
355.718	106.12
355.945	89.12
356.172	94.12
356.399	90.12
356.626	100.12
356.853	77.12
357.08	96.12
357.307	84.12
357.534	110.12
357.761	86.12
357.988	100.12
358.215	109.12
358.441	93.12
358.668	93.12
358.895	100.12
359.122	86.12
359.349	96.12
359.576	114.12
359.802	126.12
360.029	176.12
360.256	165.12
360.483	131.12
360.709	104.12
360.936	97.12
361.163	92.12
361.39	117.12
361.616	103.12
361.843	93.12
362.07	120.12
362.296	100.12
362.523	102.12
362.749	114.12
362.976	102.12
363.203	85.12
363.429	97.12
363.656	96.12
363.882	103.12
364.109	88.12
364.335	92.12
364.562	109.12
364.788	102.12
365.015	120.12
365.241	125.12
365.468	124.12
365.694	140.12
365.92	117.12
366.147	121.12
366.373	108.12
366.599	91.12
366.826	104.12
367.052	92.12
367.278	108.12
367.505	110.12
367.731	105.12
367.957	110.12
368.184	112.12
368.41	116.12
368.636	133.12
368.862	144.12
369.089	132.12
369.315	104.12
369.541	103.12
369.767	102.12
369.993	124.12
370.219	115.12
370.445	89.12
370.672	97.12
370.898	94.12
371.124	86.12
371.35	82.12
371.576	100.12
371.802	92.12
372.028	85.12
372.254	86.12
372.48	99.12
372.706	99.12
372.932	93.12
373.158	85.12
373.384	88.12
373.61	98.12
373.835	92.12
374.061	93.12
374.287	108.12
374.513	111.12
374.739	102.12
374.965	95.12
375.191	97.12
375.416	92.12
375.642	94.12
375.868	97.12
376.094	95.12
376.319	92.12
376.545	87.12
376.771	99.12
376.997	101.12
377.222	100.12
377.448	95.12
377.674	72.12
377.899	82.12
378.125	86.12
378.35	96.12
378.576	91.12
378.802	83.12
379.027	99.12
379.253	89.12
379.478	92.12
379.704	92.12
379.929	91.12
380.155	93.12
380.38	93.12
380.606	104.12
380.831	92.12
381.057	106.12
381.282	88.12
381.507	99.12
381.733	108.12
381.958	108.12
382.184	101.12
382.409	92.12
382.634	99.12
382.86	94.12
383.085	110.12
383.31	92.12
383.535	111.12
383.761	100.12
383.986	97.12
384.211	97.12
384.436	112.12
384.662	98.12
384.887	102.12
385.112	106.12
385.337	89.12
385.562	102.12
385.787	108.12
386.013	128.12
386.238	132.12
386.463	106.12
386.688	115.12
386.913	99.12
387.138	92.12
387.363	105.12
387.588	106.12
387.813	109.12
388.038	107.12
388.263	107.12
388.488	98.12
388.713	102.12
388.938	106.12
389.163	99.12
389.387	106.12
389.612	101.12
389.837	88.12
390.062	88.12
390.287	99.12
390.512	104.12
390.736	88.12
390.961	99.12
391.186	93.12
391.411	99.12
391.636	88.12
391.86	83.12
392.085	97.12
392.31	97.12
392.534	80.12
392.759	98.12
392.984	103.12
393.208	87.12
393.433	96.12
393.658	99.12
393.882	90.12
394.107	96.12
394.331	100.12
394.556	90.12
394.78	86.12
395.005	93.12
395.229	98.12
395.454	100.12
395.678	93.12
395.903	89.12
396.127	95.12
396.352	103.12
396.576	80.12
396.801	88.12
397.025	70.12
397.249	80.12
397.474	96.12
397.698	97.12
397.922	86.12
398.147	85.12
398.371	88.12
398.595	79.12
398.82	94.12
399.044	93.12
399.268	108.12
399.492	88.12
399.717	105.12
399.941	94.12
400.165	106.12
400.389	112.12
400.613	93.12
400.837	100.12
401.062	84.12
401.286	88.12
401.51	93.12
401.734	112.12
401.958	114.12
402.182	171.12
402.406	223.12
402.63	186.12
402.854	114.12
403.078	100.12
403.302	98.12
403.526	94.12
403.75	87.12
403.974	86.12
404.198	100.12
404.422	90.12
404.645	106.12
404.869	114.12
405.093	150.12
405.317	174.12
405.541	160.12
405.765	141.12
405.988	176.12
406.212	249.12
406.436	387.12
406.66	262.12
406.883	148.12
407.107	109.12
407.331	109.12
407.555	115.12
407.778	118.12
408.002	91.12
408.226	95.12
408.449	88.12
408.673	95.12
408.896	105.12
409.12	96.12
409.344	92.12
409.567	103.12
409.791	95.12
410.014	105.12
410.238	88.12
410.461	101.12
410.685	89.12
410.908	91.12
411.132	105.12
411.355	113.12
411.578	94.12
411.802	82.12
412.025	107.12
412.249	110.12
412.472	129.12
412.695	179.12
412.919	129.12
413.142	102.12
413.365	89.12
413.589	92.12
413.812	100.12
414.035	94.12
414.258	100.12
414.482	86.12
414.705	91.12
414.928	77.12
415.151	91.12
415.374	86.12
415.597	116.12
415.821	98.12
416.044	105.12
416.267	100.12
416.49	93.12
416.713	101.12
416.936	96.12
417.159	107.12
417.382	107.12
417.605	135.12
417.828	144.12
418.051	102.12
418.274	101.12
418.497	68.12
418.72	100.12
418.943	84.12
419.166	94.12
419.389	84.12
419.611	103.12
419.834	88.12
420.057	92.12
420.28	105.12
420.503	118.12
420.726	91.12
420.948	86.12
421.171	115.12
421.394	110.12
421.617	102.12
421.839	93.12
422.062	95.12
422.285	97.12
422.507	92.12
422.73	110.12
422.953	104.12
423.175	91.12
423.398	82.12
423.621	93.12
423.843	86.12
424.066	81.12
424.288	96.12
424.511	99.12
424.733	130.12
424.956	130.12
425.178	118.12
425.401	112.12
425.623	122.12
425.846	110.12
426.068	103.12
426.291	108.12
426.513	111.12
426.735	99.12
426.958	117.12
427.18	133.12
427.402	227.12
427.625	350.12
427.847	339.12
428.069	319.12
428.292	171.12
428.514	107.12
428.736	92.12
428.958	98.12
429.181	89.12
429.403	85.12
429.625	94.12
429.847	119.12
430.069	118.12
430.292	98.12
430.514	95.12
430.736	100.12
430.958	96.12
431.18	93.12
431.402	74.12
431.624	95.12
431.846	98.12
432.068	69.12
432.29	86.12
432.512	92.12
432.734	90.12
432.956	94.12
433.178	112.12
433.4	116.12
433.622	100.12
433.844	92.12
434.066	93.12
434.287	96.12
434.509	84.12
434.731	97.12
434.953	82.12
435.175	88.12
435.397	101.12
435.618	104.12
435.84	130.12
436.062	167.12
436.284	156.12
436.505	124.12
436.727	118.12
436.949	108.12
437.17	93.12
437.392	91.12
437.614	105.12
437.835	140.12
438.057	189.12
438.278	158.12
438.5	132.12
438.721	162.12
438.943	120.12
439.165	106.12
439.386	85.12
439.608	103.12
439.829	133.12
440.05	186.12
440.272	243.12
440.493	128.12
440.715	116.12
440.936	87.12
441.158	82.12
441.379	92.12
441.6	108.12
441.822	105.12
442.043	108.12
442.264	125.12
442.486	122.12
442.707	119.12
442.928	137.12
443.149	216.12
443.371	216.12
443.592	141.12
443.813	148.12
444.034	125.12
444.255	97.12
444.476	94.12
444.698	94.12
444.919	86.12
445.14	153.12
445.361	150.12
445.582	154.12
445.803	228.12
446.024	227.12
446.245	213.12
446.466	161.12
446.687	122.12
446.908	88.12
447.129	99.12
447.35	96.12
447.571	100.12
447.792	97.12
448.013	110.12
448.234	138.12
448.455	132.12
448.675	152.12
448.896	152.12
449.117	126.12
449.338	116.12
449.559	150.12
449.779	176.12
450	101.12
450.221	92.12
450.442	94.12
450.662	107.12
450.883	148.12
451.104	170.12
451.324	112.12
451.545	105.12
451.766	102.12
451.986	101.12
452.207	101.12
452.428	105.12
452.648	120.12
452.869	145.12
453.089	140.12
453.31	180.12
453.53	119.12
453.751	90.12
453.971	120.12
454.192	178.12
454.412	117.12
454.633	100.12
454.853	98.12
455.073	95.12
455.294	89.12
455.514	123.12
455.734	109.12
455.955	92.12
456.175	92.12
456.395	86.12
456.616	96.12
456.836	79.12
457.056	108.12
457.276	92.12
457.497	62.12
457.717	100.12
457.937	91.12
458.157	93.12
458.377	102.12
458.598	153.12
458.818	254.12
459.038	285.12
459.258	169.12
459.478	112.12
459.698	109.12
459.918	100.12
460.138	78.12
460.358	95.12
460.578	96.12
460.798	111.12
461.018	100.12
461.238	89.12
461.458	87.12
461.678	80.12
461.898	101.12
462.118	89.12
462.338	92.12
462.558	97.12
462.777	99.12
462.997	99.12
463.217	122.12
463.437	128.12
463.657	106.12
463.876	92.12
464.096	100.12
464.316	102.12
464.536	109.12
464.755	113.12
464.975	133.12
465.195	321.12
465.414	324.12
465.634	129.12
465.854	78.12
466.073	98.12
466.293	91.12
466.512	86.12
466.732	87.12
466.951	109.12
467.171	121.12
467.391	129.12
467.61	195.12
467.829	324.12
468.049	978.12
468.268	1565.12
468.488	343.12
468.707	133.12
468.927	106.12
469.146	95.12
469.365	91.12
469.585	97.12
469.804	119.12
470.023	127.12
470.243	127.12
470.462	136.12
470.681	174.12
470.901	124.12
471.12	114.12
471.339	137.12
471.558	145.12
471.777	200.12
471.997	481.12
472.216	1926.12
472.435	4639.12
472.654	1016.12
472.873	226.12
473.092	124.12
473.311	107.12
473.53	114.12
473.749	98.12
473.968	113.12
474.187	144.12
474.406	113.12
474.625	102.12
474.844	81.12
475.063	98.12
475.282	105.12
475.501	96.12
475.72	94.12
475.939	114.12
476.158	87.12
476.377	86.12
476.596	84.12
476.814	103.12
477.033	113.12
477.252	86.12
477.471	80.12
477.69	108.12
477.908	104.12
478.127	118.12
478.346	99.12
478.564	104.12
478.783	123.12
479.002	122.12
479.22	132.12
479.439	141.12
479.658	166.12
479.876	145.12
480.095	147.12
480.313	162.12
480.532	229.12
480.751	418.12
480.969	1730.12
481.188	7754.12
481.406	4394.12
481.624	565.12
481.843	180.12
482.061	151.12
482.28	114.12
482.498	115.12
482.717	114.12
482.935	110.12
483.153	102.12
483.372	106.12
483.59	96.12
483.808	83.12
484.027	90.12
484.245	101.12
484.463	110.12
484.681	108.12
484.9	94.12
485.118	108.12
485.336	98.12
485.554	104.12
485.772	96.12
485.99	104.12
486.209	100.12
486.427	110.12
486.645	127.12
486.863	145.12
487.081	116.12
487.299	110.12
487.517	94.12
487.735	93.12
487.953	96.12
488.171	98.12
488.389	110.12
488.607	126.12
488.825	97.12
489.043	101.12
489.261	107.12
489.479	88.12
489.696	87.12
489.914	85.12
490.132	101.12
490.35	91.12
490.568	100.12
490.786	85.12
491.003	97.12
491.221	105.12
491.439	110.12
491.657	104.12
491.874	99.12
492.092	76.12
492.31	94.12
492.527	107.12
492.745	110.12
492.963	110.12
493.18	101.12
493.398	101.12
493.615	99.12
493.833	101.12
494.05	93.12
494.268	92.12
494.485	101.12
494.703	96.12
494.92	87.12
495.138	98.12
495.355	91.12
495.573	106.12
495.79	96.12
496.008	107.12
496.225	112.12
496.442	82.12
496.66	91.12
496.877	101.12
497.094	98.12
497.312	100.12
497.529	82.12
497.746	105.12
497.963	99.12
498.181	84.12
498.398	84.12
498.615	134.12
498.832	126.12
499.049	107.12
499.267	84.12
499.484	88.12
499.701	96.12
499.918	94.12
500.135	97.12
500.352	82.12
500.569	106.12
500.786	103.12
501.003	89.12
501.22	90.12
501.437	98.12
501.654	109.12
501.871	139.12
502.088	112.12
502.305	90.12
502.522	99.12
502.739	88.12
502.956	89.12
503.172	122.12
503.389	125.12
503.606	146.12
503.823	130.12
504.04	106.12
504.256	94.12
504.473	86.12
504.69	93.12
504.907	94.12
505.123	89.12
505.34	98.12
505.557	94.12
505.773	85.12
505.99	87.12
506.207	98.12
506.423	80.12
506.64	88.12
506.856	108.12
507.073	91.12
507.289	93.12
507.506	102.12
507.722	149.12
507.939	157.12
508.155	93.12
508.372	109.12
508.588	109.12
508.805	99.12
509.021	98.12
509.238	106.12
509.454	108.12
509.67	122.12
509.887	112.12
510.103	159.12
510.319	280.12
