Data from Circ_1995_H10_HRD10591_00005.txt Node
Date: Wed Jan 03 11:36:47 EST 2024
User: Yrep
Spectrometer: HR+D1059
Trigger mode: 1
Integration Time (sec): 1.000000E-1
Scans to average: 1
Electric dark correction enabled: true
Nonlinearity correction enabled: false
Boxcar width: 0
XAxis mode: Wavelengths
Number of Pixels in Spectrum: 2048
>>>>>Begin Spectral Data<<<<<
223.165	-15.62
223.4	-15.62
223.635	-15.62
223.869	-23.62
224.104	-22.62
224.338	-14.62
224.573	-17.62
224.808	-15.62
225.042	-8.62
225.277	5.38
225.511	-18.62
225.746	4.38
225.98	17.38
226.215	11.38
226.449	11.38
226.683	25.38
226.918	23.38
227.152	38.38
227.387	37.38
227.621	40.38
227.856	46.38
228.09	52.38
228.324	54.38
228.559	65.38
228.793	65.38
229.027	62.38
229.262	68.38
229.496	73.38
229.73	101.38
229.964	90.38
230.199	83.38
230.433	85.38
230.667	76.38
230.901	73.38
231.136	95.38
231.37	75.38
231.604	79.38
231.838	84.38
232.072	81.38
232.306	73.38
232.541	81.38
232.775	94.38
233.009	93.38
233.243	67.38
233.477	83.38
233.711	89.38
233.945	87.38
234.179	74.38
234.413	94.38
234.647	85.38
234.881	85.38
235.115	94.38
235.349	95.38
235.583	88.38
235.817	79.38
236.051	84.38
236.285	70.38
236.519	97.38
236.753	90.38
236.987	87.38
237.221	86.38
237.455	95.38
237.689	83.38
237.922	83.38
238.156	69.38
238.39	83.38
238.624	75.38
238.858	89.38
239.091	75.38
239.325	85.38
239.559	86.38
239.793	65.38
240.027	71.38
240.26	70.38
240.494	86.38
240.728	81.38
240.961	82.38
241.195	83.38
241.429	84.38
241.662	82.38
241.896	74.38
242.13	81.38
242.363	89.38
242.597	76.38
242.83	83.38
243.064	83.38
243.298	83.38
243.531	85.38
243.765	81.38
243.998	77.38
244.232	93.38
244.465	96.38
244.699	86.38
244.932	97.38
245.166	95.38
245.399	85.38
245.633	89.38
245.866	91.38
246.099	81.38
246.333	82.38
246.566	80.38
246.8	92.38
247.033	79.38
247.266	83.38
247.5	73.38
247.733	82.38
247.966	87.38
248.2	71.38
248.433	73.38
248.666	69.38
248.899	81.38
249.133	95.38
249.366	95.38
249.599	108.38
249.832	84.38
250.066	94.38
250.299	83.38
250.532	73.38
250.765	73.38
250.998	92.38
251.231	85.38
251.465	94.38
251.698	87.38
251.931	89.38
252.164	82.38
252.397	95.38
252.63	94.38
252.863	89.38
253.096	79.38
253.329	89.38
253.562	90.38
253.795	82.38
254.028	92.38
254.261	70.38
254.494	87.38
254.727	73.38
254.96	96.38
255.193	90.38
255.426	92.38
255.659	89.38
255.892	107.38
256.124	109.38
256.357	85.38
256.59	81.38
256.823	82.38
257.056	94.38
257.289	93.38
257.521	90.38
257.754	89.38
257.987	94.38
258.22	106.38
258.452	95.38
258.685	97.38
258.918	93.38
259.151	86.38
259.383	89.38
259.616	79.38
259.849	82.38
260.081	85.38
260.314	91.38
260.547	81.38
260.779	92.38
261.012	114.38
261.244	99.38
261.477	99.38
261.71	111.38
261.942	137.38
262.175	141.38
262.407	103.38
262.64	98.38
262.872	75.38
263.105	83.38
263.337	95.38
263.57	93.38
263.802	91.38
264.035	81.38
264.267	81.38
264.499	86.38
264.732	96.38
264.964	94.38
265.197	89.38
265.429	94.38
265.661	78.38
265.894	85.38
266.126	87.38
266.358	86.38
266.591	96.38
266.823	94.38
267.055	86.38
267.287	81.38
267.52	90.38
267.752	94.38
267.984	96.38
268.216	87.38
268.448	98.38
268.681	106.38
268.913	92.38
269.145	103.38
269.377	91.38
269.609	105.38
269.841	77.38
270.073	82.38
270.306	94.38
270.538	95.38
270.77	100.38
271.002	92.38
271.234	77.38
271.466	86.38
271.698	94.38
271.93	93.38
272.162	101.38
272.394	80.38
272.626	82.38
272.858	85.38
273.09	86.38
273.322	87.38
273.553	93.38
273.785	83.38
274.017	89.38
274.249	95.38
274.481	86.38
274.713	102.38
274.945	89.38
275.176	98.38
275.408	116.38
275.64	101.38
275.872	120.38
276.104	85.38
276.335	80.38
276.567	104.38
276.799	142.38
277.031	142.38
277.262	175.38
277.494	149.38
277.726	98.38
277.957	109.38
278.189	88.38
278.421	87.38
278.652	94.38
278.884	97.38
279.115	95.38
279.347	98.38
279.579	116.38
279.81	138.38
280.042	182.38
280.273	223.38
280.505	168.38
280.736	109.38
280.968	103.38
281.199	98.38
281.431	96.38
281.662	92.38
281.894	101.38
282.125	101.38
282.356	122.38
282.588	179.38
282.819	126.38
283.051	91.38
283.282	84.38
283.513	84.38
283.745	86.38
283.976	99.38
284.207	81.38
284.439	101.38
284.67	114.38
284.901	91.38
285.132	94.38
285.364	88.38
285.595	92.38
285.826	105.38
286.057	92.38
286.288	93.38
286.52	83.38
286.751	92.38
286.982	98.38
287.213	95.38
287.444	100.38
287.675	78.38
287.906	82.38
288.138	87.38
288.369	96.38
288.6	107.38
288.831	93.38
289.062	90.38
289.293	89.38
289.524	94.38
289.755	86.38
289.986	90.38
290.217	94.38
290.448	96.38
290.679	91.38
290.91	77.38
291.141	94.38
291.371	85.38
291.602	80.38
291.833	109.38
292.064	97.38
292.295	85.38
292.526	100.38
292.757	93.38
292.987	105.38
293.218	94.38
293.449	100.38
293.68	91.38
293.91	88.38
294.141	90.38
294.372	91.38
294.603	97.38
294.833	91.38
295.064	92.38
295.295	88.38
295.525	101.38
295.756	102.38
295.987	138.38
296.217	176.38
296.448	139.38
296.679	99.38
296.909	87.38
297.14	83.38
297.37	97.38
297.601	85.38
297.831	93.38
298.062	114.38
298.292	106.38
298.523	103.38
298.753	111.38
298.984	98.38
299.214	83.38
299.445	92.38
299.675	116.38
299.905	95.38
300.136	95.38
300.366	96.38
300.597	91.38
300.827	92.38
301.057	103.38
301.288	105.38
301.518	95.38
301.748	102.38
301.979	111.38
302.209	103.38
302.439	94.38
302.669	87.38
302.9	109.38
303.13	100.38
303.36	114.38
303.59	113.38
303.82	127.38
304.051	116.38
304.281	100.38
304.511	84.38
304.741	82.38
304.971	99.38
305.201	91.38
305.431	94.38
305.661	85.38
305.891	88.38
306.121	93.38
306.352	107.38
306.582	119.38
306.812	110.38
307.042	109.38
307.272	143.38
307.502	167.38
307.731	167.38
307.961	121.38
308.191	96.38
308.421	100.38
308.651	88.38
308.881	88.38
309.111	98.38
309.341	97.38
309.571	111.38
309.8	97.38
310.03	98.38
310.26	122.38
310.49	96.38
310.72	101.38
310.949	115.38
311.179	111.38
311.409	109.38
311.639	110.38
311.868	104.38
312.098	110.38
312.328	109.38
312.557	113.38
312.787	115.38
313.017	111.38
313.246	99.38
313.476	86.38
313.706	94.38
313.935	105.38
314.165	118.38
314.394	129.38
314.624	100.38
314.853	102.38
315.083	102.38
315.312	96.38
315.542	103.38
315.771	99.38
316.001	106.38
316.23	93.38
316.46	103.38
316.689	99.38
316.919	106.38
317.148	107.38
317.377	118.38
317.607	105.38
317.836	106.38
318.065	105.38
318.295	91.38
318.524	104.38
318.753	102.38
318.983	102.38
319.212	114.38
319.441	109.38
319.67	113.38
319.9	106.38
320.129	99.38
320.358	101.38
320.587	97.38
320.816	106.38
321.046	110.38
321.275	117.38
321.504	103.38
321.733	117.38
321.962	111.38
322.191	108.38
322.42	117.38
322.649	121.38
322.878	124.38
323.108	137.38
323.337	147.38
323.566	156.38
323.795	167.38
324.024	255.38
324.253	494.38
324.482	1050.38
324.71	2192.38
324.939	2863.38
325.168	1019.38
325.397	285.38
325.626	186.38
325.855	141.38
326.084	132.38
326.313	146.38
326.542	178.38
326.77	253.38
326.999	553.38
327.228	1145.38
327.457	2082.38
327.686	1677.38
327.914	549.38
328.143	469.38
328.372	587.38
328.6	348.38
328.829	185.38
329.058	195.38
329.287	208.38
329.515	171.38
329.744	249.38
329.972	433.38
330.201	861.38
330.43	1255.38
330.658	596.38
330.887	291.38
331.115	187.38
331.344	126.38
331.572	116.38
331.801	126.38
332.03	118.38
332.258	115.38
332.486	106.38
332.715	116.38
332.943	109.38
333.172	134.38
333.4	132.38
333.629	155.38
333.857	218.38
334.085	399.38
334.314	802.38
334.542	1571.38
334.771	1481.38
334.999	377.38
335.227	172.38
335.455	126.38
335.684	113.38
335.912	104.38
336.14	119.38
336.369	111.38
336.597	112.38
336.825	118.38
337.053	94.38
337.281	101.38
337.51	86.38
337.738	109.38
337.966	119.38
338.194	107.38
338.422	103.38
338.65	97.38
338.878	97.38
339.106	85.38
339.334	89.38
339.562	93.38
339.79	99.38
340.018	103.38
340.246	94.38
340.474	98.38
340.702	110.38
340.93	98.38
341.158	98.38
341.386	102.38
341.614	99.38
341.842	95.38
342.07	100.38
342.298	103.38
342.526	97.38
342.754	83.38
342.981	90.38
343.209	98.38
343.437	108.38
343.665	88.38
343.893	100.38
344.12	98.38
344.348	102.38
344.576	102.38
344.804	80.38
345.031	123.38
345.259	109.38
345.487	94.38
345.714	101.38
345.942	92.38
346.17	98.38
346.397	111.38
346.625	94.38
346.853	101.38
347.08	90.38
347.308	106.38
347.535	116.38
347.763	113.38
347.99	100.38
348.218	102.38
348.445	124.38
348.673	116.38
348.9	102.38
349.128	99.38
349.355	97.38
349.583	88.38
349.81	110.38
350.037	98.38
350.265	103.38
350.492	98.38
350.72	101.38
350.947	92.38
351.174	116.38
351.402	114.38
351.629	121.38
351.856	113.38
352.083	124.38
352.311	118.38
352.538	122.38
352.765	116.38
352.992	130.38
353.22	111.38
353.447	124.38
353.674	106.38
353.901	101.38
354.128	97.38
354.355	104.38
354.583	96.38
354.81	94.38
355.037	95.38
355.264	89.38
355.491	95.38
355.718	91.38
355.945	95.38
356.172	97.38
356.399	91.38
356.626	91.38
356.853	108.38
357.08	89.38
357.307	99.38
357.534	98.38
357.761	107.38
357.988	118.38
358.215	103.38
358.441	116.38
358.668	112.38
358.895	106.38
359.122	92.38
359.349	86.38
359.576	103.38
359.802	132.38
360.029	150.38
360.256	150.38
360.483	116.38
360.709	99.38
360.936	101.38
361.163	98.38
361.39	111.38
361.616	98.38
361.843	98.38
362.07	100.38
362.296	100.38
362.523	100.38
362.749	100.38
362.976	113.38
363.203	102.38
363.429	99.38
363.656	100.38
363.882	97.38
364.109	85.38
364.335	93.38
364.562	89.38
364.788	73.38
365.015	86.38
365.241	107.38
365.468	134.38
365.694	120.38
365.92	108.38
366.147	90.38
366.373	91.38
366.599	100.38
366.826	99.38
367.052	86.38
367.278	85.38
367.505	96.38
367.731	105.38
367.957	109.38
368.184	96.38
368.41	115.38
368.636	136.38
368.862	137.38
369.089	124.38
369.315	108.38
369.541	101.38
369.767	94.38
369.993	89.38
370.219	101.38
370.445	97.38
370.672	100.38
370.898	89.38
371.124	97.38
371.35	98.38
371.576	94.38
371.802	85.38
372.028	89.38
372.254	110.38
372.48	73.38
372.706	99.38
372.932	86.38
373.158	81.38
373.384	95.38
373.61	104.38
373.835	102.38
374.061	90.38
374.287	108.38
374.513	97.38
374.739	85.38
374.965	91.38
375.191	97.38
375.416	86.38
375.642	90.38
375.868	100.38
376.094	93.38
376.319	81.38
376.545	88.38
376.771	93.38
376.997	109.38
377.222	101.38
377.448	107.38
377.674	98.38
377.899	101.38
378.125	97.38
378.35	88.38
378.576	100.38
378.802	92.38
379.027	94.38
379.253	91.38
379.478	95.38
379.704	99.38
379.929	107.38
380.155	111.38
380.38	103.38
380.606	97.38
380.831	100.38
381.057	103.38
381.282	123.38
381.507	102.38
381.733	105.38
381.958	123.38
382.184	116.38
382.409	123.38
382.634	109.38
382.86	99.38
383.085	109.38
383.31	116.38
383.535	132.38
383.761	134.38
383.986	108.38
384.211	114.38
384.436	119.38
384.662	139.38
384.887	129.38
385.112	126.38
385.337	133.38
385.562	130.38
385.787	138.38
386.013	138.38
386.238	151.38
386.463	158.38
386.688	120.38
386.913	120.38
387.138	132.38
387.363	118.38
387.588	111.38
387.813	137.38
388.038	127.38
388.263	141.38
388.488	133.38
388.713	109.38
388.938	100.38
389.163	106.38
389.387	89.38
389.612	77.38
389.837	96.38
390.062	96.38
390.287	115.38
390.512	100.38
390.736	92.38
390.961	81.38
391.186	108.38
391.411	91.38
391.636	79.38
391.86	109.38
392.085	90.38
392.31	85.38
392.534	83.38
392.759	92.38
392.984	104.38
393.208	102.38
393.433	98.38
393.658	98.38
393.882	97.38
394.107	90.38
394.331	82.38
394.556	95.38
394.78	94.38
395.005	95.38
395.229	83.38
395.454	86.38
395.678	87.38
395.903	82.38
396.127	105.38
396.352	86.38
396.576	91.38
396.801	110.38
397.025	78.38
397.249	106.38
397.474	90.38
397.698	92.38
397.922	97.38
398.147	86.38
398.371	75.38
398.595	80.38
398.82	95.38
399.044	93.38
399.268	102.38
399.492	94.38
399.717	104.38
399.941	85.38
400.165	105.38
400.389	101.38
400.613	98.38
400.837	94.38
401.062	103.38
401.286	90.38
401.51	99.38
401.734	97.38
401.958	120.38
402.182	153.38
402.406	205.38
402.63	140.38
402.854	104.38
403.078	99.38
403.302	92.38
403.526	88.38
403.75	95.38
403.974	93.38
404.198	97.38
404.422	109.38
404.645	89.38
404.869	101.38
405.093	121.38
405.317	129.38
405.541	133.38
405.765	111.38
405.988	126.38
406.212	222.38
406.436	315.38
406.66	207.38
406.883	116.38
407.107	109.38
407.331	101.38
407.555	116.38
407.778	112.38
408.002	108.38
408.226	99.38
408.449	90.38
408.673	84.38
408.896	101.38
409.12	105.38
409.344	103.38
409.567	94.38
409.791	96.38
410.014	103.38
410.238	90.38
410.461	84.38
410.685	90.38
410.908	98.38
411.132	100.38
411.355	110.38
411.578	110.38
411.802	101.38
412.025	98.38
412.249	94.38
412.472	113.38
412.695	116.38
412.919	99.38
413.142	91.38
413.365	87.38
413.589	97.38
413.812	100.38
414.035	86.38
414.258	94.38
414.482	106.38
414.705	97.38
414.928	98.38
415.151	106.38
415.374	99.38
415.597	96.38
415.821	98.38
416.044	101.38
416.267	103.38
416.49	99.38
416.713	95.38
416.936	92.38
417.159	91.38
417.382	105.38
417.605	115.38
417.828	120.38
418.051	101.38
418.274	97.38
418.497	88.38
418.72	83.38
418.943	83.38
419.166	101.38
419.389	84.38
419.611	100.38
419.834	104.38
420.057	98.38
420.28	107.38
420.503	98.38
420.726	84.38
420.948	83.38
421.171	109.38
421.394	110.38
421.617	93.38
421.839	103.38
422.062	98.38
422.285	99.38
422.507	127.38
422.73	118.38
422.953	108.38
423.175	99.38
423.398	100.38
423.621	96.38
423.843	77.38
424.066	89.38
424.288	94.38
424.511	98.38
424.733	106.38
424.956	119.38
425.178	101.38
425.401	101.38
425.623	96.38
425.846	108.38
426.068	92.38
426.291	106.38
426.513	98.38
426.735	97.38
426.958	122.38
427.18	127.38
427.402	185.38
427.625	251.38
427.847	226.38
428.069	221.38
428.292	118.38
428.514	93.38
428.736	92.38
428.958	97.38
429.181	93.38
429.403	88.38
429.625	79.38
429.847	100.38
430.069	105.38
430.292	93.38
430.514	98.38
430.736	101.38
430.958	90.38
431.18	98.38
431.402	97.38
431.624	83.38
431.846	80.38
432.068	83.38
432.29	81.38
432.512	96.38
432.734	90.38
432.956	90.38
433.178	104.38
433.4	109.38
433.622	93.38
433.844	92.38
434.066	98.38
434.287	103.38
434.509	105.38
434.731	89.38
434.953	101.38
435.175	89.38
435.397	79.38
435.618	99.38
435.84	109.38
436.062	141.38
436.284	136.38
436.505	112.38
436.727	122.38
436.949	93.38
437.17	86.38
437.392	101.38
437.614	96.38
437.835	126.38
438.057	129.38
438.278	133.38
438.5	127.38
438.721	146.38
438.943	107.38
439.165	96.38
439.386	100.38
439.608	101.38
439.829	107.38
440.05	151.38
440.272	208.38
440.493	111.38
440.715	95.38
440.936	85.38
441.158	93.38
441.379	97.38
441.6	126.38
441.822	121.38
442.043	106.38
442.264	116.38
442.486	111.38
442.707	103.38
442.928	121.38
443.149	178.38
443.371	161.38
443.592	137.38
443.813	126.38
444.034	131.38
444.255	91.38
444.476	98.38
444.698	88.38
444.919	101.38
445.14	141.38
445.361	128.38
445.582	139.38
445.803	179.38
446.024	180.38
446.245	180.38
446.466	138.38
446.687	103.38
446.908	95.38
447.129	102.38
447.35	99.38
447.571	98.38
447.792	104.38
448.013	106.38
448.234	123.38
448.455	117.38
448.675	134.38
448.896	151.38
449.117	126.38
449.338	123.38
449.559	153.38
449.779	164.38
450	104.38
450.221	93.38
450.442	86.38
450.662	98.38
450.883	128.38
451.104	141.38
451.324	117.38
451.545	97.38
451.766	112.38
451.986	87.38
452.207	95.38
452.428	118.38
452.648	105.38
452.869	134.38
453.089	144.38
453.31	132.38
453.53	94.38
453.751	99.38
453.971	125.38
454.192	140.38
454.412	103.38
454.633	103.38
454.853	102.38
455.073	77.38
455.294	98.38
455.514	127.38
455.734	90.38
455.955	93.38
456.175	101.38
456.395	97.38
456.616	88.38
456.836	79.38
457.056	89.38
457.276	81.38
457.497	86.38
457.717	99.38
457.937	97.38
458.157	95.38
458.377	101.38
458.598	128.38
458.818	223.38
459.038	250.38
459.258	145.38
459.478	101.38
459.698	99.38
459.918	95.38
460.138	86.38
460.358	93.38
460.578	86.38
460.798	97.38
461.018	83.38
461.238	90.38
461.458	100.38
461.678	109.38
461.898	93.38
462.118	92.38
462.338	86.38
462.558	92.38
462.777	93.38
462.997	82.38
463.217	97.38
463.437	92.38
463.657	112.38
463.876	97.38
464.096	100.38
464.316	101.38
464.536	108.38
464.755	111.38
464.975	122.38
465.195	240.38
465.414	230.38
465.634	104.38
465.854	86.38
466.073	90.38
466.293	107.38
466.512	98.38
466.732	93.38
466.951	91.38
467.171	96.38
467.391	110.38
467.61	157.38
467.829	195.38
468.049	484.38
468.268	720.38
468.488	204.38
468.707	112.38
468.927	95.38
469.146	96.38
469.365	92.38
469.585	110.38
469.804	109.38
470.023	111.38
470.243	111.38
470.462	115.38
470.681	142.38
470.901	109.38
471.12	109.38
471.339	117.38
471.558	138.38
471.777	155.38
471.997	276.38
472.216	900.38
472.435	2132.38
472.654	527.38
472.873	147.38
473.092	113.38
473.311	89.38
473.53	94.38
473.749	93.38
473.968	110.38
474.187	119.38
474.406	101.38
474.625	107.38
474.844	93.38
475.063	94.38
475.282	97.38
475.501	93.38
475.72	101.38
475.939	98.38
476.158	89.38
476.377	89.38
476.596	98.38
476.814	97.38
477.033	107.38
477.252	80.38
477.471	86.38
477.69	101.38
477.908	91.38
478.127	103.38
478.346	95.38
478.564	93.38
478.783	106.38
479.002	102.38
479.22	102.38
479.439	126.38
479.658	155.38
479.876	116.38
480.095	107.38
480.313	141.38
480.532	169.38
480.751	259.38
480.969	853.38
481.188	3798.38
481.406	2161.38
481.624	312.38
481.843	120.38
482.061	109.38
482.28	113.38
482.498	93.38
482.717	92.38
482.935	88.38
483.153	97.38
483.372	93.38
483.59	89.38
483.808	103.38
484.027	110.38
484.245	117.38
484.463	89.38
484.681	118.38
484.9	105.38
485.118	104.38
485.336	94.38
485.554	104.38
485.772	112.38
485.99	102.38
486.209	111.38
486.427	113.38
486.645	117.38
486.863	143.38
487.081	114.38
487.299	90.38
487.517	103.38
487.735	93.38
487.953	102.38
488.171	113.38
488.389	105.38
488.607	108.38
488.825	84.38
489.043	75.38
489.261	86.38
489.479	84.38
489.696	93.38
489.914	98.38
490.132	91.38
490.35	101.38
490.568	89.38
490.786	97.38
491.003	105.38
491.221	101.38
491.439	93.38
491.657	103.38
491.874	101.38
492.092	95.38
492.31	90.38
492.527	100.38
492.745	89.38
492.963	83.38
493.18	89.38
493.398	91.38
493.615	107.38
493.833	99.38
494.05	87.38
494.268	90.38
494.485	89.38
494.703	95.38
494.92	94.38
495.138	92.38
495.355	90.38
495.573	88.38
495.79	89.38
496.008	92.38
496.225	114.38
496.442	85.38
496.66	107.38
496.877	92.38
497.094	94.38
497.312	91.38
497.529	96.38
497.746	93.38
497.963	92.38
498.181	98.38
498.398	101.38
498.615	110.38
498.832	125.38
499.049	97.38
499.267	103.38
499.484	103.38
499.701	97.38
499.918	99.38
500.135	99.38
500.352	96.38
500.569	102.38
500.786	91.38
501.003	102.38
501.22	103.38
501.437	93.38
501.654	91.38
501.871	116.38
502.088	98.38
502.305	96.38
502.522	83.38
502.739	85.38
502.956	95.38
503.172	94.38
503.389	114.38
503.606	119.38
503.823	108.38
504.04	96.38
504.256	90.38
504.473	81.38
504.69	77.38
504.907	98.38
505.123	102.38
505.34	93.38
505.557	96.38
505.773	102.38
505.99	96.38
506.207	89.38
506.423	88.38
506.64	111.38
506.856	99.38
507.073	86.38
507.289	107.38
507.506	109.38
507.722	145.38
507.939	119.38
508.155	117.38
508.372	93.38
508.588	94.38
508.805	92.38
509.021	95.38
509.238	99.38
509.454	89.38
509.67	90.38
509.887	119.38
510.103	134.38
510.319	224.38
510.536	853.38
510.752	3075.38
510.968	830.38
511.184	183.38
511.401	159.38
