Data from Circ_1995_H10_HRD10591_00019.txt Node
Date: Wed Jan 03 11:36:50 EST 2024
User: Yrep
Spectrometer: HR+D1059
Trigger mode: 1
Integration Time (sec): 1.000000E-1
Scans to average: 1
Electric dark correction enabled: true
Nonlinearity correction enabled: false
Boxcar width: 0
XAxis mode: Wavelengths
Number of Pixels in Spectrum: 2048
>>>>>Begin Spectral Data<<<<<
223.165	-16.81
223.4	-16.81
223.635	-16.81
223.869	-25.81
224.104	-21.81
224.338	-19.81
224.573	-8.81
224.808	-15.81
225.042	-19.81
225.277	-1.81
225.511	3.19
225.746	15.19
225.98	9.19
226.215	4.19
226.449	25.19
226.683	20.19
226.918	28.19
227.152	25.19
227.387	26.19
227.621	50.19
227.856	52.19
228.09	49.19
228.324	58.19
228.559	64.19
228.793	70.19
229.027	69.19
229.262	85.19
229.496	72.19
229.73	102.19
229.964	101.19
230.199	76.19
230.433	82.19
230.667	92.19
230.901	87.19
231.136	73.19
231.37	72.19
231.604	88.19
231.838	88.19
232.072	85.19
232.306	85.19
232.541	79.19
232.775	85.19
233.009	88.19
233.243	88.19
233.477	76.19
233.711	71.19
233.945	76.19
234.179	69.19
234.413	96.19
234.647	68.19
234.881	82.19
235.115	79.19
235.349	97.19
235.583	66.19
235.817	91.19
236.051	80.19
236.285	86.19
236.519	64.19
236.753	85.19
236.987	96.19
237.221	96.19
237.455	91.19
237.689	82.19
237.922	99.19
238.156	92.19
238.39	88.19
238.624	84.19
238.858	88.19
239.091	94.19
239.325	76.19
239.559	88.19
239.793	86.19
240.027	87.19
240.26	85.19
240.494	77.19
240.728	103.19
240.961	88.19
241.195	91.19
241.429	93.19
241.662	79.19
241.896	77.19
242.13	71.19
242.363	90.19
242.597	85.19
242.83	89.19
243.064	89.19
243.298	103.19
243.531	79.19
243.765	63.19
243.998	85.19
244.232	74.19
244.465	109.19
244.699	103.19
244.932	89.19
245.166	72.19
245.399	67.19
245.633	82.19
245.866	80.19
246.099	87.19
246.333	77.19
246.566	84.19
246.8	81.19
247.033	82.19
247.266	84.19
247.5	80.19
247.733	92.19
247.966	85.19
248.2	87.19
248.433	70.19
248.666	84.19
248.899	94.19
249.133	104.19
249.366	96.19
249.599	120.19
249.832	95.19
250.066	101.19
250.299	94.19
250.532	87.19
250.765	70.19
250.998	89.19
251.231	98.19
251.465	82.19
251.698	81.19
251.931	95.19
252.164	76.19
252.397	99.19
252.63	92.19
252.863	82.19
253.096	84.19
253.329	96.19
253.562	80.19
253.795	94.19
254.028	83.19
254.261	86.19
254.494	94.19
254.727	90.19
254.96	104.19
255.193	87.19
255.426	72.19
255.659	89.19
255.892	97.19
256.124	97.19
256.357	80.19
256.59	77.19
256.823	87.19
257.056	84.19
257.289	89.19
257.521	94.19
257.754	80.19
257.987	82.19
258.22	97.19
258.452	92.19
258.685	95.19
258.918	94.19
259.151	71.19
259.383	83.19
259.616	82.19
259.849	82.19
260.081	94.19
260.314	93.19
260.547	101.19
260.779	96.19
261.012	117.19
261.244	106.19
261.477	112.19
261.71	111.19
261.942	159.19
262.175	138.19
262.407	96.19
262.64	96.19
262.872	95.19
263.105	87.19
263.337	85.19
263.57	87.19
263.802	104.19
264.035	92.19
264.267	85.19
264.499	96.19
264.732	95.19
264.964	87.19
265.197	105.19
265.429	87.19
265.661	81.19
265.894	71.19
266.126	84.19
266.358	80.19
266.591	89.19
266.823	90.19
267.055	99.19
267.287	93.19
267.52	87.19
267.752	80.19
267.984	88.19
268.216	105.19
268.448	100.19
268.681	100.19
268.913	102.19
269.145	78.19
269.377	84.19
269.609	103.19
269.841	93.19
270.073	90.19
270.306	84.19
270.538	88.19
270.77	89.19
271.002	94.19
271.234	96.19
271.466	84.19
271.698	84.19
271.93	80.19
272.162	105.19
272.394	101.19
272.626	109.19
272.858	89.19
273.09	97.19
273.322	100.19
273.553	92.19
273.785	102.19
274.017	94.19
274.249	91.19
274.481	91.19
274.713	87.19
274.945	87.19
275.176	102.19
275.408	103.19
275.64	121.19
275.872	119.19
276.104	118.19
276.335	122.19
276.567	120.19
276.799	175.19
277.031	198.19
277.262	205.19
277.494	162.19
277.726	113.19
277.957	87.19
278.189	101.19
278.421	95.19
278.652	98.19
278.884	97.19
279.115	88.19
279.347	95.19
279.579	113.19
279.81	138.19
280.042	211.19
280.273	292.19
280.505	192.19
280.736	124.19
280.968	101.19
281.199	102.19
281.431	102.19
281.662	92.19
281.894	103.19
282.125	112.19
282.356	153.19
282.588	196.19
282.819	142.19
283.051	110.19
283.282	99.19
283.513	102.19
283.745	84.19
283.976	107.19
284.207	97.19
284.439	83.19
284.67	85.19
284.901	88.19
285.132	94.19
285.364	92.19
285.595	98.19
285.826	87.19
286.057	98.19
286.288	89.19
286.52	101.19
286.751	99.19
286.982	95.19
287.213	100.19
287.444	86.19
287.675	83.19
287.906	102.19
288.138	108.19
288.369	110.19
288.6	100.19
288.831	93.19
289.062	103.19
289.293	95.19
289.524	102.19
289.755	104.19
289.986	97.19
290.217	85.19
290.448	97.19
290.679	97.19
290.91	99.19
291.141	93.19
291.371	90.19
291.602	94.19
291.833	98.19
292.064	102.19
292.295	98.19
292.526	86.19
292.757	102.19
292.987	87.19
293.218	78.19
293.449	98.19
293.68	99.19
293.91	102.19
294.141	106.19
294.372	95.19
294.603	100.19
294.833	92.19
295.064	95.19
295.295	95.19
295.525	102.19
295.756	111.19
295.987	135.19
296.217	183.19
296.448	155.19
296.679	102.19
296.909	92.19
297.14	106.19
297.37	100.19
297.601	107.19
297.831	92.19
298.062	101.19
298.292	104.19
298.523	102.19
298.753	103.19
298.984	87.19
299.214	93.19
299.445	108.19
299.675	114.19
299.905	105.19
300.136	94.19
300.366	90.19
300.597	98.19
300.827	110.19
301.057	114.19
301.288	122.19
301.518	97.19
301.748	112.19
301.979	110.19
302.209	92.19
302.439	105.19
302.669	106.19
302.9	89.19
303.13	115.19
303.36	124.19
303.59	152.19
303.82	140.19
304.051	127.19
304.281	88.19
304.511	94.19
304.741	93.19
304.971	96.19
305.201	92.19
305.431	97.19
305.661	104.19
305.891	105.19
306.121	105.19
306.352	122.19
306.582	141.19
306.812	108.19
307.042	129.19
307.272	173.19
307.502	199.19
307.731	176.19
307.961	137.19
308.191	114.19
308.421	103.19
308.651	95.19
308.881	100.19
309.111	116.19
309.341	114.19
309.571	118.19
309.8	109.19
310.03	104.19
310.26	106.19
310.49	106.19
310.72	110.19
310.949	121.19
311.179	124.19
311.409	106.19
311.639	103.19
311.868	119.19
312.098	111.19
312.328	104.19
312.557	120.19
312.787	119.19
313.017	116.19
313.246	129.19
313.476	104.19
313.706	106.19
313.935	98.19
314.165	122.19
314.394	132.19
314.624	123.19
314.853	106.19
315.083	109.19
315.312	101.19
315.542	113.19
315.771	108.19
316.001	101.19
316.23	104.19
316.46	89.19
316.689	94.19
316.919	101.19
317.148	104.19
317.377	117.19
317.607	101.19
317.836	96.19
318.065	116.19
318.295	87.19
318.524	97.19
318.753	99.19
318.983	107.19
319.212	127.19
319.441	139.19
319.67	136.19
319.9	100.19
320.129	106.19
320.358	92.19
320.587	111.19
320.816	122.19
321.046	120.19
321.275	109.19
321.504	103.19
321.733	93.19
321.962	121.19
322.191	114.19
322.42	120.19
322.649	129.19
322.878	133.19
323.108	154.19
323.337	168.19
323.566	166.19
323.795	206.19
324.024	273.19
324.253	498.19
324.482	1127.19
324.71	2333.19
324.939	3158.19
325.168	1140.19
325.397	315.19
325.626	179.19
325.855	146.19
326.084	161.19
326.313	155.19
326.542	182.19
326.77	274.19
326.999	589.19
327.228	1178.19
327.457	2188.19
327.686	1762.19
327.914	606.19
328.143	563.19
328.372	729.19
328.6	418.19
328.829	206.19
329.058	205.19
329.287	227.19
329.515	189.19
329.744	271.19
329.972	497.19
330.201	1062.19
330.43	1610.19
330.658	719.19
330.887	342.19
331.115	229.19
331.344	140.19
331.572	133.19
331.801	147.19
332.03	134.19
332.258	133.19
332.486	118.19
332.715	111.19
332.943	138.19
333.172	124.19
333.4	136.19
333.629	176.19
333.857	258.19
334.085	471.19
334.314	950.19
334.542	1975.19
334.771	1898.19
334.999	468.19
335.227	189.19
335.455	125.19
335.684	123.19
335.912	114.19
336.14	120.19
336.369	104.19
336.597	118.19
336.825	113.19
337.053	98.19
337.281	106.19
337.51	115.19
337.738	108.19
337.966	110.19
338.194	122.19
338.422	115.19
338.65	120.19
338.878	118.19
339.106	101.19
339.334	118.19
339.562	115.19
339.79	103.19
340.018	97.19
340.246	113.19
340.474	114.19
340.702	107.19
340.93	103.19
341.158	89.19
341.386	122.19
341.614	122.19
341.842	116.19
342.07	113.19
342.298	104.19
342.526	105.19
342.754	92.19
342.981	92.19
343.209	95.19
343.437	97.19
343.665	96.19
343.893	84.19
344.12	116.19
344.348	105.19
344.576	99.19
344.804	112.19
345.031	129.19
345.259	104.19
345.487	107.19
345.714	103.19
345.942	101.19
346.17	101.19
346.397	92.19
346.625	107.19
346.853	96.19
347.08	101.19
347.308	108.19
347.535	113.19
347.763	120.19
347.99	118.19
348.218	122.19
348.445	118.19
348.673	135.19
348.9	119.19
349.128	116.19
349.355	105.19
349.583	96.19
349.81	103.19
350.037	95.19
350.265	93.19
350.492	106.19
350.72	102.19
350.947	114.19
351.174	127.19
351.402	137.19
351.629	123.19
351.856	115.19
352.083	127.19
352.311	127.19
352.538	137.19
352.765	134.19
352.992	121.19
353.22	122.19
353.447	129.19
353.674	111.19
353.901	104.19
354.128	108.19
354.355	90.19
354.583	101.19
354.81	100.19
355.037	85.19
355.264	92.19
355.491	103.19
355.718	109.19
355.945	98.19
356.172	100.19
356.399	97.19
356.626	98.19
356.853	103.19
357.08	104.19
357.307	104.19
357.534	109.19
357.761	101.19
357.988	110.19
358.215	110.19
358.441	111.19
358.668	96.19
358.895	94.19
359.122	99.19
359.349	99.19
359.576	102.19
359.802	118.19
360.029	143.19
360.256	160.19
360.483	127.19
360.709	86.19
360.936	104.19
361.163	98.19
361.39	102.19
361.616	122.19
361.843	106.19
362.07	119.19
362.296	122.19
362.523	114.19
362.749	115.19
362.976	108.19
363.203	96.19
363.429	101.19
363.656	106.19
363.882	97.19
364.109	95.19
364.335	105.19
364.562	101.19
364.788	99.19
365.015	111.19
365.241	117.19
365.468	126.19
365.694	127.19
365.92	109.19
366.147	95.19
366.373	106.19
366.599	86.19
366.826	93.19
367.052	109.19
367.278	92.19
367.505	95.19
367.731	120.19
367.957	106.19
368.184	104.19
368.41	112.19
368.636	137.19
368.862	129.19
369.089	120.19
369.315	112.19
369.541	103.19
369.767	101.19
369.993	102.19
370.219	93.19
370.445	96.19
370.672	98.19
370.898	92.19
371.124	88.19
371.35	98.19
371.576	112.19
371.802	95.19
372.028	100.19
372.254	95.19
372.48	81.19
372.706	97.19
372.932	106.19
373.158	98.19
373.384	86.19
373.61	95.19
373.835	109.19
374.061	116.19
374.287	98.19
374.513	90.19
374.739	100.19
374.965	102.19
375.191	95.19
375.416	104.19
375.642	104.19
375.868	106.19
376.094	103.19
376.319	98.19
376.545	96.19
376.771	97.19
376.997	85.19
377.222	102.19
377.448	114.19
377.674	94.19
377.899	101.19
378.125	105.19
378.35	87.19
378.576	95.19
378.802	98.19
379.027	106.19
379.253	97.19
379.478	111.19
379.704	118.19
379.929	109.19
380.155	117.19
380.38	115.19
380.606	111.19
380.831	114.19
381.057	106.19
381.282	113.19
381.507	111.19
381.733	108.19
381.958	100.19
382.184	117.19
382.409	110.19
382.634	112.19
382.86	110.19
383.085	106.19
383.31	112.19
383.535	114.19
383.761	114.19
383.986	109.19
384.211	106.19
384.436	127.19
384.662	131.19
384.887	117.19
385.112	132.19
385.337	125.19
385.562	116.19
385.787	106.19
386.013	128.19
386.238	146.19
386.463	135.19
386.688	129.19
386.913	122.19
387.138	126.19
387.363	121.19
387.588	105.19
387.813	114.19
388.038	126.19
388.263	133.19
388.488	125.19
388.713	120.19
388.938	111.19
389.163	101.19
389.387	97.19
389.612	101.19
389.837	98.19
390.062	96.19
390.287	94.19
390.512	104.19
390.736	112.19
390.961	93.19
391.186	103.19
391.411	110.19
391.636	88.19
391.86	88.19
392.085	88.19
392.31	92.19
392.534	96.19
392.759	93.19
392.984	90.19
393.208	93.19
393.433	90.19
393.658	89.19
393.882	80.19
394.107	88.19
394.331	85.19
394.556	89.19
394.78	92.19
395.005	97.19
395.229	110.19
395.454	89.19
395.678	95.19
395.903	83.19
396.127	96.19
396.352	101.19
396.576	81.19
396.801	91.19
397.025	99.19
397.249	84.19
397.474	93.19
397.698	90.19
397.922	94.19
398.147	98.19
398.371	101.19
398.595	84.19
398.82	99.19
399.044	93.19
399.268	100.19
399.492	90.19
399.717	83.19
399.941	92.19
400.165	94.19
400.389	96.19
400.613	103.19
400.837	105.19
401.062	103.19
401.286	103.19
401.51	106.19
401.734	114.19
401.958	113.19
402.182	171.19
402.406	219.19
402.63	177.19
402.854	112.19
403.078	100.19
403.302	102.19
403.526	92.19
403.75	102.19
403.974	90.19
404.198	106.19
404.422	94.19
404.645	97.19
404.869	116.19
405.093	142.19
405.317	153.19
405.541	132.19
405.765	126.19
405.988	142.19
406.212	241.19
406.436	361.19
406.66	225.19
406.883	136.19
407.107	117.19
407.331	112.19
407.555	104.19
407.778	108.19
408.002	114.19
408.226	100.19
408.449	94.19
408.673	102.19
408.896	106.19
409.12	98.19
409.344	93.19
409.567	86.19
409.791	87.19
410.014	113.19
410.238	115.19
410.461	108.19
410.685	101.19
410.908	114.19
411.132	112.19
411.355	106.19
411.578	95.19
411.802	105.19
412.025	114.19
412.249	103.19
412.472	106.19
412.695	143.19
412.919	126.19
413.142	104.19
413.365	107.19
413.589	95.19
413.812	96.19
414.035	90.19
414.258	101.19
414.482	90.19
414.705	100.19
414.928	86.19
415.151	92.19
415.374	100.19
415.597	88.19
415.821	97.19
416.044	100.19
416.267	92.19
416.49	105.19
416.713	100.19
416.936	106.19
417.159	97.19
417.382	99.19
417.605	115.19
417.828	122.19
418.051	115.19
418.274	102.19
418.497	97.19
418.72	103.19
418.943	97.19
419.166	101.19
419.389	105.19
419.611	109.19
419.834	103.19
420.057	100.19
420.28	111.19
420.503	106.19
420.726	89.19
420.948	110.19
421.171	108.19
421.394	113.19
421.617	94.19
421.839	104.19
422.062	93.19
422.285	106.19
422.507	103.19
422.73	113.19
422.953	115.19
423.175	101.19
423.398	110.19
423.621	92.19
423.843	100.19
424.066	89.19
424.288	99.19
424.511	104.19
424.733	114.19
424.956	137.19
425.178	110.19
425.401	120.19
425.623	106.19
425.846	96.19
426.068	114.19
426.291	114.19
426.513	104.19
426.735	101.19
426.958	102.19
427.18	131.19
427.402	183.19
427.625	304.19
427.847	270.19
428.069	245.19
428.292	138.19
428.514	104.19
428.736	93.19
428.958	103.19
429.181	95.19
429.403	97.19
429.625	104.19
429.847	96.19
430.069	114.19
430.292	116.19
430.514	104.19
430.736	88.19
430.958	100.19
431.18	93.19
431.402	93.19
431.624	98.19
431.846	92.19
432.068	96.19
432.29	102.19
432.512	109.19
432.734	93.19
432.956	82.19
433.178	110.19
433.4	103.19
433.622	96.19
433.844	119.19
434.066	108.19
434.287	98.19
434.509	108.19
434.731	87.19
434.953	81.19
435.175	108.19
435.397	110.19
435.618	107.19
435.84	119.19
436.062	143.19
436.284	141.19
436.505	118.19
436.727	118.19
436.949	90.19
437.17	91.19
437.392	99.19
437.614	96.19
437.835	144.19
438.057	180.19
438.278	151.19
438.5	130.19
438.721	140.19
438.943	122.19
439.165	113.19
439.386	104.19
439.608	111.19
439.829	120.19
440.05	173.19
440.272	192.19
440.493	120.19
440.715	110.19
440.936	104.19
441.158	101.19
441.379	110.19
441.6	102.19
441.822	109.19
442.043	117.19
442.264	134.19
442.486	125.19
442.707	111.19
442.928	141.19
443.149	193.19
443.371	211.19
443.592	156.19
443.813	119.19
444.034	130.19
444.255	106.19
444.476	80.19
444.698	93.19
444.919	95.19
445.14	135.19
445.361	141.19
445.582	138.19
445.803	209.19
446.024	181.19
446.245	168.19
446.466	146.19
446.687	96.19
446.908	107.19
447.129	92.19
447.35	93.19
447.571	101.19
447.792	107.19
448.013	108.19
448.234	146.19
448.455	120.19
448.675	145.19
448.896	145.19
449.117	115.19
449.338	117.19
449.559	153.19
449.779	172.19
450	101.19
450.221	110.19
450.442	106.19
450.662	107.19
450.883	150.19
451.104	146.19
451.324	105.19
451.545	103.19
451.766	97.19
451.986	90.19
452.207	101.19
452.428	121.19
452.648	116.19
452.869	145.19
453.089	163.19
453.31	160.19
453.53	117.19
453.751	111.19
453.971	115.19
454.192	142.19
454.412	119.19
454.633	101.19
454.853	96.19
455.073	100.19
455.294	100.19
455.514	134.19
455.734	105.19
455.955	105.19
456.175	102.19
456.395	84.19
456.616	93.19
456.836	96.19
457.056	91.19
457.276	101.19
457.497	93.19
457.717	98.19
457.937	99.19
458.157	105.19
458.377	109.19
458.598	146.19
458.818	249.19
459.038	256.19
459.258	170.19
459.478	115.19
459.698	80.19
459.918	96.19
460.138	105.19
460.358	89.19
460.578	87.19
460.798	93.19
461.018	100.19
461.238	94.19
461.458	84.19
461.678	100.19
461.898	104.19
462.118	93.19
462.338	82.19
462.558	89.19
462.777	102.19
462.997	111.19
463.217	136.19
463.437	95.19
463.657	99.19
463.876	103.19
464.096	100.19
464.316	130.19
464.536	122.19
464.755	116.19
464.975	137.19
465.195	265.19
465.414	282.19
465.634	106.19
465.854	101.19
466.073	106.19
466.293	98.19
466.512	109.19
466.732	101.19
466.951	100.19
467.171	111.19
467.391	110.19
467.61	172.19
467.829	237.19
468.049	618.19
468.268	920.19
468.488	240.19
468.707	113.19
468.927	102.19
469.146	99.19
469.365	108.19
469.585	97.19
469.804	110.19
470.023	118.19
470.243	105.19
470.462	132.19
470.681	159.19
470.901	111.19
471.12	116.19
471.339	115.19
471.558	111.19
471.777	163.19
471.997	321.19
472.216	1176.19
472.435	2794.19
472.654	664.19
472.873	184.19
473.092	125.19
473.311	99.19
473.53	111.19
473.749	115.19
473.968	109.19
474.187	144.19
474.406	126.19
474.625	87.19
474.844	108.19
475.063	100.19
475.282	97.19
475.501	99.19
475.72	106.19
475.939	97.19
476.158	88.19
476.377	97.19
476.596	114.19
476.814	108.19
477.033	114.19
477.252	109.19
477.471	97.19
477.69	88.19
477.908	96.19
478.127	105.19
478.346	93.19
478.564	105.19
478.783	127.19
479.002	120.19
479.22	112.19
479.439	128.19
479.658	149.19
479.876	140.19
480.095	117.19
480.313	146.19
480.532	167.19
480.751	303.19
480.969	1043.19
481.188	4664.19
481.406	2705.19
481.624	401.19
481.843	159.19
482.061	120.19
482.28	118.19
482.498	107.19
482.717	103.19
482.935	89.19
483.153	103.19
483.372	116.19
483.59	116.19
483.808	106.19
484.027	108.19
484.245	110.19
484.463	106.19
484.681	102.19
484.9	110.19
485.118	102.19
485.336	108.19
485.554	104.19
485.772	113.19
485.99	116.19
486.209	102.19
486.427	128.19
486.645	124.19
486.863	147.19
487.081	115.19
487.299	98.19
487.517	120.19
487.735	92.19
487.953	102.19
488.171	83.19
488.389	103.19
488.607	104.19
488.825	106.19
489.043	95.19
489.261	104.19
489.479	97.19
489.696	86.19
489.914	95.19
490.132	94.19
490.35	71.19
490.568	90.19
490.786	98.19
491.003	87.19
491.221	105.19
491.439	99.19
491.657	112.19
491.874	109.19
492.092	107.19
492.31	104.19
492.527	96.19
492.745	126.19
492.963	111.19
493.18	104.19
493.398	114.19
493.615	102.19
493.833	95.19
494.05	90.19
494.268	99.19
494.485	93.19
494.703	92.19
494.92	104.19
495.138	103.19
495.355	106.19
495.573	99.19
495.79	93.19
496.008	90.19
496.225	106.19
496.442	99.19
496.66	94.19
496.877	97.19
497.094	101.19
497.312	98.19
497.529	111.19
497.746	88.19
497.963	94.19
498.181	106.19
498.398	114.19
498.615	129.19
498.832	117.19
499.049	101.19
499.267	91.19
499.484	100.19
499.701	98.19
499.918	108.19
500.135	89.19
500.352	94.19
500.569	108.19
500.786	92.19
501.003	112.19
501.22	82.19
501.437	88.19
501.654	106.19
501.871	129.19
502.088	111.19
502.305	103.19
502.522	100.19
502.739	83.19
502.956	105.19
503.172	101.19
503.389	117.19
503.606	137.19
503.823	119.19
504.04	105.19
504.256	103.19
504.473	103.19
504.69	100.19
504.907	99.19
505.123	94.19
505.34	92.19
505.557	101.19
505.773	103.19
505.99	91.19
506.207	96.19
506.423	107.19
506.64	95.19
506.856	99.19
507.073	96.19
507.289	112.19
507.506	116.19
507.722	150.19
507.939	131.19
508.155	108.19
508.372	86.19
508.588	113.19
508.805	95.19
509.021	117.19
