Data from Circ_1995_H10_HRD10591_00060.txt Node
Date: Wed Jan 03 11:36:58 EST 2024
User: Yrep
Spectrometer: HR+D1059
Trigger mode: 1
Integration Time (sec): 1.000000E-1
Scans to average: 1
Electric dark correction enabled: true
Nonlinearity correction enabled: false
Boxcar width: 0
XAxis mode: Wavelengths
Number of Pixels in Spectrum: 2048
>>>>>Begin Spectral Data<<<<<
223.165	-17.06
223.4	-17.06
223.635	-17.06
223.869	-12.06
224.104	-27.06
224.338	-3.06
224.573	-23.06
224.808	-24.06
225.042	-0.06
225.277	-1.06
225.511	-6.06
225.746	6.94
225.98	3.94
226.215	24.94
226.449	11.94
226.683	13.94
226.918	18.94
227.152	32.94
227.387	27.94
227.621	41.94
227.856	49.94
228.09	47.94
228.324	53.94
228.559	58.94
228.793	64.94
229.027	70.94
229.262	84.94
229.496	87.94
229.73	112.94
229.964	110.94
230.199	81.94
230.433	80.94
230.667	86.94
230.901	80.94
231.136	81.94
231.37	77.94
231.604	86.94
231.838	78.94
232.072	81.94
232.306	80.94
232.541	87.94
232.775	75.94
233.009	75.94
233.243	96.94
233.477	81.94
233.711	82.94
233.945	79.94
234.179	67.94
234.413	78.94
234.647	88.94
234.881	79.94
235.115	77.94
235.349	86.94
235.583	94.94
235.817	87.94
236.051	69.94
236.285	83.94
236.519	71.94
236.753	72.94
236.987	83.94
237.221	110.94
237.455	112.94
237.689	91.94
237.922	77.94
238.156	78.94
238.39	88.94
238.624	77.94
238.858	70.94
239.091	76.94
239.325	89.94
239.559	99.94
239.793	83.94
240.027	76.94
240.26	91.94
240.494	78.94
240.728	84.94
240.961	83.94
241.195	76.94
241.429	83.94
241.662	70.94
241.896	93.94
242.13	95.94
242.363	78.94
242.597	88.94
242.83	70.94
243.064	86.94
243.298	85.94
243.531	92.94
243.765	79.94
243.998	92.94
244.232	93.94
244.465	102.94
244.699	91.94
244.932	92.94
245.166	85.94
245.399	94.94
245.633	76.94
245.866	77.94
246.099	87.94
246.333	75.94
246.566	86.94
246.8	78.94
247.033	74.94
247.266	82.94
247.5	79.94
247.733	82.94
247.966	87.94
248.2	82.94
248.433	83.94
248.666	83.94
248.899	78.94
249.133	92.94
249.366	96.94
249.599	116.94
249.832	94.94
250.066	100.94
250.299	93.94
250.532	98.94
250.765	78.94
250.998	104.94
251.231	93.94
251.465	87.94
251.698	78.94
251.931	89.94
252.164	89.94
252.397	76.94
252.63	82.94
252.863	81.94
253.096	85.94
253.329	90.94
253.562	84.94
253.795	97.94
254.028	98.94
254.261	82.94
254.494	86.94
254.727	87.94
254.96	77.94
255.193	77.94
255.426	90.94
255.659	90.94
255.892	112.94
256.124	115.94
256.357	102.94
256.59	90.94
256.823	92.94
257.056	90.94
257.289	88.94
257.521	106.94
257.754	100.94
257.987	107.94
258.22	122.94
258.452	115.94
258.685	100.94
258.918	94.94
259.151	91.94
259.383	74.94
259.616	83.94
259.849	77.94
260.081	89.94
260.314	98.94
260.547	84.94
260.779	88.94
261.012	122.94
261.244	145.94
261.477	111.94
261.71	120.94
261.942	167.94
262.175	178.94
262.407	118.94
262.64	88.94
262.872	94.94
263.105	97.94
263.337	97.94
263.57	83.94
263.802	86.94
264.035	78.94
264.267	80.94
264.499	98.94
264.732	82.94
264.964	87.94
265.197	66.94
265.429	91.94
265.661	79.94
265.894	88.94
266.126	96.94
266.358	87.94
266.591	94.94
266.823	99.94
267.055	86.94
267.287	84.94
267.52	98.94
267.752	90.94
267.984	83.94
268.216	84.94
268.448	86.94
268.681	99.94
268.913	94.94
269.145	94.94
269.377	90.94
269.609	86.94
269.841	105.94
270.073	96.94
270.306	79.94
270.538	93.94
270.77	91.94
271.002	98.94
271.234	93.94
271.466	114.94
271.698	105.94
271.93	99.94
272.162	83.94
272.394	100.94
272.626	100.94
272.858	84.94
273.09	95.94
273.322	87.94
273.553	97.94
273.785	100.94
274.017	106.94
274.249	82.94
274.481	90.94
274.713	89.94
274.945	88.94
275.176	109.94
275.408	111.94
275.64	129.94
275.872	139.94
276.104	120.94
276.335	109.94
276.567	145.94
276.799	193.94
277.031	247.94
277.262	289.94
277.494	222.94
277.726	125.94
277.957	110.94
278.189	90.94
278.421	87.94
278.652	105.94
278.884	98.94
279.115	104.94
279.347	92.94
279.579	139.94
279.81	182.94
280.042	306.94
280.273	412.94
280.505	275.94
280.736	136.94
280.968	102.94
281.199	110.94
281.431	86.94
281.662	106.94
281.894	104.94
282.125	123.94
282.356	151.94
282.588	202.94
282.819	146.94
283.051	104.94
283.282	79.94
283.513	98.94
283.745	103.94
283.976	99.94
284.207	98.94
284.439	91.94
284.67	92.94
284.901	104.94
285.132	87.94
285.364	92.94
285.595	88.94
285.826	104.94
286.057	98.94
286.288	79.94
286.52	93.94
286.751	79.94
286.982	95.94
287.213	85.94
287.444	88.94
287.675	89.94
287.906	96.94
288.138	79.94
288.369	102.94
288.6	121.94
288.831	94.94
289.062	117.94
289.293	104.94
289.524	86.94
289.755	103.94
289.986	84.94
290.217	81.94
290.448	87.94
290.679	84.94
290.91	91.94
291.141	97.94
291.371	80.94
291.602	82.94
291.833	93.94
292.064	93.94
292.295	103.94
292.526	110.94
292.757	83.94
292.987	93.94
293.218	84.94
293.449	88.94
293.68	94.94
293.91	85.94
294.141	91.94
294.372	91.94
294.603	91.94
294.833	90.94
295.064	93.94
295.295	99.94
295.525	96.94
295.756	110.94
295.987	137.94
296.217	204.94
296.448	184.94
296.679	108.94
296.909	100.94
297.14	83.94
297.37	94.94
297.601	92.94
297.831	92.94
298.062	98.94
298.292	94.94
298.523	88.94
298.753	95.94
298.984	88.94
299.214	87.94
299.445	104.94
299.675	98.94
299.905	104.94
300.136	85.94
300.366	97.94
300.597	102.94
300.827	96.94
301.057	103.94
301.288	125.94
301.518	105.94
301.748	105.94
301.979	131.94
302.209	116.94
302.439	102.94
302.669	88.94
302.9	94.94
303.13	116.94
303.36	127.94
303.59	158.94
303.82	184.94
304.051	116.94
304.281	97.94
304.511	100.94
304.741	94.94
304.971	96.94
305.201	93.94
305.431	88.94
305.661	94.94
305.891	103.94
306.121	103.94
306.352	123.94
306.582	133.94
306.812	119.94
307.042	145.94
307.272	219.94
307.502	242.94
307.731	214.94
307.961	152.94
308.191	115.94
308.421	103.94
308.651	87.94
308.881	112.94
309.111	90.94
309.341	96.94
309.571	118.94
309.8	107.94
310.03	119.94
310.26	111.94
310.49	114.94
310.72	120.94
310.949	157.94
311.179	127.94
311.409	103.94
311.639	96.94
311.868	97.94
312.098	90.94
312.328	98.94
312.557	136.94
312.787	154.94
313.017	127.94
313.246	116.94
313.476	109.94
313.706	98.94
313.935	105.94
314.165	130.94
314.394	113.94
314.624	110.94
314.853	107.94
315.083	110.94
315.312	95.94
315.542	101.94
315.771	100.94
316.001	89.94
316.23	103.94
316.46	94.94
316.689	111.94
316.919	106.94
317.148	130.94
317.377	106.94
317.607	95.94
317.836	102.94
318.065	94.94
318.295	97.94
318.524	101.94
318.753	98.94
318.983	100.94
319.212	122.94
319.441	127.94
319.67	118.94
319.9	103.94
320.129	110.94
320.358	109.94
320.587	108.94
320.816	113.94
321.046	123.94
321.275	107.94
321.504	115.94
321.733	95.94
321.962	101.94
322.191	107.94
322.42	121.94
322.649	144.94
322.878	138.94
323.108	151.94
323.337	178.94
323.566	185.94
323.795	226.94
324.024	311.94
324.253	619.94
324.482	1379.94
324.71	2860.94
324.939	3815.94
325.168	1377.94
325.397	375.94
325.626	201.94
325.855	162.94
326.084	170.94
326.313	177.94
326.542	211.94
326.77	343.94
326.999	683.94
327.228	1428.94
327.457	2668.94
327.686	2181.94
327.914	812.94
328.143	878.94
328.372	1186.94
328.6	619.94
328.829	274.94
329.058	264.94
329.287	283.94
329.515	238.94
329.744	384.94
329.972	831.94
330.201	1778.94
330.43	2666.94
330.658	1105.94
330.887	455.94
331.115	275.94
331.344	169.94
331.572	134.94
331.801	146.94
332.03	145.94
332.258	124.94
332.486	132.94
332.715	132.94
332.943	153.94
333.172	154.94
333.4	157.94
333.629	193.94
333.857	329.94
334.085	715.94
334.314	1578.94
334.542	3261.94
334.771	2979.94
334.999	702.94
335.227	247.94
335.455	167.94
335.684	133.94
335.912	128.94
336.14	126.94
336.369	135.94
336.597	127.94
336.825	120.94
337.053	100.94
337.281	88.94
337.51	103.94
337.738	113.94
337.966	110.94
338.194	122.94
338.422	107.94
338.65	105.94
338.878	107.94
339.106	111.94
339.334	95.94
339.562	88.94
339.79	104.94
340.018	97.94
340.246	105.94
340.474	123.94
340.702	118.94
340.93	99.94
341.158	99.94
341.386	111.94
341.614	97.94
341.842	113.94
342.07	107.94
342.298	109.94
342.526	91.94
342.754	81.94
342.981	94.94
343.209	103.94
343.437	101.94
343.665	85.94
343.893	79.94
344.12	109.94
344.348	87.94
344.576	100.94
344.804	109.94
345.031	121.94
345.259	147.94
345.487	108.94
345.714	108.94
345.942	93.94
346.17	91.94
346.397	94.94
346.625	112.94
346.853	101.94
347.08	95.94
347.308	104.94
347.535	102.94
347.763	128.94
347.99	126.94
348.218	135.94
348.445	119.94
348.673	128.94
348.9	113.94
349.128	102.94
349.355	86.94
349.583	98.94
349.81	97.94
350.037	106.94
350.265	101.94
350.492	104.94
350.72	100.94
350.947	123.94
351.174	135.94
351.402	142.94
351.629	130.94
351.856	124.94
352.083	125.94
352.311	119.94
352.538	152.94
352.765	132.94
352.992	141.94
353.22	125.94
353.447	107.94
353.674	97.94
353.901	100.94
354.128	89.94
354.355	102.94
354.583	92.94
354.81	109.94
355.037	100.94
355.264	92.94
355.491	90.94
355.718	93.94
355.945	102.94
356.172	97.94
356.399	105.94
356.626	90.94
356.853	100.94
357.08	92.94
357.307	92.94
357.534	81.94
357.761	92.94
357.988	103.94
358.215	92.94
358.441	93.94
358.668	87.94
358.895	96.94
359.122	94.94
359.349	83.94
359.576	107.94
359.802	120.94
360.029	180.94
360.256	172.94
360.483	129.94
360.709	100.94
360.936	98.94
361.163	122.94
361.39	106.94
361.616	119.94
361.843	109.94
362.07	114.94
362.296	111.94
362.523	115.94
362.749	115.94
362.976	105.94
363.203	95.94
363.429	93.94
363.656	93.94
363.882	111.94
364.109	89.94
364.335	100.94
364.562	103.94
364.788	96.94
365.015	89.94
365.241	118.94
365.468	121.94
365.694	128.94
365.92	113.94
366.147	103.94
366.373	105.94
366.599	92.94
366.826	88.94
367.052	95.94
367.278	107.94
367.505	95.94
367.731	104.94
367.957	85.94
368.184	106.94
368.41	110.94
368.636	146.94
368.862	145.94
369.089	147.94
369.315	102.94
369.541	104.94
369.767	99.94
369.993	111.94
370.219	107.94
370.445	94.94
370.672	110.94
370.898	111.94
371.124	83.94
371.35	98.94
371.576	90.94
371.802	93.94
372.028	90.94
372.254	96.94
372.48	83.94
372.706	75.94
372.932	101.94
373.158	83.94
373.384	90.94
373.61	89.94
373.835	91.94
374.061	97.94
374.287	103.94
374.513	104.94
374.739	87.94
374.965	95.94
375.191	89.94
375.416	88.94
375.642	95.94
375.868	101.94
376.094	84.94
376.319	94.94
376.545	90.94
376.771	93.94
376.997	85.94
377.222	99.94
377.448	99.94
377.674	89.94
377.899	82.94
378.125	94.94
378.35	93.94
378.576	94.94
378.802	80.94
379.027	102.94
379.253	98.94
379.478	87.94
379.704	76.94
379.929	106.94
380.155	92.94
380.38	99.94
380.606	76.94
380.831	102.94
381.057	87.94
381.282	89.94
381.507	101.94
381.733	95.94
381.958	103.94
382.184	89.94
382.409	87.94
382.634	112.94
382.86	105.94
383.085	100.94
383.31	103.94
383.535	100.94
383.761	113.94
383.986	90.94
384.211	84.94
384.436	100.94
384.662	113.94
384.887	92.94
385.112	108.94
385.337	105.94
385.562	101.94
385.787	89.94
386.013	127.94
386.238	128.94
386.463	93.94
386.688	105.94
386.913	103.94
387.138	90.94
387.363	103.94
387.588	93.94
387.813	90.94
388.038	103.94
388.263	101.94
388.488	109.94
388.713	90.94
388.938	87.94
389.163	89.94
389.387	86.94
389.612	99.94
389.837	70.94
390.062	95.94
390.287	86.94
390.512	104.94
390.736	95.94
390.961	87.94
391.186	76.94
391.411	97.94
391.636	91.94
391.86	84.94
392.085	92.94
392.31	92.94
392.534	92.94
392.759	86.94
392.984	78.94
393.208	74.94
393.433	81.94
393.658	86.94
393.882	84.94
394.107	95.94
394.331	91.94
394.556	87.94
394.78	93.94
395.005	90.94
395.229	76.94
395.454	91.94
395.678	88.94
395.903	95.94
396.127	96.94
396.352	106.94
396.576	94.94
396.801	96.94
397.025	74.94
397.249	83.94
397.474	75.94
397.698	93.94
397.922	103.94
398.147	98.94
398.371	84.94
398.595	96.94
398.82	95.94
399.044	73.94
399.268	80.94
399.492	87.94
399.717	86.94
399.941	89.94
400.165	105.94
400.389	104.94
400.613	91.94
400.837	99.94
401.062	97.94
401.286	99.94
401.51	116.94
401.734	87.94
401.958	115.94
402.182	175.94
402.406	243.94
402.63	164.94
402.854	126.94
403.078	101.94
403.302	93.94
403.526	105.94
403.75	91.94
403.974	97.94
404.198	93.94
404.422	94.94
404.645	97.94
404.869	111.94
405.093	139.94
405.317	164.94
405.541	181.94
405.765	138.94
405.988	151.94
406.212	272.94
406.436	411.94
406.66	267.94
406.883	160.94
407.107	127.94
407.331	122.94
407.555	114.94
407.778	114.94
408.002	91.94
408.226	86.94
408.449	95.94
408.673	92.94
408.896	106.94
409.12	114.94
409.344	92.94
409.567	93.94
409.791	94.94
410.014	84.94
410.238	78.94
410.461	99.94
410.685	78.94
410.908	106.94
411.132	113.94
411.355	99.94
411.578	97.94
411.802	91.94
412.025	94.94
412.249	104.94
412.472	125.94
412.695	148.94
412.919	112.94
413.142	100.94
413.365	90.94
413.589	102.94
413.812	96.94
414.035	95.94
414.258	99.94
414.482	101.94
414.705	87.94
414.928	85.94
415.151	92.94
415.374	86.94
415.597	85.94
415.821	103.94
416.044	100.94
416.267	96.94
416.49	99.94
416.713	98.94
416.936	95.94
417.159	96.94
417.382	105.94
417.605	121.94
417.828	131.94
418.051	113.94
418.274	88.94
418.497	75.94
418.72	84.94
418.943	94.94
419.166	105.94
419.389	95.94
419.611	105.94
419.834	106.94
420.057	96.94
420.28	91.94
420.503	75.94
420.726	71.94
420.948	101.94
421.171	123.94
421.394	106.94
421.617	88.94
421.839	93.94
422.062	89.94
422.285	89.94
422.507	109.94
422.73	108.94
422.953	107.94
423.175	96.94
423.398	87.94
423.621	78.94
423.843	92.94
424.066	97.94
424.288	92.94
424.511	91.94
424.733	115.94
424.956	135.94
425.178	118.94
425.401	116.94
425.623	125.94
425.846	92.94
426.068	100.94
426.291	105.94
426.513	97.94
426.735	99.94
426.958	112.94
427.18	154.94
427.402	231.94
427.625	374.94
427.847	354.94
428.069	291.94
428.292	144.94
428.514	104.94
428.736	100.94
428.958	114.94
429.181	89.94
429.403	92.94
429.625	94.94
429.847	100.94
430.069	134.94
430.292	97.94
430.514	87.94
430.736	97.94
430.958	87.94
431.18	87.94
431.402	89.94
431.624	99.94
431.846	77.94
432.068	82.94
432.29	87.94
432.512	86.94
432.734	87.94
432.956	88.94
433.178	106.94
433.4	108.94
433.622	103.94
433.844	96.94
434.066	92.94
434.287	82.94
434.509	104.94
434.731	104.94
434.953	92.94
435.175	92.94
435.397	95.94
435.618	102.94
435.84	130.94
436.062	170.94
436.284	158.94
436.505	116.94
436.727	138.94
436.949	94.94
437.17	95.94
437.392	92.94
437.614	108.94
437.835	154.94
438.057	185.94
438.278	140.94
438.5	136.94
438.721	144.94
438.943	116.94
439.165	86.94
439.386	93.94
439.608	102.94
439.829	128.94
440.05	201.94
440.272	252.94
440.493	145.94
440.715	97.94
440.936	98.94
441.158	87.94
441.379	104.94
441.6	98.94
441.822	120.94
442.043	108.94
442.264	128.94
442.486	132.94
442.707	106.94
442.928	143.94
443.149	242.94
443.371	212.94
443.592	168.94
443.813	146.94
444.034	132.94
444.255	100.94
444.476	108.94
444.698	89.94
444.919	101.94
445.14	140.94
445.361	141.94
445.582	188.94
445.803	226.94
446.024	223.94
446.245	210.94
446.466	145.94
446.687	95.94
446.908	102.94
447.129	91.94
447.35	104.94
447.571	96.94
447.792	88.94
448.013	109.94
448.234	146.94
448.455	117.94
448.675	146.94
448.896	150.94
449.117	115.94
449.338	119.94
449.559	160.94
449.779	161.94
450	102.94
450.221	106.94
450.442	102.94
450.662	118.94
450.883	158.94
451.104	184.94
451.324	131.94
451.545	104.94
451.766	94.94
451.986	97.94
452.207	104.94
452.428	101.94
452.648	134.94
452.869	159.94
453.089	187.94
453.31	178.94
453.53	128.94
453.751	107.94
453.971	147.94
454.192	172.94
454.412	109.94
454.633	86.94
454.853	90.94
455.073	85.94
455.294	96.94
455.514	115.94
455.734	97.94
455.955	92.94
456.175	94.94
456.395	100.94
456.616	91.94
456.836	98.94
457.056	90.94
457.276	78.94
457.497	92.94
457.717	89.94
457.937	90.94
458.157	87.94
458.377	109.94
458.598	144.94
458.818	286.94
459.038	311.94
459.258	188.94
459.478	111.94
459.698	86.94
459.918	95.94
460.138	86.94
460.358	90.94
460.578	99.94
460.798	100.94
461.018	108.94
461.238	90.94
461.458	82.94
461.678	107.94
461.898	98.94
462.118	98.94
462.338	88.94
462.558	89.94
462.777	112.94
462.997	113.94
463.217	134.94
463.437	110.94
463.657	105.94
463.876	90.94
464.096	84.94
464.316	120.94
464.536	119.94
464.755	124.94
464.975	143.94
465.195	348.94
465.414	340.94
465.634	141.94
465.854	103.94
466.073	89.94
466.293	90.94
466.512	87.94
466.732	98.94
466.951	91.94
467.171	118.94
467.391	127.94
467.61	184.94
467.829	317.94
468.049	984.94
468.268	1480.94
468.488	334.94
468.707	137.94
468.927	101.94
469.146	92.94
469.365	98.94
469.585	99.94
469.804	131.94
470.023	140.94
470.243	125.94
470.462	149.94
470.681	186.94
470.901	124.94
471.12	109.94
471.339	114.94
471.558	137.94
471.777	210.94
471.997	478.94
472.216	1843.94
472.435	4460.94
472.654	946.94
472.873	236.94
473.092	127.94
473.311	102.94
473.53	104.94
473.749	99.94
473.968	124.94
474.187	148.94
474.406	124.94
474.625	95.94
474.844	83.94
475.063	93.94
475.282	92.94
475.501	93.94
475.72	91.94
475.939	101.94
476.158	98.94
476.377	93.94
476.596	89.94
476.814	109.94
477.033	123.94
477.252	104.94
477.471	107.94
477.69	101.94
477.908	95.94
478.127	91.94
478.346	107.94
478.564	103.94
478.783	114.94
479.002	123.94
479.22	118.94
479.439	159.94
479.658	191.94
479.876	144.94
480.095	139.94
480.313	174.94
480.532	228.94
480.751	433.94
480.969	1651.94
481.188	7368.94
481.406	4210.94
481.624	561.94
481.843	183.94
482.061	128.94
482.28	105.94
482.498	109.94
482.717	92.94
482.935	96.94
483.153	98.94
483.372	93.94
483.59	106.94
483.808	89.94
484.027	100.94
484.245	108.94
484.463	107.94
484.681	99.94
484.9	107.94
485.118	114.94
485.336	99.94
485.554	108.94
485.772	119.94
485.99	110.94
486.209	97.94
486.427	102.94
486.645	144.94
486.863	157.94
487.081	127.94
487.299	93.94
487.517	105.94
487.735	103.94
487.953	91.94
488.171	108.94
488.389	102.94
488.607	110.94
488.825	96.94
489.043	103.94
489.261	94.94
489.479	100.94
489.696	104.94
489.914	82.94
490.132	100.94
490.35	87.94
490.568	91.94
490.786	91.94
491.003	96.94
491.221	97.94
491.439	106.94
491.657	87.94
491.874	90.94
492.092	101.94
492.31	99.94
492.527	113.94
492.745	106.94
492.963	98.94
493.18	98.94
493.398	81.94
493.615	93.94
493.833	106.94
494.05	84.94
494.268	89.94
494.485	101.94
494.703	95.94
494.92	108.94
495.138	86.94
495.355	96.94
495.573	92.94
495.79	90.94
496.008	119.94
496.225	97.94
496.442	90.94
496.66	93.94
496.877	87.94
497.094	84.94
497.312	94.94
497.529	91.94
497.746	80.94
497.963	95.94
498.181	102.94
498.398	103.94
498.615	126.94
498.832	114.94
499.049	82.94
499.267	105.94
499.484	96.94
499.701	96.94
499.918	95.94
500.135	92.94
500.352	91.94
500.569	97.94
500.786	106.94
501.003	102.94
501.22	99.94
501.437	114.94
501.654	114.94
501.871	161.94
502.088	110.94
502.305	96.94
502.522	97.94
502.739	110.94
502.956	114.94
503.172	98.94
503.389	121.94
503.606	140.94
503.823	109.94
504.04	107.94
504.256	92.94
504.473	91.94
504.69	95.94
504.907	104.94
505.123	92.94
505.34	92.94
505.557	89.94
505.773	91.94
505.99	108.94
506.207	94.94
506.423	89.94
506.64	100.94
506.856	102.94
507.073	95.94
507.289	92.94
507.506	125.94
507.722	171.94
507.939	163.94
508.155	111.94
508.372	102.94
508.588	95.94
508.805	113.94
509.021	100.94
509.238	112.94
509.454	114.94
509.67	110.94
509.887	112.94
510.103	170.94
510.319	291.94
510.536	1143.94
510.752	4250.94
