Data from Circ_1995_H10_HRD10591_00088.txt Node
Date: Wed Jan 03 11:37:04 EST 2024
User: Yrep
Spectrometer: HR+D1059
Trigger mode: 1
Integration Time (sec): 1.000000E-1
Scans to average: 1
Electric dark correction enabled: true
Nonlinearity correction enabled: false
Boxcar width: 0
XAxis mode: Wavelengths
Number of Pixels in Spectrum: 2048
>>>>>Begin Spectral Data<<<<<
223.165	-32.06
223.4	-32.06
223.635	-32.06
223.869	-31.06
224.104	-17.06
224.338	-10.06
224.573	-23.06
224.808	-16.06
225.042	-12.06
225.277	6.94
225.511	-8.06
225.746	3.94
225.98	17.94
226.215	23.94
226.449	22.94
226.683	14.94
226.918	21.94
227.152	36.94
227.387	44.94
227.621	32.94
227.856	51.94
228.09	48.94
228.324	49.94
228.559	67.94
228.793	66.94
229.027	71.94
229.262	70.94
229.496	79.94
229.73	112.94
229.964	99.94
230.199	75.94
230.433	74.94
230.667	84.94
230.901	83.94
231.136	77.94
231.37	90.94
231.604	106.94
231.838	90.94
232.072	73.94
232.306	89.94
232.541	75.94
232.775	75.94
233.009	81.94
233.243	80.94
233.477	75.94
233.711	68.94
233.945	73.94
234.179	78.94
234.413	62.94
234.647	86.94
234.881	72.94
235.115	87.94
235.349	76.94
235.583	81.94
235.817	80.94
236.051	77.94
236.285	72.94
236.519	78.94
236.753	99.94
236.987	92.94
237.221	98.94
237.455	108.94
237.689	84.94
237.922	77.94
238.156	81.94
238.39	73.94
238.624	81.94
238.858	73.94
239.091	86.94
239.325	84.94
239.559	104.94
239.793	79.94
240.027	80.94
240.26	77.94
240.494	93.94
240.728	79.94
240.961	93.94
241.195	72.94
241.429	76.94
241.662	84.94
241.896	71.94
242.13	77.94
242.363	89.94
242.597	72.94
242.83	90.94
243.064	83.94
243.298	80.94
243.531	87.94
243.765	82.94
243.998	83.94
244.232	83.94
244.465	96.94
244.699	79.94
244.932	70.94
245.166	81.94
245.399	92.94
245.633	89.94
245.866	87.94
246.099	77.94
246.333	83.94
246.566	96.94
246.8	76.94
247.033	90.94
247.266	84.94
247.5	75.94
247.733	76.94
247.966	72.94
248.2	70.94
248.433	84.94
248.666	69.94
248.899	91.94
249.133	93.94
249.366	121.94
249.599	118.94
249.832	86.94
250.066	93.94
250.299	102.94
250.532	95.94
250.765	80.94
250.998	95.94
251.231	76.94
251.465	95.94
251.698	91.94
251.931	97.94
252.164	100.94
252.397	85.94
252.63	61.94
252.863	90.94
253.096	81.94
253.329	93.94
253.562	80.94
253.795	71.94
254.028	76.94
254.261	87.94
254.494	83.94
254.727	95.94
254.96	78.94
255.193	91.94
255.426	82.94
255.659	82.94
255.892	107.94
256.124	123.94
256.357	91.94
256.59	87.94
256.823	86.94
257.056	101.94
257.289	101.94
257.521	106.94
257.754	84.94
257.987	103.94
258.22	102.94
258.452	108.94
258.685	103.94
258.918	98.94
259.151	80.94
259.383	97.94
259.616	97.94
259.849	81.94
260.081	86.94
260.314	79.94
260.547	84.94
260.779	101.94
261.012	138.94
261.244	135.94
261.477	118.94
261.71	118.94
261.942	147.94
262.175	166.94
262.407	89.94
262.64	83.94
262.872	89.94
263.105	80.94
263.337	78.94
263.57	91.94
263.802	101.94
264.035	85.94
264.267	88.94
264.499	75.94
264.732	98.94
264.964	92.94
265.197	87.94
265.429	79.94
265.661	93.94
265.894	100.94
266.126	89.94
266.358	106.94
266.591	96.94
266.823	79.94
267.055	82.94
267.287	84.94
267.52	80.94
267.752	77.94
267.984	98.94
268.216	84.94
268.448	98.94
268.681	92.94
268.913	94.94
269.145	82.94
269.377	95.94
269.609	83.94
269.841	97.94
270.073	98.94
270.306	95.94
270.538	90.94
270.77	87.94
271.002	84.94
271.234	88.94
271.466	93.94
271.698	106.94
271.93	90.94
272.162	104.94
272.394	96.94
272.626	77.94
272.858	79.94
273.09	88.94
273.322	77.94
273.553	99.94
273.785	80.94
274.017	85.94
274.249	100.94
274.481	84.94
274.713	98.94
274.945	97.94
275.176	111.94
275.408	125.94
275.64	133.94
275.872	143.94
276.104	132.94
276.335	136.94
276.567	158.94
276.799	197.94
277.031	241.94
277.262	291.94
277.494	204.94
277.726	123.94
277.957	104.94
278.189	97.94
278.421	96.94
278.652	99.94
278.884	83.94
279.115	95.94
279.347	107.94
279.579	114.94
279.81	185.94
280.042	300.94
280.273	431.94
280.505	286.94
280.736	130.94
280.968	111.94
281.199	101.94
281.431	84.94
281.662	88.94
281.894	109.94
282.125	127.94
282.356	158.94
282.588	208.94
282.819	159.94
283.051	112.94
283.282	94.94
283.513	116.94
283.745	78.94
283.976	93.94
284.207	94.94
284.439	88.94
284.67	89.94
284.901	93.94
285.132	84.94
285.364	80.94
285.595	95.94
285.826	81.94
286.057	95.94
286.288	97.94
286.52	99.94
286.751	86.94
286.982	91.94
287.213	93.94
287.444	77.94
287.675	75.94
287.906	90.94
288.138	93.94
288.369	110.94
288.6	107.94
288.831	98.94
289.062	87.94
289.293	100.94
289.524	85.94
289.755	80.94
289.986	90.94
290.217	80.94
290.448	73.94
290.679	88.94
290.91	95.94
291.141	85.94
291.371	89.94
291.602	106.94
291.833	91.94
292.064	76.94
292.295	93.94
292.526	89.94
292.757	86.94
292.987	99.94
293.218	89.94
293.449	88.94
293.68	92.94
293.91	102.94
294.141	99.94
294.372	96.94
294.603	99.94
294.833	77.94
295.064	84.94
295.295	90.94
295.525	98.94
295.756	99.94
295.987	154.94
296.217	216.94
296.448	204.94
296.679	96.94
296.909	104.94
297.14	95.94
297.37	102.94
297.601	92.94
297.831	103.94
298.062	121.94
298.292	91.94
298.523	95.94
298.753	84.94
298.984	89.94
299.214	97.94
299.445	110.94
299.675	108.94
299.905	97.94
300.136	102.94
300.366	91.94
300.597	91.94
300.827	108.94
301.057	105.94
301.288	126.94
301.518	119.94
301.748	116.94
301.979	125.94
302.209	108.94
302.439	98.94
302.669	97.94
302.9	92.94
303.13	114.94
303.36	122.94
303.59	185.94
303.82	180.94
304.051	123.94
304.281	97.94
304.511	90.94
304.741	79.94
304.971	107.94
305.201	96.94
305.431	99.94
305.661	99.94
305.891	108.94
306.121	100.94
306.352	132.94
306.582	139.94
306.812	115.94
307.042	159.94
307.272	213.94
307.502	260.94
307.731	219.94
307.961	156.94
308.191	110.94
308.421	100.94
308.651	110.94
308.881	107.94
309.111	113.94
309.341	107.94
309.571	111.94
309.8	110.94
310.03	120.94
310.26	123.94
310.49	102.94
310.72	125.94
310.949	134.94
311.179	125.94
311.409	110.94
311.639	114.94
311.868	125.94
312.098	108.94
312.328	104.94
312.557	121.94
312.787	151.94
313.017	135.94
313.246	99.94
313.476	105.94
313.706	101.94
313.935	107.94
314.165	129.94
314.394	134.94
314.624	129.94
314.853	95.94
315.083	100.94
315.312	88.94
315.542	100.94
315.771	100.94
316.001	88.94
316.23	101.94
316.46	97.94
316.689	108.94
316.919	101.94
317.148	116.94
317.377	104.94
317.607	115.94
317.836	111.94
318.065	88.94
318.295	79.94
318.524	98.94
318.753	102.94
318.983	107.94
319.212	109.94
319.441	131.94
319.67	127.94
319.9	114.94
320.129	102.94
320.358	100.94
320.587	108.94
320.816	121.94
321.046	133.94
321.275	121.94
321.504	101.94
321.733	111.94
321.962	108.94
322.191	135.94
322.42	122.94
322.649	148.94
322.878	144.94
323.108	148.94
323.337	177.94
323.566	197.94
323.795	221.94
324.024	306.94
324.253	620.94
324.482	1348.94
324.71	2808.94
324.939	3695.94
325.168	1305.94
325.397	365.94
325.626	205.94
325.855	169.94
326.084	164.94
326.313	185.94
326.542	211.94
326.77	341.94
326.999	634.94
327.228	1367.94
327.457	2576.94
327.686	2109.94
327.914	781.94
328.143	871.94
328.372	1203.94
328.6	644.94
328.829	267.94
329.058	254.94
329.287	295.94
329.515	255.94
329.744	413.94
329.972	849.94
330.201	1791.94
330.43	2695.94
330.658	1126.94
330.887	449.94
331.115	279.94
331.344	157.94
331.572	147.94
331.801	161.94
332.03	146.94
332.258	131.94
332.486	112.94
332.715	127.94
332.943	151.94
333.172	167.94
333.4	174.94
333.629	229.94
333.857	337.94
334.085	713.94
334.314	1643.94
334.542	3291.94
334.771	3061.94
334.999	717.94
335.227	269.94
335.455	152.94
335.684	136.94
335.912	116.94
336.14	114.94
336.369	125.94
336.597	144.94
336.825	116.94
337.053	108.94
337.281	95.94
337.51	105.94
337.738	95.94
337.966	106.94
338.194	110.94
338.422	122.94
338.65	114.94
338.878	100.94
339.106	111.94
339.334	101.94
339.562	94.94
339.79	112.94
340.018	99.94
340.246	97.94
340.474	109.94
340.702	114.94
340.93	101.94
341.158	100.94
341.386	115.94
341.614	124.94
341.842	117.94
342.07	93.94
342.298	98.94
342.526	97.94
342.754	106.94
342.981	99.94
343.209	104.94
343.437	97.94
343.665	92.94
343.893	91.94
344.12	96.94
344.348	108.94
344.576	95.94
344.804	98.94
345.031	120.94
345.259	120.94
345.487	116.94
345.714	116.94
345.942	99.94
346.17	87.94
346.397	88.94
346.625	104.94
346.853	120.94
347.08	104.94
347.308	107.94
347.535	112.94
347.763	127.94
347.99	113.94
348.218	125.94
348.445	147.94
348.673	124.94
348.9	119.94
349.128	91.94
349.355	95.94
349.583	98.94
349.81	104.94
350.037	114.94
350.265	109.94
350.492	93.94
350.72	99.94
350.947	124.94
351.174	135.94
351.402	138.94
351.629	116.94
351.856	125.94
352.083	118.94
352.311	132.94
352.538	155.94
352.765	145.94
352.992	140.94
353.22	146.94
353.447	128.94
353.674	109.94
353.901	95.94
354.128	93.94
354.355	100.94
354.583	104.94
354.81	94.94
355.037	96.94
355.264	101.94
355.491	100.94
355.718	95.94
355.945	92.94
356.172	92.94
356.399	104.94
356.626	104.94
356.853	103.94
357.08	97.94
357.307	86.94
357.534	92.94
357.761	92.94
357.988	97.94
358.215	96.94
358.441	107.94
358.668	101.94
358.895	92.94
359.122	90.94
359.349	114.94
359.576	112.94
359.802	136.94
360.029	201.94
360.256	175.94
360.483	130.94
360.709	109.94
360.936	106.94
361.163	108.94
361.39	105.94
361.616	112.94
361.843	107.94
362.07	130.94
362.296	117.94
362.523	115.94
362.749	119.94
362.976	109.94
363.203	93.94
363.429	105.94
363.656	105.94
363.882	98.94
364.109	102.94
364.335	100.94
364.562	99.94
364.788	106.94
365.015	115.94
365.241	115.94
365.468	139.94
365.694	160.94
365.92	130.94
366.147	101.94
366.373	89.94
366.599	93.94
366.826	109.94
367.052	93.94
367.278	101.94
367.505	93.94
367.731	111.94
367.957	105.94
368.184	97.94
368.41	108.94
368.636	143.94
368.862	171.94
369.089	138.94
369.315	104.94
369.541	105.94
369.767	112.94
369.993	102.94
370.219	92.94
370.445	81.94
370.672	84.94
370.898	95.94
371.124	90.94
371.35	105.94
371.576	100.94
371.802	80.94
372.028	81.94
372.254	66.94
372.48	92.94
372.706	100.94
372.932	88.94
373.158	97.94
373.384	109.94
373.61	101.94
373.835	99.94
374.061	95.94
374.287	92.94
374.513	100.94
374.739	85.94
374.965	95.94
375.191	96.94
375.416	87.94
375.642	86.94
375.868	93.94
376.094	103.94
376.319	83.94
376.545	100.94
376.771	99.94
376.997	92.94
377.222	99.94
377.448	94.94
377.674	86.94
377.899	87.94
378.125	97.94
378.35	88.94
378.576	98.94
378.802	83.94
379.027	78.94
379.253	92.94
379.478	93.94
379.704	101.94
379.929	98.94
380.155	97.94
380.38	92.94
380.606	94.94
380.831	102.94
381.057	85.94
381.282	99.94
381.507	101.94
381.733	102.94
381.958	113.94
382.184	96.94
382.409	93.94
382.634	112.94
382.86	87.94
383.085	84.94
383.31	93.94
383.535	92.94
383.761	108.94
383.986	94.94
384.211	101.94
384.436	110.94
384.662	105.94
384.887	109.94
385.112	111.94
385.337	106.94
385.562	98.94
385.787	106.94
386.013	120.94
386.238	126.94
386.463	120.94
386.688	117.94
386.913	109.94
387.138	96.94
387.363	98.94
387.588	105.94
387.813	100.94
388.038	96.94
388.263	104.94
388.488	101.94
388.713	81.94
388.938	114.94
389.163	112.94
389.387	98.94
389.612	101.94
389.837	87.94
390.062	85.94
390.287	108.94
390.512	95.94
390.736	87.94
390.961	97.94
391.186	95.94
391.411	97.94
391.636	96.94
391.86	92.94
392.085	79.94
392.31	75.94
392.534	75.94
392.759	91.94
392.984	94.94
393.208	92.94
393.433	83.94
393.658	97.94
393.882	85.94
394.107	103.94
394.331	80.94
394.556	85.94
394.78	101.94
395.005	92.94
395.229	80.94
395.454	98.94
395.678	79.94
395.903	77.94
396.127	95.94
396.352	93.94
396.576	91.94
396.801	81.94
397.025	94.94
397.249	90.94
397.474	79.94
397.698	85.94
397.922	96.94
398.147	100.94
398.371	75.94
398.595	99.94
398.82	79.94
399.044	79.94
399.268	93.94
399.492	78.94
399.717	85.94
399.941	89.94
400.165	96.94
400.389	82.94
400.613	93.94
400.837	85.94
401.062	106.94
401.286	87.94
401.51	90.94
401.734	99.94
401.958	117.94
402.182	179.94
402.406	250.94
402.63	195.94
402.854	119.94
403.078	112.94
403.302	104.94
403.526	104.94
403.75	95.94
403.974	95.94
404.198	97.94
404.422	91.94
404.645	92.94
404.869	111.94
405.093	137.94
405.317	176.94
405.541	175.94
405.765	136.94
405.988	172.94
406.212	291.94
406.436	427.94
406.66	268.94
406.883	151.94
407.107	112.94
407.331	117.94
407.555	126.94
407.778	113.94
408.002	120.94
408.226	112.94
408.449	107.94
408.673	92.94
408.896	109.94
409.12	116.94
409.344	97.94
409.567	102.94
409.791	92.94
410.014	101.94
410.238	97.94
410.461	101.94
410.685	93.94
410.908	100.94
411.132	115.94
411.355	109.94
411.578	95.94
411.802	83.94
412.025	109.94
412.249	113.94
412.472	111.94
412.695	165.94
412.919	135.94
413.142	103.94
413.365	92.94
413.589	105.94
413.812	101.94
414.035	97.94
414.258	90.94
414.482	77.94
414.705	98.94
414.928	102.94
415.151	105.94
415.374	92.94
415.597	89.94
415.821	87.94
416.044	100.94
416.267	105.94
416.49	68.94
416.713	96.94
416.936	91.94
417.159	105.94
417.382	122.94
417.605	139.94
417.828	125.94
418.051	108.94
418.274	94.94
418.497	100.94
418.72	99.94
418.943	92.94
419.166	101.94
419.389	85.94
419.611	98.94
419.834	94.94
420.057	96.94
420.28	106.94
420.503	101.94
420.726	89.94
420.948	99.94
421.171	111.94
421.394	113.94
421.617	101.94
421.839	88.94
422.062	87.94
422.285	93.94
422.507	110.94
422.73	115.94
422.953	92.94
423.175	92.94
423.398	84.94
423.621	97.94
423.843	92.94
424.066	81.94
424.288	97.94
424.511	117.94
424.733	122.94
424.956	125.94
425.178	113.94
425.401	124.94
425.623	114.94
425.846	103.94
426.068	125.94
426.291	116.94
426.513	108.94
426.735	106.94
426.958	105.94
427.18	145.94
427.402	232.94
427.625	372.94
427.847	337.94
428.069	289.94
428.292	169.94
428.514	113.94
428.736	100.94
428.958	103.94
429.181	99.94
429.403	83.94
429.625	100.94
429.847	104.94
430.069	119.94
430.292	115.94
430.514	107.94
430.736	89.94
430.958	102.94
431.18	91.94
431.402	109.94
431.624	87.94
431.846	81.94
432.068	95.94
432.29	88.94
432.512	96.94
432.734	99.94
432.956	97.94
433.178	99.94
433.4	108.94
433.622	86.94
433.844	88.94
434.066	88.94
434.287	97.94
434.509	95.94
434.731	88.94
434.953	101.94
435.175	104.94
435.397	114.94
435.618	94.94
435.84	130.94
436.062	150.94
436.284	135.94
436.505	122.94
436.727	113.94
436.949	99.94
437.17	84.94
437.392	85.94
437.614	114.94
437.835	139.94
438.057	191.94
438.278	162.94
438.5	121.94
438.721	158.94
438.943	106.94
439.165	99.94
439.386	84.94
439.608	129.94
439.829	138.94
440.05	201.94
440.272	225.94
440.493	128.94
440.715	103.94
440.936	88.94
441.158	99.94
441.379	94.94
441.6	105.94
441.822	118.94
442.043	99.94
442.264	136.94
442.486	126.94
442.707	103.94
442.928	127.94
443.149	214.94
443.371	215.94
443.592	143.94
443.813	168.94
444.034	131.94
444.255	102.94
444.476	94.94
444.698	106.94
444.919	101.94
445.14	149.94
445.361	156.94
445.582	175.94
445.803	239.94
446.024	234.94
446.245	197.94
446.466	147.94
446.687	95.94
446.908	96.94
447.129	88.94
447.35	106.94
447.571	96.94
447.792	112.94
448.013	123.94
448.234	144.94
448.455	141.94
448.675	155.94
448.896	158.94
449.117	130.94
449.338	115.94
449.559	171.94
449.779	185.94
450	114.94
450.221	88.94
450.442	89.94
450.662	120.94
450.883	164.94
451.104	169.94
451.324	120.94
451.545	92.94
451.766	94.94
451.986	97.94
452.207	105.94
452.428	105.94
452.648	132.94
452.869	161.94
453.089	163.94
453.31	178.94
453.53	115.94
453.751	119.94
453.971	143.94
454.192	169.94
454.412	106.94
454.633	107.94
454.853	86.94
455.073	87.94
455.294	98.94
455.514	113.94
455.734	104.94
455.955	96.94
456.175	81.94
456.395	90.94
456.616	97.94
456.836	94.94
457.056	91.94
457.276	91.94
457.497	91.94
457.717	99.94
457.937	89.94
458.157	93.94
458.377	116.94
458.598	145.94
458.818	291.94
459.038	312.94
459.258	177.94
459.478	100.94
459.698	93.94
459.918	89.94
460.138	91.94
460.358	91.94
460.578	92.94
460.798	113.94
461.018	100.94
461.238	101.94
461.458	107.94
461.678	83.94
461.898	74.94
462.118	81.94
462.338	89.94
462.558	106.94
462.777	93.94
462.997	116.94
463.217	139.94
463.437	103.94
463.657	104.94
463.876	95.94
464.096	101.94
464.316	115.94
464.536	131.94
464.755	116.94
464.975	147.94
465.195	323.94
465.414	334.94
465.634	131.94
465.854	120.94
466.073	105.94
466.293	97.94
466.512	100.94
466.732	95.94
466.951	108.94
467.171	118.94
467.391	124.94
467.61	197.94
467.829	292.94
468.049	992.94
468.268	1595.94
468.488	338.94
468.707	141.94
468.927	94.94
469.146	119.94
469.365	105.94
469.585	100.94
469.804	131.94
470.023	130.94
470.243	145.94
470.462	137.94
470.681	181.94
470.901	121.94
471.12	124.94
471.339	131.94
471.558	153.94
471.777	206.94
471.997	482.94
472.216	1978.94
472.435	4712.94
472.654	992.94
472.873	231.94
473.092	147.94
473.311	108.94
473.53	105.94
473.749	111.94
473.968	120.94
474.187	137.94
474.406	103.94
474.625	100.94
474.844	95.94
475.063	96.94
475.282	90.94
475.501	96.94
475.72	97.94
475.939	100.94
476.158	93.94
476.377	88.94
476.596	88.94
476.814	105.94
477.033	111.94
477.252	104.94
477.471	93.94
477.69	107.94
477.908	113.94
478.127	105.94
478.346	100.94
478.564	100.94
478.783	116.94
479.002	124.94
479.22	117.94
479.439	149.94
479.658	160.94
479.876	138.94
480.095	144.94
480.313	169.94
480.532	224.94
480.751	444.94
480.969	1759.94
481.188	7781.94
481.406	4380.94
481.624	570.94
481.843	179.94
482.061	135.94
482.28	106.94
482.498	99.94
482.717	100.94
482.935	93.94
483.153	93.94
483.372	94.94
483.59	92.94
483.808	96.94
484.027	93.94
484.245	97.94
484.463	101.94
484.681	105.94
484.9	112.94
485.118	98.94
485.336	93.94
485.554	95.94
485.772	102.94
485.99	108.94
486.209	106.94
486.427	120.94
486.645	139.94
486.863	138.94
487.081	112.94
487.299	112.94
487.517	101.94
487.735	81.94
487.953	94.94
488.171	99.94
488.389	107.94
488.607	126.94
488.825	91.94
489.043	91.94
489.261	107.94
489.479	92.94
489.696	93.94
489.914	82.94
490.132	96.94
490.35	91.94
490.568	89.94
490.786	97.94
491.003	109.94
491.221	107.94
491.439	96.94
491.657	97.94
491.874	88.94
492.092	102.94
492.31	91.94
492.527	109.94
492.745	103.94
492.963	104.94
493.18	89.94
493.398	89.94
493.615	78.94
493.833	88.94
494.05	96.94
494.268	99.94
494.485	103.94
494.703	96.94
494.92	96.94
495.138	93.94
495.355	95.94
495.573	93.94
495.79	88.94
496.008	90.94
496.225	83.94
496.442	96.94
496.66	96.94
496.877	98.94
497.094	84.94
497.312	87.94
497.529	96.94
497.746	90.94
497.963	93.94
498.181	107.94
498.398	107.94
498.615	125.94
498.832	120.94
499.049	95.94
499.267	99.94
499.484	94.94
499.701	97.94
499.918	114.94
500.135	102.94
500.352	106.94
500.569	104.94
500.786	105.94
501.003	109.94
501.22	103.94
501.437	103.94
501.654	84.94
501.871	150.94
502.088	98.94
502.305	100.94
502.522	93.94
502.739	109.94
502.956	94.94
503.172	100.94
503.389	115.94
503.606	147.94
503.823	129.94
504.04	133.94
504.256	110.94
504.473	90.94
504.69	99.94
504.907	88.94
505.123	98.94
505.34	88.94
505.557	87.94
505.773	103.94
505.99	106.94
506.207	90.94
506.423	104.94
506.64	100.94
506.856	100.94
507.073	98.94
507.289	108.94
507.506	114.94
507.722	174.94
507.939	155.94
508.155	120.94
508.372	111.94
508.588	114.94
508.805	102.94
509.021	101.94
509.238	111.94
509.454	107.94
509.67	111.94
509.887	121.94
510.103	161.94
510.319	307.94
