Data from Circ_1995_H10_HRD10591_00056.txt Node
Date: Wed Jan 03 11:36:57 EST 2024
User: Yrep
Spectrometer: HR+D1059
Trigger mode: 1
Integration Time (sec): 1.000000E-1
Scans to average: 1
Electric dark correction enabled: true
Nonlinearity correction enabled: false
Boxcar width: 0
XAxis mode: Wavelengths
Number of Pixels in Spectrum: 2048
>>>>>Begin Spectral Data<<<<<
223.165	-12.81
223.4	-12.81
223.635	-12.81
223.869	-19.81
224.104	-13.81
224.338	-31.81
224.573	-18.81
224.808	-5.81
225.042	-11.81
225.277	-4.81
225.511	-1.81
225.746	3.19
225.98	15.19
226.215	12.19
226.449	12.19
226.683	23.19
226.918	30.19
227.152	25.19
227.387	26.19
227.621	38.19
227.856	47.19
228.09	33.19
228.324	46.19
228.559	60.19
228.793	55.19
229.027	52.19
229.262	61.19
229.496	80.19
229.73	99.19
229.964	75.19
230.199	61.19
230.433	62.19
230.667	79.19
230.901	82.19
231.136	68.19
231.37	74.19
231.604	71.19
231.838	89.19
232.072	90.19
232.306	81.19
232.541	67.19
232.775	66.19
233.009	79.19
233.243	88.19
233.477	91.19
233.711	94.19
233.945	81.19
234.179	70.19
234.413	88.19
234.647	91.19
234.881	92.19
235.115	80.19
235.349	80.19
235.583	89.19
235.817	83.19
236.051	70.19
236.285	66.19
236.519	82.19
236.753	70.19
236.987	71.19
237.221	88.19
237.455	85.19
237.689	81.19
237.922	75.19
238.156	71.19
238.39	86.19
238.624	76.19
238.858	86.19
239.091	79.19
239.325	92.19
239.559	89.19
239.793	65.19
240.027	84.19
240.26	80.19
240.494	79.19
240.728	68.19
240.961	67.19
241.195	66.19
241.429	70.19
241.662	83.19
241.896	74.19
242.13	82.19
242.363	73.19
242.597	78.19
242.83	88.19
243.064	81.19
243.298	70.19
243.531	76.19
243.765	68.19
243.998	66.19
244.232	78.19
244.465	99.19
244.699	75.19
244.932	84.19
245.166	75.19
245.399	86.19
245.633	80.19
245.866	79.19
246.099	86.19
246.333	94.19
246.566	85.19
246.8	84.19
247.033	69.19
247.266	73.19
247.5	66.19
247.733	82.19
247.966	80.19
248.2	87.19
248.433	76.19
248.666	91.19
248.899	93.19
249.133	83.19
249.366	103.19
249.599	98.19
249.832	86.19
250.066	90.19
250.299	91.19
250.532	71.19
250.765	96.19
250.998	78.19
251.231	74.19
251.465	81.19
251.698	78.19
251.931	95.19
252.164	79.19
252.397	81.19
252.63	83.19
252.863	90.19
253.096	81.19
253.329	89.19
253.562	78.19
253.795	80.19
254.028	52.19
254.261	87.19
254.494	96.19
254.727	82.19
254.96	80.19
255.193	76.19
255.426	80.19
255.659	87.19
255.892	102.19
256.124	93.19
256.357	87.19
256.59	93.19
256.823	71.19
257.056	88.19
257.289	86.19
257.521	89.19
257.754	89.19
257.987	92.19
258.22	94.19
258.452	97.19
258.685	91.19
258.918	95.19
259.151	98.19
259.383	94.19
259.616	91.19
259.849	90.19
260.081	82.19
260.314	82.19
260.547	79.19
260.779	103.19
261.012	117.19
261.244	117.19
261.477	101.19
261.71	103.19
261.942	119.19
262.175	137.19
262.407	100.19
262.64	92.19
262.872	65.19
263.105	89.19
263.337	73.19
263.57	78.19
263.802	83.19
264.035	87.19
264.267	78.19
264.499	76.19
264.732	70.19
264.964	97.19
265.197	94.19
265.429	86.19
265.661	77.19
265.894	80.19
266.126	76.19
266.358	86.19
266.591	72.19
266.823	79.19
267.055	73.19
267.287	87.19
267.52	75.19
267.752	79.19
267.984	75.19
268.216	76.19
268.448	79.19
268.681	104.19
268.913	105.19
269.145	84.19
269.377	86.19
269.609	82.19
269.841	80.19
270.073	91.19
270.306	91.19
270.538	88.19
270.77	67.19
271.002	78.19
271.234	100.19
271.466	97.19
271.698	75.19
271.93	84.19
272.162	77.19
272.394	82.19
272.626	90.19
272.858	80.19
273.09	70.19
273.322	88.19
273.553	94.19
273.785	75.19
274.017	98.19
274.249	87.19
274.481	78.19
274.713	81.19
274.945	85.19
275.176	96.19
275.408	89.19
275.64	124.19
275.872	126.19
276.104	121.19
276.335	97.19
276.567	119.19
276.799	142.19
277.031	164.19
277.262	195.19
277.494	169.19
277.726	109.19
277.957	89.19
278.189	84.19
278.421	95.19
278.652	86.19
278.884	95.19
279.115	94.19
279.347	92.19
279.579	101.19
279.81	138.19
280.042	203.19
280.273	298.19
280.505	211.19
280.736	106.19
280.968	88.19
281.199	85.19
281.431	85.19
281.662	88.19
281.894	74.19
282.125	93.19
282.356	123.19
282.588	168.19
282.819	138.19
283.051	95.19
283.282	94.19
283.513	76.19
283.745	79.19
283.976	86.19
284.207	79.19
284.439	99.19
284.67	91.19
284.901	99.19
285.132	90.19
285.364	95.19
285.595	76.19
285.826	82.19
286.057	89.19
286.288	72.19
286.52	75.19
286.751	80.19
286.982	94.19
287.213	77.19
287.444	92.19
287.675	96.19
287.906	88.19
288.138	81.19
288.369	82.19
288.6	83.19
288.831	85.19
289.062	87.19
289.293	100.19
289.524	78.19
289.755	74.19
289.986	76.19
290.217	90.19
290.448	99.19
290.679	86.19
290.91	86.19
291.141	89.19
291.371	85.19
291.602	86.19
291.833	93.19
292.064	76.19
292.295	82.19
292.526	91.19
292.757	86.19
292.987	88.19
293.218	98.19
293.449	87.19
293.68	85.19
293.91	89.19
294.141	89.19
294.372	91.19
294.603	94.19
294.833	98.19
295.064	91.19
295.295	87.19
295.525	89.19
295.756	102.19
295.987	124.19
296.217	160.19
296.448	144.19
296.679	94.19
296.909	102.19
297.14	83.19
297.37	95.19
297.601	93.19
297.831	84.19
298.062	98.19
298.292	89.19
298.523	91.19
298.753	92.19
298.984	81.19
299.214	87.19
299.445	99.19
299.675	102.19
299.905	89.19
300.136	82.19
300.366	94.19
300.597	104.19
300.827	94.19
301.057	107.19
301.288	104.19
301.518	107.19
301.748	121.19
301.979	99.19
302.209	96.19
302.439	90.19
302.669	85.19
302.9	98.19
303.13	98.19
303.36	104.19
303.59	124.19
303.82	159.19
304.051	119.19
304.281	84.19
304.511	91.19
304.741	77.19
304.971	87.19
305.201	89.19
305.431	86.19
305.661	88.19
305.891	86.19
306.121	97.19
306.352	118.19
306.582	116.19
306.812	107.19
307.042	132.19
307.272	176.19
307.502	195.19
307.731	184.19
307.961	137.19
308.191	116.19
308.421	98.19
308.651	86.19
308.881	89.19
309.111	67.19
309.341	110.19
309.571	111.19
309.8	98.19
310.03	100.19
310.26	97.19
310.49	87.19
310.72	115.19
310.949	112.19
311.179	100.19
311.409	108.19
311.639	99.19
311.868	97.19
312.098	98.19
312.328	108.19
312.557	116.19
312.787	113.19
313.017	107.19
313.246	100.19
313.476	103.19
313.706	95.19
313.935	102.19
314.165	97.19
314.394	113.19
314.624	113.19
314.853	99.19
315.083	96.19
315.312	100.19
315.542	99.19
315.771	96.19
316.001	88.19
316.23	97.19
316.46	101.19
316.689	92.19
316.919	103.19
317.148	116.19
317.377	98.19
317.607	101.19
317.836	100.19
318.065	100.19
318.295	98.19
318.524	99.19
318.753	86.19
318.983	94.19
319.212	112.19
319.441	115.19
319.67	108.19
319.9	95.19
320.129	92.19
320.358	103.19
320.587	96.19
320.816	103.19
321.046	102.19
321.275	108.19
321.504	97.19
321.733	106.19
321.962	101.19
322.191	111.19
322.42	98.19
322.649	115.19
322.878	117.19
323.108	115.19
323.337	122.19
323.566	152.19
323.795	177.19
324.024	242.19
324.253	482.19
324.482	1054.19
324.71	2163.19
324.939	2916.19
325.168	1046.19
325.397	297.19
325.626	164.19
325.855	150.19
326.084	135.19
326.313	143.19
326.542	168.19
326.77	269.19
326.999	513.19
327.228	1155.19
327.457	2064.19
327.686	1718.19
327.914	584.19
328.143	563.19
328.372	733.19
328.6	421.19
328.829	190.19
329.058	193.19
329.287	191.19
329.515	174.19
329.744	263.19
329.972	507.19
330.201	1101.19
330.43	1646.19
330.658	711.19
330.887	298.19
331.115	188.19
331.344	120.19
331.572	130.19
331.801	131.19
332.03	131.19
332.258	111.19
332.486	123.19
332.715	96.19
332.943	118.19
333.172	126.19
333.4	140.19
333.629	159.19
333.857	248.19
334.085	481.19
334.314	997.19
334.542	1962.19
334.771	1868.19
334.999	479.19
335.227	202.19
335.455	128.19
335.684	98.19
335.912	104.19
336.14	103.19
336.369	110.19
336.597	111.19
336.825	99.19
337.053	87.19
337.281	95.19
337.51	97.19
337.738	98.19
337.966	108.19
338.194	105.19
338.422	102.19
338.65	96.19
338.878	87.19
339.106	100.19
339.334	102.19
339.562	100.19
339.79	91.19
340.018	91.19
340.246	85.19
340.474	90.19
340.702	97.19
340.93	90.19
341.158	108.19
341.386	106.19
341.614	107.19
341.842	96.19
342.07	92.19
342.298	91.19
342.526	84.19
342.754	90.19
342.981	88.19
343.209	86.19
343.437	89.19
343.665	83.19
343.893	88.19
344.12	95.19
344.348	88.19
344.576	97.19
344.804	92.19
345.031	110.19
345.259	111.19
345.487	94.19
345.714	85.19
345.942	103.19
346.17	78.19
346.397	97.19
346.625	93.19
346.853	107.19
347.08	96.19
347.308	104.19
347.535	104.19
347.763	97.19
347.99	94.19
348.218	107.19
348.445	117.19
348.673	114.19
348.9	114.19
349.128	100.19
349.355	90.19
349.583	95.19
349.81	95.19
350.037	101.19
350.265	100.19
350.492	92.19
350.72	99.19
350.947	104.19
351.174	119.19
351.402	112.19
351.629	98.19
351.856	121.19
352.083	115.19
352.311	123.19
352.538	111.19
352.765	109.19
352.992	128.19
353.22	115.19
353.447	113.19
353.674	96.19
353.901	107.19
354.128	106.19
354.355	102.19
354.583	88.19
354.81	88.19
355.037	94.19
355.264	94.19
355.491	100.19
355.718	86.19
355.945	100.19
356.172	97.19
356.399	80.19
356.626	96.19
356.853	91.19
357.08	105.19
357.307	90.19
357.534	94.19
357.761	89.19
357.988	79.19
358.215	100.19
358.441	77.19
358.668	98.19
358.895	96.19
359.122	99.19
359.349	90.19
359.576	102.19
359.802	114.19
360.029	145.19
360.256	142.19
360.483	107.19
360.709	90.19
360.936	101.19
361.163	102.19
361.39	102.19
361.616	108.19
361.843	100.19
362.07	109.19
362.296	107.19
362.523	109.19
362.749	89.19
362.976	99.19
363.203	85.19
363.429	98.19
363.656	98.19
363.882	97.19
364.109	100.19
364.335	90.19
364.562	97.19
364.788	99.19
365.015	114.19
365.241	105.19
365.468	106.19
365.694	116.19
365.92	103.19
366.147	98.19
366.373	107.19
366.599	106.19
366.826	103.19
367.052	90.19
367.278	92.19
367.505	105.19
367.731	92.19
367.957	100.19
368.184	96.19
368.41	96.19
368.636	107.19
368.862	122.19
369.089	117.19
369.315	103.19
369.541	94.19
369.767	94.19
369.993	87.19
370.219	100.19
370.445	91.19
370.672	75.19
370.898	86.19
371.124	81.19
371.35	74.19
371.576	83.19
371.802	95.19
372.028	99.19
372.254	92.19
372.48	87.19
372.706	85.19
372.932	86.19
373.158	84.19
373.384	96.19
373.61	84.19
373.835	81.19
374.061	100.19
374.287	92.19
374.513	105.19
374.739	94.19
374.965	98.19
375.191	86.19
375.416	84.19
375.642	90.19
375.868	88.19
376.094	91.19
376.319	87.19
376.545	88.19
376.771	86.19
376.997	91.19
377.222	90.19
377.448	84.19
377.674	99.19
377.899	96.19
378.125	87.19
378.35	86.19
378.576	91.19
378.802	82.19
379.027	96.19
379.253	94.19
379.478	99.19
379.704	93.19
379.929	104.19
380.155	92.19
380.38	90.19
380.606	110.19
380.831	95.19
381.057	87.19
381.282	90.19
381.507	102.19
381.733	98.19
381.958	100.19
382.184	97.19
382.409	90.19
382.634	98.19
382.86	92.19
383.085	105.19
383.31	118.19
383.535	107.19
383.761	94.19
383.986	86.19
384.211	94.19
384.436	88.19
384.662	94.19
384.887	97.19
385.112	96.19
385.337	91.19
385.562	100.19
385.787	125.19
386.013	102.19
386.238	104.19
386.463	111.19
386.688	121.19
386.913	109.19
387.138	112.19
387.363	107.19
387.588	118.19
387.813	100.19
388.038	108.19
388.263	107.19
388.488	105.19
388.713	90.19
388.938	80.19
389.163	95.19
389.387	87.19
389.612	88.19
389.837	91.19
390.062	82.19
390.287	84.19
390.512	92.19
390.736	86.19
390.961	96.19
391.186	91.19
391.411	96.19
391.636	111.19
391.86	92.19
392.085	92.19
392.31	96.19
392.534	78.19
392.759	90.19
392.984	95.19
393.208	93.19
393.433	92.19
393.658	91.19
393.882	83.19
394.107	92.19
394.331	81.19
394.556	74.19
394.78	95.19
395.005	97.19
395.229	92.19
395.454	84.19
395.678	89.19
395.903	92.19
396.127	91.19
396.352	87.19
396.576	78.19
396.801	89.19
397.025	78.19
397.249	80.19
397.474	90.19
397.698	88.19
397.922	89.19
398.147	87.19
398.371	85.19
398.595	77.19
398.82	70.19
399.044	89.19
399.268	88.19
399.492	83.19
399.717	90.19
399.941	85.19
400.165	78.19
400.389	101.19
400.613	99.19
400.837	84.19
401.062	80.19
401.286	87.19
401.51	93.19
401.734	88.19
401.958	107.19
402.182	139.19
402.406	190.19
402.63	155.19
402.854	106.19
403.078	77.19
403.302	83.19
403.526	93.19
403.75	88.19
403.974	89.19
404.198	92.19
404.422	87.19
404.645	87.19
404.869	77.19
405.093	114.19
405.317	135.19
405.541	136.19
405.765	130.19
405.988	136.19
406.212	206.19
406.436	307.19
406.66	207.19
406.883	126.19
407.107	111.19
407.331	106.19
407.555	116.19
407.778	106.19
408.002	88.19
408.226	96.19
408.449	89.19
408.673	98.19
408.896	79.19
409.12	99.19
409.344	93.19
409.567	87.19
409.791	91.19
410.014	105.19
410.238	87.19
410.461	89.19
410.685	87.19
410.908	97.19
411.132	104.19
411.355	109.19
411.578	102.19
411.802	71.19
412.025	75.19
412.249	98.19
412.472	117.19
412.695	139.19
412.919	98.19
413.142	98.19
413.365	98.19
413.589	81.19
413.812	86.19
414.035	93.19
414.258	89.19
414.482	101.19
414.705	80.19
414.928	96.19
415.151	94.19
415.374	96.19
415.597	91.19
415.821	98.19
416.044	89.19
416.267	94.19
416.49	85.19
416.713	84.19
416.936	92.19
417.159	93.19
417.382	85.19
417.605	107.19
417.828	130.19
418.051	103.19
418.274	79.19
418.497	73.19
418.72	85.19
418.943	103.19
419.166	94.19
419.389	82.19
419.611	82.19
419.834	83.19
420.057	106.19
420.28	100.19
420.503	95.19
420.726	85.19
420.948	88.19
421.171	109.19
421.394	104.19
421.617	92.19
421.839	87.19
422.062	83.19
422.285	100.19
422.507	96.19
422.73	118.19
422.953	94.19
423.175	100.19
423.398	87.19
423.621	86.19
423.843	79.19
424.066	93.19
424.288	88.19
424.511	96.19
424.733	108.19
424.956	104.19
425.178	98.19
425.401	103.19
425.623	93.19
425.846	95.19
426.068	94.19
426.291	99.19
426.513	103.19
426.735	94.19
426.958	108.19
427.18	130.19
427.402	178.19
427.625	250.19
427.847	241.19
428.069	236.19
428.292	136.19
428.514	107.19
428.736	104.19
428.958	88.19
429.181	101.19
429.403	92.19
429.625	93.19
429.847	100.19
430.069	119.19
430.292	102.19
430.514	86.19
430.736	90.19
430.958	74.19
431.18	78.19
431.402	87.19
431.624	95.19
431.846	98.19
432.068	99.19
432.29	88.19
432.512	91.19
432.734	84.19
432.956	91.19
433.178	99.19
433.4	119.19
433.622	92.19
433.844	93.19
434.066	86.19
434.287	98.19
434.509	104.19
434.731	96.19
434.953	95.19
435.175	87.19
435.397	103.19
435.618	96.19
435.84	101.19
436.062	136.19
436.284	112.19
436.505	105.19
436.727	115.19
436.949	84.19
437.17	92.19
437.392	96.19
437.614	111.19
437.835	118.19
438.057	157.19
438.278	125.19
438.5	108.19
438.721	140.19
438.943	98.19
439.165	96.19
439.386	80.19
439.608	96.19
439.829	105.19
440.05	158.19
440.272	180.19
440.493	127.19
440.715	76.19
440.936	88.19
441.158	89.19
441.379	86.19
441.6	93.19
441.822	95.19
442.043	88.19
442.264	119.19
442.486	105.19
442.707	102.19
442.928	115.19
443.149	158.19
443.371	177.19
443.592	118.19
443.813	131.19
444.034	126.19
444.255	110.19
444.476	93.19
444.698	89.19
444.919	87.19
445.14	138.19
445.361	139.19
445.582	139.19
445.803	177.19
446.024	163.19
446.245	166.19
446.466	136.19
446.687	102.19
446.908	93.19
447.129	100.19
447.35	74.19
447.571	97.19
447.792	95.19
448.013	107.19
448.234	128.19
448.455	110.19
448.675	132.19
448.896	124.19
449.117	113.19
449.338	105.19
449.559	134.19
449.779	131.19
450	111.19
450.221	87.19
450.442	99.19
450.662	104.19
450.883	110.19
451.104	126.19
451.324	110.19
451.545	80.19
451.766	94.19
451.986	84.19
452.207	100.19
452.428	95.19
452.648	109.19
452.869	137.19
453.089	126.19
453.31	138.19
453.53	98.19
453.751	106.19
453.971	135.19
454.192	144.19
454.412	91.19
454.633	80.19
454.853	84.19
455.073	76.19
455.294	98.19
455.514	108.19
455.734	71.19
455.955	83.19
456.175	93.19
456.395	90.19
456.616	79.19
456.836	91.19
457.056	83.19
457.276	88.19
457.497	88.19
457.717	70.19
457.937	81.19
458.157	80.19
458.377	90.19
458.598	128.19
458.818	196.19
459.038	222.19
459.258	152.19
459.478	119.19
459.698	97.19
459.918	91.19
460.138	87.19
460.358	87.19
460.578	98.19
460.798	80.19
461.018	90.19
461.238	79.19
461.458	88.19
461.678	94.19
461.898	81.19
462.118	89.19
462.338	88.19
462.558	94.19
462.777	96.19
462.997	99.19
463.217	118.19
463.437	100.19
463.657	108.19
463.876	98.19
464.096	95.19
464.316	93.19
464.536	107.19
464.755	103.19
464.975	119.19
465.195	236.19
465.414	243.19
465.634	96.19
465.854	89.19
466.073	87.19
466.293	86.19
466.512	90.19
466.732	90.19
466.951	88.19
467.171	87.19
467.391	125.19
467.61	151.19
467.829	220.19
468.049	638.19
468.268	986.19
468.488	246.19
468.707	108.19
468.927	96.19
469.146	110.19
469.365	91.19
469.585	97.19
469.804	112.19
470.023	105.19
470.243	100.19
470.462	125.19
470.681	136.19
470.901	107.19
471.12	105.19
471.339	111.19
471.558	116.19
471.777	152.19
471.997	327.19
472.216	1227.19
472.435	2954.19
472.654	664.19
472.873	182.19
473.092	129.19
473.311	104.19
473.53	104.19
473.749	90.19
473.968	100.19
474.187	118.19
474.406	110.19
474.625	99.19
474.844	96.19
475.063	91.19
475.282	97.19
475.501	82.19
475.72	83.19
475.939	91.19
476.158	89.19
476.377	92.19
476.596	94.19
476.814	100.19
477.033	110.19
477.252	99.19
477.471	86.19
477.69	96.19
477.908	106.19
478.127	100.19
478.346	98.19
478.564	98.19
478.783	116.19
479.002	102.19
479.22	105.19
479.439	131.19
479.658	137.19
479.876	120.19
480.095	118.19
480.313	138.19
480.532	171.19
480.751	318.19
480.969	1104.19
481.188	4878.19
481.406	2772.19
481.624	397.19
481.843	127.19
482.061	108.19
482.28	98.19
482.498	97.19
482.717	92.19
482.935	92.19
483.153	94.19
483.372	90.19
483.59	95.19
483.808	97.19
484.027	98.19
484.245	91.19
484.463	100.19
484.681	106.19
484.9	88.19
485.118	96.19
485.336	101.19
485.554	102.19
485.772	97.19
485.99	107.19
486.209	115.19
486.427	103.19
486.645	118.19
486.863	116.19
487.081	104.19
487.299	99.19
487.517	105.19
487.735	98.19
487.953	84.19
488.171	104.19
488.389	96.19
488.607	111.19
488.825	107.19
489.043	90.19
489.261	107.19
489.479	98.19
489.696	80.19
489.914	89.19
490.132	95.19
490.35	91.19
490.568	92.19
490.786	84.19
491.003	89.19
491.221	93.19
491.439	88.19
491.657	105.19
491.874	96.19
492.092	94.19
492.31	95.19
492.527	92.19
492.745	107.19
492.963	92.19
493.18	103.19
493.398	93.19
493.615	91.19
493.833	90.19
494.05	88.19
494.268	98.19
494.485	90.19
494.703	81.19
494.92	81.19
495.138	82.19
495.355	96.19
495.573	87.19
495.79	88.19
496.008	87.19
496.225	84.19
496.442	79.19
496.66	105.19
496.877	92.19
497.094	99.19
497.312	95.19
497.529	84.19
497.746	91.19
497.963	87.19
498.181	97.19
498.398	104.19
498.615	114.19
498.832	89.19
499.049	90.19
499.267	88.19
499.484	78.19
499.701	80.19
499.918	90.19
500.135	86.19
500.352	95.19
500.569	106.19
500.786	90.19
501.003	88.19
501.22	100.19
501.437	89.19
501.654	95.19
501.871	138.19
502.088	94.19
502.305	93.19
502.522	84.19
502.739	92.19
502.956	82.19
503.172	96.19
503.389	121.19
503.606	114.19
503.823	107.19
504.04	92.19
504.256	90.19
504.473	96.19
504.69	88.19
504.907	89.19
505.123	76.19
505.34	94.19
505.557	96.19
505.773	87.19
505.99	79.19
506.207	89.19
506.423	95.19
506.64	75.19
506.856	89.19
507.073	98.19
507.289	98.19
507.506	107.19
507.722	135.19
507.939	127.19
508.155	89.19
508.372	103.19
508.588	102.19
508.805	95.19
509.021	94.19
509.238	112.19
509.454	103.19
509.67	101.19
509.887	115.19
510.103	141.19
510.319	234.19
510.536	865.19
510.752	3090.19
510.968	839.19
511.184	190.19
511.401	134.19
511.617	114.19
511.833	95.19
512.049	89.19
512.265	90.19
512.481	101.19
512.698	99.19
512.914	100.19
513.13	111.19
