Data from Circ_1995_H10_HRD10591_00077.txt Node
Date: Wed Jan 03 11:37:02 EST 2024
User: Yrep
Spectrometer: HR+D1059
Trigger mode: 1
Integration Time (sec): 1.000000E-1
Scans to average: 1
Electric dark correction enabled: true
Nonlinearity correction enabled: false
Boxcar width: 0
XAxis mode: Wavelengths
Number of Pixels in Spectrum: 2048
>>>>>Begin Spectral Data<<<<<
223.165	-0.19
223.4	-0.19
223.635	-0.19
223.869	-23.19
224.104	-10.19
224.338	-17.19
224.573	-14.19
224.808	-11.19
225.042	-15.19
225.277	-15.19
225.511	-3.19
225.746	5.81
225.98	23.81
226.215	13.81
226.449	8.81
226.683	2.81
226.918	28.81
227.152	25.81
227.387	35.81
227.621	30.81
227.856	34.81
228.09	39.81
228.324	47.81
228.559	48.81
228.793	45.81
229.027	62.81
229.262	57.81
229.496	79.81
229.73	97.81
229.964	93.81
230.199	78.81
230.433	87.81
230.667	83.81
230.901	62.81
231.136	65.81
231.37	76.81
231.604	77.81
231.838	82.81
232.072	78.81
232.306	92.81
232.541	96.81
232.775	65.81
233.009	87.81
233.243	77.81
233.477	78.81
233.711	78.81
233.945	72.81
234.179	77.81
234.413	84.81
234.647	71.81
234.881	72.81
235.115	81.81
235.349	76.81
235.583	83.81
235.817	82.81
236.051	84.81
236.285	73.81
236.519	79.81
236.753	64.81
236.987	80.81
237.221	83.81
237.455	100.81
237.689	80.81
237.922	71.81
238.156	81.81
238.39	80.81
238.624	73.81
238.858	76.81
239.091	74.81
239.325	79.81
239.559	75.81
239.793	89.81
240.027	87.81
240.26	70.81
240.494	75.81
240.728	74.81
240.961	81.81
241.195	69.81
241.429	80.81
241.662	77.81
241.896	72.81
242.13	80.81
242.363	72.81
242.597	79.81
242.83	76.81
243.064	73.81
243.298	82.81
243.531	90.81
243.765	91.81
243.998	92.81
244.232	87.81
244.465	78.81
244.699	76.81
244.932	88.81
245.166	67.81
245.399	86.81
245.633	81.81
245.866	75.81
246.099	88.81
246.333	78.81
246.566	84.81
246.8	70.81
247.033	78.81
247.266	65.81
247.5	75.81
247.733	65.81
247.966	77.81
248.2	79.81
248.433	72.81
248.666	78.81
248.899	85.81
249.133	87.81
249.366	94.81
249.599	99.81
249.832	106.81
250.066	89.81
250.299	90.81
250.532	77.81
250.765	89.81
250.998	74.81
251.231	101.81
251.465	96.81
251.698	90.81
251.931	70.81
252.164	82.81
252.397	84.81
252.63	71.81
252.863	83.81
253.096	86.81
253.329	83.81
253.562	85.81
253.795	82.81
254.028	93.81
254.261	87.81
254.494	73.81
254.727	92.81
254.96	83.81
255.193	75.81
255.426	76.81
255.659	93.81
255.892	104.81
256.124	97.81
256.357	77.81
256.59	82.81
256.823	83.81
257.056	88.81
257.289	87.81
257.521	88.81
257.754	74.81
257.987	84.81
258.22	93.81
258.452	107.81
258.685	104.81
258.918	85.81
259.151	93.81
259.383	89.81
259.616	88.81
259.849	85.81
260.081	83.81
260.314	98.81
260.547	97.81
260.779	88.81
261.012	122.81
261.244	119.81
261.477	109.81
261.71	93.81
261.942	124.81
262.175	139.81
262.407	100.81
262.64	81.81
262.872	95.81
263.105	78.81
263.337	90.81
263.57	66.81
263.802	78.81
264.035	71.81
264.267	83.81
264.499	74.81
264.732	90.81
264.964	74.81
265.197	81.81
265.429	82.81
265.661	103.81
265.894	82.81
266.126	76.81
266.358	85.81
266.591	75.81
266.823	69.81
267.055	84.81
267.287	86.81
267.52	81.81
267.752	74.81
267.984	95.81
268.216	75.81
268.448	87.81
268.681	78.81
268.913	82.81
269.145	73.81
269.377	78.81
269.609	73.81
269.841	73.81
270.073	88.81
270.306	80.81
270.538	79.81
270.77	86.81
271.002	100.81
271.234	84.81
271.466	98.81
271.698	82.81
271.93	79.81
272.162	100.81
272.394	85.81
272.626	80.81
272.858	78.81
273.09	91.81
273.322	81.81
273.553	71.81
273.785	92.81
274.017	91.81
274.249	83.81
274.481	79.81
274.713	94.81
274.945	95.81
275.176	90.81
275.408	89.81
275.64	109.81
275.872	135.81
276.104	108.81
276.335	100.81
276.567	114.81
276.799	155.81
277.031	186.81
277.262	223.81
277.494	159.81
277.726	94.81
277.957	82.81
278.189	78.81
278.421	91.81
278.652	90.81
278.884	87.81
279.115	93.81
279.347	97.81
279.579	104.81
279.81	133.81
280.042	223.81
280.273	318.81
280.505	210.81
280.736	115.81
280.968	87.81
281.199	101.81
281.431	85.81
281.662	77.81
281.894	74.81
282.125	84.81
282.356	142.81
282.588	169.81
282.819	109.81
283.051	95.81
283.282	88.81
283.513	96.81
283.745	82.81
283.976	79.81
284.207	90.81
284.439	81.81
284.67	77.81
284.901	79.81
285.132	86.81
285.364	80.81
285.595	87.81
285.826	99.81
286.057	79.81
286.288	86.81
286.52	80.81
286.751	81.81
286.982	96.81
287.213	88.81
287.444	83.81
287.675	82.81
287.906	93.81
288.138	80.81
288.369	86.81
288.6	80.81
288.831	86.81
289.062	84.81
289.293	87.81
289.524	88.81
289.755	75.81
289.986	79.81
290.217	84.81
290.448	76.81
290.679	90.81
290.91	92.81
291.141	94.81
291.371	91.81
291.602	87.81
291.833	79.81
292.064	79.81
292.295	81.81
292.526	84.81
292.757	87.81
292.987	104.81
293.218	87.81
293.449	85.81
293.68	99.81
293.91	105.81
294.141	100.81
294.372	89.81
294.603	91.81
294.833	83.81
295.064	94.81
295.295	89.81
295.525	96.81
295.756	110.81
295.987	107.81
296.217	167.81
296.448	123.81
296.679	85.81
296.909	91.81
297.14	102.81
297.37	87.81
297.601	81.81
297.831	85.81
298.062	80.81
298.292	97.81
298.523	102.81
298.753	89.81
298.984	81.81
299.214	90.81
299.445	105.81
299.675	103.81
299.905	99.81
300.136	102.81
300.366	91.81
300.597	78.81
300.827	90.81
301.057	107.81
301.288	121.81
301.518	87.81
301.748	92.81
301.979	103.81
302.209	109.81
302.439	91.81
302.669	92.81
302.9	100.81
303.13	86.81
303.36	107.81
303.59	138.81
303.82	165.81
304.051	103.81
304.281	96.81
304.511	104.81
304.741	86.81
304.971	88.81
305.201	101.81
305.431	93.81
305.661	84.81
305.891	86.81
306.121	100.81
306.352	112.81
306.582	113.81
306.812	112.81
307.042	130.81
307.272	175.81
307.502	206.81
307.731	197.81
307.961	142.81
308.191	105.81
308.421	96.81
308.651	92.81
308.881	86.81
309.111	91.81
309.341	90.81
309.571	94.81
309.8	100.81
310.03	82.81
310.26	102.81
310.49	94.81
310.72	109.81
310.949	127.81
311.179	115.81
311.409	97.81
311.639	100.81
311.868	92.81
312.098	89.81
312.328	109.81
312.557	109.81
312.787	129.81
313.017	119.81
313.246	104.81
313.476	97.81
313.706	98.81
313.935	87.81
314.165	95.81
314.394	112.81
314.624	100.81
314.853	105.81
315.083	94.81
315.312	97.81
315.542	105.81
315.771	94.81
316.001	79.81
316.23	93.81
316.46	85.81
316.689	101.81
316.919	87.81
317.148	101.81
317.377	93.81
317.607	91.81
317.836	102.81
318.065	101.81
318.295	97.81
318.524	89.81
318.753	87.81
318.983	98.81
319.212	95.81
319.441	113.81
319.67	116.81
319.9	92.81
320.129	95.81
320.358	85.81
320.587	103.81
320.816	109.81
321.046	109.81
321.275	94.81
321.504	99.81
321.733	117.81
321.962	104.81
322.191	104.81
322.42	114.81
322.649	117.81
322.878	128.81
323.108	126.81
323.337	139.81
323.566	156.81
323.795	186.81
324.024	249.81
324.253	493.81
324.482	1101.81
324.71	2263.81
324.939	3017.81
325.168	1089.81
325.397	316.81
325.626	191.81
325.855	162.81
326.084	135.81
326.313	160.81
326.542	175.81
326.77	279.81
326.999	555.81
327.228	1157.81
327.457	2145.81
327.686	1703.81
327.914	605.81
328.143	616.81
328.372	818.81
328.6	458.81
328.829	207.81
329.058	187.81
329.287	210.81
329.515	214.81
329.744	296.81
329.972	572.81
330.201	1239.81
330.43	1824.81
330.658	791.81
330.887	340.81
331.115	218.81
331.344	145.81
331.572	129.81
331.801	131.81
332.03	141.81
332.258	118.81
332.486	102.81
332.715	113.81
332.943	109.81
333.172	107.81
333.4	147.81
333.629	159.81
333.857	242.81
334.085	485.81
334.314	1071.81
334.542	2231.81
334.771	2113.81
334.999	513.81
335.227	207.81
335.455	137.81
335.684	125.81
335.912	106.81
336.14	107.81
336.369	93.81
336.597	111.81
336.825	109.81
337.053	94.81
337.281	87.81
337.51	85.81
337.738	115.81
337.966	88.81
338.194	99.81
338.422	93.81
338.65	105.81
338.878	97.81
339.106	97.81
339.334	98.81
339.562	94.81
339.79	99.81
340.018	94.81
340.246	109.81
340.474	109.81
340.702	95.81
340.93	93.81
341.158	97.81
341.386	92.81
341.614	82.81
341.842	89.81
342.07	91.81
342.298	95.81
342.526	96.81
342.754	103.81
342.981	97.81
343.209	79.81
343.437	105.81
343.665	99.81
343.893	92.81
344.12	105.81
344.348	105.81
344.576	80.81
344.804	87.81
345.031	110.81
345.259	111.81
345.487	104.81
345.714	96.81
345.942	92.81
346.17	85.81
346.397	112.81
346.625	101.81
346.853	102.81
347.08	91.81
347.308	103.81
347.535	96.81
347.763	123.81
347.99	114.81
348.218	115.81
348.445	119.81
348.673	120.81
348.9	103.81
349.128	106.81
349.355	95.81
349.583	85.81
349.81	96.81
350.037	103.81
350.265	105.81
350.492	77.81
350.72	85.81
350.947	96.81
351.174	120.81
351.402	122.81
351.629	98.81
351.856	109.81
352.083	119.81
352.311	113.81
352.538	119.81
352.765	128.81
352.992	127.81
353.22	129.81
353.447	116.81
353.674	110.81
353.901	97.81
354.128	90.81
354.355	95.81
354.583	96.81
354.81	109.81
355.037	102.81
355.264	96.81
355.491	89.81
355.718	93.81
355.945	81.81
356.172	90.81
356.399	93.81
356.626	82.81
356.853	90.81
357.08	91.81
357.307	86.81
357.534	79.81
357.761	97.81
357.988	96.81
358.215	88.81
358.441	87.81
358.668	107.81
358.895	71.81
359.122	87.81
359.349	97.81
359.576	90.81
359.802	130.81
360.029	153.81
360.256	153.81
360.483	109.81
360.709	87.81
360.936	102.81
361.163	102.81
361.39	106.81
361.616	99.81
361.843	91.81
362.07	100.81
362.296	108.81
362.523	101.81
362.749	105.81
362.976	92.81
363.203	109.81
363.429	96.81
363.656	93.81
363.882	85.81
364.109	91.81
364.335	89.81
364.562	104.81
364.788	84.81
365.015	103.81
365.241	106.81
365.468	135.81
365.694	105.81
365.92	80.81
366.147	97.81
366.373	74.81
366.599	101.81
366.826	83.81
367.052	94.81
367.278	97.81
367.505	106.81
367.731	112.81
367.957	100.81
368.184	94.81
368.41	85.81
368.636	121.81
368.862	126.81
369.089	114.81
369.315	107.81
369.541	103.81
369.767	97.81
369.993	85.81
370.219	97.81
370.445	83.81
370.672	84.81
370.898	94.81
371.124	86.81
371.35	88.81
371.576	100.81
371.802	81.81
372.028	94.81
372.254	93.81
372.48	71.81
372.706	89.81
372.932	85.81
373.158	100.81
373.384	85.81
373.61	85.81
373.835	86.81
374.061	88.81
374.287	91.81
374.513	94.81
374.739	87.81
374.965	89.81
375.191	91.81
375.416	85.81
375.642	81.81
375.868	76.81
376.094	95.81
376.319	79.81
376.545	94.81
376.771	104.81
376.997	83.81
377.222	87.81
377.448	94.81
377.674	88.81
377.899	82.81
378.125	80.81
378.35	82.81
378.576	93.81
378.802	89.81
379.027	84.81
379.253	88.81
379.478	90.81
379.704	95.81
379.929	92.81
380.155	93.81
380.38	102.81
380.606	100.81
380.831	83.81
381.057	113.81
381.282	96.81
381.507	96.81
381.733	99.81
381.958	101.81
382.184	94.81
382.409	111.81
382.634	104.81
382.86	98.81
383.085	101.81
383.31	105.81
383.535	99.81
383.761	112.81
383.986	105.81
384.211	100.81
384.436	102.81
384.662	94.81
384.887	93.81
385.112	96.81
385.337	101.81
385.562	103.81
385.787	106.81
386.013	112.81
386.238	128.81
386.463	110.81
386.688	117.81
386.913	95.81
387.138	101.81
387.363	110.81
387.588	89.81
387.813	100.81
388.038	97.81
388.263	113.81
388.488	108.81
388.713	104.81
388.938	97.81
389.163	84.81
389.387	81.81
389.612	87.81
389.837	98.81
390.062	93.81
390.287	87.81
390.512	85.81
390.736	96.81
390.961	95.81
391.186	100.81
391.411	91.81
391.636	83.81
391.86	91.81
392.085	94.81
392.31	85.81
392.534	83.81
392.759	87.81
392.984	86.81
393.208	86.81
393.433	91.81
393.658	82.81
393.882	71.81
394.107	87.81
394.331	94.81
394.556	95.81
394.78	86.81
395.005	89.81
395.229	72.81
395.454	70.81
395.678	93.81
395.903	79.81
396.127	81.81
396.352	91.81
396.576	101.81
396.801	98.81
397.025	89.81
397.249	99.81
397.474	99.81
397.698	83.81
397.922	86.81
398.147	73.81
398.371	81.81
398.595	85.81
398.82	99.81
399.044	96.81
399.268	90.81
399.492	92.81
399.717	89.81
399.941	85.81
400.165	99.81
400.389	91.81
400.613	79.81
400.837	86.81
401.062	75.81
401.286	77.81
401.51	93.81
401.734	102.81
401.958	108.81
402.182	146.81
402.406	215.81
402.63	145.81
402.854	97.81
403.078	113.81
403.302	76.81
403.526	71.81
403.75	82.81
403.974	86.81
404.198	89.81
404.422	87.81
404.645	99.81
404.869	106.81
405.093	126.81
405.317	133.81
405.541	139.81
405.765	104.81
405.988	141.81
406.212	223.81
406.436	332.81
406.66	206.81
406.883	107.81
407.107	118.81
407.331	103.81
407.555	112.81
407.778	110.81
408.002	101.81
408.226	106.81
408.449	90.81
408.673	82.81
408.896	102.81
409.12	103.81
409.344	87.81
409.567	88.81
409.791	92.81
410.014	81.81
410.238	84.81
410.461	77.81
410.685	75.81
410.908	98.81
411.132	90.81
411.355	94.81
411.578	84.81
411.802	90.81
412.025	96.81
412.249	105.81
412.472	112.81
412.695	143.81
412.919	111.81
413.142	98.81
413.365	89.81
413.589	90.81
413.812	74.81
414.035	88.81
414.258	101.81
414.482	94.81
414.705	101.81
414.928	87.81
415.151	91.81
415.374	86.81
415.597	80.81
415.821	86.81
416.044	94.81
416.267	97.81
416.49	105.81
416.713	69.81
416.936	83.81
417.159	103.81
417.382	109.81
417.605	104.81
417.828	120.81
418.051	96.81
418.274	96.81
418.497	89.81
418.72	92.81
418.943	86.81
419.166	85.81
419.389	93.81
419.611	88.81
419.834	91.81
420.057	101.81
420.28	99.81
420.503	93.81
420.726	106.81
420.948	81.81
421.171	108.81
421.394	100.81
421.617	92.81
421.839	85.81
422.062	79.81
422.285	90.81
422.507	94.81
422.73	102.81
422.953	94.81
423.175	92.81
423.398	93.81
423.621	91.81
423.843	80.81
424.066	92.81
424.288	88.81
424.511	108.81
424.733	105.81
424.956	125.81
425.178	95.81
425.401	110.81
425.623	103.81
425.846	105.81
426.068	99.81
426.291	98.81
426.513	100.81
426.735	102.81
426.958	88.81
427.18	114.81
427.402	175.81
427.625	265.81
427.847	261.81
428.069	240.81
428.292	137.81
428.514	92.81
428.736	95.81
428.958	97.81
429.181	99.81
429.403	89.81
429.625	92.81
429.847	109.81
430.069	115.81
430.292	99.81
430.514	83.81
430.736	84.81
430.958	78.81
431.18	90.81
431.402	103.81
431.624	91.81
431.846	87.81
432.068	94.81
432.29	94.81
432.512	96.81
432.734	96.81
432.956	87.81
433.178	101.81
433.4	97.81
433.622	102.81
433.844	82.81
434.066	83.81
434.287	101.81
434.509	79.81
434.731	96.81
434.953	89.81
435.175	96.81
435.397	89.81
435.618	95.81
435.84	104.81
436.062	144.81
436.284	124.81
436.505	107.81
436.727	104.81
436.949	96.81
437.17	96.81
437.392	80.81
437.614	113.81
437.835	134.81
438.057	137.81
438.278	124.81
438.5	121.81
438.721	145.81
438.943	131.81
439.165	93.81
439.386	105.81
439.608	99.81
439.829	112.81
440.05	145.81
440.272	186.81
440.493	117.81
440.715	96.81
440.936	88.81
441.158	86.81
441.379	91.81
441.6	89.81
441.822	100.81
442.043	103.81
442.264	126.81
442.486	117.81
442.707	92.81
442.928	120.81
443.149	197.81
443.371	179.81
443.592	141.81
443.813	127.81
444.034	115.81
444.255	98.81
444.476	79.81
444.698	87.81
444.919	99.81
445.14	137.81
445.361	124.81
445.582	138.81
445.803	169.81
446.024	177.81
446.245	165.81
446.466	123.81
446.687	95.81
446.908	95.81
447.129	91.81
447.35	88.81
447.571	98.81
447.792	97.81
448.013	119.81
448.234	120.81
448.455	122.81
448.675	118.81
448.896	139.81
449.117	106.81
449.338	109.81
449.559	147.81
449.779	155.81
450	83.81
450.221	85.81
450.442	85.81
450.662	113.81
450.883	118.81
451.104	121.81
451.324	102.81
451.545	85.81
451.766	87.81
451.986	94.81
452.207	90.81
452.428	107.81
452.648	109.81
452.869	125.81
453.089	142.81
453.31	140.81
453.53	97.81
453.751	104.81
453.971	118.81
454.192	140.81
454.412	75.81
454.633	72.81
454.853	81.81
455.073	88.81
455.294	73.81
455.514	113.81
455.734	99.81
455.955	76.81
456.175	77.81
456.395	98.81
456.616	102.81
456.836	99.81
457.056	99.81
457.276	90.81
457.497	90.81
457.717	76.81
457.937	87.81
458.157	98.81
458.377	99.81
458.598	133.81
458.818	217.81
459.038	238.81
459.258	153.81
459.478	97.81
459.698	95.81
459.918	88.81
460.138	87.81
460.358	99.81
460.578	93.81
460.798	103.81
461.018	91.81
461.238	87.81
461.458	92.81
461.678	91.81
461.898	83.81
462.118	97.81
462.338	87.81
462.558	95.81
462.777	96.81
462.997	89.81
463.217	106.81
463.437	103.81
463.657	88.81
463.876	100.81
464.096	95.81
464.316	107.81
464.536	114.81
464.755	81.81
464.975	122.81
465.195	236.81
465.414	250.81
465.634	121.81
465.854	97.81
466.073	77.81
466.293	88.81
466.512	97.81
466.732	89.81
466.951	89.81
467.171	92.81
467.391	112.81
467.61	163.81
467.829	249.81
468.049	711.81
468.268	1137.81
468.488	279.81
468.707	107.81
468.927	109.81
469.146	95.81
469.365	89.81
469.585	93.81
469.804	108.81
470.023	106.81
470.243	99.81
470.462	131.81
470.681	147.81
470.901	111.81
471.12	101.81
471.339	126.81
471.558	126.81
471.777	170.81
471.997	357.81
472.216	1354.81
472.435	3262.81
472.654	721.81
472.873	167.81
473.092	114.81
473.311	103.81
473.53	88.81
473.749	104.81
473.968	105.81
474.187	122.81
474.406	112.81
474.625	113.81
474.844	97.81
475.063	82.81
475.282	78.81
475.501	95.81
475.72	107.81
475.939	87.81
476.158	83.81
476.377	106.81
476.596	104.81
476.814	107.81
477.033	89.81
477.252	92.81
477.471	100.81
477.69	106.81
477.908	107.81
478.127	101.81
478.346	85.81
478.564	93.81
478.783	108.81
479.002	110.81
479.22	114.81
479.439	133.81
479.658	145.81
479.876	137.81
480.095	125.81
480.313	160.81
480.532	192.81
480.751	329.81
480.969	1233.81
481.188	5372.81
481.406	3112.81
481.624	431.81
481.843	156.81
482.061	107.81
482.28	98.81
482.498	99.81
482.717	94.81
482.935	101.81
483.153	88.81
483.372	94.81
483.59	97.81
483.808	103.81
484.027	106.81
484.245	90.81
484.463	93.81
484.681	109.81
484.9	86.81
485.118	95.81
485.336	95.81
485.554	93.81
485.772	103.81
485.99	104.81
486.209	102.81
486.427	112.81
486.645	114.81
486.863	149.81
487.081	115.81
487.299	97.81
487.517	98.81
487.735	96.81
487.953	76.81
488.171	96.81
488.389	81.81
488.607	109.81
488.825	81.81
489.043	107.81
489.261	85.81
489.479	83.81
489.696	102.81
489.914	77.81
490.132	90.81
490.35	104.81
490.568	91.81
490.786	88.81
491.003	89.81
491.221	103.81
491.439	88.81
491.657	108.81
491.874	91.81
492.092	78.81
492.31	89.81
492.527	99.81
492.745	93.81
492.963	79.81
493.18	92.81
493.398	113.81
493.615	98.81
493.833	86.81
494.05	81.81
494.268	96.81
494.485	96.81
494.703	89.81
494.92	91.81
495.138	94.81
495.355	98.81
495.573	98.81
495.79	104.81
496.008	102.81
496.225	94.81
496.442	82.81
496.66	87.81
496.877	90.81
497.094	90.81
497.312	101.81
497.529	94.81
497.746	90.81
497.963	99.81
498.181	87.81
498.398	100.81
498.615	110.81
498.832	104.81
499.049	103.81
499.267	85.81
499.484	81.81
499.701	99.81
499.918	84.81
500.135	95.81
500.352	96.81
500.569	98.81
500.786	95.81
501.003	96.81
501.22	105.81
501.437	98.81
501.654	93.81
501.871	138.81
502.088	94.81
502.305	86.81
502.522	89.81
502.739	93.81
502.956	90.81
503.172	98.81
503.389	114.81
503.606	125.81
503.823	112.81
504.04	94.81
504.256	106.81
504.473	80.81
504.69	102.81
504.907	97.81
505.123	82.81
505.34	88.81
505.557	91.81
505.773	95.81
505.99	81.81
506.207	92.81
506.423	89.81
506.64	86.81
506.856	98.81
507.073	99.81
507.289	99.81
507.506	103.81
507.722	133.81
507.939	138.81
508.155	107.81
508.372	101.81
508.588	98.81
508.805	95.81
509.021	95.81
509.238	95.81
509.454	110.81
509.67	101.81
509.887	107.81
510.103	138.81
510.319	251.81
510.536	915.81
510.752	3232.81
510.968	871.81
511.184	173.81
511.401	127.81
511.617	102.81
511.833	128.81
512.049	95.81
512.265	98.81
512.481	105.81
512.698	92.81
512.914	99.81
