Data from Circ_1995_H10_HRD10591_00041.txt Node
Date: Wed Jan 03 11:36:54 EST 2024
User: Yrep
Spectrometer: HR+D1059
Trigger mode: 1
Integration Time (sec): 1.000000E-1
Scans to average: 1
Electric dark correction enabled: true
Nonlinearity correction enabled: false
Boxcar width: 0
XAxis mode: Wavelengths
Number of Pixels in Spectrum: 2048
>>>>>Begin Spectral Data<<<<<
223.165	-16.62
223.4	-16.62
223.635	-16.62
223.869	-0.62
224.104	-21.62
224.338	-24.62
224.573	-9.62
224.808	-11.62
225.042	-4.62
225.277	-2.62
225.511	-12.62
225.746	4.38
225.98	21.38
226.215	12.38
226.449	14.38
226.683	-0.62
226.918	20.38
227.152	32.38
227.387	30.38
227.621	34.38
227.856	33.38
228.09	45.38
228.324	50.38
228.559	61.38
228.793	70.38
229.027	74.38
229.262	59.38
229.496	90.38
229.73	130.38
229.964	96.38
230.199	73.38
230.433	73.38
230.667	78.38
230.901	72.38
231.136	77.38
231.37	63.38
231.604	73.38
231.838	92.38
232.072	89.38
232.306	84.38
232.541	71.38
232.775	60.38
233.009	78.38
233.243	80.38
233.477	73.38
233.711	86.38
233.945	73.38
234.179	72.38
234.413	92.38
234.647	74.38
234.881	71.38
235.115	75.38
235.349	79.38
235.583	70.38
235.817	79.38
236.051	90.38
236.285	76.38
236.519	84.38
236.753	82.38
236.987	80.38
237.221	105.38
237.455	102.38
237.689	94.38
237.922	83.38
238.156	79.38
238.39	54.38
238.624	76.38
238.858	74.38
239.091	75.38
239.325	68.38
239.559	90.38
239.793	68.38
240.027	88.38
240.26	89.38
240.494	72.38
240.728	83.38
240.961	82.38
241.195	73.38
241.429	60.38
241.662	72.38
241.896	68.38
242.13	82.38
242.363	74.38
242.597	79.38
242.83	64.38
243.064	84.38
243.298	75.38
243.531	84.38
243.765	86.38
243.998	72.38
244.232	78.38
244.465	104.38
244.699	77.38
244.932	104.38
245.166	85.38
245.399	88.38
245.633	81.38
245.866	86.38
246.099	86.38
246.333	78.38
246.566	68.38
246.8	81.38
247.033	72.38
247.266	74.38
247.5	78.38
247.733	68.38
247.966	77.38
248.2	80.38
248.433	88.38
248.666	86.38
248.899	89.38
249.133	89.38
249.366	109.38
249.599	126.38
249.832	101.38
250.066	98.38
250.299	80.38
250.532	73.38
250.765	72.38
250.998	73.38
251.231	69.38
251.465	74.38
251.698	94.38
251.931	102.38
252.164	81.38
252.397	95.38
252.63	65.38
252.863	64.38
253.096	81.38
253.329	82.38
253.562	80.38
253.795	86.38
254.028	94.38
254.261	71.38
254.494	95.38
254.727	74.38
254.96	83.38
255.193	84.38
255.426	83.38
255.659	96.38
255.892	100.38
256.124	103.38
256.357	102.38
256.59	90.38
256.823	82.38
257.056	80.38
257.289	93.38
257.521	94.38
257.754	86.38
257.987	101.38
258.22	102.38
258.452	102.38
258.685	107.38
258.918	96.38
259.151	75.38
259.383	91.38
259.616	73.38
259.849	99.38
260.081	93.38
260.314	98.38
260.547	108.38
260.779	102.38
261.012	137.38
261.244	123.38
261.477	110.38
261.71	116.38
261.942	169.38
262.175	168.38
262.407	105.38
262.64	85.38
262.872	75.38
263.105	77.38
263.337	93.38
263.57	88.38
263.802	81.38
264.035	91.38
264.267	100.38
264.499	87.38
264.732	78.38
264.964	83.38
265.197	92.38
265.429	91.38
265.661	101.38
265.894	90.38
266.126	86.38
266.358	82.38
266.591	91.38
266.823	87.38
267.055	94.38
267.287	68.38
267.52	94.38
267.752	99.38
267.984	75.38
268.216	84.38
268.448	108.38
268.681	92.38
268.913	96.38
269.145	95.38
269.377	80.38
269.609	93.38
269.841	84.38
270.073	85.38
270.306	97.38
270.538	80.38
270.77	83.38
271.002	81.38
271.234	95.38
271.466	89.38
271.698	111.38
271.93	85.38
272.162	84.38
272.394	88.38
272.626	88.38
272.858	88.38
273.09	84.38
273.322	80.38
273.553	83.38
273.785	105.38
274.017	81.38
274.249	97.38
274.481	89.38
274.713	97.38
274.945	92.38
275.176	108.38
275.408	120.38
275.64	129.38
275.872	149.38
276.104	126.38
276.335	132.38
276.567	135.38
276.799	170.38
277.031	247.38
277.262	288.38
277.494	199.38
277.726	118.38
277.957	105.38
278.189	88.38
278.421	81.38
278.652	100.38
278.884	97.38
279.115	88.38
279.347	106.38
279.579	121.38
279.81	170.38
280.042	288.38
280.273	432.38
280.505	286.38
280.736	136.38
280.968	92.38
281.199	108.38
281.431	80.38
281.662	94.38
281.894	99.38
282.125	124.38
282.356	146.38
282.588	219.38
282.819	158.38
283.051	96.38
283.282	76.38
283.513	96.38
283.745	96.38
283.976	85.38
284.207	84.38
284.439	93.38
284.67	88.38
284.901	81.38
285.132	68.38
285.364	87.38
285.595	85.38
285.826	83.38
286.057	97.38
286.288	93.38
286.52	87.38
286.751	81.38
286.982	87.38
287.213	78.38
287.444	94.38
287.675	92.38
287.906	98.38
288.138	102.38
288.369	113.38
288.6	116.38
288.831	92.38
289.062	88.38
289.293	96.38
289.524	87.38
289.755	87.38
289.986	76.38
290.217	76.38
290.448	86.38
290.679	76.38
290.91	89.38
291.141	92.38
291.371	74.38
291.602	85.38
291.833	84.38
292.064	85.38
292.295	79.38
292.526	82.38
292.757	90.38
292.987	81.38
293.218	79.38
293.449	87.38
293.68	94.38
293.91	84.38
294.141	81.38
294.372	85.38
294.603	96.38
294.833	96.38
295.064	87.38
295.295	89.38
295.525	91.38
295.756	117.38
295.987	142.38
296.217	211.38
296.448	182.38
296.679	97.38
296.909	96.38
297.14	82.38
297.37	80.38
297.601	82.38
297.831	93.38
298.062	76.38
298.292	93.38
298.523	96.38
298.753	103.38
298.984	89.38
299.214	77.38
299.445	101.38
299.675	98.38
299.905	100.38
300.136	93.38
300.366	83.38
300.597	78.38
300.827	99.38
301.057	112.38
301.288	126.38
301.518	108.38
301.748	112.38
301.979	133.38
302.209	97.38
302.439	115.38
302.669	88.38
302.9	84.38
303.13	94.38
303.36	117.38
303.59	156.38
303.82	190.38
304.051	117.38
304.281	86.38
304.511	108.38
304.741	89.38
304.971	97.38
305.201	97.38
305.431	88.38
305.661	86.38
305.891	100.38
306.121	101.38
306.352	111.38
306.582	135.38
306.812	123.38
307.042	151.38
307.272	214.38
307.502	238.38
307.731	237.38
307.961	160.38
308.191	118.38
308.421	94.38
308.651	95.38
308.881	101.38
309.111	84.38
309.341	112.38
309.571	112.38
309.8	100.38
310.03	105.38
310.26	109.38
310.49	97.38
310.72	120.38
310.949	135.38
311.179	125.38
311.409	107.38
311.639	108.38
311.868	92.38
312.098	100.38
312.328	111.38
312.557	142.38
312.787	138.38
313.017	121.38
313.246	86.38
313.476	108.38
313.706	105.38
313.935	114.38
314.165	119.38
314.394	127.38
314.624	106.38
314.853	127.38
315.083	95.38
315.312	95.38
315.542	77.38
315.771	101.38
316.001	81.38
316.23	87.38
316.46	90.38
316.689	81.38
316.919	103.38
317.148	104.38
317.377	93.38
317.607	92.38
317.836	109.38
318.065	98.38
318.295	103.38
318.524	101.38
318.753	97.38
318.983	90.38
319.212	105.38
319.441	127.38
319.67	120.38
319.9	95.38
320.129	90.38
320.358	105.38
320.587	111.38
320.816	115.38
321.046	126.38
321.275	113.38
321.504	103.38
321.733	93.38
321.962	116.38
322.191	103.38
322.42	120.38
322.649	133.38
322.878	148.38
323.108	145.38
323.337	168.38
323.566	175.38
323.795	223.38
324.024	313.38
324.253	630.38
324.482	1374.38
324.71	2945.38
324.939	3928.38
325.168	1391.38
325.397	394.38
325.626	198.38
325.855	162.38
326.084	160.38
326.313	167.38
326.542	220.38
326.77	323.38
326.999	657.38
327.228	1432.38
327.457	2773.38
327.686	2237.38
327.914	807.38
328.143	854.38
328.372	1142.38
328.6	602.38
328.829	272.38
329.058	269.38
329.287	275.38
329.515	248.38
329.744	384.38
329.972	783.38
330.201	1682.38
330.43	2565.38
330.658	1061.38
330.887	465.38
331.115	277.38
331.344	158.38
331.572	135.38
331.801	152.38
332.03	149.38
332.258	135.38
332.486	125.38
332.715	132.38
332.943	129.38
333.172	156.38
333.4	159.38
333.629	205.38
333.857	315.38
334.085	662.38
334.314	1521.38
334.542	3090.38
334.771	2926.38
334.999	724.38
335.227	247.38
335.455	146.38
335.684	132.38
335.912	97.38
336.14	118.38
336.369	114.38
336.597	126.38
336.825	119.38
337.053	99.38
337.281	102.38
337.51	101.38
337.738	101.38
337.966	104.38
338.194	121.38
338.422	101.38
338.65	107.38
338.878	95.38
339.106	88.38
339.334	98.38
339.562	103.38
339.79	106.38
340.018	117.38
340.246	114.38
340.474	108.38
340.702	114.38
340.93	109.38
341.158	101.38
341.386	107.38
341.614	110.38
341.842	125.38
342.07	98.38
342.298	94.38
342.526	98.38
342.754	81.38
342.981	85.38
343.209	94.38
343.437	114.38
343.665	84.38
343.893	89.38
344.12	93.38
344.348	90.38
344.576	92.38
344.804	123.38
345.031	118.38
345.259	129.38
345.487	110.38
345.714	113.38
345.942	92.38
346.17	97.38
346.397	98.38
346.625	114.38
346.853	113.38
347.08	91.38
347.308	104.38
347.535	111.38
347.763	104.38
347.99	115.38
348.218	116.38
348.445	135.38
348.673	125.38
348.9	112.38
349.128	120.38
349.355	76.38
349.583	97.38
349.81	82.38
350.037	90.38
350.265	110.38
350.492	94.38
350.72	114.38
350.947	125.38
351.174	156.38
351.402	141.38
351.629	126.38
351.856	127.38
352.083	124.38
352.311	124.38
352.538	149.38
352.765	142.38
352.992	137.38
353.22	142.38
353.447	124.38
353.674	109.38
353.901	102.38
354.128	105.38
354.355	80.38
354.583	109.38
354.81	93.38
355.037	100.38
355.264	76.38
355.491	82.38
355.718	105.38
355.945	79.38
356.172	92.38
356.399	85.38
356.626	85.38
356.853	87.38
357.08	73.38
357.307	91.38
357.534	97.38
357.761	95.38
357.988	100.38
358.215	90.38
358.441	97.38
358.668	89.38
358.895	98.38
359.122	94.38
359.349	90.38
359.576	101.38
359.802	127.38
360.029	157.38
360.256	160.38
360.483	140.38
360.709	98.38
360.936	105.38
361.163	114.38
361.39	115.38
361.616	115.38
361.843	103.38
362.07	122.38
362.296	118.38
362.523	97.38
362.749	107.38
362.976	98.38
363.203	85.38
363.429	89.38
363.656	87.38
363.882	83.38
364.109	96.38
364.335	111.38
364.562	88.38
364.788	98.38
365.015	96.38
365.241	116.38
365.468	151.38
365.694	143.38
365.92	115.38
366.147	87.38
366.373	87.38
366.599	106.38
366.826	103.38
367.052	103.38
367.278	108.38
367.505	97.38
367.731	108.38
367.957	111.38
368.184	102.38
368.41	99.38
368.636	148.38
368.862	154.38
369.089	135.38
369.315	114.38
369.541	117.38
369.767	108.38
369.993	79.38
370.219	104.38
370.445	95.38
370.672	88.38
370.898	77.38
371.124	81.38
371.35	84.38
371.576	89.38
371.802	93.38
372.028	93.38
372.254	90.38
372.48	85.38
372.706	92.38
372.932	92.38
373.158	87.38
373.384	104.38
373.61	89.38
373.835	82.38
374.061	101.38
374.287	87.38
374.513	85.38
374.739	98.38
374.965	91.38
375.191	92.38
375.416	89.38
375.642	84.38
375.868	94.38
376.094	94.38
376.319	86.38
376.545	81.38
376.771	98.38
376.997	89.38
377.222	92.38
377.448	78.38
377.674	89.38
377.899	108.38
378.125	72.38
378.35	87.38
378.576	89.38
378.802	90.38
379.027	84.38
379.253	76.38
379.478	99.38
379.704	90.38
379.929	85.38
380.155	98.38
380.38	91.38
380.606	111.38
380.831	103.38
381.057	97.38
381.282	98.38
381.507	103.38
381.733	90.38
381.958	108.38
382.184	94.38
382.409	99.38
382.634	101.38
382.86	107.38
383.085	102.38
383.31	98.38
383.535	101.38
383.761	97.38
383.986	104.38
384.211	101.38
384.436	91.38
384.662	92.38
384.887	110.38
385.112	103.38
385.337	109.38
385.562	110.38
385.787	108.38
386.013	121.38
386.238	134.38
386.463	108.38
386.688	97.38
386.913	116.38
387.138	112.38
387.363	97.38
387.588	92.38
387.813	114.38
388.038	110.38
388.263	119.38
388.488	113.38
388.713	96.38
388.938	81.38
389.163	90.38
389.387	103.38
389.612	88.38
389.837	84.38
390.062	100.38
390.287	81.38
390.512	80.38
390.736	81.38
390.961	80.38
391.186	80.38
391.411	84.38
391.636	75.38
391.86	74.38
392.085	86.38
392.31	78.38
392.534	84.38
392.759	92.38
392.984	93.38
393.208	98.38
393.433	93.38
393.658	88.38
393.882	92.38
394.107	93.38
394.331	87.38
394.556	91.38
394.78	77.38
395.005	82.38
395.229	79.38
395.454	75.38
395.678	77.38
395.903	82.38
396.127	81.38
396.352	79.38
396.576	93.38
396.801	94.38
397.025	94.38
397.249	85.38
397.474	80.38
397.698	87.38
397.922	89.38
398.147	79.38
398.371	79.38
398.595	86.38
398.82	80.38
399.044	81.38
399.268	82.38
399.492	87.38
399.717	92.38
399.941	81.38
400.165	106.38
400.389	111.38
400.613	85.38
400.837	90.38
401.062	86.38
401.286	104.38
401.51	94.38
401.734	99.38
401.958	125.38
402.182	175.38
402.406	238.38
402.63	195.38
402.854	126.38
403.078	95.38
403.302	94.38
403.526	105.38
403.75	87.38
403.974	81.38
404.198	96.38
404.422	101.38
404.645	105.38
404.869	116.38
405.093	143.38
405.317	172.38
405.541	167.38
405.765	136.38
405.988	173.38
406.212	285.38
406.436	417.38
406.66	290.38
406.883	159.38
407.107	128.38
407.331	112.38
407.555	107.38
407.778	103.38
408.002	97.38
408.226	95.38
408.449	83.38
408.673	93.38
408.896	88.38
409.12	104.38
409.344	89.38
409.567	92.38
409.791	93.38
410.014	93.38
410.238	97.38
410.461	109.38
410.685	108.38
410.908	100.38
411.132	107.38
411.355	101.38
411.578	96.38
411.802	84.38
412.025	80.38
412.249	97.38
412.472	128.38
412.695	151.38
412.919	120.38
413.142	102.38
413.365	83.38
413.589	77.38
413.812	96.38
414.035	102.38
414.258	87.38
414.482	90.38
414.705	96.38
414.928	86.38
415.151	101.38
415.374	94.38
415.597	89.38
415.821	93.38
416.044	81.38
416.267	101.38
416.49	95.38
416.713	89.38
416.936	78.38
417.159	92.38
417.382	105.38
417.605	121.38
417.828	148.38
418.051	104.38
418.274	85.38
418.497	89.38
418.72	81.38
418.943	77.38
419.166	75.38
419.389	87.38
419.611	105.38
419.834	94.38
420.057	90.38
420.28	106.38
420.503	86.38
420.726	98.38
420.948	105.38
421.171	108.38
421.394	101.38
421.617	89.38
421.839	80.38
422.062	95.38
422.285	91.38
422.507	109.38
422.73	112.38
422.953	97.38
423.175	81.38
423.398	91.38
423.621	89.38
423.843	72.38
424.066	89.38
424.288	89.38
424.511	111.38
424.733	105.38
424.956	136.38
425.178	123.38
425.401	115.38
425.623	107.38
425.846	88.38
426.068	111.38
426.291	93.38
426.513	96.38
426.735	114.38
426.958	113.38
427.18	136.38
427.402	220.38
427.625	363.38
427.847	340.38
428.069	286.38
428.292	152.38
428.514	109.38
428.736	86.38
428.958	84.38
429.181	102.38
429.403	87.38
429.625	83.38
429.847	118.38
430.069	123.38
430.292	103.38
430.514	81.38
430.736	107.38
430.958	88.38
431.18	76.38
431.402	71.38
431.624	89.38
431.846	79.38
432.068	77.38
432.29	76.38
432.512	93.38
432.734	91.38
432.956	100.38
433.178	115.38
433.4	106.38
433.622	97.38
433.844	84.38
434.066	87.38
434.287	88.38
434.509	97.38
434.731	86.38
434.953	95.38
435.175	93.38
435.397	96.38
435.618	83.38
435.84	122.38
436.062	156.38
436.284	147.38
436.505	109.38
436.727	113.38
436.949	90.38
437.17	109.38
437.392	84.38
437.614	93.38
437.835	129.38
438.057	177.38
438.278	147.38
438.5	129.38
438.721	160.38
438.943	111.38
439.165	99.38
439.386	106.38
439.608	93.38
439.829	122.38
440.05	183.38
440.272	232.38
440.493	115.38
440.715	90.38
440.936	89.38
441.158	89.38
441.379	89.38
441.6	111.38
441.822	110.38
442.043	112.38
442.264	128.38
442.486	124.38
442.707	106.38
442.928	154.38
443.149	217.38
443.371	214.38
443.592	160.38
443.813	144.38
444.034	126.38
444.255	109.38
444.476	87.38
444.698	101.38
444.919	90.38
445.14	141.38
445.361	172.38
445.582	166.38
445.803	230.38
446.024	218.38
446.245	204.38
446.466	133.38
446.687	104.38
446.908	102.38
447.129	93.38
447.35	110.38
447.571	96.38
447.792	105.38
448.013	129.38
448.234	142.38
448.455	142.38
448.675	133.38
448.896	140.38
449.117	107.38
449.338	117.38
449.559	156.38
449.779	162.38
450	98.38
450.221	97.38
450.442	91.38
450.662	116.38
450.883	159.38
451.104	166.38
451.324	124.38
451.545	92.38
451.766	94.38
451.986	91.38
452.207	94.38
452.428	106.38
452.648	132.38
452.869	152.38
453.089	157.38
453.31	166.38
453.53	121.38
453.751	108.38
453.971	134.38
454.192	161.38
454.412	119.38
454.633	99.38
454.853	82.38
455.073	81.38
455.294	109.38
455.514	126.38
455.734	91.38
455.955	94.38
456.175	81.38
456.395	98.38
456.616	83.38
456.836	92.38
457.056	77.38
457.276	92.38
457.497	94.38
457.717	85.38
457.937	84.38
458.157	98.38
458.377	90.38
458.598	184.38
458.818	288.38
459.038	309.38
459.258	190.38
459.478	115.38
459.698	88.38
459.918	80.38
460.138	83.38
460.358	107.38
460.578	92.38
460.798	99.38
461.018	83.38
461.238	75.38
461.458	98.38
461.678	87.38
461.898	87.38
462.118	101.38
462.338	89.38
462.558	81.38
462.777	85.38
462.997	88.38
463.217	117.38
463.437	104.38
463.657	75.38
463.876	79.38
464.096	106.38
464.316	110.38
464.536	108.38
464.755	98.38
464.975	150.38
465.195	337.38
465.414	342.38
465.634	121.38
465.854	96.38
466.073	91.38
466.293	93.38
466.512	105.38
466.732	93.38
466.951	99.38
467.171	114.38
467.391	124.38
467.61	173.38
467.829	299.38
468.049	941.38
468.268	1441.38
468.488	345.38
468.707	144.38
468.927	111.38
469.146	100.38
469.365	94.38
469.585	93.38
469.804	132.38
470.023	130.38
470.243	119.38
470.462	150.38
470.681	179.38
470.901	125.38
471.12	119.38
471.339	115.38
471.558	129.38
471.777	182.38
471.997	430.38
472.216	1790.38
472.435	4318.38
472.654	945.38
472.873	227.38
473.092	126.38
473.311	102.38
473.53	95.38
473.749	104.38
473.968	111.38
474.187	141.38
474.406	113.38
474.625	88.38
474.844	100.38
475.063	95.38
475.282	86.38
475.501	97.38
475.72	92.38
475.939	77.38
476.158	90.38
476.377	103.38
476.596	92.38
476.814	111.38
477.033	119.38
477.252	101.38
477.471	93.38
477.69	105.38
477.908	98.38
478.127	104.38
478.346	85.38
478.564	114.38
478.783	139.38
479.002	124.38
479.22	121.38
479.439	153.38
479.658	186.38
479.876	152.38
480.095	145.38
480.313	168.38
480.532	213.38
480.751	417.38
480.969	1562.38
481.188	7181.38
481.406	4117.38
481.624	523.38
481.843	165.38
482.061	117.38
482.28	109.38
482.498	103.38
482.717	109.38
482.935	98.38
483.153	101.38
483.372	96.38
483.59	91.38
483.808	90.38
484.027	102.38
484.245	94.38
484.463	100.38
484.681	104.38
484.9	112.38
485.118	103.38
485.336	105.38
485.554	103.38
485.772	93.38
485.99	106.38
486.209	106.38
486.427	128.38
486.645	133.38
486.863	158.38
487.081	118.38
487.299	110.38
487.517	108.38
487.735	95.38
487.953	97.38
488.171	103.38
488.389	108.38
488.607	98.38
488.825	87.38
489.043	97.38
489.261	104.38
489.479	84.38
489.696	85.38
489.914	91.38
490.132	81.38
490.35	87.38
490.568	79.38
490.786	99.38
491.003	87.38
491.221	96.38
491.439	94.38
491.657	94.38
491.874	102.38
492.092	87.38
492.31	89.38
492.527	106.38
492.745	96.38
492.963	94.38
493.18	97.38
493.398	88.38
493.615	91.38
493.833	106.38
494.05	85.38
494.268	93.38
494.485	80.38
494.703	89.38
494.92	88.38
495.138	91.38
495.355	101.38
495.573	110.38
495.79	86.38
496.008	95.38
496.225	85.38
496.442	99.38
496.66	107.38
496.877	78.38
497.094	93.38
497.312	87.38
497.529	85.38
497.746	104.38
497.963	90.38
498.181	104.38
498.398	94.38
498.615	118.38
498.832	123.38
499.049	90.38
499.267	95.38
499.484	88.38
499.701	95.38
499.918	91.38
500.135	95.38
500.352	88.38
500.569	106.38
500.786	91.38
501.003	86.38
501.22	100.38
501.437	95.38
501.654	104.38
501.871	155.38
502.088	99.38
502.305	84.38
502.522	100.38
502.739	95.38
502.956	89.38
503.172	89.38
503.389	101.38
503.606	159.38
503.823	132.38
504.04	100.38
504.256	86.38
504.473	94.38
504.69	91.38
504.907	98.38
505.123	102.38
505.34	102.38
505.557	98.38
505.773	79.38
505.99	92.38
506.207	85.38
506.423	94.38
506.64	97.38
506.856	89.38
507.073	101.38
507.289	113.38
507.506	98.38
507.722	172.38
507.939	179.38
508.155	106.38
508.372	100.38
508.588	101.38
508.805	109.38
509.021	95.38
509.238	97.38
509.454	90.38
509.67	112.38
509.887	127.38
510.103	144.38
510.319	280.38
510.536	1147.38
510.752	4207.38
510.968	1083.38
511.184	211.38
511.401	145.38
