Data from Circ_1995_H10_HRD10591_00076.txt Node
Date: Wed Jan 03 11:37:01 EST 2024
User: Yrep
Spectrometer: HR+D1059
Trigger mode: 1
Integration Time (sec): 1.000000E-1
Scans to average: 1
Electric dark correction enabled: true
Nonlinearity correction enabled: false
Boxcar width: 0
XAxis mode: Wavelengths
Number of Pixels in Spectrum: 2048
>>>>>Begin Spectral Data<<<<<
223.165	-29.88
223.4	-29.88
223.635	-29.88
223.869	-27.88
224.104	-13.88
224.338	-16.88
224.573	-22.88
224.808	-16.88
225.042	-4.88
225.277	3.12
225.511	1.12
225.746	8.12
225.98	6.12
226.215	17.12
226.449	22.12
226.683	10.12
226.918	24.12
227.152	41.12
227.387	28.12
227.621	32.12
227.856	35.12
228.09	40.12
228.324	44.12
228.559	45.12
228.793	51.12
229.027	63.12
229.262	67.12
229.496	83.12
229.73	109.12
229.964	115.12
230.199	63.12
230.433	87.12
230.667	76.12
230.901	90.12
231.136	89.12
231.37	78.12
231.604	75.12
231.838	81.12
232.072	80.12
232.306	93.12
232.541	78.12
232.775	78.12
233.009	86.12
233.243	88.12
233.477	97.12
233.711	88.12
233.945	81.12
234.179	85.12
234.413	104.12
234.647	89.12
234.881	69.12
235.115	88.12
235.349	96.12
235.583	83.12
235.817	82.12
236.051	77.12
236.285	89.12
236.519	76.12
236.753	80.12
236.987	78.12
237.221	93.12
237.455	107.12
237.689	83.12
237.922	83.12
238.156	72.12
238.39	88.12
238.624	76.12
238.858	89.12
239.091	75.12
239.325	81.12
239.559	84.12
239.793	105.12
240.027	78.12
240.26	89.12
240.494	89.12
240.728	83.12
240.961	71.12
241.195	88.12
241.429	81.12
241.662	69.12
241.896	83.12
242.13	61.12
242.363	83.12
242.597	82.12
242.83	78.12
243.064	78.12
243.298	63.12
243.531	80.12
243.765	82.12
243.998	91.12
244.232	95.12
244.465	85.12
244.699	79.12
244.932	78.12
245.166	72.12
245.399	91.12
245.633	67.12
245.866	91.12
246.099	84.12
246.333	83.12
246.566	81.12
246.8	88.12
247.033	89.12
247.266	94.12
247.5	88.12
247.733	86.12
247.966	97.12
248.2	93.12
248.433	95.12
248.666	85.12
248.899	95.12
249.133	99.12
249.366	114.12
249.599	123.12
249.832	103.12
250.066	83.12
250.299	73.12
250.532	92.12
250.765	90.12
250.998	81.12
251.231	90.12
251.465	84.12
251.698	90.12
251.931	89.12
252.164	88.12
252.397	88.12
252.63	85.12
252.863	84.12
253.096	80.12
253.329	97.12
253.562	92.12
253.795	78.12
254.028	89.12
254.261	86.12
254.494	88.12
254.727	91.12
254.96	91.12
255.193	70.12
255.426	85.12
255.659	93.12
255.892	94.12
256.124	96.12
256.357	108.12
256.59	89.12
256.823	88.12
257.056	106.12
257.289	78.12
257.521	86.12
257.754	82.12
257.987	99.12
258.22	108.12
258.452	118.12
258.685	109.12
258.918	101.12
259.151	86.12
259.383	87.12
259.616	85.12
259.849	76.12
260.081	103.12
260.314	93.12
260.547	104.12
260.779	109.12
261.012	123.12
261.244	145.12
261.477	123.12
261.71	130.12
261.942	161.12
262.175	190.12
262.407	116.12
262.64	98.12
262.872	94.12
263.105	82.12
263.337	105.12
263.57	91.12
263.802	101.12
264.035	85.12
264.267	89.12
264.499	93.12
264.732	81.12
264.964	82.12
265.197	80.12
265.429	84.12
265.661	83.12
265.894	82.12
266.126	81.12
266.358	99.12
266.591	99.12
266.823	92.12
267.055	102.12
267.287	97.12
267.52	90.12
267.752	88.12
267.984	81.12
268.216	107.12
268.448	102.12
268.681	99.12
268.913	97.12
269.145	97.12
269.377	93.12
269.609	92.12
269.841	87.12
270.073	86.12
270.306	94.12
270.538	84.12
270.77	92.12
271.002	108.12
271.234	113.12
271.466	92.12
271.698	97.12
271.93	90.12
272.162	99.12
272.394	84.12
272.626	90.12
272.858	91.12
273.09	83.12
273.322	84.12
273.553	75.12
273.785	94.12
274.017	86.12
274.249	97.12
274.481	89.12
274.713	97.12
274.945	121.12
275.176	103.12
275.408	133.12
275.64	137.12
275.872	172.12
276.104	126.12
276.335	124.12
276.567	138.12
276.799	208.12
277.031	252.12
277.262	304.12
277.494	218.12
277.726	113.12
277.957	114.12
278.189	99.12
278.421	103.12
278.652	103.12
278.884	99.12
279.115	102.12
279.347	103.12
279.579	126.12
279.81	192.12
280.042	307.12
280.273	470.12
280.505	289.12
280.736	141.12
280.968	117.12
281.199	100.12
281.431	90.12
281.662	94.12
281.894	101.12
282.125	113.12
282.356	164.12
282.588	209.12
282.819	157.12
283.051	102.12
283.282	115.12
283.513	86.12
283.745	110.12
283.976	100.12
284.207	99.12
284.439	99.12
284.67	94.12
284.901	85.12
285.132	79.12
285.364	89.12
285.595	90.12
285.826	83.12
286.057	112.12
286.288	94.12
286.52	91.12
286.751	96.12
286.982	93.12
287.213	102.12
287.444	95.12
287.675	84.12
287.906	98.12
288.138	106.12
288.369	105.12
288.6	115.12
288.831	97.12
289.062	81.12
289.293	96.12
289.524	88.12
289.755	90.12
289.986	89.12
290.217	90.12
290.448	74.12
290.679	89.12
290.91	88.12
291.141	96.12
291.371	94.12
291.602	74.12
291.833	80.12
292.064	105.12
292.295	98.12
292.526	99.12
292.757	95.12
292.987	93.12
293.218	89.12
293.449	97.12
293.68	91.12
293.91	99.12
294.141	85.12
294.372	77.12
294.603	104.12
294.833	88.12
295.064	92.12
295.295	89.12
295.525	98.12
295.756	115.12
295.987	152.12
296.217	202.12
296.448	190.12
296.679	112.12
296.909	94.12
297.14	95.12
297.37	93.12
297.601	81.12
297.831	102.12
298.062	101.12
298.292	93.12
298.523	82.12
298.753	80.12
298.984	111.12
299.214	93.12
299.445	115.12
299.675	101.12
299.905	116.12
300.136	90.12
300.366	98.12
300.597	107.12
300.827	106.12
301.057	120.12
301.288	144.12
301.518	124.12
301.748	114.12
301.979	141.12
302.209	107.12
302.439	123.12
302.669	101.12
302.9	102.12
303.13	115.12
303.36	121.12
303.59	174.12
303.82	189.12
304.051	122.12
304.281	100.12
304.511	101.12
304.741	106.12
304.971	108.12
305.201	105.12
305.431	109.12
305.661	113.12
305.891	115.12
306.121	101.12
306.352	115.12
306.582	139.12
306.812	122.12
307.042	170.12
307.272	238.12
307.502	264.12
307.731	226.12
307.961	163.12
308.191	96.12
308.421	88.12
308.651	85.12
308.881	92.12
309.111	107.12
309.341	102.12
309.571	120.12
309.8	133.12
310.03	115.12
310.26	119.12
310.49	110.12
310.72	120.12
310.949	145.12
311.179	123.12
311.409	120.12
311.639	119.12
311.868	118.12
312.098	114.12
312.328	116.12
312.557	146.12
312.787	157.12
313.017	133.12
313.246	109.12
313.476	100.12
313.706	108.12
313.935	118.12
314.165	116.12
314.394	129.12
314.624	118.12
314.853	130.12
315.083	107.12
315.312	102.12
315.542	108.12
315.771	107.12
316.001	100.12
316.23	100.12
316.46	110.12
316.689	104.12
316.919	112.12
317.148	110.12
317.377	114.12
317.607	101.12
317.836	109.12
318.065	92.12
318.295	100.12
318.524	110.12
318.753	95.12
318.983	117.12
319.212	115.12
319.441	141.12
319.67	141.12
319.9	110.12
320.129	89.12
320.358	102.12
320.587	110.12
320.816	115.12
321.046	128.12
321.275	116.12
321.504	121.12
321.733	112.12
321.962	121.12
322.191	137.12
322.42	138.12
322.649	135.12
322.878	127.12
323.108	157.12
323.337	174.12
323.566	179.12
323.795	220.12
324.024	294.12
324.253	564.12
324.482	1206.12
324.71	2502.12
324.939	3274.12
325.168	1230.12
325.397	334.12
325.626	190.12
325.855	157.12
326.084	169.12
326.313	160.12
326.542	204.12
326.77	304.12
326.999	587.12
327.228	1218.12
327.457	2229.12
327.686	1830.12
327.914	755.12
328.143	885.12
328.372	1177.12
328.6	628.12
328.829	284.12
329.058	280.12
329.287	299.12
329.515	256.12
329.744	388.12
329.972	816.12
330.201	1815.12
330.43	2691.12
330.658	1107.12
330.887	440.12
331.115	275.12
331.344	161.12
331.572	151.12
331.801	160.12
332.03	170.12
332.258	134.12
332.486	132.12
332.715	140.12
332.943	138.12
333.172	155.12
333.4	180.12
333.629	214.12
333.857	334.12
334.085	684.12
334.314	1564.12
334.542	3185.12
334.771	3038.12
334.999	720.12
335.227	244.12
335.455	162.12
335.684	139.12
335.912	122.12
336.14	119.12
336.369	126.12
336.597	147.12
336.825	122.12
337.053	109.12
337.281	97.12
337.51	97.12
337.738	114.12
337.966	95.12
338.194	140.12
338.422	120.12
338.65	105.12
338.878	92.12
339.106	96.12
339.334	103.12
339.562	105.12
339.79	115.12
340.018	95.12
340.246	121.12
340.474	106.12
340.702	98.12
340.93	98.12
341.158	111.12
341.386	111.12
341.614	107.12
341.842	120.12
342.07	122.12
342.298	119.12
342.526	107.12
342.754	88.12
342.981	97.12
343.209	95.12
343.437	111.12
343.665	109.12
343.893	93.12
344.12	106.12
344.348	109.12
344.576	108.12
344.804	101.12
345.031	118.12
345.259	132.12
345.487	112.12
345.714	108.12
345.942	97.12
346.17	101.12
346.397	91.12
346.625	112.12
346.853	119.12
347.08	103.12
347.308	111.12
347.535	116.12
347.763	134.12
347.99	127.12
348.218	140.12
348.445	147.12
348.673	130.12
348.9	116.12
349.128	108.12
349.355	100.12
349.583	97.12
349.81	97.12
350.037	108.12
350.265	108.12
350.492	102.12
350.72	102.12
350.947	115.12
351.174	138.12
351.402	152.12
351.629	147.12
351.856	108.12
352.083	127.12
352.311	138.12
352.538	153.12
352.765	137.12
352.992	128.12
353.22	133.12
353.447	134.12
353.674	108.12
353.901	88.12
354.128	97.12
354.355	94.12
354.583	97.12
354.81	100.12
355.037	97.12
355.264	92.12
355.491	99.12
355.718	81.12
355.945	100.12
356.172	98.12
356.399	93.12
356.626	88.12
356.853	96.12
357.08	99.12
357.307	83.12
357.534	95.12
357.761	100.12
357.988	79.12
358.215	102.12
358.441	95.12
358.668	96.12
358.895	99.12
359.122	100.12
359.349	92.12
359.576	113.12
359.802	141.12
360.029	190.12
360.256	185.12
360.483	143.12
360.709	111.12
360.936	112.12
361.163	114.12
361.39	114.12
361.616	108.12
361.843	107.12
362.07	104.12
362.296	129.12
362.523	118.12
362.749	106.12
362.976	102.12
363.203	100.12
363.429	86.12
363.656	100.12
363.882	94.12
364.109	93.12
364.335	110.12
364.562	98.12
364.788	105.12
365.015	120.12
365.241	117.12
365.468	140.12
365.694	138.12
365.92	108.12
366.147	100.12
366.373	105.12
366.599	106.12
366.826	85.12
367.052	99.12
367.278	109.12
367.505	106.12
367.731	99.12
367.957	114.12
368.184	119.12
368.41	117.12
368.636	134.12
368.862	179.12
369.089	152.12
369.315	116.12
369.541	107.12
369.767	98.12
369.993	102.12
370.219	100.12
370.445	110.12
370.672	98.12
370.898	92.12
371.124	105.12
371.35	93.12
371.576	102.12
371.802	88.12
372.028	78.12
372.254	87.12
372.48	85.12
372.706	87.12
372.932	99.12
373.158	93.12
373.384	95.12
373.61	88.12
373.835	92.12
374.061	95.12
374.287	100.12
374.513	102.12
374.739	96.12
374.965	106.12
375.191	96.12
375.416	84.12
375.642	99.12
375.868	84.12
376.094	85.12
376.319	102.12
376.545	106.12
376.771	88.12
376.997	89.12
377.222	83.12
377.448	90.12
377.674	110.12
377.899	98.12
378.125	86.12
378.35	102.12
378.576	87.12
378.802	89.12
379.027	90.12
379.253	101.12
379.478	100.12
379.704	92.12
379.929	93.12
380.155	95.12
380.38	97.12
380.606	99.12
380.831	88.12
381.057	108.12
381.282	94.12
381.507	100.12
381.733	102.12
381.958	92.12
382.184	108.12
382.409	88.12
382.634	125.12
382.86	98.12
383.085	113.12
383.31	81.12
383.535	92.12
383.761	93.12
383.986	97.12
384.211	112.12
384.436	106.12
384.662	116.12
384.887	95.12
385.112	102.12
385.337	115.12
385.562	95.12
385.787	108.12
386.013	110.12
386.238	124.12
386.463	112.12
386.688	111.12
386.913	101.12
387.138	113.12
387.363	112.12
387.588	101.12
387.813	108.12
388.038	97.12
388.263	111.12
388.488	113.12
388.713	80.12
388.938	85.12
389.163	100.12
389.387	94.12
389.612	88.12
389.837	93.12
390.062	97.12
390.287	94.12
390.512	76.12
390.736	102.12
390.961	85.12
391.186	91.12
391.411	94.12
391.636	93.12
391.86	106.12
392.085	88.12
392.31	88.12
392.534	82.12
392.759	94.12
392.984	82.12
393.208	85.12
393.433	102.12
393.658	102.12
393.882	89.12
394.107	93.12
394.331	82.12
394.556	103.12
394.78	92.12
395.005	98.12
395.229	93.12
395.454	90.12
395.678	102.12
395.903	93.12
396.127	94.12
396.352	82.12
396.576	87.12
396.801	93.12
397.025	95.12
397.249	89.12
397.474	85.12
397.698	100.12
397.922	92.12
398.147	98.12
398.371	86.12
398.595	88.12
398.82	85.12
399.044	83.12
399.268	76.12
399.492	88.12
399.717	95.12
399.941	100.12
400.165	99.12
400.389	111.12
400.613	92.12
400.837	89.12
401.062	84.12
401.286	111.12
401.51	120.12
401.734	103.12
401.958	133.12
402.182	180.12
402.406	282.12
402.63	200.12
402.854	116.12
403.078	106.12
403.302	89.12
403.526	106.12
403.75	103.12
403.974	92.12
404.198	86.12
404.422	104.12
404.645	113.12
404.869	113.12
405.093	131.12
405.317	166.12
405.541	167.12
405.765	157.12
405.988	179.12
406.212	298.12
406.436	462.12
406.66	300.12
406.883	146.12
407.107	121.12
407.331	108.12
407.555	105.12
407.778	120.12
408.002	113.12
408.226	94.12
408.449	98.12
408.673	103.12
408.896	105.12
409.12	101.12
409.344	90.12
409.567	96.12
409.791	93.12
410.014	98.12
410.238	99.12
410.461	96.12
410.685	96.12
410.908	96.12
411.132	113.12
411.355	106.12
411.578	105.12
411.802	105.12
412.025	97.12
412.249	109.12
412.472	129.12
412.695	157.12
412.919	120.12
413.142	88.12
413.365	102.12
413.589	99.12
413.812	94.12
414.035	100.12
414.258	101.12
414.482	105.12
414.705	108.12
414.928	90.12
415.151	88.12
415.374	97.12
415.597	101.12
415.821	86.12
416.044	89.12
416.267	92.12
416.49	102.12
416.713	93.12
416.936	92.12
417.159	87.12
417.382	113.12
417.605	119.12
417.828	136.12
418.051	116.12
418.274	103.12
418.497	74.12
418.72	85.12
418.943	88.12
419.166	88.12
419.389	85.12
419.611	102.12
419.834	98.12
420.057	85.12
420.28	91.12
420.503	104.12
420.726	76.12
420.948	105.12
421.171	106.12
421.394	95.12
421.617	101.12
421.839	93.12
422.062	94.12
422.285	112.12
422.507	108.12
422.73	124.12
422.953	101.12
423.175	98.12
423.398	106.12
423.621	98.12
423.843	99.12
424.066	97.12
424.288	94.12
424.511	96.12
424.733	130.12
424.956	139.12
425.178	138.12
425.401	116.12
425.623	117.12
425.846	92.12
426.068	108.12
426.291	102.12
426.513	104.12
426.735	106.12
426.958	108.12
427.18	144.12
427.402	224.12
427.625	374.12
427.847	325.12
428.069	250.12
428.292	152.12
428.514	118.12
428.736	99.12
428.958	95.12
429.181	92.12
429.403	98.12
429.625	102.12
429.847	108.12
430.069	131.12
430.292	90.12
430.514	86.12
430.736	95.12
430.958	88.12
431.18	85.12
431.402	96.12
431.624	91.12
431.846	88.12
432.068	85.12
432.29	101.12
432.512	95.12
432.734	85.12
432.956	91.12
433.178	115.12
433.4	116.12
433.622	86.12
433.844	89.12
434.066	98.12
434.287	101.12
434.509	97.12
434.731	98.12
434.953	91.12
435.175	106.12
435.397	101.12
435.618	97.12
435.84	109.12
436.062	155.12
436.284	130.12
436.505	132.12
436.727	116.12
436.949	100.12
437.17	91.12
437.392	99.12
437.614	99.12
437.835	146.12
438.057	180.12
438.278	159.12
438.5	127.12
438.721	147.12
438.943	128.12
439.165	99.12
439.386	91.12
439.608	96.12
439.829	114.12
440.05	164.12
440.272	218.12
440.493	127.12
440.715	101.12
440.936	96.12
441.158	94.12
441.379	105.12
441.6	121.12
441.822	131.12
442.043	114.12
442.264	126.12
442.486	119.12
442.707	120.12
442.928	144.12
443.149	211.12
443.371	211.12
443.592	150.12
443.813	138.12
444.034	146.12
444.255	101.12
444.476	90.12
444.698	91.12
444.919	106.12
445.14	144.12
445.361	141.12
445.582	172.12
445.803	224.12
446.024	190.12
446.245	189.12
446.466	137.12
446.687	99.12
446.908	90.12
447.129	92.12
447.35	96.12
447.571	107.12
447.792	104.12
448.013	121.12
448.234	146.12
448.455	136.12
448.675	153.12
448.896	142.12
449.117	105.12
449.338	112.12
449.559	140.12
449.779	160.12
450	100.12
450.221	93.12
450.442	99.12
450.662	110.12
450.883	166.12
451.104	180.12
451.324	118.12
451.545	94.12
451.766	105.12
451.986	92.12
452.207	95.12
452.428	113.12
452.648	113.12
452.869	153.12
453.089	168.12
453.31	188.12
453.53	148.12
453.751	116.12
453.971	136.12
454.192	167.12
454.412	117.12
454.633	96.12
454.853	105.12
455.073	100.12
455.294	105.12
455.514	125.12
455.734	102.12
455.955	100.12
456.175	84.12
456.395	97.12
456.616	97.12
456.836	78.12
457.056	76.12
457.276	89.12
457.497	97.12
457.717	88.12
457.937	109.12
458.157	94.12
458.377	108.12
458.598	166.12
458.818	297.12
459.038	311.12
459.258	200.12
459.478	97.12
459.698	86.12
459.918	106.12
460.138	96.12
460.358	90.12
460.578	101.12
460.798	108.12
461.018	108.12
461.238	90.12
461.458	92.12
461.678	81.12
461.898	94.12
462.118	86.12
462.338	90.12
462.558	99.12
462.777	95.12
462.997	124.12
463.217	130.12
463.437	102.12
463.657	99.12
463.876	83.12
464.096	97.12
464.316	106.12
464.536	126.12
464.755	115.12
464.975	165.12
465.195	348.12
465.414	366.12
465.634	136.12
465.854	102.12
466.073	102.12
466.293	91.12
466.512	114.12
466.732	103.12
466.951	100.12
467.171	97.12
467.391	116.12
467.61	196.12
467.829	340.12
468.049	1056.12
468.268	1643.12
468.488	382.12
468.707	153.12
468.927	109.12
469.146	105.12
469.365	97.12
469.585	116.12
469.804	136.12
470.023	143.12
470.243	122.12
470.462	154.12
470.681	183.12
470.901	126.12
471.12	113.12
471.339	131.12
471.558	151.12
471.777	210.12
471.997	480.12
472.216	1977.12
472.435	4686.12
472.654	988.12
472.873	234.12
473.092	141.12
473.311	92.12
473.53	97.12
473.749	109.12
473.968	123.12
474.187	140.12
474.406	136.12
474.625	108.12
474.844	97.12
475.063	107.12
475.282	92.12
475.501	101.12
475.72	100.12
475.939	93.12
476.158	94.12
476.377	89.12
476.596	105.12
476.814	102.12
477.033	130.12
477.252	100.12
477.471	101.12
477.69	116.12
477.908	107.12
478.127	99.12
478.346	105.12
478.564	108.12
478.783	114.12
479.002	116.12
479.22	138.12
479.439	157.12
479.658	187.12
479.876	171.12
480.095	150.12
480.313	180.12
480.532	233.12
480.751	438.12
480.969	1718.12
481.188	7670.12
481.406	4408.12
481.624	568.12
481.843	183.12
482.061	142.12
482.28	108.12
482.498	126.12
482.717	99.12
482.935	111.12
483.153	102.12
483.372	97.12
483.59	83.12
483.808	102.12
484.027	94.12
484.245	96.12
484.463	115.12
484.681	111.12
484.9	104.12
485.118	100.12
485.336	96.12
485.554	101.12
485.772	102.12
485.99	98.12
486.209	108.12
486.427	114.12
486.645	151.12
486.863	141.12
487.081	133.12
487.299	126.12
487.517	101.12
487.735	83.12
487.953	95.12
488.171	99.12
488.389	108.12
488.607	116.12
488.825	110.12
489.043	108.12
489.261	95.12
489.479	88.12
489.696	108.12
489.914	104.12
490.132	87.12
490.35	90.12
490.568	102.12
490.786	84.12
491.003	90.12
491.221	97.12
491.439	105.12
491.657	96.12
491.874	90.12
492.092	81.12
492.31	105.12
492.527	108.12
492.745	95.12
492.963	101.12
493.18	93.12
493.398	93.12
493.615	101.12
493.833	95.12
494.05	95.12
494.268	93.12
494.485	96.12
494.703	98.12
494.92	103.12
495.138	88.12
495.355	109.12
495.573	108.12
495.79	107.12
496.008	101.12
496.225	94.12
496.442	100.12
496.66	100.12
496.877	93.12
497.094	100.12
497.312	85.12
497.529	110.12
497.746	83.12
497.963	93.12
498.181	109.12
498.398	110.12
498.615	122.12
498.832	129.12
499.049	97.12
499.267	99.12
499.484	90.12
499.701	101.12
499.918	106.12
500.135	90.12
500.352	106.12
500.569	105.12
500.786	109.12
501.003	93.12
501.22	98.12
501.437	89.12
501.654	114.12
501.871	162.12
502.088	106.12
502.305	103.12
502.522	92.12
502.739	98.12
502.956	106.12
503.172	101.12
503.389	117.12
503.606	151.12
503.823	139.12
504.04	95.12
504.256	96.12
504.473	118.12
504.69	95.12
504.907	96.12
505.123	79.12
505.34	90.12
505.557	90.12
505.773	109.12
505.99	91.12
506.207	100.12
506.423	105.12
506.64	99.12
506.856	96.12
507.073	102.12
507.289	84.12
507.506	117.12
507.722	157.12
507.939	180.12
508.155	111.12
508.372	105.12
508.588	102.12
508.805	116.12
509.021	114.12
509.238	116.12
509.454	103.12
509.67	115.12
509.887	140.12
