Data from Circ_1995_H10_HRD10591_00062.txt Node
Date: Wed Jan 03 11:36:59 EST 2024
User: Yrep
Spectrometer: HR+D1059
Trigger mode: 1
Integration Time (sec): 1.000000E-1
Scans to average: 1
Electric dark correction enabled: true
Nonlinearity correction enabled: false
Boxcar width: 0
XAxis mode: Wavelengths
Number of Pixels in Spectrum: 2048
>>>>>Begin Spectral Data<<<<<
223.165	-15.31
223.4	-15.31
223.635	-15.31
223.869	-6.31
224.104	-23.31
224.338	-24.31
224.573	-10.31
224.808	-10.31
225.042	-19.31
225.277	-8.31
225.511	-0.31
225.746	-2.31
225.98	5.69
226.215	12.69
226.449	18.69
226.683	22.69
226.918	46.69
227.152	13.69
227.387	34.69
227.621	33.69
227.856	44.69
228.09	42.69
228.324	50.69
228.559	53.69
228.793	61.69
229.027	75.69
229.262	70.69
229.496	79.69
229.73	102.69
229.964	99.69
230.199	76.69
230.433	76.69
230.667	70.69
230.901	80.69
231.136	91.69
231.37	84.69
231.604	77.69
231.838	85.69
232.072	78.69
232.306	72.69
232.541	76.69
232.775	78.69
233.009	81.69
233.243	82.69
233.477	90.69
233.711	78.69
233.945	86.69
234.179	84.69
234.413	78.69
234.647	81.69
234.881	66.69
235.115	76.69
235.349	88.69
235.583	83.69
235.817	73.69
236.051	79.69
236.285	87.69
236.519	74.69
236.753	60.69
236.987	74.69
237.221	81.69
237.455	90.69
237.689	79.69
237.922	74.69
238.156	89.69
238.39	77.69
238.624	73.69
238.858	65.69
239.091	72.69
239.325	73.69
239.559	82.69
239.793	96.69
240.027	84.69
240.26	74.69
240.494	95.69
240.728	73.69
240.961	74.69
241.195	79.69
241.429	65.69
241.662	83.69
241.896	78.69
242.13	86.69
242.363	68.69
242.597	80.69
242.83	62.69
243.064	75.69
243.298	93.69
243.531	71.69
243.765	82.69
243.998	75.69
244.232	87.69
244.465	98.69
244.699	86.69
244.932	75.69
245.166	74.69
245.399	62.69
245.633	73.69
245.866	84.69
246.099	83.69
246.333	77.69
246.566	64.69
246.8	80.69
247.033	70.69
247.266	87.69
247.5	86.69
247.733	88.69
247.966	81.69
248.2	78.69
248.433	69.69
248.666	81.69
248.899	82.69
249.133	101.69
249.366	111.69
249.599	104.69
249.832	89.69
250.066	79.69
250.299	97.69
250.532	99.69
250.765	85.69
250.998	90.69
251.231	81.69
251.465	81.69
251.698	85.69
251.931	79.69
252.164	89.69
252.397	88.69
252.63	91.69
252.863	76.69
253.096	84.69
253.329	84.69
253.562	84.69
253.795	79.69
254.028	89.69
254.261	80.69
254.494	85.69
254.727	88.69
254.96	65.69
255.193	80.69
255.426	84.69
255.659	80.69
255.892	104.69
256.124	98.69
256.357	102.69
256.59	95.69
256.823	89.69
257.056	82.69
257.289	95.69
257.521	94.69
257.754	87.69
257.987	93.69
258.22	92.69
258.452	98.69
258.685	103.69
258.918	88.69
259.151	77.69
259.383	85.69
259.616	88.69
259.849	59.69
260.081	74.69
260.314	84.69
260.547	99.69
260.779	106.69
261.012	112.69
261.244	119.69
261.477	106.69
261.71	102.69
261.942	151.69
262.175	174.69
262.407	92.69
262.64	90.69
262.872	74.69
263.105	72.69
263.337	86.69
263.57	88.69
263.802	72.69
264.035	82.69
264.267	85.69
264.499	87.69
264.732	90.69
264.964	84.69
265.197	85.69
265.429	82.69
265.661	104.69
265.894	76.69
266.126	62.69
266.358	73.69
266.591	82.69
266.823	81.69
267.055	86.69
267.287	86.69
267.52	91.69
267.752	83.69
267.984	94.69
268.216	80.69
268.448	92.69
268.681	87.69
268.913	90.69
269.145	82.69
269.377	84.69
269.609	78.69
269.841	91.69
270.073	85.69
270.306	80.69
270.538	97.69
270.77	92.69
271.002	103.69
271.234	88.69
271.466	100.69
271.698	84.69
271.93	82.69
272.162	94.69
272.394	91.69
272.626	86.69
272.858	97.69
273.09	102.69
273.322	80.69
273.553	88.69
273.785	75.69
274.017	91.69
274.249	97.69
274.481	89.69
274.713	79.69
274.945	81.69
275.176	95.69
275.408	96.69
275.64	138.69
275.872	138.69
276.104	109.69
276.335	104.69
276.567	123.69
276.799	182.69
277.031	236.69
277.262	251.69
277.494	184.69
277.726	113.69
277.957	104.69
278.189	81.69
278.421	96.69
278.652	98.69
278.884	79.69
279.115	74.69
279.347	94.69
279.579	92.69
279.81	162.69
280.042	271.69
280.273	375.69
280.505	241.69
280.736	123.69
280.968	110.69
281.199	106.69
281.431	96.69
281.662	92.69
281.894	100.69
282.125	111.69
282.356	146.69
282.588	192.69
282.819	134.69
283.051	90.69
283.282	98.69
283.513	106.69
283.745	97.69
283.976	85.69
284.207	86.69
284.439	93.69
284.67	85.69
284.901	92.69
285.132	87.69
285.364	87.69
285.595	90.69
285.826	85.69
286.057	92.69
286.288	84.69
286.52	73.69
286.751	78.69
286.982	85.69
287.213	91.69
287.444	92.69
287.675	80.69
287.906	80.69
288.138	91.69
288.369	103.69
288.6	94.69
288.831	94.69
289.062	87.69
289.293	81.69
289.524	87.69
289.755	89.69
289.986	85.69
290.217	96.69
290.448	77.69
290.679	74.69
290.91	90.69
291.141	91.69
291.371	84.69
291.602	91.69
291.833	91.69
292.064	87.69
292.295	88.69
292.526	85.69
292.757	95.69
292.987	86.69
293.218	92.69
293.449	62.69
293.68	84.69
293.91	79.69
294.141	93.69
294.372	88.69
294.603	91.69
294.833	94.69
295.064	78.69
295.295	92.69
295.525	88.69
295.756	112.69
295.987	122.69
296.217	184.69
296.448	169.69
296.679	110.69
296.909	92.69
297.14	103.69
297.37	86.69
297.601	82.69
297.831	86.69
298.062	86.69
298.292	85.69
298.523	88.69
298.753	94.69
298.984	88.69
299.214	79.69
299.445	94.69
299.675	104.69
299.905	102.69
300.136	88.69
300.366	89.69
300.597	87.69
300.827	103.69
301.057	121.69
301.288	122.69
301.518	112.69
301.748	107.69
301.979	113.69
302.209	102.69
302.439	102.69
302.669	95.69
302.9	102.69
303.13	100.69
303.36	116.69
303.59	132.69
303.82	188.69
304.051	118.69
304.281	81.69
304.511	94.69
304.741	93.69
304.971	87.69
305.201	109.69
305.431	90.69
305.661	88.69
305.891	100.69
306.121	105.69
306.352	123.69
306.582	125.69
306.812	114.69
307.042	136.69
307.272	180.69
307.502	225.69
307.731	204.69
307.961	140.69
308.191	101.69
308.421	94.69
308.651	85.69
308.881	106.69
309.111	96.69
309.341	103.69
309.571	108.69
309.8	96.69
310.03	115.69
310.26	107.69
310.49	103.69
310.72	110.69
310.949	129.69
311.179	130.69
311.409	93.69
311.639	108.69
311.868	99.69
312.098	89.69
312.328	97.69
312.557	132.69
312.787	120.69
313.017	136.69
313.246	108.69
313.476	102.69
313.706	112.69
313.935	104.69
314.165	125.69
314.394	130.69
314.624	114.69
314.853	117.69
315.083	93.69
315.312	97.69
315.542	86.69
315.771	93.69
316.001	84.69
316.23	89.69
316.46	92.69
316.689	91.69
316.919	94.69
317.148	110.69
317.377	113.69
317.607	112.69
317.836	118.69
318.065	99.69
318.295	93.69
318.524	77.69
318.753	94.69
318.983	106.69
319.212	98.69
319.441	129.69
319.67	108.69
319.9	84.69
320.129	91.69
320.358	92.69
320.587	101.69
320.816	102.69
321.046	121.69
321.275	124.69
321.504	90.69
321.733	92.69
321.962	105.69
322.191	120.69
322.42	133.69
322.649	127.69
322.878	124.69
323.108	139.69
323.337	181.69
323.566	177.69
323.795	203.69
324.024	277.69
324.253	570.69
324.482	1257.69
324.71	2655.69
324.939	3512.69
325.168	1256.69
325.397	349.69
325.626	210.69
325.855	151.69
326.084	163.69
326.313	155.69
326.542	187.69
326.77	305.69
326.999	622.69
327.228	1324.69
327.457	2467.69
327.686	2019.69
327.914	728.69
328.143	740.69
328.372	1034.69
328.6	554.69
328.829	237.69
329.058	224.69
329.287	243.69
329.515	222.69
329.744	321.69
329.972	680.69
330.201	1481.69
330.43	2252.69
330.658	952.69
330.887	398.69
331.115	230.69
331.344	150.69
331.572	149.69
331.801	157.69
332.03	132.69
332.258	137.69
332.486	128.69
332.715	140.69
332.943	115.69
333.172	126.69
333.4	145.69
333.629	175.69
333.857	305.69
334.085	566.69
334.314	1275.69
334.542	2661.69
334.771	2598.69
334.999	633.69
335.227	228.69
335.455	145.69
335.684	129.69
335.912	120.69
336.14	121.69
336.369	116.69
336.597	135.69
336.825	120.69
337.053	84.69
337.281	96.69
337.51	98.69
337.738	110.69
337.966	110.69
338.194	121.69
338.422	117.69
338.65	103.69
338.878	94.69
339.106	91.69
339.334	97.69
339.562	92.69
339.79	86.69
340.018	92.69
340.246	108.69
340.474	101.69
340.702	108.69
340.93	98.69
341.158	92.69
341.386	102.69
341.614	91.69
341.842	102.69
342.07	95.69
342.298	104.69
342.526	105.69
342.754	82.69
342.981	82.69
343.209	85.69
343.437	92.69
343.665	91.69
343.893	79.69
344.12	92.69
344.348	88.69
344.576	91.69
344.804	101.69
345.031	113.69
345.259	127.69
345.487	98.69
345.714	104.69
345.942	100.69
346.17	79.69
346.397	88.69
346.625	93.69
346.853	98.69
347.08	111.69
347.308	106.69
347.535	111.69
347.763	120.69
347.99	119.69
348.218	102.69
348.445	114.69
348.673	117.69
348.9	108.69
349.128	110.69
349.355	102.69
349.583	100.69
349.81	101.69
350.037	93.69
350.265	113.69
350.492	105.69
350.72	96.69
350.947	106.69
351.174	123.69
351.402	132.69
351.629	117.69
351.856	120.69
352.083	121.69
352.311	123.69
352.538	150.69
352.765	132.69
352.992	126.69
353.22	118.69
353.447	112.69
353.674	95.69
353.901	95.69
354.128	105.69
354.355	92.69
354.583	95.69
354.81	102.69
355.037	86.69
355.264	98.69
355.491	93.69
355.718	96.69
355.945	90.69
356.172	90.69
356.399	87.69
356.626	93.69
356.853	90.69
357.08	87.69
357.307	76.69
357.534	88.69
357.761	98.69
357.988	80.69
358.215	95.69
358.441	88.69
358.668	90.69
358.895	107.69
359.122	92.69
359.349	93.69
359.576	107.69
359.802	116.69
360.029	152.69
360.256	162.69
360.483	128.69
360.709	95.69
360.936	90.69
361.163	109.69
361.39	107.69
361.616	111.69
361.843	84.69
362.07	105.69
362.296	112.69
362.523	108.69
362.749	107.69
362.976	106.69
363.203	97.69
363.429	95.69
363.656	89.69
363.882	93.69
364.109	93.69
364.335	110.69
364.562	88.69
364.788	103.69
365.015	89.69
365.241	105.69
365.468	121.69
365.694	127.69
365.92	108.69
366.147	85.69
366.373	91.69
366.599	86.69
366.826	87.69
367.052	100.69
367.278	91.69
367.505	96.69
367.731	89.69
367.957	101.69
368.184	100.69
368.41	121.69
368.636	144.69
368.862	139.69
369.089	140.69
369.315	104.69
369.541	95.69
369.767	99.69
369.993	111.69
370.219	97.69
370.445	87.69
370.672	87.69
370.898	80.69
371.124	86.69
371.35	102.69
371.576	81.69
371.802	84.69
372.028	94.69
372.254	96.69
372.48	96.69
372.706	99.69
372.932	77.69
373.158	84.69
373.384	89.69
373.61	100.69
373.835	97.69
374.061	92.69
374.287	93.69
374.513	88.69
374.739	90.69
374.965	84.69
375.191	90.69
375.416	92.69
375.642	80.69
375.868	77.69
376.094	95.69
376.319	93.69
376.545	83.69
376.771	90.69
376.997	83.69
377.222	86.69
377.448	91.69
377.674	96.69
377.899	104.69
378.125	85.69
378.35	94.69
378.576	96.69
378.802	82.69
379.027	90.69
379.253	84.69
379.478	94.69
379.704	72.69
379.929	104.69
380.155	84.69
380.38	101.69
380.606	85.69
380.831	85.69
381.057	95.69
381.282	83.69
381.507	97.69
381.733	92.69
381.958	93.69
382.184	101.69
382.409	104.69
382.634	88.69
382.86	98.69
383.085	96.69
383.31	115.69
383.535	114.69
383.761	100.69
383.986	105.69
384.211	105.69
384.436	86.69
384.662	89.69
384.887	98.69
385.112	107.69
385.337	106.69
385.562	84.69
385.787	94.69
386.013	112.69
386.238	126.69
386.463	121.69
386.688	98.69
386.913	121.69
387.138	96.69
387.363	102.69
387.588	105.69
387.813	92.69
388.038	102.69
388.263	116.69
388.488	98.69
388.713	93.69
388.938	97.69
389.163	95.69
389.387	84.69
389.612	86.69
389.837	104.69
390.062	94.69
390.287	93.69
390.512	87.69
390.736	80.69
390.961	81.69
391.186	107.69
391.411	72.69
391.636	76.69
391.86	81.69
392.085	75.69
392.31	96.69
392.534	87.69
392.759	87.69
392.984	86.69
393.208	85.69
393.433	81.69
393.658	87.69
393.882	80.69
394.107	94.69
394.331	103.69
394.556	84.69
394.78	94.69
395.005	88.69
395.229	81.69
395.454	90.69
395.678	93.69
395.903	104.69
396.127	83.69
396.352	70.69
396.576	97.69
396.801	75.69
397.025	92.69
397.249	85.69
397.474	82.69
397.698	86.69
397.922	88.69
398.147	89.69
398.371	92.69
398.595	91.69
398.82	83.69
399.044	78.69
399.268	80.69
399.492	71.69
399.717	99.69
399.941	98.69
400.165	109.69
400.389	108.69
400.613	75.69
400.837	106.69
401.062	89.69
401.286	94.69
401.51	98.69
401.734	102.69
401.958	110.69
402.182	169.69
402.406	252.69
402.63	186.69
402.854	104.69
403.078	82.69
403.302	80.69
403.526	95.69
403.75	103.69
403.974	93.69
404.198	106.69
404.422	98.69
404.645	79.69
404.869	110.69
405.093	123.69
405.317	170.69
405.541	153.69
405.765	138.69
405.988	160.69
406.212	270.69
406.436	386.69
406.66	241.69
406.883	144.69
407.107	116.69
407.331	104.69
407.555	113.69
407.778	116.69
408.002	103.69
408.226	97.69
408.449	91.69
408.673	78.69
408.896	85.69
409.12	105.69
409.344	95.69
409.567	97.69
409.791	99.69
410.014	83.69
410.238	101.69
410.461	94.69
410.685	94.69
410.908	93.69
411.132	96.69
411.355	94.69
411.578	98.69
411.802	92.69
412.025	96.69
412.249	109.69
412.472	114.69
412.695	157.69
412.919	111.69
413.142	109.69
413.365	85.69
413.589	97.69
413.812	91.69
414.035	88.69
414.258	93.69
414.482	94.69
414.705	89.69
414.928	84.69
415.151	100.69
415.374	90.69
415.597	84.69
415.821	94.69
416.044	87.69
416.267	94.69
416.49	88.69
416.713	72.69
416.936	98.69
417.159	85.69
417.382	98.69
417.605	129.69
417.828	139.69
418.051	97.69
418.274	91.69
418.497	96.69
418.72	81.69
418.943	87.69
419.166	96.69
419.389	74.69
419.611	89.69
419.834	107.69
420.057	94.69
420.28	109.69
420.503	88.69
420.726	89.69
420.948	96.69
421.171	95.69
421.394	104.69
421.617	92.69
421.839	102.69
422.062	92.69
422.285	110.69
422.507	105.69
422.73	112.69
422.953	102.69
423.175	84.69
423.398	103.69
423.621	85.69
423.843	94.69
424.066	96.69
424.288	83.69
424.511	92.69
424.733	107.69
424.956	118.69
425.178	110.69
425.401	115.69
425.623	115.69
425.846	102.69
426.068	107.69
426.291	84.69
426.513	88.69
426.735	96.69
426.958	91.69
427.18	120.69
427.402	184.69
427.625	302.69
427.847	296.69
428.069	253.69
428.292	154.69
428.514	97.69
428.736	99.69
428.958	98.69
429.181	88.69
429.403	88.69
429.625	96.69
429.847	93.69
430.069	102.69
430.292	76.69
430.514	90.69
430.736	91.69
430.958	84.69
431.18	91.69
431.402	76.69
431.624	80.69
431.846	94.69
432.068	92.69
432.29	98.69
432.512	83.69
432.734	84.69
432.956	90.69
433.178	104.69
433.4	102.69
433.622	94.69
433.844	90.69
434.066	100.69
434.287	92.69
434.509	93.69
434.731	90.69
434.953	85.69
435.175	94.69
435.397	97.69
435.618	108.69
435.84	113.69
436.062	156.69
436.284	122.69
436.505	106.69
436.727	104.69
436.949	86.69
437.17	94.69
437.392	88.69
437.614	93.69
437.835	140.69
438.057	167.69
438.278	140.69
438.5	98.69
438.721	156.69
438.943	118.69
439.165	104.69
439.386	101.69
439.608	99.69
439.829	105.69
440.05	161.69
440.272	203.69
440.493	120.69
440.715	97.69
440.936	87.69
441.158	98.69
441.379	98.69
441.6	118.69
441.822	94.69
442.043	96.69
442.264	120.69
442.486	109.69
442.707	119.69
442.928	133.69
443.149	200.69
443.371	207.69
443.592	156.69
443.813	127.69
444.034	121.69
444.255	97.69
444.476	100.69
444.698	80.69
444.919	81.69
445.14	144.69
445.361	155.69
445.582	160.69
445.803	200.69
446.024	182.69
446.245	184.69
446.466	124.69
446.687	119.69
446.908	87.69
447.129	95.69
447.35	81.69
447.571	107.69
447.792	116.69
448.013	114.69
448.234	127.69
448.455	119.69
448.675	129.69
448.896	146.69
449.117	119.69
449.338	121.69
449.559	157.69
449.779	163.69
450	113.69
450.221	88.69
450.442	98.69
450.662	106.69
450.883	124.69
451.104	156.69
451.324	107.69
451.545	91.69
451.766	89.69
451.986	79.69
452.207	78.69
452.428	90.69
452.648	106.69
452.869	142.69
453.089	160.69
453.31	174.69
453.53	109.69
453.751	97.69
453.971	133.69
454.192	157.69
454.412	105.69
454.633	89.69
454.853	101.69
455.073	80.69
455.294	100.69
455.514	116.69
455.734	93.69
455.955	91.69
456.175	92.69
456.395	80.69
456.616	90.69
456.836	85.69
457.056	88.69
457.276	91.69
457.497	85.69
457.717	87.69
457.937	85.69
458.157	88.69
458.377	92.69
458.598	139.69
458.818	247.69
459.038	268.69
459.258	152.69
459.478	108.69
459.698	93.69
459.918	75.69
460.138	96.69
460.358	75.69
460.578	93.69
460.798	87.69
461.018	96.69
461.238	77.69
461.458	100.69
461.678	90.69
461.898	86.69
462.118	94.69
462.338	96.69
462.558	80.69
462.777	94.69
462.997	101.69
463.217	110.69
463.437	111.69
463.657	93.69
463.876	85.69
464.096	91.69
464.316	99.69
464.536	119.69
464.755	98.69
464.975	126.69
465.195	291.69
465.414	296.69
465.634	124.69
465.854	84.69
466.073	97.69
466.293	100.69
466.512	98.69
466.732	106.69
466.951	102.69
467.171	97.69
467.391	135.69
467.61	168.69
467.829	278.69
468.049	854.69
468.268	1372.69
468.488	330.69
468.707	118.69
468.927	92.69
469.146	87.69
469.365	79.69
469.585	85.69
469.804	107.69
470.023	123.69
470.243	116.69
470.462	121.69
470.681	150.69
470.901	106.69
471.12	113.69
471.339	109.69
471.558	128.69
471.777	184.69
471.997	402.69
472.216	1622.69
472.435	3924.69
472.654	846.69
472.873	205.69
473.092	125.69
473.311	103.69
473.53	106.69
473.749	96.69
473.968	118.69
474.187	130.69
474.406	103.69
474.625	96.69
474.844	86.69
475.063	84.69
475.282	100.69
475.501	93.69
475.72	84.69
475.939	89.69
476.158	91.69
476.377	92.69
476.596	108.69
476.814	109.69
477.033	117.69
477.252	106.69
477.471	109.69
477.69	80.69
477.908	111.69
478.127	111.69
478.346	100.69
478.564	94.69
478.783	126.69
479.002	112.69
479.22	110.69
479.439	147.69
479.658	161.69
479.876	138.69
480.095	137.69
480.313	148.69
480.532	215.69
480.751	377.69
480.969	1430.69
481.188	6376.69
481.406	3751.69
481.624	513.69
481.843	172.69
482.061	106.69
482.28	98.69
482.498	107.69
482.717	110.69
482.935	81.69
483.153	80.69
483.372	101.69
483.59	98.69
483.808	93.69
484.027	101.69
484.245	91.69
484.463	95.69
484.681	96.69
484.9	85.69
485.118	85.69
485.336	88.69
485.554	93.69
485.772	103.69
485.99	109.69
486.209	107.69
486.427	127.69
486.645	118.69
486.863	143.69
487.081	99.69
487.299	121.69
487.517	90.69
487.735	90.69
487.953	97.69
488.171	93.69
488.389	101.69
488.607	98.69
488.825	91.69
489.043	103.69
489.261	99.69
489.479	84.69
489.696	89.69
489.914	85.69
490.132	88.69
490.35	103.69
490.568	81.69
490.786	106.69
491.003	93.69
491.221	96.69
491.439	99.69
491.657	90.69
491.874	88.69
492.092	86.69
492.31	98.69
492.527	106.69
492.745	103.69
492.963	94.69
493.18	105.69
493.398	94.69
493.615	106.69
493.833	89.69
494.05	98.69
494.268	102.69
494.485	93.69
494.703	96.69
494.92	95.69
495.138	92.69
495.355	82.69
495.573	83.69
495.79	96.69
496.008	96.69
496.225	82.69
496.442	89.69
496.66	112.69
496.877	97.69
497.094	82.69
497.312	79.69
497.529	95.69
497.746	92.69
497.963	85.69
498.181	105.69
498.398	95.69
498.615	112.69
498.832	103.69
499.049	106.69
499.267	83.69
499.484	96.69
499.701	106.69
499.918	92.69
500.135	85.69
500.352	104.69
500.569	90.69
500.786	105.69
501.003	89.69
501.22	105.69
501.437	90.69
501.654	110.69
501.871	129.69
502.088	90.69
502.305	101.69
502.522	104.69
502.739	100.69
502.956	103.69
503.172	96.69
503.389	113.69
503.606	133.69
503.823	119.69
504.04	104.69
504.256	92.69
504.473	94.69
504.69	85.69
504.907	103.69
505.123	86.69
505.34	84.69
505.557	90.69
505.773	107.69
505.99	90.69
506.207	90.69
506.423	97.69
506.64	97.69
506.856	79.69
507.073	90.69
507.289	110.69
507.506	101.69
507.722	136.69
507.939	160.69
508.155	113.69
508.372	101.69
508.588	90.69
508.805	92.69
509.021	97.69
509.238	105.69
509.454	107.69
509.67	108.69
509.887	123.69
510.103	158.69
510.319	269.69
510.536	1041.69
510.752	3796.69
510.968	1019.69
511.184	203.69
511.401	139.69
511.617	132.69
511.833	116.69
512.049	102.69
512.265	89.69
