Data from Circ_1995_H10_HRD10591_00071.txt Node
Date: Wed Jan 03 11:37:00 EST 2024
User: Yrep
Spectrometer: HR+D1059
Trigger mode: 1
Integration Time (sec): 1.000000E-1
Scans to average: 1
Electric dark correction enabled: true
Nonlinearity correction enabled: false
Boxcar width: 0
XAxis mode: Wavelengths
Number of Pixels in Spectrum: 2048
>>>>>Begin Spectral Data<<<<<
223.165	-12.38
223.4	-12.38
223.635	-12.38
223.869	-14.38
224.104	-25.38
224.338	-7.38
224.573	-23.38
224.808	-16.38
225.042	-23.38
225.277	-3.38
225.511	-10.38
225.746	12.62
225.98	-4.38
226.215	20.62
226.449	26.62
226.683	16.62
226.918	31.62
227.152	32.62
227.387	49.62
227.621	29.62
227.856	35.62
228.09	31.62
228.324	63.62
228.559	52.62
228.793	52.62
229.027	64.62
229.262	63.62
229.496	87.62
229.73	113.62
229.964	96.62
230.199	69.62
230.433	76.62
230.667	82.62
230.901	65.62
231.136	85.62
231.37	72.62
231.604	91.62
231.838	88.62
232.072	95.62
232.306	92.62
232.541	72.62
232.775	76.62
233.009	79.62
233.243	88.62
233.477	87.62
233.711	73.62
233.945	75.62
234.179	87.62
234.413	81.62
234.647	82.62
234.881	84.62
235.115	78.62
235.349	62.62
235.583	70.62
235.817	82.62
236.051	78.62
236.285	78.62
236.519	72.62
236.753	70.62
236.987	66.62
237.221	90.62
237.455	97.62
237.689	82.62
237.922	68.62
238.156	53.62
238.39	84.62
238.624	83.62
238.858	93.62
239.091	82.62
239.325	76.62
239.559	85.62
239.793	74.62
240.027	84.62
240.26	84.62
240.494	93.62
240.728	71.62
240.961	52.62
241.195	84.62
241.429	72.62
241.662	92.62
241.896	89.62
242.13	81.62
242.363	64.62
242.597	79.62
242.83	84.62
243.064	70.62
243.298	60.62
243.531	81.62
243.765	68.62
243.998	82.62
244.232	90.62
244.465	98.62
244.699	81.62
244.932	81.62
245.166	72.62
245.399	81.62
245.633	77.62
245.866	85.62
246.099	82.62
246.333	80.62
246.566	79.62
246.8	77.62
247.033	87.62
247.266	66.62
247.5	85.62
247.733	84.62
247.966	77.62
248.2	71.62
248.433	91.62
248.666	81.62
248.899	94.62
249.133	84.62
249.366	111.62
249.599	105.62
249.832	84.62
250.066	87.62
250.299	96.62
250.532	104.62
250.765	88.62
250.998	68.62
251.231	80.62
251.465	82.62
251.698	79.62
251.931	89.62
252.164	82.62
252.397	74.62
252.63	70.62
252.863	80.62
253.096	72.62
253.329	88.62
253.562	84.62
253.795	78.62
254.028	79.62
254.261	80.62
254.494	83.62
254.727	89.62
254.96	81.62
255.193	71.62
255.426	80.62
255.659	104.62
255.892	104.62
256.124	115.62
256.357	102.62
256.59	81.62
256.823	105.62
257.056	87.62
257.289	97.62
257.521	100.62
257.754	89.62
257.987	81.62
258.22	105.62
258.452	119.62
258.685	108.62
258.918	82.62
259.151	92.62
259.383	89.62
259.616	93.62
259.849	75.62
260.081	95.62
260.314	82.62
260.547	81.62
260.779	110.62
261.012	129.62
261.244	136.62
261.477	108.62
261.71	113.62
261.942	144.62
262.175	178.62
262.407	104.62
262.64	88.62
262.872	94.62
263.105	95.62
263.337	84.62
263.57	62.62
263.802	86.62
264.035	92.62
264.267	80.62
264.499	92.62
264.732	87.62
264.964	75.62
265.197	85.62
265.429	73.62
265.661	83.62
265.894	85.62
266.126	85.62
266.358	88.62
266.591	87.62
266.823	97.62
267.055	88.62
267.287	87.62
267.52	90.62
267.752	58.62
267.984	68.62
268.216	72.62
268.448	91.62
268.681	90.62
268.913	82.62
269.145	72.62
269.377	89.62
269.609	90.62
269.841	84.62
270.073	79.62
270.306	94.62
270.538	76.62
270.77	100.62
271.002	88.62
271.234	96.62
271.466	100.62
271.698	98.62
271.93	80.62
272.162	88.62
272.394	97.62
272.626	98.62
272.858	73.62
273.09	97.62
273.322	85.62
273.553	74.62
273.785	94.62
274.017	79.62
274.249	86.62
274.481	92.62
274.713	96.62
274.945	82.62
275.176	88.62
275.408	112.62
275.64	145.62
275.872	154.62
276.104	117.62
276.335	108.62
276.567	150.62
276.799	185.62
277.031	256.62
277.262	296.62
277.494	202.62
277.726	109.62
277.957	96.62
278.189	92.62
278.421	86.62
278.652	94.62
278.884	110.62
279.115	99.62
279.347	101.62
279.579	108.62
279.81	156.62
280.042	287.62
280.273	420.62
280.505	265.62
280.736	115.62
280.968	113.62
281.199	100.62
281.431	101.62
281.662	119.62
281.894	106.62
282.125	102.62
282.356	136.62
282.588	210.62
282.819	144.62
283.051	110.62
283.282	97.62
283.513	105.62
283.745	93.62
283.976	84.62
284.207	93.62
284.439	83.62
284.67	84.62
284.901	100.62
285.132	98.62
285.364	93.62
285.595	86.62
285.826	86.62
286.057	105.62
286.288	99.62
286.52	79.62
286.751	88.62
286.982	81.62
287.213	93.62
287.444	96.62
287.675	91.62
287.906	92.62
288.138	95.62
288.369	86.62
288.6	95.62
288.831	85.62
289.062	95.62
289.293	79.62
289.524	80.62
289.755	96.62
289.986	73.62
290.217	81.62
290.448	89.62
290.679	85.62
290.91	80.62
291.141	93.62
291.371	87.62
291.602	89.62
291.833	80.62
292.064	88.62
292.295	87.62
292.526	95.62
292.757	80.62
292.987	86.62
293.218	87.62
293.449	87.62
293.68	87.62
293.91	100.62
294.141	107.62
294.372	84.62
294.603	91.62
294.833	97.62
295.064	97.62
295.295	99.62
295.525	90.62
295.756	119.62
295.987	153.62
296.217	189.62
296.448	184.62
296.679	102.62
296.909	104.62
297.14	101.62
297.37	93.62
297.601	94.62
297.831	102.62
298.062	90.62
298.292	94.62
298.523	95.62
298.753	81.62
298.984	90.62
299.214	86.62
299.445	95.62
299.675	94.62
299.905	104.62
300.136	87.62
300.366	72.62
300.597	92.62
300.827	92.62
301.057	97.62
301.288	120.62
301.518	108.62
301.748	113.62
301.979	127.62
302.209	117.62
302.439	102.62
302.669	98.62
302.9	90.62
303.13	107.62
303.36	127.62
303.59	177.62
303.82	178.62
304.051	121.62
304.281	97.62
304.511	100.62
304.741	85.62
304.971	82.62
305.201	93.62
305.431	98.62
305.661	102.62
305.891	93.62
306.121	86.62
306.352	119.62
306.582	119.62
306.812	126.62
307.042	143.62
307.272	221.62
307.502	237.62
307.731	221.62
307.961	159.62
308.191	92.62
308.421	95.62
308.651	73.62
308.881	95.62
309.111	101.62
309.341	114.62
309.571	108.62
309.8	100.62
310.03	101.62
310.26	123.62
310.49	112.62
310.72	117.62
310.949	135.62
311.179	130.62
311.409	97.62
311.639	102.62
311.868	111.62
312.098	96.62
312.328	116.62
312.557	135.62
312.787	147.62
313.017	127.62
313.246	103.62
313.476	92.62
313.706	106.62
313.935	98.62
314.165	119.62
314.394	125.62
314.624	116.62
314.853	115.62
315.083	98.62
315.312	100.62
315.542	104.62
315.771	93.62
316.001	106.62
316.23	88.62
316.46	97.62
316.689	97.62
316.919	105.62
317.148	120.62
317.377	108.62
317.607	95.62
317.836	108.62
318.065	98.62
318.295	101.62
318.524	92.62
318.753	95.62
318.983	88.62
319.212	106.62
319.441	138.62
319.67	122.62
319.9	96.62
320.129	96.62
320.358	92.62
320.587	92.62
320.816	94.62
321.046	96.62
321.275	109.62
321.504	101.62
321.733	93.62
321.962	104.62
322.191	98.62
322.42	111.62
322.649	148.62
322.878	134.62
323.108	142.62
323.337	157.62
323.566	170.62
323.795	207.62
324.024	277.62
324.253	518.62
324.482	1126.62
324.71	2352.62
324.939	3067.62
325.168	1111.62
325.397	329.62
325.626	204.62
325.855	162.62
326.084	156.62
326.313	148.62
326.542	208.62
326.77	288.62
326.999	591.62
327.228	1180.62
327.457	2137.62
327.686	1747.62
327.914	711.62
328.143	804.62
328.372	1111.62
328.6	571.62
328.829	242.62
329.058	252.62
329.287	262.62
329.515	231.62
329.744	375.62
329.972	773.62
330.201	1625.62
330.43	2450.62
330.658	1037.62
330.887	431.62
331.115	257.62
331.344	161.62
331.572	142.62
331.801	157.62
332.03	157.62
332.258	134.62
332.486	121.62
332.715	126.62
332.943	139.62
333.172	137.62
333.4	158.62
333.629	192.62
333.857	301.62
334.085	626.62
334.314	1389.62
334.542	2894.62
334.771	2726.62
334.999	657.62
335.227	239.62
335.455	148.62
335.684	125.62
335.912	119.62
336.14	125.62
336.369	127.62
336.597	134.62
336.825	121.62
337.053	102.62
337.281	101.62
337.51	89.62
337.738	104.62
337.966	104.62
338.194	110.62
338.422	122.62
338.65	100.62
338.878	97.62
339.106	106.62
339.334	100.62
339.562	95.62
339.79	92.62
340.018	85.62
340.246	107.62
340.474	109.62
340.702	102.62
340.93	91.62
341.158	96.62
341.386	107.62
341.614	104.62
341.842	110.62
342.07	87.62
342.298	116.62
342.526	98.62
342.754	100.62
342.981	84.62
343.209	82.62
343.437	97.62
343.665	88.62
343.893	98.62
344.12	87.62
344.348	84.62
344.576	78.62
344.804	90.62
345.031	117.62
345.259	118.62
345.487	112.62
345.714	98.62
345.942	96.62
346.17	104.62
346.397	104.62
346.625	103.62
346.853	102.62
347.08	94.62
347.308	108.62
347.535	115.62
347.763	107.62
347.99	117.62
348.218	120.62
348.445	137.62
348.673	134.62
348.9	108.62
349.128	103.62
349.355	98.62
349.583	101.62
349.81	101.62
350.037	102.62
350.265	87.62
350.492	96.62
350.72	99.62
350.947	108.62
351.174	117.62
351.402	135.62
351.629	116.62
351.856	116.62
352.083	113.62
352.311	125.62
352.538	124.62
352.765	136.62
352.992	126.62
353.22	136.62
353.447	125.62
353.674	118.62
353.901	103.62
354.128	99.62
354.355	96.62
354.583	92.62
354.81	87.62
355.037	86.62
355.264	93.62
355.491	87.62
355.718	89.62
355.945	98.62
356.172	101.62
356.399	88.62
356.626	87.62
356.853	93.62
357.08	102.62
357.307	91.62
357.534	89.62
357.761	95.62
357.988	91.62
358.215	102.62
358.441	101.62
358.668	91.62
358.895	82.62
359.122	93.62
359.349	104.62
359.576	97.62
359.802	116.62
360.029	152.62
360.256	171.62
360.483	126.62
360.709	98.62
360.936	95.62
361.163	117.62
361.39	113.62
361.616	110.62
361.843	96.62
362.07	99.62
362.296	138.62
362.523	111.62
362.749	107.62
362.976	104.62
363.203	107.62
363.429	88.62
363.656	93.62
363.882	97.62
364.109	100.62
364.335	105.62
364.562	97.62
364.788	88.62
365.015	112.62
365.241	120.62
365.468	121.62
365.694	148.62
365.92	118.62
366.147	102.62
366.373	82.62
366.599	91.62
366.826	72.62
367.052	90.62
367.278	94.62
367.505	92.62
367.731	96.62
367.957	94.62
368.184	107.62
368.41	106.62
368.636	148.62
368.862	162.62
369.089	148.62
369.315	127.62
369.541	102.62
369.767	109.62
369.993	100.62
370.219	89.62
370.445	89.62
370.672	107.62
370.898	80.62
371.124	86.62
371.35	95.62
371.576	87.62
371.802	92.62
372.028	95.62
372.254	98.62
372.48	88.62
372.706	91.62
372.932	61.62
373.158	77.62
373.384	101.62
373.61	91.62
373.835	92.62
374.061	95.62
374.287	98.62
374.513	90.62
374.739	97.62
374.965	74.62
375.191	86.62
375.416	89.62
375.642	94.62
375.868	79.62
376.094	93.62
376.319	103.62
376.545	90.62
376.771	81.62
376.997	90.62
377.222	95.62
377.448	75.62
377.674	96.62
377.899	72.62
378.125	89.62
378.35	95.62
378.576	93.62
378.802	100.62
379.027	96.62
379.253	94.62
379.478	94.62
379.704	101.62
379.929	93.62
380.155	85.62
380.38	98.62
380.606	88.62
380.831	84.62
381.057	108.62
381.282	102.62
381.507	99.62
381.733	96.62
381.958	91.62
382.184	100.62
382.409	111.62
382.634	83.62
382.86	92.62
383.085	95.62
383.31	102.62
383.535	101.62
383.761	95.62
383.986	98.62
384.211	96.62
384.436	86.62
384.662	113.62
384.887	94.62
385.112	96.62
385.337	109.62
385.562	101.62
385.787	97.62
386.013	98.62
386.238	128.62
386.463	103.62
386.688	108.62
386.913	90.62
387.138	118.62
387.363	100.62
387.588	95.62
387.813	96.62
388.038	97.62
388.263	96.62
388.488	88.62
388.713	102.62
388.938	93.62
389.163	93.62
389.387	73.62
389.612	92.62
389.837	94.62
390.062	85.62
390.287	94.62
390.512	92.62
390.736	85.62
390.961	89.62
391.186	105.62
391.411	98.62
391.636	80.62
391.86	94.62
392.085	89.62
392.31	89.62
392.534	77.62
392.759	90.62
392.984	73.62
393.208	84.62
393.433	87.62
393.658	100.62
393.882	77.62
394.107	76.62
394.331	86.62
394.556	93.62
394.78	93.62
395.005	95.62
395.229	88.62
395.454	77.62
395.678	76.62
395.903	84.62
396.127	100.62
396.352	80.62
396.576	93.62
396.801	85.62
397.025	77.62
397.249	93.62
397.474	89.62
397.698	80.62
397.922	86.62
398.147	95.62
398.371	74.62
398.595	82.62
398.82	75.62
399.044	76.62
399.268	71.62
399.492	86.62
399.717	100.62
399.941	96.62
400.165	94.62
400.389	101.62
400.613	85.62
400.837	93.62
401.062	90.62
401.286	84.62
401.51	96.62
401.734	105.62
401.958	117.62
402.182	167.62
402.406	263.62
402.63	182.62
402.854	106.62
403.078	96.62
403.302	88.62
403.526	100.62
403.75	96.62
403.974	82.62
404.198	97.62
404.422	107.62
404.645	92.62
404.869	127.62
405.093	142.62
405.317	155.62
405.541	148.62
405.765	134.62
405.988	141.62
406.212	269.62
406.436	421.62
406.66	276.62
406.883	135.62
407.107	106.62
407.331	110.62
407.555	111.62
407.778	108.62
408.002	85.62
408.226	90.62
408.449	90.62
408.673	89.62
408.896	94.62
409.12	101.62
409.344	81.62
409.567	88.62
409.791	100.62
410.014	82.62
410.238	88.62
410.461	91.62
410.685	94.62
410.908	101.62
411.132	102.62
411.355	109.62
411.578	91.62
411.802	101.62
412.025	92.62
412.249	105.62
412.472	111.62
412.695	152.62
412.919	116.62
413.142	91.62
413.365	89.62
413.589	92.62
413.812	87.62
414.035	87.62
414.258	104.62
414.482	107.62
414.705	83.62
414.928	91.62
415.151	106.62
415.374	80.62
415.597	84.62
415.821	82.62
416.044	97.62
416.267	75.62
416.49	84.62
416.713	83.62
416.936	90.62
417.159	98.62
417.382	103.62
417.605	114.62
417.828	138.62
418.051	101.62
418.274	103.62
418.497	85.62
418.72	88.62
418.943	101.62
419.166	93.62
419.389	88.62
419.611	94.62
419.834	85.62
420.057	93.62
420.28	89.62
420.503	103.62
420.726	89.62
420.948	96.62
421.171	102.62
421.394	103.62
421.617	88.62
421.839	89.62
422.062	87.62
422.285	88.62
422.507	97.62
422.73	106.62
422.953	98.62
423.175	87.62
423.398	86.62
423.621	84.62
423.843	92.62
424.066	95.62
424.288	69.62
424.511	95.62
424.733	105.62
424.956	132.62
425.178	106.62
425.401	111.62
425.623	110.62
425.846	91.62
426.068	114.62
426.291	109.62
426.513	84.62
426.735	92.62
426.958	87.62
427.18	136.62
427.402	196.62
427.625	344.62
427.847	299.62
428.069	221.62
428.292	135.62
428.514	94.62
428.736	91.62
428.958	84.62
429.181	94.62
429.403	92.62
429.625	88.62
429.847	90.62
430.069	114.62
430.292	92.62
430.514	84.62
430.736	99.62
430.958	93.62
431.18	87.62
431.402	77.62
431.624	87.62
431.846	81.62
432.068	88.62
432.29	90.62
432.512	69.62
432.734	70.62
432.956	80.62
433.178	88.62
433.4	93.62
433.622	100.62
433.844	87.62
434.066	93.62
434.287	95.62
434.509	100.62
434.731	89.62
434.953	84.62
435.175	91.62
435.397	90.62
435.618	104.62
435.84	103.62
436.062	132.62
436.284	130.62
436.505	88.62
436.727	89.62
436.949	87.62
437.17	87.62
437.392	87.62
437.614	108.62
437.835	137.62
438.057	171.62
438.278	157.62
438.5	106.62
438.721	150.62
438.943	123.62
439.165	87.62
439.386	80.62
439.608	94.62
439.829	109.62
440.05	156.62
440.272	192.62
440.493	110.62
440.715	93.62
440.936	80.62
441.158	87.62
441.379	95.62
441.6	119.62
441.822	104.62
442.043	105.62
442.264	126.62
442.486	112.62
442.707	102.62
442.928	128.62
443.149	186.62
443.371	198.62
443.592	147.62
443.813	134.62
444.034	106.62
444.255	106.62
444.476	90.62
444.698	74.62
444.919	96.62
445.14	130.62
445.361	151.62
445.582	143.62
445.803	197.62
446.024	205.62
446.245	171.62
446.466	121.62
446.687	98.62
446.908	74.62
447.129	84.62
447.35	102.62
447.571	97.62
447.792	103.62
448.013	114.62
448.234	119.62
448.455	126.62
448.675	145.62
448.896	151.62
449.117	112.62
449.338	114.62
449.559	138.62
449.779	153.62
450	109.62
450.221	91.62
450.442	93.62
450.662	122.62
450.883	162.62
451.104	170.62
451.324	110.62
451.545	94.62
451.766	99.62
451.986	76.62
452.207	90.62
452.428	106.62
452.648	100.62
452.869	144.62
453.089	158.62
453.31	194.62
453.53	120.62
453.751	94.62
453.971	111.62
454.192	147.62
454.412	114.62
454.633	111.62
454.853	102.62
455.073	85.62
455.294	93.62
455.514	101.62
455.734	98.62
455.955	96.62
456.175	88.62
456.395	88.62
456.616	80.62
456.836	80.62
457.056	90.62
457.276	93.62
457.497	74.62
457.717	89.62
457.937	86.62
458.157	86.62
458.377	96.62
458.598	150.62
458.818	259.62
459.038	321.62
459.258	176.62
459.478	108.62
459.698	80.62
459.918	65.62
460.138	73.62
460.358	88.62
460.578	87.62
460.798	96.62
461.018	106.62
461.238	83.62
461.458	72.62
461.678	98.62
461.898	95.62
462.118	95.62
462.338	95.62
462.558	92.62
462.777	86.62
462.997	104.62
463.217	137.62
463.437	106.62
463.657	79.62
463.876	92.62
464.096	105.62
464.316	98.62
464.536	98.62
464.755	105.62
464.975	159.62
465.195	333.62
465.414	324.62
465.634	130.62
465.854	90.62
466.073	86.62
466.293	93.62
466.512	95.62
466.732	101.62
466.951	104.62
467.171	103.62
467.391	126.62
467.61	176.62
467.829	294.62
468.049	948.62
468.268	1506.62
468.488	318.62
468.707	135.62
468.927	120.62
469.146	88.62
469.365	97.62
469.585	112.62
469.804	123.62
470.023	133.62
470.243	113.62
470.462	151.62
470.681	184.62
470.901	121.62
471.12	128.62
471.339	121.62
471.558	125.62
471.777	200.62
471.997	427.62
472.216	1808.62
472.435	4268.62
472.654	909.62
472.873	230.62
473.092	115.62
473.311	103.62
473.53	101.62
473.749	94.62
473.968	107.62
474.187	128.62
474.406	112.62
474.625	88.62
474.844	76.62
475.063	85.62
475.282	74.62
475.501	70.62
475.72	84.62
475.939	89.62
476.158	99.62
476.377	104.62
476.596	106.62
476.814	110.62
477.033	113.62
477.252	93.62
477.471	91.62
477.69	101.62
477.908	114.62
478.127	92.62
478.346	88.62
478.564	99.62
478.783	115.62
479.002	120.62
479.22	117.62
479.439	157.62
479.658	160.62
479.876	151.62
480.095	145.62
480.313	178.62
480.532	210.62
480.751	377.62
480.969	1525.62
481.188	6989.62
481.406	3943.62
481.624	543.62
481.843	174.62
482.061	112.62
482.28	95.62
482.498	97.62
482.717	98.62
482.935	110.62
483.153	96.62
483.372	102.62
483.59	88.62
483.808	97.62
484.027	97.62
484.245	81.62
484.463	95.62
484.681	89.62
484.9	95.62
485.118	96.62
485.336	107.62
485.554	89.62
485.772	116.62
485.99	112.62
486.209	108.62
486.427	106.62
486.645	153.62
486.863	137.62
487.081	110.62
487.299	106.62
487.517	92.62
487.735	111.62
487.953	105.62
488.171	96.62
488.389	93.62
488.607	105.62
488.825	93.62
489.043	103.62
489.261	92.62
489.479	98.62
489.696	76.62
489.914	105.62
490.132	96.62
490.35	89.62
490.568	74.62
490.786	90.62
491.003	90.62
491.221	104.62
491.439	92.62
491.657	93.62
491.874	110.62
492.092	80.62
492.31	85.62
492.527	92.62
492.745	104.62
492.963	96.62
493.18	85.62
493.398	90.62
493.615	95.62
493.833	96.62
494.05	79.62
494.268	85.62
494.485	87.62
494.703	95.62
494.92	105.62
495.138	102.62
495.355	91.62
495.573	93.62
495.79	76.62
496.008	104.62
496.225	92.62
496.442	91.62
496.66	95.62
496.877	88.62
497.094	94.62
497.312	91.62
497.529	89.62
497.746	91.62
497.963	86.62
498.181	96.62
498.398	80.62
498.615	116.62
498.832	104.62
499.049	93.62
499.267	82.62
499.484	85.62
499.701	97.62
499.918	82.62
500.135	79.62
500.352	86.62
500.569	96.62
500.786	104.62
501.003	97.62
501.22	98.62
501.437	94.62
501.654	94.62
501.871	150.62
502.088	104.62
502.305	88.62
502.522	86.62
502.739	99.62
502.956	96.62
503.172	88.62
503.389	106.62
503.606	134.62
503.823	106.62
504.04	102.62
504.256	90.62
504.473	107.62
504.69	94.62
504.907	104.62
505.123	88.62
505.34	87.62
505.557	97.62
505.773	90.62
505.99	102.62
506.207	79.62
506.423	77.62
506.64	81.62
506.856	100.62
507.073	86.62
507.289	111.62
507.506	104.62
507.722	158.62
507.939	172.62
508.155	118.62
508.372	97.62
508.588	111.62
508.805	108.62
509.021	106.62
509.238	114.62
509.454	102.62
509.67	105.62
509.887	123.62
510.103	161.62
510.319	291.62
510.536	1179.62
510.752	4386.62
510.968	1119.62
511.184	212.62
511.401	138.62
511.617	111.62
511.833	116.62
