Data from BGNA1_HRD10591_00004.txt Node
Date: Fri Dec 27 14:32:21 EST 2024
User: Yrep
Spectrometer: HR+D1059
Trigger mode: 1
Integration Time (sec): 1.000000E-1
Scans to average: 1
Electric dark correction enabled: true
Nonlinearity correction enabled: false
Boxcar width: 0
XAxis mode: Wavelengths
Number of Pixels in Spectrum: 2048
>>>>>Begin Spectral Data<<<<<
223.165	-23.69
223.4	-23.69
223.635	-23.69
223.869	-21.69
224.104	-15.69
224.338	-11.69
224.573	-13.69
224.808	-18.69
225.042	-11.69
225.277	9.31
225.511	-9.69
225.746	5.31
225.98	2.31
226.215	15.31
226.449	6.31
226.683	19.31
226.918	26.31
227.152	42.31
227.387	40.31
227.621	47.31
227.856	48.31
228.09	28.31
228.324	59.31
228.559	59.31
228.793	64.31
229.027	69.31
229.262	76.31
229.496	87.31
229.73	65.31
229.964	58.31
230.199	70.31
230.433	80.31
230.667	74.31
230.901	69.31
231.136	79.31
231.37	80.31
231.604	86.31
231.838	85.31
232.072	83.31
232.306	79.31
232.541	76.31
232.775	70.31
233.009	80.31
233.243	90.31
233.477	80.31
233.711	80.31
233.945	81.31
234.179	82.31
234.413	77.31
234.647	88.31
234.881	82.31
235.115	76.31
235.349	67.31
235.583	83.31
235.817	80.31
236.051	79.31
236.285	83.31
236.519	74.31
236.753	89.31
236.987	90.31
237.221	84.31
237.455	79.31
237.689	62.31
237.922	79.31
238.156	87.31
238.39	71.31
238.624	102.31
238.858	98.31
239.091	63.31
239.325	76.31
239.559	85.31
239.793	79.31
240.027	67.31
240.26	79.31
240.494	62.31
240.728	99.31
240.961	85.31
241.195	74.31
241.429	95.31
241.662	76.31
241.896	70.31
242.13	76.31
242.363	87.31
242.597	89.31
242.83	74.31
243.064	52.31
243.298	80.31
243.531	75.31
243.765	69.31
243.998	90.31
244.232	83.31
244.465	90.31
244.699	68.31
244.932	74.31
245.166	76.31
245.399	81.31
245.633	84.31
245.866	71.31
246.099	72.31
246.333	76.31
246.566	85.31
246.8	81.31
247.033	76.31
247.266	79.31
247.5	86.31
247.733	80.31
247.966	91.31
248.2	88.31
248.433	84.31
248.666	71.31
248.899	86.31
249.133	82.31
249.366	92.31
249.599	89.31
249.832	86.31
250.066	89.31
250.299	88.31
250.532	88.31
250.765	87.31
250.998	71.31
251.231	85.31
251.465	76.31
251.698	89.31
251.931	81.31
252.164	88.31
252.397	91.31
252.63	85.31
252.863	84.31
253.096	94.31
253.329	85.31
253.562	78.31
253.795	83.31
254.028	91.31
254.261	86.31
254.494	79.31
254.727	93.31
254.96	89.31
255.193	85.31
255.426	80.31
255.659	75.31
255.892	72.31
256.124	66.31
256.357	81.31
256.59	79.31
256.823	82.31
257.056	96.31
257.289	80.31
257.521	75.31
257.754	82.31
257.987	84.31
258.22	95.31
258.452	80.31
258.685	90.31
258.918	97.31
259.151	82.31
259.383	81.31
259.616	75.31
259.849	86.31
260.081	91.31
260.314	89.31
260.547	82.31
260.779	84.31
261.012	95.31
261.244	79.31
261.477	91.31
261.71	67.31
261.942	72.31
262.175	86.31
262.407	88.31
262.64	73.31
262.872	79.31
263.105	86.31
263.337	97.31
263.57	94.31
263.802	82.31
264.035	84.31
264.267	84.31
264.499	87.31
264.732	90.31
264.964	83.31
265.197	75.31
265.429	95.31
265.661	98.31
265.894	86.31
266.126	87.31
266.358	77.31
266.591	78.31
266.823	76.31
267.055	69.31
267.287	84.31
267.52	81.31
267.752	76.31
267.984	93.31
268.216	90.31
268.448	77.31
268.681	78.31
268.913	79.31
269.145	81.31
269.377	97.31
269.609	97.31
269.841	87.31
270.073	89.31
270.306	71.31
270.538	81.31
270.77	89.31
271.002	89.31
271.234	77.31
271.466	82.31
271.698	80.31
271.93	89.31
272.162	95.31
272.394	90.31
272.626	68.31
272.858	76.31
273.09	78.31
273.322	84.31
273.553	78.31
273.785	86.31
274.017	99.31
274.249	80.31
274.481	96.31
274.713	89.31
274.945	69.31
275.176	88.31
275.408	80.31
275.64	91.31
275.872	80.31
276.104	94.31
276.335	86.31
276.567	76.31
276.799	86.31
277.031	75.31
277.262	84.31
277.494	102.31
277.726	82.31
277.957	90.31
278.189	80.31
278.421	74.31
278.652	81.31
278.884	95.31
279.115	94.31
279.347	83.31
279.579	72.31
279.81	81.31
280.042	83.31
280.273	88.31
280.505	81.31
280.736	96.31
280.968	76.31
281.199	76.31
281.431	86.31
281.662	79.31
281.894	94.31
282.125	96.31
282.356	82.31
282.588	95.31
282.819	87.31
283.051	85.31
283.282	95.31
283.513	92.31
283.745	98.31
283.976	73.31
284.207	110.31
284.439	84.31
284.67	99.31
284.901	81.31
285.132	104.31
285.364	90.31
285.595	76.31
285.826	83.31
286.057	80.31
286.288	82.31
286.52	104.31
286.751	98.31
286.982	91.31
287.213	91.31
287.444	97.31
287.675	108.31
287.906	86.31
288.138	92.31
288.369	92.31
288.6	88.31
288.831	80.31
289.062	91.31
289.293	91.31
289.524	76.31
289.755	92.31
289.986	90.31
290.217	96.31
290.448	87.31
290.679	78.31
290.91	75.31
291.141	74.31
291.371	75.31
291.602	87.31
291.833	93.31
292.064	90.31
292.295	101.31
292.526	92.31
292.757	94.31
292.987	82.31
293.218	87.31
293.449	88.31
293.68	80.31
293.91	88.31
294.141	89.31
294.372	102.31
294.603	97.31
294.833	82.31
295.064	78.31
295.295	86.31
295.525	92.31
295.756	86.31
295.987	95.31
296.217	82.31
296.448	85.31
296.679	91.31
296.909	82.31
297.14	86.31
297.37	97.31
297.601	83.31
297.831	85.31
298.062	98.31
298.292	79.31
298.523	84.31
298.753	93.31
298.984	80.31
299.214	102.31
299.445	78.31
299.675	84.31
299.905	93.31
300.136	89.31
300.366	81.31
300.597	94.31
300.827	89.31
301.057	80.31
301.288	87.31
301.518	88.31
301.748	90.31
301.979	90.31
302.209	76.31
302.439	82.31
302.669	83.31
302.9	90.31
303.13	97.31
303.36	85.31
303.59	91.31
303.82	98.31
304.051	78.31
304.281	83.31
304.511	81.31
304.741	89.31
304.971	88.31
305.201	90.31
305.431	83.31
305.661	87.31
305.891	85.31
306.121	88.31
306.352	82.31
306.582	81.31
306.812	88.31
307.042	83.31
307.272	78.31
307.502	78.31
307.731	78.31
307.961	83.31
308.191	94.31
308.421	100.31
308.651	92.31
308.881	82.31
309.111	106.31
309.341	101.31
309.571	88.31
309.8	83.31
310.03	74.31
310.26	81.31
310.49	74.31
310.72	90.31
310.949	95.31
311.179	85.31
311.409	91.31
311.639	91.31
311.868	86.31
312.098	86.31
312.328	80.31
312.557	104.31
312.787	72.31
313.017	103.31
313.246	94.31
313.476	86.31
313.706	94.31
313.935	99.31
314.165	81.31
314.394	86.31
314.624	87.31
314.853	78.31
315.083	89.31
315.312	91.31
315.542	79.31
315.771	99.31
316.001	90.31
316.23	74.31
316.46	68.31
316.689	89.31
316.919	82.31
317.148	91.31
317.377	97.31
317.607	80.31
317.836	87.31
318.065	94.31
318.295	73.31
318.524	85.31
318.753	92.31
318.983	75.31
319.212	89.31
319.441	97.31
319.67	95.31
319.9	91.31
320.129	90.31
320.358	102.31
320.587	100.31
320.816	73.31
321.046	76.31
321.275	93.31
321.504	85.31
321.733	88.31
321.962	105.31
322.191	89.31
322.42	96.31
322.649	91.31
322.878	88.31
323.108	79.31
323.337	82.31
323.566	95.31
323.795	89.31
324.024	88.31
324.253	74.31
324.482	91.31
324.71	106.31
324.939	62.31
325.168	89.31
325.397	81.31
325.626	92.31
325.855	83.31
326.084	91.31
326.313	93.31
326.542	88.31
326.77	90.31
326.999	83.31
327.228	94.31
327.457	98.31
327.686	82.31
327.914	88.31
328.143	105.31
328.372	87.31
328.6	82.31
328.829	106.31
329.058	80.31
329.287	89.31
329.515	83.31
329.744	68.31
329.972	75.31
330.201	94.31
330.43	75.31
330.658	86.31
330.887	102.31
331.115	85.31
331.344	75.31
331.572	75.31
331.801	98.31
332.03	100.31
332.258	87.31
332.486	91.31
332.715	91.31
332.943	79.31
333.172	95.31
333.4	82.31
333.629	89.31
333.857	72.31
334.085	81.31
334.314	96.31
334.542	96.31
334.771	92.31
334.999	82.31
335.227	70.31
335.455	82.31
335.684	108.31
335.912	100.31
336.14	74.31
336.369	77.31
336.597	97.31
336.825	100.31
337.053	85.31
337.281	85.31
337.51	100.31
337.738	94.31
337.966	84.31
338.194	70.31
338.422	83.31
338.65	94.31
338.878	84.31
339.106	89.31
339.334	99.31
339.562	85.31
339.79	82.31
340.018	84.31
340.246	91.31
340.474	65.31
340.702	86.31
340.93	81.31
341.158	88.31
341.386	97.31
341.614	91.31
341.842	87.31
342.07	88.31
342.298	84.31
342.526	88.31
342.754	90.31
342.981	76.31
343.209	79.31
343.437	88.31
343.665	72.31
343.893	89.31
344.12	101.31
344.348	99.31
344.576	82.31
344.804	98.31
345.031	60.31
345.259	85.31
345.487	91.31
345.714	89.31
345.942	93.31
346.17	88.31
346.397	83.31
346.625	73.31
346.853	94.31
347.08	84.31
347.308	86.31
347.535	74.31
347.763	90.31
347.99	82.31
348.218	94.31
348.445	86.31
348.673	84.31
348.9	95.31
349.128	83.31
349.355	81.31
349.583	100.31
349.81	86.31
350.037	88.31
350.265	94.31
350.492	89.31
350.72	97.31
350.947	102.31
351.174	79.31
351.402	91.31
351.629	74.31
351.856	86.31
352.083	86.31
352.311	75.31
352.538	97.31
352.765	84.31
352.992	96.31
353.22	94.31
353.447	97.31
353.674	86.31
353.901	84.31
354.128	87.31
354.355	82.31
354.583	99.31
354.81	82.31
355.037	87.31
355.264	83.31
355.491	92.31
355.718	85.31
355.945	80.31
356.172	92.31
356.399	84.31
356.626	90.31
356.853	100.31
357.08	97.31
357.307	68.31
357.534	94.31
357.761	59.31
357.988	76.31
358.215	84.31
358.441	78.31
358.668	85.31
358.895	90.31
359.122	83.31
359.349	97.31
359.576	88.31
359.802	84.31
360.029	96.31
360.256	86.31
360.483	85.31
360.709	89.31
360.936	96.31
361.163	94.31
361.39	86.31
361.616	84.31
361.843	81.31
362.07	87.31
362.296	93.31
362.523	85.31
362.749	91.31
362.976	80.31
363.203	92.31
363.429	88.31
363.656	86.31
363.882	82.31
364.109	92.31
364.335	94.31
364.562	91.31
364.788	73.31
365.015	98.31
365.241	84.31
365.468	81.31
365.694	59.31
365.92	78.31
366.147	76.31
366.373	86.31
366.599	88.31
366.826	91.31
367.052	88.31
367.278	95.31
367.505	94.31
367.731	95.31
367.957	81.31
368.184	98.31
368.41	88.31
368.636	98.31
368.862	83.31
369.089	85.31
369.315	94.31
369.541	98.31
369.767	87.31
369.993	80.31
370.219	86.31
370.445	71.31
370.672	90.31
370.898	86.31
371.124	91.31
371.35	76.31
371.576	77.31
371.802	77.31
372.028	81.31
372.254	91.31
372.48	89.31
372.706	83.31
372.932	97.31
373.158	86.31
373.384	102.31
373.61	82.31
373.835	89.31
374.061	84.31
374.287	79.31
374.513	97.31
374.739	92.31
374.965	72.31
375.191	77.31
375.416	95.31
375.642	98.31
375.868	85.31
376.094	68.31
376.319	74.31
376.545	87.31
376.771	86.31
376.997	78.31
377.222	92.31
377.448	80.31
377.674	70.31
377.899	85.31
378.125	80.31
378.35	88.31
378.576	86.31
378.802	88.31
379.027	71.31
379.253	85.31
379.478	90.31
379.704	94.31
379.929	84.31
380.155	74.31
380.38	96.31
380.606	84.31
380.831	81.31
381.057	90.31
381.282	78.31
381.507	91.31
381.733	92.31
381.958	79.31
382.184	81.31
382.409	104.31
382.634	95.31
382.86	95.31
383.085	82.31
383.31	67.31
383.535	90.31
383.761	93.31
383.986	66.31
384.211	66.31
384.436	74.31
384.662	98.31
384.887	90.31
385.112	87.31
385.337	76.31
385.562	101.31
385.787	86.31
386.013	77.31
386.238	97.31
386.463	72.31
386.688	91.31
386.913	91.31
387.138	79.31
387.363	89.31
387.588	94.31
387.813	96.31
388.038	101.31
388.263	85.31
388.488	87.31
388.713	81.31
388.938	80.31
389.163	88.31
389.387	97.31
389.612	71.31
389.837	86.31
390.062	88.31
390.287	77.31
390.512	82.31
390.736	85.31
390.961	62.31
391.186	73.31
391.411	82.31
391.636	87.31
391.86	82.31
392.085	72.31
392.31	78.31
392.534	68.31
392.759	90.31
392.984	84.31
393.208	86.31
393.433	92.31
393.658	83.31
393.882	88.31
394.107	77.31
394.331	81.31
394.556	84.31
394.78	91.31
395.005	86.31
395.229	87.31
395.454	71.31
395.678	74.31
395.903	86.31
396.127	87.31
396.352	90.31
396.576	82.31
396.801	92.31
397.025	83.31
397.249	89.31
397.474	86.31
397.698	82.31
397.922	90.31
398.147	76.31
398.371	86.31
398.595	83.31
398.82	83.31
399.044	87.31
399.268	87.31
399.492	81.31
399.717	67.31
399.941	79.31
400.165	73.31
400.389	88.31
400.613	78.31
400.837	60.31
401.062	83.31
401.286	72.31
401.51	83.31
401.734	88.31
401.958	78.31
402.182	82.31
402.406	83.31
402.63	93.31
402.854	86.31
403.078	78.31
403.302	95.31
403.526	86.31
403.75	89.31
403.974	84.31
404.198	87.31
404.422	74.31
404.645	73.31
404.869	76.31
405.093	89.31
405.317	85.31
405.541	92.31
405.765	74.31
405.988	83.31
406.212	79.31
406.436	79.31
406.66	88.31
406.883	80.31
407.107	72.31
407.331	80.31
407.555	72.31
407.778	93.31
408.002	78.31
408.226	83.31
408.449	78.31
408.673	88.31
408.896	73.31
409.12	79.31
409.344	87.31
409.567	80.31
409.791	78.31
410.014	80.31
410.238	85.31
410.461	96.31
410.685	76.31
410.908	75.31
411.132	74.31
411.355	84.31
411.578	96.31
411.802	84.31
412.025	78.31
412.249	86.31
412.472	76.31
412.695	82.31
412.919	84.31
413.142	80.31
413.365	73.31
413.589	71.31
413.812	77.31
414.035	95.31
414.258	76.31
414.482	83.31
414.705	89.31
414.928	84.31
415.151	81.31
415.374	90.31
415.597	74.31
415.821	98.31
416.044	82.31
416.267	92.31
416.49	87.31
416.713	86.31
416.936	89.31
417.159	79.31
417.382	94.31
417.605	76.31
417.828	73.31
418.051	84.31
418.274	75.31
418.497	76.31
418.72	91.31
418.943	92.31
419.166	79.31
419.389	83.31
419.611	69.31
419.834	83.31
420.057	86.31
420.28	94.31
420.503	80.31
420.726	80.31
420.948	90.31
421.171	89.31
421.394	96.31
421.617	77.31
421.839	69.31
422.062	89.31
422.285	60.31
422.507	74.31
422.73	89.31
422.953	88.31
423.175	84.31
423.398	96.31
423.621	85.31
423.843	75.31
424.066	75.31
424.288	85.31
424.511	84.31
424.733	81.31
424.956	90.31
425.178	85.31
425.401	96.31
425.623	75.31
425.846	83.31
426.068	90.31
426.291	67.31
426.513	91.31
426.735	89.31
426.958	82.31
427.18	86.31
427.402	79.31
427.625	77.31
427.847	83.31
428.069	79.31
428.292	90.31
428.514	103.31
428.736	104.31
428.958	84.31
429.181	68.31
429.403	76.31
429.625	75.31
429.847	61.31
430.069	68.31
430.292	79.31
430.514	66.31
430.736	71.31
430.958	90.31
431.18	92.31
431.402	76.31
431.624	93.31
431.846	79.31
432.068	81.31
432.29	86.31
432.512	92.31
432.734	85.31
432.956	86.31
433.178	107.31
433.4	84.31
433.622	79.31
433.844	80.31
434.066	87.31
434.287	83.31
434.509	81.31
434.731	93.31
434.953	94.31
435.175	88.31
435.397	98.31
435.618	88.31
435.84	91.31
436.062	82.31
436.284	83.31
436.505	76.31
436.727	84.31
436.949	78.31
437.17	67.31
437.392	70.31
437.614	89.31
437.835	82.31
438.057	86.31
438.278	84.31
438.5	81.31
438.721	88.31
438.943	85.31
439.165	76.31
439.386	87.31
439.608	82.31
439.829	81.31
440.05	98.31
440.272	83.31
440.493	85.31
440.715	85.31
440.936	77.31
441.158	89.31
441.379	78.31
441.6	90.31
441.822	75.31
442.043	82.31
442.264	88.31
442.486	84.31
442.707	72.31
442.928	74.31
443.149	95.31
443.371	94.31
443.592	73.31
443.813	74.31
444.034	78.31
444.255	80.31
444.476	81.31
444.698	91.31
444.919	89.31
445.14	150.31
445.361	116.31
445.582	82.31
445.803	79.31
446.024	78.31
446.245	87.31
446.466	80.31
446.687	71.31
446.908	95.31
447.129	83.31
447.35	92.31
447.571	90.31
447.792	82.31
448.013	85.31
448.234	96.31
448.455	83.31
448.675	87.31
448.896	80.31
449.117	89.31
449.338	104.31
449.559	77.31
449.779	80.31
450	76.31
450.221	71.31
450.442	87.31
450.662	89.31
450.883	75.31
451.104	70.31
451.324	88.31
451.545	69.31
451.766	108.31
451.986	94.31
452.207	76.31
452.428	85.31
452.648	80.31
452.869	83.31
453.089	85.31
453.31	81.31
453.53	83.31
453.751	81.31
453.971	86.31
454.192	92.31
454.412	87.31
454.633	84.31
454.853	90.31
455.073	86.31
455.294	83.31
455.514	78.31
455.734	85.31
455.955	74.31
456.175	79.31
456.395	80.31
456.616	69.31
456.836	82.31
457.056	87.31
457.276	64.31
457.497	86.31
457.717	78.31
457.937	90.31
458.157	89.31
458.377	96.31
458.598	72.31
458.818	81.31
459.038	66.31
459.258	88.31
459.478	73.31
459.698	86.31
459.918	83.31
460.138	88.31
460.358	78.31
460.578	102.31
460.798	85.31
461.018	74.31
461.238	82.31
461.458	78.31
461.678	78.31
461.898	81.31
462.118	90.31
462.338	69.31
462.558	91.31
462.777	76.31
462.997	77.31
463.217	82.31
463.437	78.31
463.657	72.31
463.876	90.31
464.096	71.31
464.316	78.31
464.536	71.31
464.755	83.31
464.975	103.31
465.195	77.31
465.414	77.31
465.634	80.31
465.854	91.31
466.073	89.31
466.293	70.31
466.512	78.31
466.732	81.31
466.951	72.31
467.171	96.31
467.391	83.31
467.61	82.31
467.829	73.31
468.049	85.31
468.268	76.31
468.488	85.31
468.707	95.31
468.927	80.31
469.146	87.31
469.365	91.31
469.585	95.31
469.804	94.31
470.023	76.31
470.243	83.31
470.462	87.31
470.681	89.31
470.901	83.31
471.12	90.31
471.339	80.31
471.558	82.31
471.777	77.31
471.997	82.31
472.216	87.31
472.435	70.31
472.654	82.31
472.873	77.31
473.092	82.31
473.311	88.31
473.53	88.31
473.749	103.31
473.968	94.31
474.187	84.31
474.406	97.31
474.625	80.31
474.844	82.31
475.063	74.31
475.282	89.31
475.501	85.31
475.72	98.31
475.939	83.31
476.158	78.31
476.377	104.31
476.596	81.31
476.814	96.31
477.033	94.31
477.252	84.31
477.471	82.31
477.69	73.31
477.908	74.31
478.127	89.31
478.346	84.31
478.564	91.31
478.783	82.31
479.002	94.31
479.22	83.31
479.439	85.31
479.658	88.31
479.876	79.31
480.095	73.31
480.313	85.31
480.532	89.31
480.751	67.31
480.969	83.31
481.188	96.31
481.406	92.31
481.624	89.31
481.843	74.31
482.061	79.31
482.28	78.31
482.498	77.31
482.717	78.31
482.935	88.31
483.153	74.31
483.372	84.31
483.59	96.31
483.808	85.31
484.027	79.31
484.245	64.31
484.463	84.31
484.681	86.31
484.9	79.31
485.118	91.31
485.336	76.31
485.554	77.31
485.772	89.31
485.99	92.31
486.209	75.31
486.427	79.31
486.645	69.31
486.863	87.31
487.081	81.31
487.299	80.31
487.517	88.31
487.735	86.31
487.953	87.31
488.171	104.31
488.389	92.31
488.607	76.31
488.825	74.31
489.043	90.31
489.261	72.31
489.479	78.31
489.696	101.31
489.914	93.31
490.132	78.31
490.35	86.31
490.568	66.31
490.786	87.31
491.003	99.31
491.221	80.31
491.439	77.31
491.657	90.31
491.874	89.31
492.092	79.31
492.31	89.31
492.527	94.31
492.745	99.31
492.963	81.31
493.18	86.31
493.398	78.31
493.615	75.31
493.833	85.31
494.05	74.31
494.268	84.31
494.485	94.31
494.703	83.31
494.92	81.31
495.138	106.31
495.355	80.31
495.573	74.31
495.79	78.31
496.008	103.31
496.225	86.31
496.442	95.31
496.66	89.31
496.877	72.31
497.094	95.31
497.312	80.31
497.529	79.31
497.746	91.31
497.963	86.31
498.181	83.31
498.398	94.31
498.615	87.31
498.832	74.31
499.049	69.31
499.267	94.31
499.484	96.31
499.701	94.31
499.918	97.31
500.135	79.31
500.352	91.31
500.569	87.31
500.786	66.31
501.003	96.31
501.22	84.31
501.437	86.31
501.654	90.31
501.871	83.31
502.088	91.31
502.305	80.31
502.522	80.31
502.739	76.31
502.956	88.31
503.172	84.31
503.389	85.31
503.606	85.31
503.823	85.31
504.04	94.31
504.256	82.31
504.473	83.31
504.69	84.31
504.907	85.31
505.123	88.31
505.34	79.31
505.557	103.31
505.773	77.31
505.99	80.31
506.207	71.31
506.423	87.31
506.64	99.31
506.856	74.31
507.073	80.31
507.289	89.31
507.506	82.31
507.722	80.31
507.939	88.31
508.155	101.31
508.372	78.31
508.588	83.31
508.805	85.31
509.021	75.31
509.238	86.31
509.454	87.31
509.67	76.31
509.887	76.31
510.103	81.31
510.319	83.31
510.536	92.31
510.752	91.31
510.968	92.31
511.184	86.31
511.401	78.31
511.617	89.31
511.833	80.31
512.049	76.31
512.265	88.31
512.481	73.31
512.698	89.31
512.914	82.31
513.13	82.31
513.346	86.31
513.562	96.31
513.778	96.31
513.994	91.31
514.21	86.31
514.426	78.31
514.642	89.31
514.858	90.31
515.074	85.31
515.29	96.31
515.506	82.31
515.721	80.31
515.937	86.31
516.153	95.31
516.369	92.31
516.585	95.31
516.801	103.31
517.016	86.31
517.232	90.31
517.448	96.31
517.664	88.31
517.879	84.31
518.095	83.31
518.311	83.31
518.527	79.31
518.742	86.31
518.958	87.31
519.173	90.31
519.389	83.31
519.605	92.31
