Data from BGNA1_HRD10591_00017.txt Node
Date: Fri Dec 27 14:32:34 EST 2024
User: Yrep
Spectrometer: HR+D1059
Trigger mode: 1
Integration Time (sec): 1.000000E-1
Scans to average: 1
Electric dark correction enabled: true
Nonlinearity correction enabled: false
Boxcar width: 0
XAxis mode: Wavelengths
Number of Pixels in Spectrum: 2048
>>>>>Begin Spectral Data<<<<<
223.165	-14.88
223.4	-14.88
223.635	-14.88
223.869	-23.88
224.104	-20.88
224.338	-12.88
224.573	-9.88
224.808	-22.88
225.042	-1.88
225.277	0.12
225.511	27.12
225.746	8.12
225.98	-7.88
226.215	11.12
226.449	-5.88
226.683	21.12
226.918	25.12
227.152	28.12
227.387	27.12
227.621	46.12
227.856	31.12
228.09	53.12
228.324	71.12
228.559	67.12
228.793	65.12
229.027	62.12
229.262	65.12
229.496	73.12
229.73	62.12
229.964	77.12
230.199	72.12
230.433	54.12
230.667	70.12
230.901	70.12
231.136	85.12
231.37	80.12
231.604	78.12
231.838	66.12
232.072	87.12
232.306	78.12
232.541	80.12
232.775	80.12
233.009	88.12
233.243	75.12
233.477	82.12
233.711	86.12
233.945	101.12
234.179	84.12
234.413	69.12
234.647	68.12
234.881	74.12
235.115	82.12
235.349	79.12
235.583	66.12
235.817	82.12
236.051	82.12
236.285	69.12
236.519	79.12
236.753	77.12
236.987	73.12
237.221	55.12
237.455	80.12
237.689	100.12
237.922	75.12
238.156	79.12
238.39	75.12
238.624	66.12
238.858	65.12
239.091	77.12
239.325	68.12
239.559	84.12
239.793	69.12
240.027	85.12
240.26	80.12
240.494	81.12
240.728	83.12
240.961	75.12
241.195	76.12
241.429	74.12
241.662	72.12
241.896	79.12
242.13	60.12
242.363	70.12
242.597	76.12
242.83	72.12
243.064	71.12
243.298	75.12
243.531	73.12
243.765	70.12
243.998	75.12
244.232	67.12
244.465	85.12
244.699	76.12
244.932	67.12
245.166	59.12
245.399	72.12
245.633	74.12
245.866	77.12
246.099	66.12
246.333	71.12
246.566	82.12
246.8	71.12
247.033	78.12
247.266	74.12
247.5	76.12
247.733	82.12
247.966	79.12
248.2	84.12
248.433	69.12
248.666	74.12
248.899	68.12
249.133	77.12
249.366	68.12
249.599	93.12
249.832	78.12
250.066	92.12
250.299	76.12
250.532	71.12
250.765	78.12
250.998	86.12
251.231	87.12
251.465	75.12
251.698	75.12
251.931	61.12
252.164	71.12
252.397	76.12
252.63	90.12
252.863	72.12
253.096	78.12
253.329	78.12
253.562	63.12
253.795	73.12
254.028	78.12
254.261	60.12
254.494	75.12
254.727	92.12
254.96	72.12
255.193	67.12
255.426	90.12
255.659	78.12
255.892	83.12
256.124	79.12
256.357	80.12
256.59	68.12
256.823	80.12
257.056	83.12
257.289	75.12
257.521	84.12
257.754	78.12
257.987	81.12
258.22	84.12
258.452	79.12
258.685	92.12
258.918	77.12
259.151	76.12
259.383	86.12
259.616	78.12
259.849	90.12
260.081	79.12
260.314	74.12
260.547	67.12
260.779	75.12
261.012	82.12
261.244	83.12
261.477	81.12
261.71	80.12
261.942	78.12
262.175	89.12
262.407	66.12
262.64	77.12
262.872	97.12
263.105	67.12
263.337	81.12
263.57	85.12
263.802	83.12
264.035	67.12
264.267	73.12
264.499	80.12
264.732	86.12
264.964	60.12
265.197	67.12
265.429	74.12
265.661	80.12
265.894	75.12
266.126	81.12
266.358	80.12
266.591	79.12
266.823	96.12
267.055	85.12
267.287	85.12
267.52	73.12
267.752	81.12
267.984	93.12
268.216	85.12
268.448	74.12
268.681	71.12
268.913	98.12
269.145	78.12
269.377	80.12
269.609	80.12
269.841	79.12
270.073	88.12
270.306	80.12
270.538	88.12
270.77	84.12
271.002	96.12
271.234	76.12
271.466	80.12
271.698	85.12
271.93	85.12
272.162	77.12
272.394	78.12
272.626	81.12
272.858	91.12
273.09	100.12
273.322	85.12
273.553	76.12
273.785	75.12
274.017	82.12
274.249	76.12
274.481	81.12
274.713	74.12
274.945	84.12
275.176	85.12
275.408	70.12
275.64	91.12
275.872	80.12
276.104	68.12
276.335	86.12
276.567	84.12
276.799	84.12
277.031	76.12
277.262	79.12
277.494	88.12
277.726	80.12
277.957	73.12
278.189	71.12
278.421	77.12
278.652	75.12
278.884	83.12
279.115	78.12
279.347	81.12
279.579	54.12
279.81	81.12
280.042	85.12
280.273	93.12
280.505	79.12
280.736	74.12
280.968	76.12
281.199	68.12
281.431	76.12
281.662	77.12
281.894	70.12
282.125	88.12
282.356	86.12
282.588	86.12
282.819	71.12
283.051	72.12
283.282	78.12
283.513	78.12
283.745	94.12
283.976	79.12
284.207	70.12
284.439	77.12
284.67	80.12
284.901	97.12
285.132	83.12
285.364	84.12
285.595	88.12
285.826	87.12
286.057	82.12
286.288	66.12
286.52	91.12
286.751	90.12
286.982	89.12
287.213	78.12
287.444	79.12
287.675	80.12
287.906	82.12
288.138	74.12
288.369	69.12
288.6	76.12
288.831	69.12
289.062	82.12
289.293	79.12
289.524	81.12
289.755	78.12
289.986	85.12
290.217	74.12
290.448	89.12
290.679	77.12
290.91	77.12
291.141	92.12
291.371	87.12
291.602	71.12
291.833	89.12
292.064	83.12
292.295	94.12
292.526	82.12
292.757	86.12
292.987	91.12
293.218	86.12
293.449	92.12
293.68	87.12
293.91	69.12
294.141	79.12
294.372	84.12
294.603	76.12
294.833	85.12
295.064	84.12
295.295	76.12
295.525	83.12
295.756	97.12
295.987	100.12
296.217	84.12
296.448	96.12
296.679	90.12
296.909	75.12
297.14	93.12
297.37	70.12
297.601	91.12
297.831	84.12
298.062	86.12
298.292	63.12
298.523	82.12
298.753	76.12
298.984	82.12
299.214	84.12
299.445	87.12
299.675	92.12
299.905	79.12
300.136	81.12
300.366	90.12
300.597	85.12
300.827	84.12
301.057	90.12
301.288	77.12
301.518	73.12
301.748	74.12
301.979	103.12
302.209	66.12
302.439	65.12
302.669	69.12
302.9	83.12
303.13	78.12
303.36	86.12
303.59	79.12
303.82	89.12
304.051	91.12
304.281	79.12
304.511	83.12
304.741	94.12
304.971	94.12
305.201	80.12
305.431	86.12
305.661	83.12
305.891	81.12
306.121	82.12
306.352	83.12
306.582	89.12
306.812	90.12
307.042	75.12
307.272	86.12
307.502	84.12
307.731	77.12
307.961	79.12
308.191	68.12
308.421	91.12
308.651	71.12
308.881	77.12
309.111	78.12
309.341	88.12
309.571	95.12
309.8	74.12
310.03	84.12
310.26	81.12
310.49	91.12
310.72	88.12
310.949	85.12
311.179	90.12
311.409	82.12
311.639	84.12
311.868	60.12
312.098	93.12
312.328	88.12
312.557	88.12
312.787	80.12
313.017	99.12
313.246	82.12
313.476	90.12
313.706	69.12
313.935	92.12
314.165	86.12
314.394	92.12
314.624	90.12
314.853	81.12
315.083	83.12
315.312	83.12
315.542	76.12
315.771	85.12
316.001	79.12
316.23	82.12
316.46	78.12
316.689	90.12
316.919	91.12
317.148	82.12
317.377	74.12
317.607	91.12
317.836	90.12
318.065	94.12
318.295	82.12
318.524	86.12
318.753	90.12
318.983	78.12
319.212	85.12
319.441	83.12
319.67	82.12
319.9	86.12
320.129	79.12
320.358	74.12
320.587	96.12
320.816	81.12
321.046	98.12
321.275	86.12
321.504	92.12
321.733	84.12
321.962	79.12
322.191	80.12
322.42	83.12
322.649	79.12
322.878	87.12
323.108	82.12
323.337	78.12
323.566	86.12
323.795	82.12
324.024	69.12
324.253	94.12
324.482	73.12
324.71	64.12
324.939	101.12
325.168	79.12
325.397	89.12
325.626	78.12
325.855	97.12
326.084	82.12
326.313	90.12
326.542	87.12
326.77	92.12
326.999	86.12
327.228	84.12
327.457	80.12
327.686	82.12
327.914	76.12
328.143	75.12
328.372	86.12
328.6	80.12
328.829	93.12
329.058	81.12
329.287	67.12
329.515	79.12
329.744	88.12
329.972	79.12
330.201	80.12
330.43	82.12
330.658	87.12
330.887	94.12
331.115	70.12
331.344	65.12
331.572	90.12
331.801	78.12
332.03	78.12
332.258	70.12
332.486	76.12
332.715	86.12
332.943	90.12
333.172	70.12
333.4	85.12
333.629	91.12
333.857	82.12
334.085	85.12
334.314	76.12
334.542	77.12
334.771	83.12
334.999	78.12
335.227	62.12
335.455	88.12
335.684	98.12
335.912	93.12
336.14	78.12
336.369	73.12
336.597	91.12
336.825	82.12
337.053	80.12
337.281	65.12
337.51	71.12
337.738	78.12
337.966	86.12
338.194	79.12
338.422	83.12
338.65	86.12
338.878	79.12
339.106	80.12
339.334	86.12
339.562	92.12
339.79	83.12
340.018	94.12
340.246	86.12
340.474	88.12
340.702	74.12
340.93	87.12
341.158	90.12
341.386	80.12
341.614	76.12
341.842	73.12
342.07	81.12
342.298	88.12
342.526	80.12
342.754	80.12
342.981	91.12
343.209	91.12
343.437	99.12
343.665	91.12
343.893	83.12
344.12	92.12
344.348	73.12
344.576	78.12
344.804	73.12
345.031	79.12
345.259	85.12
345.487	76.12
345.714	74.12
345.942	86.12
346.17	87.12
346.397	85.12
346.625	80.12
346.853	67.12
347.08	79.12
347.308	93.12
347.535	90.12
347.763	86.12
347.99	80.12
348.218	71.12
348.445	96.12
348.673	86.12
348.9	76.12
349.128	83.12
349.355	86.12
349.583	80.12
349.81	77.12
350.037	80.12
350.265	79.12
350.492	81.12
350.72	72.12
350.947	80.12
351.174	79.12
351.402	91.12
351.629	84.12
351.856	94.12
352.083	72.12
352.311	78.12
352.538	82.12
352.765	81.12
352.992	88.12
353.22	96.12
353.447	67.12
353.674	82.12
353.901	85.12
354.128	82.12
354.355	76.12
354.583	88.12
354.81	81.12
355.037	72.12
355.264	88.12
355.491	83.12
355.718	81.12
355.945	98.12
356.172	98.12
356.399	91.12
356.626	79.12
356.853	82.12
357.08	79.12
357.307	87.12
357.534	89.12
357.761	94.12
357.988	88.12
358.215	76.12
358.441	87.12
358.668	82.12
358.895	78.12
359.122	80.12
359.349	94.12
359.576	90.12
359.802	79.12
360.029	73.12
360.256	87.12
360.483	93.12
360.709	71.12
360.936	96.12
361.163	80.12
361.39	87.12
361.616	69.12
361.843	81.12
362.07	79.12
362.296	75.12
362.523	86.12
362.749	83.12
362.976	70.12
363.203	78.12
363.429	86.12
363.656	80.12
363.882	87.12
364.109	71.12
364.335	80.12
364.562	84.12
364.788	82.12
365.015	80.12
365.241	92.12
365.468	80.12
365.694	75.12
365.92	78.12
366.147	78.12
366.373	78.12
366.599	68.12
366.826	66.12
367.052	80.12
367.278	77.12
367.505	84.12
367.731	87.12
367.957	98.12
368.184	82.12
368.41	78.12
368.636	88.12
368.862	91.12
369.089	90.12
369.315	93.12
369.541	75.12
369.767	75.12
369.993	82.12
370.219	72.12
370.445	80.12
370.672	89.12
370.898	80.12
371.124	83.12
371.35	70.12
371.576	74.12
371.802	74.12
372.028	74.12
372.254	80.12
372.48	83.12
372.706	91.12
372.932	84.12
373.158	70.12
373.384	87.12
373.61	97.12
373.835	82.12
374.061	79.12
374.287	78.12
374.513	90.12
374.739	81.12
374.965	91.12
375.191	79.12
375.416	77.12
375.642	85.12
375.868	81.12
376.094	78.12
376.319	84.12
376.545	93.12
376.771	70.12
376.997	78.12
377.222	68.12
377.448	77.12
377.674	81.12
377.899	96.12
378.125	86.12
378.35	85.12
378.576	79.12
378.802	81.12
379.027	71.12
379.253	74.12
379.478	97.12
379.704	90.12
379.929	80.12
380.155	97.12
380.38	74.12
380.606	81.12
380.831	76.12
381.057	104.12
381.282	80.12
381.507	84.12
381.733	84.12
381.958	79.12
382.184	67.12
382.409	60.12
382.634	74.12
382.86	99.12
383.085	76.12
383.31	81.12
383.535	83.12
383.761	87.12
383.986	77.12
384.211	96.12
384.436	77.12
384.662	90.12
384.887	94.12
385.112	72.12
385.337	94.12
385.562	83.12
385.787	65.12
386.013	83.12
386.238	84.12
386.463	77.12
386.688	95.12
386.913	74.12
387.138	92.12
387.363	81.12
387.588	75.12
387.813	81.12
388.038	93.12
388.263	69.12
388.488	81.12
388.713	85.12
388.938	89.12
389.163	80.12
389.387	73.12
389.612	81.12
389.837	95.12
390.062	82.12
390.287	98.12
390.512	97.12
390.736	83.12
390.961	66.12
391.186	71.12
391.411	84.12
391.636	93.12
391.86	80.12
392.085	94.12
392.31	85.12
392.534	92.12
392.759	90.12
392.984	83.12
393.208	83.12
393.433	71.12
393.658	87.12
393.882	85.12
394.107	97.12
394.331	79.12
394.556	77.12
394.78	87.12
395.005	90.12
395.229	68.12
395.454	92.12
395.678	83.12
395.903	90.12
396.127	80.12
396.352	85.12
396.576	82.12
396.801	84.12
397.025	78.12
397.249	85.12
397.474	85.12
397.698	91.12
397.922	87.12
398.147	80.12
398.371	77.12
398.595	84.12
398.82	91.12
399.044	88.12
399.268	73.12
399.492	68.12
399.717	83.12
399.941	82.12
400.165	78.12
400.389	77.12
400.613	76.12
400.837	72.12
401.062	86.12
401.286	64.12
401.51	67.12
401.734	76.12
401.958	87.12
402.182	86.12
402.406	79.12
402.63	73.12
402.854	78.12
403.078	78.12
403.302	81.12
403.526	94.12
403.75	83.12
403.974	74.12
404.198	77.12
404.422	85.12
404.645	84.12
404.869	90.12
405.093	72.12
405.317	84.12
405.541	90.12
405.765	85.12
405.988	86.12
406.212	72.12
406.436	96.12
406.66	87.12
406.883	77.12
407.107	78.12
407.331	73.12
407.555	88.12
407.778	86.12
408.002	66.12
408.226	69.12
408.449	90.12
408.673	76.12
408.896	72.12
409.12	83.12
409.344	74.12
409.567	98.12
409.791	90.12
410.014	80.12
410.238	91.12
410.461	63.12
410.685	75.12
410.908	80.12
411.132	83.12
411.355	87.12
411.578	87.12
411.802	89.12
412.025	76.12
412.249	79.12
412.472	89.12
412.695	71.12
412.919	80.12
413.142	86.12
413.365	84.12
413.589	78.12
413.812	62.12
414.035	80.12
414.258	91.12
414.482	75.12
414.705	86.12
414.928	93.12
415.151	79.12
415.374	70.12
415.597	100.12
415.821	82.12
416.044	64.12
416.267	79.12
416.49	85.12
416.713	78.12
416.936	82.12
417.159	88.12
417.382	82.12
417.605	66.12
417.828	79.12
418.051	69.12
418.274	72.12
418.497	62.12
418.72	84.12
418.943	84.12
419.166	90.12
419.389	93.12
419.611	84.12
419.834	73.12
420.057	88.12
420.28	84.12
420.503	70.12
420.726	67.12
420.948	72.12
421.171	73.12
421.394	82.12
421.617	75.12
421.839	91.12
422.062	64.12
422.285	73.12
422.507	78.12
422.73	74.12
422.953	81.12
423.175	79.12
423.398	79.12
423.621	86.12
423.843	76.12
424.066	92.12
424.288	78.12
424.511	80.12
424.733	82.12
424.956	81.12
425.178	83.12
425.401	91.12
425.623	78.12
425.846	84.12
426.068	88.12
426.291	91.12
426.513	98.12
426.735	79.12
426.958	70.12
427.18	76.12
427.402	79.12
427.625	86.12
427.847	84.12
428.069	83.12
428.292	86.12
428.514	86.12
428.736	84.12
428.958	83.12
429.181	90.12
429.403	93.12
429.625	78.12
429.847	68.12
430.069	77.12
430.292	83.12
430.514	84.12
430.736	74.12
430.958	83.12
431.18	86.12
431.402	72.12
431.624	86.12
431.846	91.12
432.068	78.12
432.29	86.12
432.512	86.12
432.734	90.12
432.956	77.12
433.178	96.12
433.4	94.12
433.622	70.12
433.844	65.12
434.066	85.12
434.287	86.12
434.509	82.12
434.731	74.12
434.953	82.12
435.175	73.12
435.397	72.12
435.618	73.12
435.84	68.12
436.062	75.12
436.284	78.12
436.505	71.12
436.727	91.12
436.949	75.12
437.17	81.12
437.392	64.12
437.614	82.12
437.835	71.12
438.057	90.12
438.278	82.12
438.5	75.12
438.721	79.12
438.943	78.12
439.165	73.12
439.386	76.12
439.608	78.12
439.829	85.12
440.05	85.12
440.272	78.12
440.493	94.12
440.715	76.12
440.936	79.12
441.158	98.12
441.379	74.12
441.6	78.12
441.822	90.12
442.043	84.12
442.264	67.12
442.486	83.12
442.707	86.12
442.928	66.12
443.149	80.12
443.371	95.12
443.592	84.12
443.813	80.12
444.034	83.12
444.255	68.12
444.476	86.12
444.698	80.12
444.919	77.12
445.14	138.12
445.361	106.12
445.582	74.12
445.803	66.12
446.024	77.12
446.245	95.12
446.466	88.12
446.687	87.12
446.908	78.12
447.129	91.12
447.35	80.12
447.571	76.12
447.792	71.12
448.013	66.12
448.234	75.12
448.455	84.12
448.675	81.12
448.896	81.12
449.117	78.12
449.338	84.12
449.559	83.12
449.779	71.12
450	84.12
450.221	74.12
450.442	75.12
450.662	75.12
450.883	80.12
451.104	93.12
451.324	78.12
451.545	71.12
451.766	82.12
451.986	74.12
452.207	81.12
452.428	75.12
452.648	81.12
452.869	87.12
453.089	85.12
453.31	81.12
453.53	84.12
453.751	80.12
453.971	76.12
454.192	70.12
454.412	86.12
454.633	76.12
454.853	85.12
455.073	78.12
455.294	78.12
455.514	76.12
455.734	78.12
455.955	78.12
456.175	82.12
456.395	86.12
456.616	88.12
456.836	79.12
457.056	75.12
457.276	84.12
457.497	86.12
457.717	87.12
457.937	85.12
458.157	79.12
458.377	81.12
458.598	96.12
458.818	94.12
459.038	82.12
459.258	76.12
459.478	71.12
459.698	91.12
459.918	72.12
460.138	93.12
460.358	87.12
460.578	69.12
460.798	72.12
461.018	89.12
461.238	88.12
461.458	83.12
461.678	77.12
461.898	76.12
462.118	69.12
462.338	88.12
462.558	82.12
462.777	67.12
462.997	70.12
463.217	81.12
463.437	78.12
463.657	78.12
463.876	91.12
464.096	85.12
464.316	87.12
464.536	81.12
464.755	82.12
464.975	74.12
465.195	79.12
465.414	92.12
465.634	79.12
465.854	78.12
466.073	84.12
466.293	87.12
466.512	82.12
466.732	85.12
466.951	74.12
467.171	70.12
467.391	85.12
467.61	71.12
467.829	70.12
468.049	83.12
468.268	69.12
468.488	92.12
468.707	87.12
468.927	78.12
469.146	72.12
469.365	81.12
469.585	84.12
469.804	94.12
470.023	80.12
470.243	78.12
470.462	78.12
470.681	70.12
470.901	76.12
471.12	95.12
471.339	82.12
471.558	80.12
471.777	79.12
471.997	80.12
472.216	82.12
472.435	84.12
472.654	71.12
472.873	76.12
473.092	80.12
473.311	77.12
473.53	81.12
473.749	101.12
473.968	96.12
474.187	87.12
474.406	86.12
474.625	79.12
474.844	78.12
475.063	69.12
475.282	68.12
475.501	76.12
475.72	87.12
475.939	77.12
476.158	85.12
476.377	100.12
476.596	74.12
476.814	78.12
477.033	71.12
477.252	80.12
477.471	64.12
477.69	93.12
477.908	85.12
478.127	88.12
478.346	82.12
478.564	77.12
478.783	86.12
479.002	71.12
479.22	75.12
479.439	94.12
479.658	90.12
479.876	103.12
480.095	72.12
480.313	79.12
480.532	76.12
480.751	101.12
480.969	73.12
481.188	69.12
481.406	90.12
481.624	74.12
481.843	90.12
482.061	66.12
482.28	81.12
482.498	80.12
482.717	80.12
482.935	95.12
483.153	80.12
483.372	83.12
483.59	79.12
483.808	89.12
484.027	97.12
484.245	94.12
484.463	78.12
484.681	98.12
484.9	79.12
485.118	78.12
485.336	74.12
485.554	75.12
485.772	78.12
485.99	85.12
486.209	90.12
486.427	75.12
486.645	87.12
486.863	80.12
487.081	91.12
487.299	85.12
487.517	90.12
487.735	78.12
487.953	95.12
488.171	104.12
488.389	72.12
488.607	85.12
488.825	74.12
489.043	79.12
489.261	78.12
489.479	63.12
489.696	85.12
489.914	99.12
490.132	90.12
490.35	76.12
490.568	77.12
490.786	91.12
491.003	90.12
491.221	81.12
491.439	77.12
491.657	78.12
491.874	85.12
492.092	95.12
492.31	79.12
492.527	86.12
492.745	69.12
492.963	102.12
493.18	84.12
493.398	85.12
493.615	80.12
493.833	94.12
494.05	85.12
494.268	85.12
494.485	72.12
494.703	80.12
494.92	84.12
495.138	89.12
495.355	86.12
495.573	84.12
495.79	87.12
496.008	82.12
496.225	85.12
496.442	75.12
496.66	90.12
496.877	84.12
497.094	88.12
497.312	81.12
497.529	76.12
497.746	89.12
497.963	88.12
498.181	80.12
498.398	81.12
498.615	84.12
498.832	94.12
499.049	84.12
499.267	84.12
499.484	74.12
499.701	81.12
499.918	81.12
500.135	81.12
500.352	86.12
500.569	90.12
500.786	67.12
501.003	70.12
501.22	79.12
501.437	83.12
501.654	83.12
501.871	66.12
502.088	72.12
502.305	93.12
502.522	74.12
502.739	74.12
502.956	74.12
503.172	81.12
503.389	86.12
503.606	80.12
503.823	89.12
504.04	74.12
504.256	74.12
504.473	74.12
504.69	95.12
504.907	84.12
505.123	86.12
505.34	69.12
505.557	80.12
505.773	80.12
505.99	93.12
506.207	86.12
506.423	80.12
506.64	84.12
506.856	79.12
507.073	79.12
507.289	100.12
507.506	83.12
507.722	59.12
507.939	67.12
508.155	66.12
508.372	85.12
508.588	84.12
508.805	90.12
509.021	80.12
509.238	82.12
509.454	68.12
509.67	79.12
509.887	79.12
510.103	83.12
510.319	78.12
510.536	79.12
510.752	93.12
510.968	86.12
511.184	65.12
511.401	102.12
511.617	95.12
511.833	84.12
512.049	87.12
512.265	81.12
512.481	90.12
512.698	76.12
512.914	71.12
513.13	88.12
513.346	86.12
513.562	70.12
513.778	88.12
513.994	76.12
514.21	82.12
514.426	66.12
514.642	96.12
514.858	93.12
515.074	77.12
515.29	90.12
515.506	81.12
515.721	70.12
515.937	69.12
516.153	74.12
516.369	80.12
516.585	75.12
516.801	84.12
517.016	91.12
517.232	80.12
517.448	84.12
517.664	97.12
517.879	78.12
518.095	72.12
518.311	94.12
518.527	74.12
518.742	95.12
518.958	78.12
519.173	75.12
519.389	78.12
519.605	88.12
519.82	84.12
520.036	77.12
