Data from BGNA1_HRD10591_00001.txt Node
Date: Fri Dec 27 14:32:18 EST 2024
User: Yrep
Spectrometer: HR+D1059
Trigger mode: 1
Integration Time (sec): 1.000000E-1
Scans to average: 1
Electric dark correction enabled: true
Nonlinearity correction enabled: false
Boxcar width: 0
XAxis mode: Wavelengths
Number of Pixels in Spectrum: 2048
>>>>>Begin Spectral Data<<<<<
223.165	-25.44
223.4	-25.44
223.635	-25.44
223.869	-13.44
224.104	-21.44
224.338	-6.44
224.573	-21.44
224.808	-11.44
225.042	-14.44
225.277	2.56
225.511	0.56
225.746	1.56
225.98	-0.44
226.215	19.56
226.449	14.56
226.683	10.56
226.918	28.56
227.152	36.56
227.387	27.56
227.621	42.56
227.856	33.56
228.09	34.56
228.324	47.56
228.559	61.56
228.793	64.56
229.027	73.56
229.262	60.56
229.496	85.56
229.73	60.56
229.964	72.56
230.199	75.56
230.433	73.56
230.667	79.56
230.901	96.56
231.136	78.56
231.37	82.56
231.604	87.56
231.838	74.56
232.072	84.56
232.306	89.56
232.541	87.56
232.775	96.56
233.009	82.56
233.243	86.56
233.477	89.56
233.711	88.56
233.945	83.56
234.179	89.56
234.413	89.56
234.647	66.56
234.881	83.56
235.115	84.56
235.349	82.56
235.583	94.56
235.817	77.56
236.051	58.56
236.285	74.56
236.519	77.56
236.753	78.56
236.987	69.56
237.221	90.56
237.455	79.56
237.689	76.56
237.922	77.56
238.156	90.56
238.39	72.56
238.624	81.56
238.858	69.56
239.091	84.56
239.325	87.56
239.559	69.56
239.793	70.56
240.027	87.56
240.26	82.56
240.494	80.56
240.728	82.56
240.961	79.56
241.195	84.56
241.429	84.56
241.662	78.56
241.896	83.56
242.13	79.56
242.363	77.56
242.597	71.56
242.83	77.56
243.064	72.56
243.298	65.56
243.531	78.56
243.765	77.56
243.998	83.56
244.232	81.56
244.465	69.56
244.699	84.56
244.932	71.56
245.166	83.56
245.399	86.56
245.633	77.56
245.866	84.56
246.099	84.56
246.333	86.56
246.566	63.56
246.8	79.56
247.033	88.56
247.266	80.56
247.5	74.56
247.733	80.56
247.966	94.56
248.2	80.56
248.433	94.56
248.666	82.56
248.899	96.56
249.133	92.56
249.366	86.56
249.599	67.56
249.832	87.56
250.066	95.56
250.299	80.56
250.532	81.56
250.765	86.56
250.998	72.56
251.231	74.56
251.465	87.56
251.698	96.56
251.931	68.56
252.164	78.56
252.397	78.56
252.63	83.56
252.863	70.56
253.096	84.56
253.329	75.56
253.562	83.56
253.795	78.56
254.028	97.56
254.261	90.56
254.494	88.56
254.727	84.56
254.96	85.56
255.193	78.56
255.426	75.56
255.659	83.56
255.892	89.56
256.124	81.56
256.357	87.56
256.59	81.56
256.823	82.56
257.056	77.56
257.289	82.56
257.521	92.56
257.754	80.56
257.987	81.56
258.22	79.56
258.452	82.56
258.685	81.56
258.918	79.56
259.151	88.56
259.383	62.56
259.616	85.56
259.849	95.56
260.081	94.56
260.314	96.56
260.547	78.56
260.779	80.56
261.012	87.56
261.244	70.56
261.477	92.56
261.71	84.56
261.942	70.56
262.175	67.56
262.407	91.56
262.64	86.56
262.872	77.56
263.105	81.56
263.337	77.56
263.57	82.56
263.802	85.56
264.035	77.56
264.267	91.56
264.499	89.56
264.732	74.56
264.964	75.56
265.197	89.56
265.429	82.56
265.661	90.56
265.894	84.56
266.126	81.56
266.358	88.56
266.591	74.56
266.823	87.56
267.055	85.56
267.287	82.56
267.52	74.56
267.752	95.56
267.984	96.56
268.216	67.56
268.448	91.56
268.681	80.56
268.913	84.56
269.145	70.56
269.377	87.56
269.609	85.56
269.841	98.56
270.073	84.56
270.306	97.56
270.538	74.56
270.77	76.56
271.002	88.56
271.234	73.56
271.466	82.56
271.698	84.56
271.93	84.56
272.162	82.56
272.394	95.56
272.626	89.56
272.858	77.56
273.09	91.56
273.322	91.56
273.553	74.56
273.785	102.56
274.017	78.56
274.249	69.56
274.481	86.56
274.713	94.56
274.945	98.56
275.176	69.56
275.408	88.56
275.64	82.56
275.872	95.56
276.104	83.56
276.335	83.56
276.567	79.56
276.799	84.56
277.031	84.56
277.262	79.56
277.494	86.56
277.726	86.56
277.957	97.56
278.189	82.56
278.421	73.56
278.652	74.56
278.884	84.56
279.115	84.56
279.347	68.56
279.579	68.56
279.81	71.56
280.042	81.56
280.273	82.56
280.505	88.56
280.736	87.56
280.968	65.56
281.199	83.56
281.431	75.56
281.662	78.56
281.894	88.56
282.125	84.56
282.356	87.56
282.588	66.56
282.819	82.56
283.051	89.56
283.282	76.56
283.513	100.56
283.745	69.56
283.976	91.56
284.207	92.56
284.439	81.56
284.67	94.56
284.901	80.56
285.132	78.56
285.364	83.56
285.595	84.56
285.826	81.56
286.057	80.56
286.288	91.56
286.52	71.56
286.751	76.56
286.982	88.56
287.213	83.56
287.444	80.56
287.675	70.56
287.906	86.56
288.138	86.56
288.369	79.56
288.6	86.56
288.831	92.56
289.062	82.56
289.293	98.56
289.524	83.56
289.755	84.56
289.986	107.56
290.217	85.56
290.448	88.56
290.679	95.56
290.91	93.56
291.141	97.56
291.371	76.56
291.602	66.56
291.833	73.56
292.064	89.56
292.295	78.56
292.526	87.56
292.757	84.56
292.987	84.56
293.218	83.56
293.449	95.56
293.68	78.56
293.91	78.56
294.141	88.56
294.372	88.56
294.603	78.56
294.833	87.56
295.064	94.56
295.295	91.56
295.525	76.56
295.756	67.56
295.987	104.56
296.217	91.56
296.448	89.56
296.679	89.56
296.909	99.56
297.14	98.56
297.37	90.56
297.601	83.56
297.831	73.56
298.062	91.56
298.292	87.56
298.523	90.56
298.753	84.56
298.984	84.56
299.214	90.56
299.445	89.56
299.675	74.56
299.905	73.56
300.136	91.56
300.366	86.56
300.597	102.56
300.827	92.56
301.057	94.56
301.288	94.56
301.518	89.56
301.748	88.56
301.979	102.56
302.209	85.56
302.439	84.56
302.669	74.56
302.9	76.56
303.13	90.56
303.36	90.56
303.59	75.56
303.82	66.56
304.051	90.56
304.281	88.56
304.511	79.56
304.741	89.56
304.971	102.56
305.201	86.56
305.431	89.56
305.661	90.56
305.891	88.56
306.121	78.56
306.352	85.56
306.582	80.56
306.812	70.56
307.042	69.56
307.272	78.56
307.502	86.56
307.731	91.56
307.961	71.56
308.191	67.56
308.421	68.56
308.651	83.56
308.881	91.56
309.111	89.56
309.341	70.56
309.571	66.56
309.8	86.56
310.03	76.56
310.26	74.56
310.49	84.56
310.72	80.56
310.949	70.56
311.179	93.56
311.409	68.56
311.639	75.56
311.868	78.56
312.098	81.56
312.328	82.56
312.557	93.56
312.787	82.56
313.017	87.56
313.246	86.56
313.476	83.56
313.706	90.56
313.935	89.56
314.165	104.56
314.394	89.56
314.624	78.56
314.853	105.56
315.083	84.56
315.312	74.56
315.542	84.56
315.771	74.56
316.001	81.56
316.23	70.56
316.46	91.56
316.689	79.56
316.919	95.56
317.148	96.56
317.377	91.56
317.607	90.56
317.836	80.56
318.065	103.56
318.295	86.56
318.524	84.56
318.753	84.56
318.983	75.56
319.212	87.56
319.441	98.56
319.67	80.56
319.9	83.56
320.129	78.56
320.358	75.56
320.587	83.56
320.816	87.56
321.046	88.56
321.275	96.56
321.504	90.56
321.733	92.56
321.962	81.56
322.191	75.56
322.42	86.56
322.649	88.56
322.878	79.56
323.108	95.56
323.337	83.56
323.566	100.56
323.795	85.56
324.024	81.56
324.253	82.56
324.482	78.56
324.71	74.56
324.939	92.56
325.168	78.56
325.397	73.56
325.626	83.56
325.855	99.56
326.084	69.56
326.313	94.56
326.542	96.56
326.77	72.56
326.999	76.56
327.228	84.56
327.457	79.56
327.686	91.56
327.914	92.56
328.143	71.56
328.372	84.56
328.6	89.56
328.829	80.56
329.058	90.56
329.287	93.56
329.515	71.56
329.744	96.56
329.972	85.56
330.201	86.56
330.43	79.56
330.658	89.56
330.887	90.56
331.115	81.56
331.344	78.56
331.572	85.56
331.801	85.56
332.03	75.56
332.258	84.56
332.486	85.56
332.715	80.56
332.943	81.56
333.172	82.56
333.4	78.56
333.629	71.56
333.857	86.56
334.085	77.56
334.314	92.56
334.542	77.56
334.771	71.56
334.999	72.56
335.227	78.56
335.455	91.56
335.684	92.56
335.912	93.56
336.14	91.56
336.369	78.56
336.597	86.56
336.825	53.56
337.053	87.56
337.281	82.56
337.51	70.56
337.738	90.56
337.966	79.56
338.194	90.56
338.422	79.56
338.65	82.56
338.878	91.56
339.106	95.56
339.334	102.56
339.562	81.56
339.79	89.56
340.018	88.56
340.246	75.56
340.474	92.56
340.702	97.56
340.93	82.56
341.158	87.56
341.386	87.56
341.614	84.56
341.842	89.56
342.07	75.56
342.298	91.56
342.526	83.56
342.754	77.56
342.981	88.56
343.209	71.56
343.437	96.56
343.665	78.56
343.893	70.56
344.12	88.56
344.348	85.56
344.576	95.56
344.804	73.56
345.031	85.56
345.259	102.56
345.487	81.56
345.714	90.56
345.942	77.56
346.17	82.56
346.397	83.56
346.625	100.56
346.853	70.56
347.08	87.56
347.308	75.56
347.535	81.56
347.763	88.56
347.99	91.56
348.218	79.56
348.445	67.56
348.673	81.56
348.9	81.56
349.128	91.56
349.355	71.56
349.583	81.56
349.81	90.56
350.037	80.56
350.265	82.56
350.492	81.56
350.72	91.56
350.947	72.56
351.174	74.56
351.402	89.56
351.629	86.56
351.856	96.56
352.083	73.56
352.311	75.56
352.538	95.56
352.765	85.56
352.992	88.56
353.22	89.56
353.447	70.56
353.674	83.56
353.901	94.56
354.128	91.56
354.355	88.56
354.583	97.56
354.81	68.56
355.037	91.56
355.264	87.56
355.491	74.56
355.718	84.56
355.945	81.56
356.172	95.56
356.399	81.56
356.626	92.56
356.853	91.56
357.08	79.56
357.307	101.56
357.534	85.56
357.761	102.56
357.988	94.56
358.215	81.56
358.441	96.56
358.668	89.56
358.895	91.56
359.122	91.56
359.349	87.56
359.576	89.56
359.802	82.56
360.029	79.56
360.256	99.56
360.483	81.56
360.709	83.56
360.936	87.56
361.163	91.56
361.39	88.56
361.616	88.56
361.843	89.56
362.07	79.56
362.296	86.56
362.523	80.56
362.749	84.56
362.976	89.56
363.203	91.56
363.429	95.56
363.656	85.56
363.882	82.56
364.109	81.56
364.335	83.56
364.562	89.56
364.788	86.56
365.015	90.56
365.241	92.56
365.468	74.56
365.694	69.56
365.92	88.56
366.147	78.56
366.373	87.56
366.599	75.56
366.826	89.56
367.052	88.56
367.278	76.56
367.505	77.56
367.731	85.56
367.957	77.56
368.184	74.56
368.41	80.56
368.636	80.56
368.862	91.56
369.089	95.56
369.315	90.56
369.541	92.56
369.767	70.56
369.993	76.56
370.219	74.56
370.445	83.56
370.672	94.56
370.898	87.56
371.124	102.56
371.35	72.56
371.576	85.56
371.802	82.56
372.028	78.56
372.254	97.56
372.48	87.56
372.706	89.56
372.932	92.56
373.158	82.56
373.384	78.56
373.61	84.56
373.835	88.56
374.061	67.56
374.287	82.56
374.513	84.56
374.739	88.56
374.965	84.56
375.191	92.56
375.416	74.56
375.642	90.56
375.868	88.56
376.094	79.56
376.319	81.56
376.545	87.56
376.771	99.56
376.997	80.56
377.222	69.56
377.448	87.56
377.674	85.56
377.899	70.56
378.125	83.56
378.35	81.56
378.576	78.56
378.802	94.56
379.027	82.56
379.253	85.56
379.478	89.56
379.704	85.56
379.929	79.56
380.155	72.56
380.38	76.56
380.606	83.56
380.831	82.56
381.057	91.56
381.282	75.56
381.507	87.56
381.733	87.56
381.958	81.56
382.184	88.56
382.409	78.56
382.634	89.56
382.86	84.56
383.085	82.56
383.31	79.56
383.535	82.56
383.761	83.56
383.986	81.56
384.211	69.56
384.436	88.56
384.662	89.56
384.887	73.56
385.112	67.56
385.337	81.56
385.562	82.56
385.787	76.56
386.013	83.56
386.238	92.56
386.463	81.56
386.688	84.56
386.913	92.56
387.138	80.56
387.363	72.56
387.588	89.56
387.813	89.56
388.038	83.56
388.263	89.56
388.488	82.56
388.713	78.56
388.938	71.56
389.163	79.56
389.387	82.56
389.612	89.56
389.837	89.56
390.062	78.56
390.287	88.56
390.512	75.56
390.736	80.56
390.961	98.56
391.186	85.56
391.411	65.56
391.636	82.56
391.86	84.56
392.085	90.56
392.31	89.56
392.534	80.56
392.759	68.56
392.984	79.56
393.208	88.56
393.433	87.56
393.658	84.56
393.882	82.56
394.107	85.56
394.331	98.56
394.556	78.56
394.78	90.56
395.005	77.56
395.229	79.56
395.454	79.56
395.678	84.56
395.903	72.56
396.127	82.56
396.352	84.56
396.576	69.56
396.801	84.56
397.025	60.56
397.249	81.56
397.474	80.56
397.698	83.56
397.922	86.56
398.147	84.56
398.371	82.56
398.595	83.56
398.82	86.56
399.044	60.56
399.268	90.56
399.492	77.56
399.717	82.56
399.941	77.56
400.165	90.56
400.389	80.56
400.613	88.56
400.837	69.56
401.062	90.56
401.286	97.56
401.51	75.56
401.734	71.56
401.958	76.56
402.182	94.56
402.406	81.56
402.63	84.56
402.854	91.56
403.078	79.56
403.302	90.56
403.526	78.56
403.75	79.56
403.974	83.56
404.198	60.56
404.422	90.56
404.645	77.56
404.869	85.56
405.093	63.56
405.317	89.56
405.541	87.56
405.765	71.56
405.988	81.56
406.212	87.56
406.436	84.56
406.66	95.56
406.883	87.56
407.107	86.56
407.331	80.56
407.555	83.56
407.778	86.56
408.002	88.56
408.226	73.56
408.449	75.56
408.673	84.56
408.896	92.56
409.12	74.56
409.344	98.56
409.567	84.56
409.791	77.56
410.014	88.56
410.238	62.56
410.461	82.56
410.685	87.56
410.908	87.56
411.132	83.56
411.355	100.56
411.578	78.56
411.802	87.56
412.025	78.56
412.249	82.56
412.472	82.56
412.695	81.56
412.919	89.56
413.142	86.56
413.365	87.56
413.589	84.56
413.812	83.56
414.035	85.56
414.258	89.56
414.482	86.56
414.705	79.56
414.928	75.56
415.151	94.56
415.374	87.56
415.597	77.56
415.821	84.56
416.044	84.56
416.267	81.56
416.49	94.56
416.713	67.56
416.936	76.56
417.159	83.56
417.382	66.56
417.605	86.56
417.828	59.56
418.051	69.56
418.274	74.56
418.497	81.56
418.72	77.56
418.943	80.56
419.166	79.56
419.389	75.56
419.611	82.56
419.834	75.56
420.057	92.56
420.28	89.56
420.503	89.56
420.726	74.56
420.948	75.56
421.171	100.56
421.394	84.56
421.617	90.56
421.839	84.56
422.062	79.56
422.285	92.56
422.507	83.56
422.73	89.56
422.953	76.56
423.175	66.56
423.398	74.56
423.621	79.56
423.843	80.56
424.066	80.56
424.288	82.56
424.511	87.56
424.733	78.56
424.956	79.56
425.178	77.56
425.401	74.56
425.623	85.56
425.846	79.56
426.068	98.56
426.291	71.56
426.513	89.56
426.735	91.56
426.958	82.56
427.18	71.56
427.402	92.56
427.625	82.56
427.847	83.56
428.069	72.56
428.292	78.56
428.514	75.56
428.736	94.56
428.958	76.56
429.181	81.56
429.403	87.56
429.625	79.56
429.847	89.56
430.069	76.56
430.292	78.56
430.514	72.56
430.736	86.56
430.958	86.56
431.18	80.56
431.402	74.56
431.624	91.56
431.846	84.56
432.068	84.56
432.29	80.56
432.512	98.56
432.734	75.56
432.956	75.56
433.178	82.56
433.4	78.56
433.622	78.56
433.844	80.56
434.066	90.56
434.287	83.56
434.509	90.56
434.731	79.56
434.953	79.56
435.175	81.56
435.397	87.56
435.618	86.56
435.84	86.56
436.062	97.56
436.284	84.56
436.505	94.56
436.727	95.56
436.949	83.56
437.17	85.56
437.392	83.56
437.614	69.56
437.835	82.56
438.057	80.56
438.278	90.56
438.5	86.56
438.721	79.56
438.943	80.56
439.165	96.56
439.386	86.56
439.608	69.56
439.829	75.56
440.05	74.56
440.272	85.56
440.493	78.56
440.715	81.56
440.936	81.56
441.158	94.56
441.379	98.56
441.6	67.56
441.822	86.56
442.043	80.56
442.264	73.56
442.486	93.56
442.707	76.56
442.928	71.56
443.149	80.56
443.371	76.56
443.592	68.56
443.813	75.56
444.034	64.56
444.255	76.56
444.476	78.56
444.698	79.56
444.919	82.56
445.14	146.56
445.361	107.56
445.582	80.56
445.803	82.56
446.024	71.56
446.245	103.56
446.466	89.56
446.687	86.56
446.908	99.56
447.129	88.56
447.35	80.56
447.571	71.56
447.792	80.56
448.013	84.56
448.234	81.56
448.455	85.56
448.675	78.56
448.896	90.56
449.117	91.56
449.338	79.56
449.559	98.56
449.779	94.56
450	68.56
450.221	87.56
450.442	80.56
450.662	63.56
450.883	95.56
451.104	78.56
451.324	88.56
451.545	73.56
451.766	90.56
451.986	67.56
452.207	76.56
452.428	80.56
452.648	86.56
452.869	93.56
453.089	72.56
453.31	93.56
453.53	80.56
453.751	69.56
453.971	97.56
454.192	72.56
454.412	73.56
454.633	80.56
454.853	85.56
455.073	71.56
455.294	86.56
455.514	89.56
455.734	82.56
455.955	76.56
456.175	75.56
456.395	74.56
456.616	63.56
456.836	80.56
457.056	95.56
457.276	64.56
457.497	82.56
457.717	84.56
457.937	86.56
458.157	79.56
458.377	82.56
458.598	84.56
458.818	80.56
459.038	87.56
459.258	79.56
459.478	89.56
459.698	83.56
459.918	83.56
460.138	71.56
460.358	68.56
460.578	99.56
460.798	80.56
461.018	82.56
461.238	62.56
461.458	70.56
461.678	70.56
461.898	91.56
462.118	87.56
462.338	82.56
462.558	80.56
462.777	83.56
462.997	89.56
463.217	82.56
463.437	84.56
463.657	103.56
463.876	84.56
464.096	75.56
464.316	90.56
464.536	78.56
464.755	90.56
464.975	87.56
465.195	86.56
465.414	78.56
465.634	81.56
465.854	72.56
466.073	82.56
466.293	85.56
466.512	80.56
466.732	80.56
466.951	90.56
467.171	93.56
467.391	80.56
467.61	71.56
467.829	90.56
468.049	89.56
468.268	82.56
468.488	79.56
468.707	83.56
468.927	69.56
469.146	71.56
469.365	97.56
469.585	68.56
469.804	74.56
470.023	79.56
470.243	75.56
470.462	86.56
470.681	77.56
470.901	72.56
471.12	82.56
471.339	71.56
471.558	86.56
471.777	94.56
471.997	79.56
472.216	81.56
472.435	86.56
472.654	88.56
472.873	78.56
473.092	81.56
473.311	80.56
473.53	80.56
473.749	79.56
473.968	84.56
474.187	87.56
474.406	80.56
474.625	95.56
474.844	78.56
475.063	81.56
475.282	80.56
475.501	77.56
475.72	97.56
475.939	84.56
476.158	88.56
476.377	77.56
476.596	91.56
476.814	76.56
477.033	73.56
477.252	82.56
477.471	75.56
477.69	84.56
477.908	84.56
478.127	88.56
478.346	91.56
478.564	81.56
478.783	69.56
479.002	83.56
479.22	80.56
479.439	78.56
479.658	82.56
479.876	90.56
480.095	71.56
480.313	80.56
480.532	78.56
480.751	87.56
480.969	73.56
481.188	78.56
481.406	75.56
481.624	79.56
481.843	80.56
482.061	82.56
482.28	78.56
482.498	89.56
482.717	74.56
482.935	65.56
483.153	86.56
483.372	80.56
483.59	80.56
483.808	79.56
484.027	94.56
484.245	86.56
484.463	81.56
484.681	88.56
484.9	80.56
485.118	94.56
485.336	75.56
485.554	85.56
485.772	81.56
485.99	97.56
486.209	94.56
486.427	90.56
486.645	83.56
486.863	90.56
487.081	79.56
487.299	86.56
487.517	82.56
487.735	75.56
487.953	74.56
488.171	95.56
488.389	84.56
488.607	78.56
488.825	75.56
489.043	86.56
489.261	98.56
489.479	87.56
489.696	88.56
489.914	80.56
490.132	68.56
490.35	96.56
490.568	78.56
490.786	86.56
491.003	94.56
491.221	79.56
491.439	84.56
491.657	81.56
491.874	97.56
492.092	95.56
492.31	70.56
492.527	76.56
492.745	93.56
492.963	86.56
493.18	83.56
493.398	87.56
493.615	98.56
493.833	88.56
494.05	66.56
494.268	75.56
494.485	75.56
494.703	88.56
494.92	88.56
495.138	88.56
495.355	87.56
495.573	103.56
495.79	88.56
496.008	96.56
496.225	100.56
496.442	82.56
496.66	87.56
496.877	88.56
497.094	79.56
497.312	83.56
497.529	84.56
497.746	78.56
497.963	64.56
498.181	86.56
498.398	81.56
498.615	87.56
498.832	86.56
499.049	87.56
499.267	83.56
499.484	98.56
499.701	87.56
499.918	88.56
500.135	94.56
500.352	91.56
500.569	80.56
500.786	88.56
501.003	83.56
501.22	75.56
501.437	87.56
501.654	74.56
501.871	89.56
502.088	82.56
502.305	95.56
502.522	87.56
502.739	94.56
502.956	82.56
503.172	88.56
503.389	95.56
503.606	62.56
503.823	77.56
504.04	81.56
504.256	79.56
504.473	80.56
504.69	89.56
504.907	89.56
505.123	79.56
505.34	82.56
505.557	88.56
505.773	85.56
505.99	86.56
506.207	76.56
506.423	83.56
506.64	68.56
506.856	85.56
507.073	102.56
507.289	91.56
507.506	83.56
507.722	93.56
507.939	91.56
508.155	64.56
508.372	79.56
508.588	91.56
508.805	89.56
509.021	85.56
509.238	92.56
509.454	97.56
509.67	75.56
509.887	85.56
510.103	76.56
510.319	83.56
510.536	75.56
510.752	95.56
510.968	84.56
511.184	78.56
511.401	91.56
511.617	93.56
511.833	83.56
512.049	84.56
512.265	78.56
512.481	86.56
512.698	81.56
512.914	88.56
513.13	78.56
513.346	89.56
513.562	74.56
513.778	86.56
513.994	95.56
514.21	98.56
514.426	75.56
514.642	88.56
514.858	84.56
515.074	97.56
515.29	91.56
515.506	101.56
515.721	77.56
515.937	87.56
516.153	77.56
516.369	70.56
516.585	84.56
516.801	102.56
517.016	78.56
517.232	72.56
517.448	81.56
517.664	82.56
517.879	83.56
518.095	73.56
518.311	74.56
518.527	85.56
518.742	75.56
518.958	79.56
519.173	81.56
519.389	78.56
519.605	83.56
519.82	93.56
520.036	81.56
