Data from BGNA1_HRD10591_00008.txt Node
Date: Fri Dec 27 14:32:25 EST 2024
User: Yrep
Spectrometer: HR+D1059
Trigger mode: 1
Integration Time (sec): 1.000000E-1
Scans to average: 1
Electric dark correction enabled: true
Nonlinearity correction enabled: false
Boxcar width: 0
XAxis mode: Wavelengths
Number of Pixels in Spectrum: 2048
>>>>>Begin Spectral Data<<<<<
223.165	-27.31
223.4	-27.31
223.635	-27.31
223.869	-21.31
224.104	-17.31
224.338	-8.31
224.573	-28.31
224.808	-7.31
225.042	-3.31
225.277	-4.31
225.511	-11.31
225.746	-6.31
225.98	17.69
226.215	15.69
226.449	9.69
226.683	18.69
226.918	33.69
227.152	39.69
227.387	25.69
227.621	38.69
227.856	41.69
228.09	41.69
228.324	31.69
228.559	54.69
228.793	57.69
229.027	65.69
229.262	63.69
229.496	68.69
229.73	75.69
229.964	75.69
230.199	79.69
230.433	69.69
230.667	64.69
230.901	78.69
231.136	69.69
231.37	81.69
231.604	80.69
231.838	82.69
232.072	96.69
232.306	96.69
232.541	81.69
232.775	90.69
233.009	89.69
233.243	80.69
233.477	78.69
233.711	79.69
233.945	81.69
234.179	76.69
234.413	68.69
234.647	80.69
234.881	79.69
235.115	63.69
235.349	92.69
235.583	66.69
235.817	88.69
236.051	79.69
236.285	65.69
236.519	64.69
236.753	75.69
236.987	95.69
237.221	70.69
237.455	69.69
237.689	69.69
237.922	73.69
238.156	84.69
238.39	81.69
238.624	72.69
238.858	58.69
239.091	71.69
239.325	76.69
239.559	72.69
239.793	70.69
240.027	79.69
240.26	75.69
240.494	72.69
240.728	73.69
240.961	68.69
241.195	90.69
241.429	73.69
241.662	58.69
241.896	64.69
242.13	84.69
242.363	73.69
242.597	81.69
242.83	81.69
243.064	83.69
243.298	76.69
243.531	78.69
243.765	75.69
243.998	89.69
244.232	75.69
244.465	80.69
244.699	84.69
244.932	72.69
245.166	75.69
245.399	79.69
245.633	70.69
245.866	72.69
246.099	72.69
246.333	79.69
246.566	82.69
246.8	70.69
247.033	72.69
247.266	77.69
247.5	70.69
247.733	73.69
247.966	84.69
248.2	69.69
248.433	69.69
248.666	81.69
248.899	80.69
249.133	76.69
249.366	71.69
249.599	88.69
249.832	70.69
250.066	88.69
250.299	72.69
250.532	66.69
250.765	82.69
250.998	79.69
251.231	72.69
251.465	75.69
251.698	72.69
251.931	95.69
252.164	92.69
252.397	91.69
252.63	76.69
252.863	88.69
253.096	75.69
253.329	80.69
253.562	77.69
253.795	77.69
254.028	74.69
254.261	71.69
254.494	69.69
254.727	82.69
254.96	74.69
255.193	74.69
255.426	80.69
255.659	78.69
255.892	86.69
256.124	64.69
256.357	86.69
256.59	84.69
256.823	86.69
257.056	94.69
257.289	91.69
257.521	80.69
257.754	78.69
257.987	89.69
258.22	94.69
258.452	83.69
258.685	83.69
258.918	74.69
259.151	91.69
259.383	87.69
259.616	75.69
259.849	67.69
260.081	78.69
260.314	72.69
260.547	78.69
260.779	76.69
261.012	72.69
261.244	75.69
261.477	103.69
261.71	84.69
261.942	79.69
262.175	73.69
262.407	83.69
262.64	74.69
262.872	88.69
263.105	72.69
263.337	92.69
263.57	82.69
263.802	97.69
264.035	87.69
264.267	74.69
264.499	89.69
264.732	69.69
264.964	70.69
265.197	67.69
265.429	81.69
265.661	84.69
265.894	93.69
266.126	74.69
266.358	94.69
266.591	82.69
266.823	94.69
267.055	80.69
267.287	83.69
267.52	81.69
267.752	81.69
267.984	74.69
268.216	71.69
268.448	76.69
268.681	83.69
268.913	84.69
269.145	83.69
269.377	78.69
269.609	86.69
269.841	94.69
270.073	82.69
270.306	71.69
270.538	74.69
270.77	81.69
271.002	86.69
271.234	83.69
271.466	89.69
271.698	95.69
271.93	89.69
272.162	84.69
272.394	82.69
272.626	82.69
272.858	83.69
273.09	82.69
273.322	80.69
273.553	84.69
273.785	99.69
274.017	75.69
274.249	70.69
274.481	72.69
274.713	77.69
274.945	78.69
275.176	85.69
275.408	104.69
275.64	94.69
275.872	99.69
276.104	87.69
276.335	88.69
276.567	91.69
276.799	98.69
277.031	74.69
277.262	84.69
277.494	79.69
277.726	81.69
277.957	83.69
278.189	72.69
278.421	82.69
278.652	76.69
278.884	96.69
279.115	103.69
279.347	81.69
279.579	76.69
279.81	100.69
280.042	91.69
280.273	89.69
280.505	84.69
280.736	85.69
280.968	80.69
281.199	88.69
281.431	74.69
281.662	87.69
281.894	85.69
282.125	97.69
282.356	83.69
282.588	91.69
282.819	88.69
283.051	87.69
283.282	91.69
283.513	78.69
283.745	95.69
283.976	76.69
284.207	85.69
284.439	83.69
284.67	87.69
284.901	74.69
285.132	81.69
285.364	88.69
285.595	81.69
285.826	76.69
286.057	74.69
286.288	94.69
286.52	73.69
286.751	73.69
286.982	95.69
287.213	76.69
287.444	78.69
287.675	92.69
287.906	86.69
288.138	84.69
288.369	70.69
288.6	89.69
288.831	83.69
289.062	87.69
289.293	88.69
289.524	80.69
289.755	84.69
289.986	93.69
290.217	90.69
290.448	79.69
290.679	84.69
290.91	101.69
291.141	80.69
291.371	74.69
291.602	72.69
291.833	70.69
292.064	95.69
292.295	88.69
292.526	86.69
292.757	90.69
292.987	91.69
293.218	80.69
293.449	79.69
293.68	94.69
293.91	76.69
294.141	92.69
294.372	90.69
294.603	84.69
294.833	85.69
295.064	88.69
295.295	95.69
295.525	94.69
295.756	79.69
295.987	83.69
296.217	77.69
296.448	80.69
296.679	87.69
296.909	87.69
297.14	90.69
297.37	75.69
297.601	92.69
297.831	92.69
298.062	96.69
298.292	91.69
298.523	86.69
298.753	92.69
298.984	76.69
299.214	67.69
299.445	81.69
299.675	96.69
299.905	86.69
300.136	86.69
300.366	84.69
300.597	86.69
300.827	79.69
301.057	84.69
301.288	97.69
301.518	78.69
301.748	81.69
301.979	105.69
302.209	74.69
302.439	79.69
302.669	83.69
302.9	82.69
303.13	87.69
303.36	76.69
303.59	102.69
303.82	83.69
304.051	81.69
304.281	92.69
304.511	85.69
304.741	72.69
304.971	81.69
305.201	82.69
305.431	72.69
305.661	75.69
305.891	82.69
306.121	81.69
306.352	87.69
306.582	80.69
306.812	85.69
307.042	95.69
307.272	91.69
307.502	96.69
307.731	82.69
307.961	96.69
308.191	72.69
308.421	98.69
308.651	91.69
308.881	87.69
309.111	94.69
309.341	74.69
309.571	85.69
309.8	80.69
310.03	94.69
310.26	80.69
310.49	90.69
310.72	95.69
310.949	81.69
311.179	86.69
311.409	75.69
311.639	69.69
311.868	90.69
312.098	84.69
312.328	95.69
312.557	88.69
312.787	82.69
313.017	99.69
313.246	81.69
313.476	93.69
313.706	77.69
313.935	76.69
314.165	90.69
314.394	96.69
314.624	84.69
314.853	84.69
315.083	87.69
315.312	77.69
315.542	83.69
315.771	97.69
316.001	79.69
316.23	88.69
316.46	85.69
316.689	92.69
316.919	87.69
317.148	88.69
317.377	97.69
317.607	100.69
317.836	88.69
318.065	63.69
318.295	81.69
318.524	85.69
318.753	86.69
318.983	82.69
319.212	81.69
319.441	86.69
319.67	76.69
319.9	83.69
320.129	75.69
320.358	71.69
320.587	83.69
320.816	82.69
321.046	83.69
321.275	80.69
321.504	87.69
321.733	99.69
321.962	78.69
322.191	92.69
322.42	94.69
322.649	87.69
322.878	87.69
323.108	95.69
323.337	96.69
323.566	70.69
323.795	75.69
324.024	89.69
324.253	86.69
324.482	70.69
324.71	67.69
324.939	72.69
325.168	70.69
325.397	74.69
325.626	91.69
325.855	83.69
326.084	71.69
326.313	87.69
326.542	79.69
326.77	101.69
326.999	78.69
327.228	82.69
327.457	86.69
327.686	97.69
327.914	84.69
328.143	87.69
328.372	86.69
328.6	82.69
328.829	77.69
329.058	92.69
329.287	85.69
329.515	71.69
329.744	89.69
329.972	77.69
330.201	91.69
330.43	95.69
330.658	72.69
330.887	85.69
331.115	83.69
331.344	75.69
331.572	84.69
331.801	87.69
332.03	86.69
332.258	80.69
332.486	84.69
332.715	91.69
332.943	90.69
333.172	92.69
333.4	83.69
333.629	92.69
333.857	76.69
334.085	98.69
334.314	74.69
334.542	88.69
334.771	84.69
334.999	88.69
335.227	80.69
335.455	75.69
335.684	83.69
335.912	80.69
336.14	75.69
336.369	79.69
336.597	82.69
336.825	89.69
337.053	75.69
337.281	94.69
337.51	73.69
337.738	82.69
337.966	64.69
338.194	65.69
338.422	87.69
338.65	87.69
338.878	82.69
339.106	101.69
339.334	84.69
339.562	73.69
339.79	81.69
340.018	83.69
340.246	98.69
340.474	83.69
340.702	98.69
340.93	96.69
341.158	88.69
341.386	91.69
341.614	84.69
341.842	74.69
342.07	75.69
342.298	86.69
342.526	82.69
342.754	83.69
342.981	79.69
343.209	70.69
343.437	88.69
343.665	72.69
343.893	92.69
344.12	83.69
344.348	88.69
344.576	95.69
344.804	76.69
345.031	90.69
345.259	79.69
345.487	87.69
345.714	89.69
345.942	87.69
346.17	85.69
346.397	88.69
346.625	103.69
346.853	87.69
347.08	90.69
347.308	87.69
347.535	90.69
347.763	79.69
347.99	83.69
348.218	86.69
348.445	81.69
348.673	86.69
348.9	89.69
349.128	82.69
349.355	90.69
349.583	81.69
349.81	76.69
350.037	77.69
350.265	84.69
350.492	80.69
350.72	71.69
350.947	96.69
351.174	87.69
351.402	81.69
351.629	89.69
351.856	80.69
352.083	81.69
352.311	88.69
352.538	53.69
352.765	81.69
352.992	96.69
353.22	102.69
353.447	82.69
353.674	83.69
353.901	70.69
354.128	85.69
354.355	80.69
354.583	83.69
354.81	74.69
355.037	85.69
355.264	76.69
355.491	82.69
355.718	77.69
355.945	87.69
356.172	88.69
356.399	82.69
356.626	90.69
356.853	90.69
357.08	98.69
357.307	88.69
357.534	80.69
357.761	75.69
357.988	90.69
358.215	96.69
358.441	97.69
358.668	80.69
358.895	83.69
359.122	77.69
359.349	82.69
359.576	79.69
359.802	79.69
360.029	91.69
360.256	78.69
360.483	74.69
360.709	91.69
360.936	101.69
361.163	80.69
361.39	90.69
361.616	91.69
361.843	79.69
362.07	88.69
362.296	93.69
362.523	88.69
362.749	82.69
362.976	98.69
363.203	107.69
363.429	80.69
363.656	82.69
363.882	81.69
364.109	87.69
364.335	90.69
364.562	78.69
364.788	95.69
365.015	87.69
365.241	83.69
365.468	84.69
365.694	88.69
365.92	83.69
366.147	77.69
366.373	85.69
366.599	92.69
366.826	77.69
367.052	94.69
367.278	76.69
367.505	85.69
367.731	77.69
367.957	88.69
368.184	90.69
368.41	96.69
368.636	86.69
368.862	81.69
369.089	88.69
369.315	76.69
369.541	76.69
369.767	77.69
369.993	83.69
370.219	91.69
370.445	93.69
370.672	84.69
370.898	100.69
371.124	70.69
371.35	87.69
371.576	78.69
371.802	86.69
372.028	82.69
372.254	100.69
372.48	78.69
372.706	90.69
372.932	91.69
373.158	81.69
373.384	97.69
373.61	74.69
373.835	98.69
374.061	71.69
374.287	82.69
374.513	75.69
374.739	89.69
374.965	82.69
375.191	84.69
375.416	82.69
375.642	72.69
375.868	97.69
376.094	86.69
376.319	96.69
376.545	96.69
376.771	78.69
376.997	88.69
377.222	69.69
377.448	81.69
377.674	77.69
377.899	68.69
378.125	81.69
378.35	92.69
378.576	99.69
378.802	82.69
379.027	91.69
379.253	71.69
379.478	81.69
379.704	87.69
379.929	82.69
380.155	88.69
380.38	78.69
380.606	79.69
380.831	81.69
381.057	88.69
381.282	71.69
381.507	89.69
381.733	94.69
381.958	81.69
382.184	84.69
382.409	93.69
382.634	84.69
382.86	72.69
383.085	78.69
383.31	89.69
383.535	99.69
383.761	95.69
383.986	74.69
384.211	78.69
384.436	75.69
384.662	75.69
384.887	91.69
385.112	79.69
385.337	94.69
385.562	88.69
385.787	80.69
386.013	89.69
386.238	71.69
386.463	80.69
386.688	81.69
386.913	88.69
387.138	81.69
387.363	70.69
387.588	103.69
387.813	76.69
388.038	87.69
388.263	71.69
388.488	74.69
388.713	95.69
388.938	96.69
389.163	82.69
389.387	87.69
389.612	80.69
389.837	106.69
390.062	84.69
390.287	83.69
390.512	86.69
390.736	75.69
390.961	72.69
391.186	74.69
391.411	86.69
391.636	87.69
391.86	82.69
392.085	86.69
392.31	72.69
392.534	85.69
392.759	88.69
392.984	81.69
393.208	69.69
393.433	74.69
393.658	85.69
393.882	77.69
394.107	90.69
394.331	100.69
394.556	86.69
394.78	96.69
395.005	91.69
395.229	77.69
395.454	84.69
395.678	94.69
395.903	83.69
396.127	91.69
396.352	74.69
396.576	75.69
396.801	75.69
397.025	74.69
397.249	84.69
397.474	83.69
397.698	88.69
397.922	70.69
398.147	94.69
398.371	68.69
398.595	72.69
398.82	79.69
399.044	80.69
399.268	76.69
399.492	75.69
399.717	64.69
399.941	85.69
400.165	84.69
400.389	84.69
400.613	67.69
400.837	85.69
401.062	94.69
401.286	80.69
401.51	78.69
401.734	83.69
401.958	88.69
402.182	68.69
402.406	84.69
402.63	87.69
402.854	78.69
403.078	89.69
403.302	100.69
403.526	75.69
403.75	65.69
403.974	92.69
404.198	77.69
404.422	73.69
404.645	83.69
404.869	62.69
405.093	83.69
405.317	75.69
405.541	81.69
405.765	67.69
405.988	88.69
406.212	75.69
406.436	74.69
406.66	65.69
406.883	89.69
407.107	88.69
407.331	87.69
407.555	93.69
407.778	78.69
408.002	86.69
408.226	86.69
408.449	83.69
408.673	75.69
408.896	78.69
409.12	96.69
409.344	94.69
409.567	87.69
409.791	82.69
410.014	96.69
410.238	77.69
410.461	74.69
410.685	78.69
410.908	91.69
411.132	94.69
411.355	83.69
411.578	66.69
411.802	74.69
412.025	81.69
412.249	80.69
412.472	82.69
412.695	75.69
412.919	99.69
413.142	86.69
413.365	68.69
413.589	84.69
413.812	90.69
414.035	81.69
414.258	68.69
414.482	80.69
414.705	73.69
414.928	78.69
415.151	75.69
415.374	75.69
415.597	85.69
415.821	84.69
416.044	84.69
416.267	80.69
416.49	71.69
416.713	77.69
416.936	94.69
417.159	86.69
417.382	83.69
417.605	82.69
417.828	97.69
418.051	81.69
418.274	83.69
418.497	75.69
418.72	79.69
418.943	84.69
419.166	81.69
419.389	89.69
419.611	76.69
419.834	73.69
420.057	83.69
420.28	77.69
420.503	76.69
420.726	82.69
420.948	101.69
421.171	90.69
421.394	82.69
421.617	81.69
421.839	84.69
422.062	72.69
422.285	74.69
422.507	78.69
422.73	86.69
422.953	94.69
423.175	78.69
423.398	73.69
423.621	76.69
423.843	91.69
424.066	80.69
424.288	82.69
424.511	84.69
424.733	77.69
424.956	71.69
425.178	94.69
425.401	94.69
425.623	82.69
425.846	80.69
426.068	76.69
426.291	79.69
426.513	100.69
426.735	78.69
426.958	82.69
427.18	63.69
427.402	81.69
427.625	85.69
427.847	76.69
428.069	87.69
428.292	87.69
428.514	93.69
428.736	88.69
428.958	80.69
429.181	78.69
429.403	84.69
429.625	82.69
429.847	75.69
430.069	99.69
430.292	95.69
430.514	87.69
430.736	71.69
430.958	78.69
431.18	103.69
431.402	95.69
431.624	87.69
431.846	74.69
432.068	82.69
432.29	76.69
432.512	88.69
432.734	83.69
432.956	86.69
433.178	89.69
433.4	76.69
433.622	90.69
433.844	79.69
434.066	74.69
434.287	77.69
434.509	76.69
434.731	72.69
434.953	73.69
435.175	71.69
435.397	83.69
435.618	99.69
435.84	87.69
436.062	86.69
436.284	87.69
436.505	79.69
436.727	84.69
436.949	88.69
437.17	75.69
437.392	81.69
437.614	82.69
437.835	78.69
438.057	91.69
438.278	75.69
438.5	76.69
438.721	90.69
438.943	82.69
439.165	79.69
439.386	73.69
439.608	78.69
439.829	84.69
440.05	76.69
440.272	84.69
440.493	89.69
440.715	79.69
440.936	76.69
441.158	90.69
441.379	92.69
441.6	82.69
441.822	73.69
442.043	73.69
442.264	86.69
442.486	92.69
442.707	74.69
442.928	87.69
443.149	70.69
443.371	88.69
443.592	86.69
443.813	69.69
444.034	81.69
444.255	99.69
444.476	72.69
444.698	80.69
444.919	88.69
445.14	151.69
445.361	112.69
445.582	86.69
445.803	89.69
446.024	82.69
446.245	86.69
446.466	71.69
446.687	70.69
446.908	97.69
447.129	83.69
447.35	84.69
447.571	80.69
447.792	82.69
448.013	74.69
448.234	97.69
448.455	85.69
448.675	71.69
448.896	69.69
449.117	66.69
449.338	96.69
449.559	81.69
449.779	83.69
450	87.69
450.221	70.69
450.442	76.69
450.662	84.69
450.883	89.69
451.104	75.69
451.324	82.69
451.545	78.69
451.766	77.69
451.986	78.69
452.207	79.69
452.428	86.69
452.648	83.69
452.869	90.69
453.089	90.69
453.31	87.69
453.53	82.69
453.751	81.69
453.971	91.69
454.192	86.69
454.412	82.69
454.633	82.69
454.853	78.69
455.073	81.69
455.294	78.69
455.514	96.69
455.734	76.69
455.955	78.69
456.175	83.69
456.395	102.69
456.616	90.69
456.836	75.69
457.056	79.69
457.276	91.69
457.497	77.69
457.717	83.69
457.937	80.69
458.157	77.69
458.377	76.69
458.598	67.69
458.818	84.69
459.038	90.69
459.258	95.69
459.478	75.69
459.698	68.69
459.918	98.69
460.138	69.69
460.358	77.69
460.578	93.69
460.798	80.69
461.018	84.69
461.238	77.69
461.458	81.69
461.678	70.69
461.898	86.69
462.118	82.69
462.338	89.69
462.558	72.69
462.777	74.69
462.997	83.69
463.217	77.69
463.437	86.69
463.657	75.69
463.876	68.69
464.096	80.69
464.316	86.69
464.536	91.69
464.755	81.69
464.975	78.69
465.195	85.69
465.414	83.69
465.634	83.69
465.854	95.69
466.073	78.69
466.293	102.69
466.512	73.69
466.732	91.69
466.951	88.69
467.171	72.69
467.391	93.69
467.61	95.69
467.829	95.69
468.049	83.69
468.268	81.69
468.488	82.69
468.707	75.69
468.927	70.69
469.146	80.69
469.365	82.69
469.585	86.69
469.804	82.69
470.023	81.69
470.243	81.69
470.462	95.69
470.681	72.69
470.901	71.69
471.12	68.69
471.339	80.69
471.558	83.69
471.777	84.69
471.997	86.69
472.216	94.69
472.435	78.69
472.654	72.69
472.873	83.69
473.092	70.69
473.311	82.69
473.53	76.69
473.749	81.69
473.968	85.69
474.187	105.69
474.406	92.69
474.625	87.69
474.844	72.69
475.063	85.69
475.282	94.69
475.501	90.69
475.72	90.69
475.939	84.69
476.158	83.69
476.377	86.69
476.596	84.69
476.814	77.69
477.033	94.69
477.252	96.69
477.471	75.69
477.69	81.69
477.908	68.69
478.127	97.69
478.346	99.69
478.564	93.69
478.783	88.69
479.002	75.69
479.22	79.69
479.439	74.69
479.658	78.69
479.876	74.69
480.095	76.69
480.313	96.69
480.532	90.69
480.751	90.69
480.969	91.69
481.188	86.69
481.406	77.69
481.624	79.69
481.843	75.69
482.061	82.69
482.28	84.69
482.498	88.69
482.717	78.69
482.935	100.69
483.153	87.69
483.372	78.69
483.59	82.69
483.808	94.69
484.027	70.69
484.245	90.69
484.463	69.69
484.681	89.69
484.9	88.69
485.118	83.69
485.336	73.69
485.554	82.69
485.772	80.69
485.99	86.69
486.209	78.69
486.427	77.69
486.645	82.69
486.863	94.69
487.081	95.69
487.299	88.69
487.517	76.69
487.735	95.69
487.953	73.69
488.171	88.69
488.389	85.69
488.607	102.69
488.825	80.69
489.043	87.69
489.261	74.69
489.479	73.69
489.696	88.69
489.914	89.69
490.132	81.69
490.35	75.69
490.568	78.69
490.786	85.69
491.003	87.69
491.221	92.69
491.439	96.69
491.657	81.69
491.874	86.69
492.092	97.69
492.31	86.69
492.527	78.69
492.745	73.69
492.963	74.69
493.18	89.69
493.398	83.69
493.615	75.69
493.833	83.69
494.05	70.69
494.268	89.69
494.485	82.69
494.703	78.69
494.92	89.69
495.138	98.69
495.355	97.69
495.573	87.69
495.79	83.69
496.008	76.69
496.225	90.69
496.442	80.69
496.66	90.69
496.877	87.69
497.094	85.69
497.312	77.69
497.529	77.69
497.746	72.69
497.963	78.69
498.181	87.69
498.398	78.69
498.615	84.69
498.832	82.69
499.049	88.69
499.267	87.69
499.484	81.69
499.701	79.69
499.918	89.69
500.135	71.69
500.352	75.69
500.569	79.69
500.786	84.69
501.003	87.69
501.22	83.69
501.437	94.69
501.654	90.69
501.871	73.69
502.088	81.69
502.305	83.69
502.522	77.69
502.739	76.69
502.956	85.69
503.172	94.69
503.389	91.69
503.606	82.69
503.823	75.69
504.04	102.69
504.256	76.69
504.473	69.69
504.69	95.69
504.907	100.69
505.123	100.69
505.34	81.69
505.557	95.69
505.773	99.69
505.99	81.69
506.207	95.69
506.423	82.69
506.64	106.69
506.856	74.69
507.073	95.69
507.289	100.69
507.506	78.69
507.722	86.69
507.939	86.69
508.155	70.69
508.372	77.69
508.588	87.69
508.805	87.69
509.021	76.69
509.238	92.69
509.454	72.69
509.67	83.69
509.887	87.69
510.103	80.69
510.319	101.69
510.536	91.69
510.752	82.69
510.968	94.69
511.184	95.69
511.401	78.69
511.617	100.69
511.833	75.69
512.049	81.69
512.265	78.69
512.481	91.69
512.698	89.69
512.914	91.69
513.13	107.69
513.346	80.69
513.562	72.69
513.778	82.69
513.994	95.69
514.21	83.69
514.426	85.69
514.642	85.69
514.858	93.69
515.074	70.69
515.29	85.69
515.506	97.69
515.721	88.69
515.937	81.69
516.153	85.69
516.369	99.69
516.585	83.69
516.801	83.69
517.016	94.69
517.232	82.69
517.448	79.69
517.664	77.69
517.879	92.69
518.095	71.69
518.311	82.69
518.527	86.69
518.742	75.69
518.958	96.69
519.173	92.69
519.389	91.69
519.605	81.69
519.82	96.69
