Data from BGNA1_HRD10591_00020.txt Node
Date: Fri Dec 27 14:32:37 EST 2024
User: Yrep
Spectrometer: HR+D1059
Trigger mode: 1
Integration Time (sec): 1.000000E-1
Scans to average: 1
Electric dark correction enabled: true
Nonlinearity correction enabled: false
Boxcar width: 0
XAxis mode: Wavelengths
Number of Pixels in Spectrum: 2048
>>>>>Begin Spectral Data<<<<<
223.165	-13
223.4	-13
223.635	-13
223.869	-2
224.104	-28
224.338	-22
224.573	-15
224.808	-26
225.042	-9
225.277	9
225.511	5
225.746	-5
225.98	16
226.215	12
226.449	15
226.683	5
226.918	29
227.152	29
227.387	38
227.621	34
227.856	41
228.09	52
228.324	54
228.559	65
228.793	66
229.027	67
229.262	71
229.496	62
229.73	79
229.964	72
230.199	65
230.433	89
230.667	80
230.901	69
231.136	80
231.37	95
231.604	81
231.838	75
232.072	81
232.306	69
232.541	67
232.775	87
233.009	89
233.243	88
233.477	88
233.711	92
233.945	81
234.179	91
234.413	75
234.647	98
234.881	73
235.115	84
235.349	81
235.583	72
235.817	77
236.051	81
236.285	72
236.519	85
236.753	80
236.987	84
237.221	83
237.455	74
237.689	79
237.922	87
238.156	73
238.39	80
238.624	81
238.858	84
239.091	66
239.325	81
239.559	90
239.793	71
240.027	83
240.26	74
240.494	71
240.728	67
240.961	83
241.195	92
241.429	91
241.662	86
241.896	69
242.13	86
242.363	93
242.597	84
242.83	90
243.064	76
243.298	71
243.531	84
243.765	80
243.998	83
244.232	69
244.465	76
244.699	83
244.932	78
245.166	99
245.399	85
245.633	98
245.866	87
246.099	95
246.333	77
246.566	79
246.8	81
247.033	100
247.266	70
247.5	75
247.733	79
247.966	74
248.2	88
248.433	76
248.666	86
248.899	85
249.133	79
249.366	91
249.599	91
249.832	91
250.066	77
250.299	87
250.532	87
250.765	66
250.998	84
251.231	76
251.465	74
251.698	85
251.931	91
252.164	76
252.397	86
252.63	91
252.863	99
253.096	88
253.329	66
253.562	79
253.795	87
254.028	78
254.261	76
254.494	84
254.727	82
254.96	79
255.193	88
255.426	66
255.659	73
255.892	80
256.124	75
256.357	70
256.59	65
256.823	70
257.056	78
257.289	95
257.521	78
257.754	87
257.987	88
258.22	80
258.452	87
258.685	71
258.918	92
259.151	75
259.383	83
259.616	80
259.849	81
260.081	94
260.314	72
260.547	73
260.779	79
261.012	76
261.244	77
261.477	86
261.71	65
261.942	90
262.175	85
262.407	79
262.64	76
262.872	95
263.105	73
263.337	70
263.57	89
263.802	86
264.035	88
264.267	97
264.499	79
264.732	99
264.964	70
265.197	87
265.429	93
265.661	95
265.894	87
266.126	85
266.358	90
266.591	94
266.823	87
267.055	75
267.287	79
267.52	92
267.752	105
267.984	90
268.216	93
268.448	82
268.681	88
268.913	88
269.145	91
269.377	84
269.609	91
269.841	95
270.073	94
270.306	83
270.538	97
270.77	80
271.002	79
271.234	92
271.466	81
271.698	84
271.93	92
272.162	74
272.394	94
272.626	75
272.858	79
273.09	84
273.322	93
273.553	86
273.785	85
274.017	92
274.249	86
274.481	84
274.713	99
274.945	77
275.176	81
275.408	92
275.64	91
275.872	66
276.104	83
276.335	86
276.567	99
276.799	97
277.031	83
277.262	71
277.494	81
277.726	79
277.957	90
278.189	80
278.421	85
278.652	99
278.884	80
279.115	86
279.347	76
279.579	75
279.81	75
280.042	90
280.273	82
280.505	84
280.736	85
280.968	85
281.199	86
281.431	79
281.662	93
281.894	83
282.125	85
282.356	92
282.588	87
282.819	81
283.051	78
283.282	75
283.513	84
283.745	81
283.976	74
284.207	100
284.439	99
284.67	96
284.901	90
285.132	80
285.364	73
285.595	89
285.826	73
286.057	84
286.288	91
286.52	91
286.751	76
286.982	86
287.213	82
287.444	83
287.675	86
287.906	95
288.138	68
288.369	94
288.6	79
288.831	97
289.062	82
289.293	92
289.524	95
289.755	79
289.986	75
290.217	85
290.448	84
290.679	93
290.91	105
291.141	75
291.371	76
291.602	97
291.833	93
292.064	73
292.295	90
292.526	90
292.757	87
292.987	78
293.218	74
293.449	90
293.68	95
293.91	91
294.141	83
294.372	86
294.603	82
294.833	79
295.064	89
295.295	67
295.525	80
295.756	72
295.987	70
296.217	76
296.448	83
296.679	84
296.909	89
297.14	84
297.37	85
297.601	84
297.831	75
298.062	76
298.292	84
298.523	95
298.753	90
298.984	72
299.214	93
299.445	99
299.675	79
299.905	75
300.136	92
300.366	82
300.597	90
300.827	78
301.057	79
301.288	87
301.518	83
301.748	80
301.979	100
302.209	80
302.439	91
302.669	97
302.9	89
303.13	93
303.36	88
303.59	81
303.82	69
304.051	87
304.281	90
304.511	93
304.741	75
304.971	87
305.201	92
305.431	83
305.661	77
305.891	76
306.121	80
306.352	78
306.582	77
306.812	74
307.042	84
307.272	81
307.502	92
307.731	88
307.961	78
308.191	94
308.421	88
308.651	72
308.881	79
309.111	82
309.341	88
309.571	89
309.8	93
310.03	92
310.26	86
310.49	88
310.72	89
310.949	92
311.179	85
311.409	92
311.639	85
311.868	75
312.098	83
312.328	84
312.557	75
312.787	79
313.017	82
313.246	89
313.476	79
313.706	71
313.935	87
314.165	77
314.394	71
314.624	86
314.853	71
315.083	80
315.312	75
315.542	96
315.771	86
316.001	101
316.23	88
316.46	69
316.689	91
316.919	85
317.148	83
317.377	89
317.607	81
317.836	68
318.065	83
318.295	92
318.524	95
318.753	95
318.983	81
319.212	87
319.441	82
319.67	81
319.9	76
320.129	87
320.358	74
320.587	83
320.816	88
321.046	97
321.275	99
321.504	94
321.733	106
321.962	89
322.191	81
322.42	63
322.649	91
322.878	87
323.108	79
323.337	81
323.566	97
323.795	97
324.024	83
324.253	84
324.482	90
324.71	85
324.939	81
325.168	88
325.397	102
325.626	87
325.855	76
326.084	92
326.313	81
326.542	74
326.77	78
326.999	85
327.228	79
327.457	99
327.686	83
327.914	83
328.143	93
328.372	84
328.6	89
328.829	82
329.058	83
329.287	81
329.515	89
329.744	88
329.972	86
330.201	79
330.43	88
330.658	76
330.887	92
331.115	97
331.344	103
331.572	83
331.801	84
332.03	90
332.258	81
332.486	75
332.715	87
332.943	79
333.172	72
333.4	75
333.629	79
333.857	87
334.085	75
334.314	79
334.542	94
334.771	82
334.999	97
335.227	87
335.455	92
335.684	85
335.912	88
336.14	71
336.369	79
336.597	85
336.825	84
337.053	82
337.281	92
337.51	78
337.738	79
337.966	79
338.194	90
338.422	85
338.65	88
338.878	84
339.106	93
339.334	94
339.562	95
339.79	75
340.018	88
340.246	79
340.474	72
340.702	87
340.93	81
341.158	89
341.386	76
341.614	80
341.842	68
342.07	80
342.298	82
342.526	81
342.754	77
342.981	84
343.209	88
343.437	98
343.665	91
343.893	71
344.12	88
344.348	98
344.576	74
344.804	83
345.031	90
345.259	73
345.487	75
345.714	78
345.942	68
346.17	89
346.397	85
346.625	88
346.853	83
347.08	74
347.308	79
347.535	97
347.763	71
347.99	88
348.218	74
348.445	94
348.673	75
348.9	100
349.128	86
349.355	74
349.583	105
349.81	71
350.037	80
350.265	85
350.492	87
350.72	76
350.947	95
351.174	80
351.402	93
351.629	86
351.856	93
352.083	81
352.311	93
352.538	80
352.765	85
352.992	104
353.22	76
353.447	104
353.674	87
353.901	85
354.128	87
354.355	81
354.583	83
354.81	89
355.037	95
355.264	85
355.491	87
355.718	98
355.945	89
356.172	88
356.399	86
356.626	94
356.853	93
357.08	82
357.307	88
357.534	79
357.761	84
357.988	91
358.215	89
358.441	90
358.668	91
358.895	93
359.122	97
359.349	83
359.576	77
359.802	90
360.029	82
360.256	87
360.483	75
360.709	71
360.936	99
361.163	84
361.39	92
361.616	80
361.843	90
362.07	92
362.296	86
362.523	80
362.749	76
362.976	75
363.203	73
363.429	87
363.656	87
363.882	80
364.109	93
364.335	69
364.562	91
364.788	87
365.015	92
365.241	74
365.468	83
365.694	74
365.92	82
366.147	88
366.373	73
366.599	80
366.826	92
367.052	84
367.278	88
367.505	84
367.731	91
367.957	75
368.184	71
368.41	76
368.636	97
368.862	84
369.089	81
369.315	92
369.541	88
369.767	77
369.993	83
370.219	76
370.445	92
370.672	96
370.898	85
371.124	70
371.35	82
371.576	75
371.802	100
372.028	90
372.254	79
372.48	79
372.706	64
372.932	79
373.158	89
373.384	84
373.61	86
373.835	81
374.061	81
374.287	87
374.513	84
374.739	69
374.965	71
375.191	87
375.416	71
375.642	73
375.868	90
376.094	97
376.319	99
376.545	89
376.771	79
376.997	83
377.222	78
377.448	102
377.674	80
377.899	91
378.125	91
378.35	93
378.576	97
378.802	76
379.027	90
379.253	79
379.478	77
379.704	83
379.929	84
380.155	76
380.38	80
380.606	99
380.831	88
381.057	103
381.282	74
381.507	80
381.733	90
381.958	85
382.184	99
382.409	73
382.634	78
382.86	79
383.085	87
383.31	86
383.535	81
383.761	87
383.986	99
384.211	95
384.436	77
384.662	83
384.887	76
385.112	73
385.337	77
385.562	71
385.787	84
386.013	86
386.238	81
386.463	82
386.688	99
386.913	89
387.138	87
387.363	79
387.588	90
387.813	85
388.038	72
388.263	84
388.488	78
388.713	74
388.938	84
389.163	70
389.387	102
389.612	81
389.837	72
390.062	85
390.287	64
390.512	81
390.736	72
390.961	70
391.186	72
391.411	77
391.636	86
391.86	89
392.085	87
392.31	83
392.534	85
392.759	81
392.984	82
393.208	85
393.433	72
393.658	81
393.882	73
394.107	71
394.331	71
394.556	77
394.78	84
395.005	82
395.229	76
395.454	55
395.678	80
395.903	76
396.127	79
396.352	86
396.576	90
396.801	82
397.025	63
397.249	63
397.474	90
397.698	91
397.922	95
398.147	92
398.371	79
398.595	92
398.82	69
399.044	87
399.268	75
399.492	79
399.717	86
399.941	98
400.165	92
400.389	89
400.613	91
400.837	73
401.062	88
401.286	70
401.51	69
401.734	87
401.958	74
402.182	71
402.406	76
402.63	77
402.854	94
403.078	69
403.302	84
403.526	79
403.75	93
403.974	90
404.198	87
404.422	73
404.645	79
404.869	78
405.093	86
405.317	82
405.541	78
405.765	86
405.988	77
406.212	96
406.436	79
406.66	82
406.883	84
407.107	83
407.331	83
407.555	82
407.778	77
408.002	83
408.226	91
408.449	85
408.673	78
408.896	93
409.12	86
409.344	87
409.567	80
409.791	90
410.014	87
410.238	86
410.461	79
410.685	77
410.908	75
411.132	69
411.355	81
411.578	75
411.802	88
412.025	99
412.249	85
412.472	86
412.695	77
412.919	82
413.142	77
413.365	72
413.589	73
413.812	84
414.035	89
414.258	85
414.482	84
414.705	80
414.928	95
415.151	94
415.374	85
415.597	81
415.821	81
416.044	78
416.267	87
416.49	80
416.713	90
416.936	86
417.159	81
417.382	71
417.605	88
417.828	90
418.051	81
418.274	81
418.497	84
418.72	79
418.943	84
419.166	101
419.389	99
419.611	77
419.834	95
420.057	93
420.28	93
420.503	78
420.726	95
420.948	98
421.171	88
421.394	91
421.617	77
421.839	73
422.062	74
422.285	79
422.507	79
422.73	93
422.953	101
423.175	87
423.398	75
423.621	73
423.843	90
424.066	69
424.288	75
424.511	69
424.733	83
424.956	82
425.178	69
425.401	87
425.623	82
425.846	71
426.068	81
426.291	82
426.513	76
426.735	83
426.958	78
427.18	96
427.402	97
427.625	92
427.847	98
428.069	81
428.292	79
428.514	86
428.736	82
428.958	91
429.181	80
429.403	84
429.625	76
429.847	78
430.069	71
430.292	92
430.514	83
430.736	86
430.958	87
431.18	80
431.402	79
431.624	84
431.846	91
432.068	83
432.29	85
432.512	87
432.734	80
432.956	83
433.178	105
433.4	83
433.622	82
433.844	87
434.066	87
434.287	82
434.509	69
434.731	84
434.953	87
435.175	66
435.397	73
435.618	80
435.84	71
436.062	79
436.284	95
436.505	79
436.727	94
436.949	87
437.17	86
437.392	90
437.614	73
437.835	77
438.057	80
438.278	80
438.5	77
438.721	86
438.943	75
439.165	76
439.386	98
439.608	87
439.829	83
440.05	87
440.272	89
440.493	80
440.715	83
440.936	92
441.158	86
441.379	74
441.6	88
441.822	80
442.043	74
442.264	96
442.486	78
442.707	89
442.928	86
443.149	86
443.371	83
443.592	87
443.813	78
444.034	95
444.255	82
444.476	79
444.698	70
444.919	69
445.14	132
445.361	113
445.582	82
445.803	76
446.024	87
446.245	89
446.466	79
446.687	91
446.908	82
447.129	82
447.35	83
447.571	78
447.792	90
448.013	85
448.234	76
448.455	90
448.675	83
448.896	90
449.117	80
449.338	85
449.559	88
449.779	89
450	89
450.221	82
450.442	89
450.662	84
450.883	85
451.104	95
451.324	85
451.545	77
451.766	85
451.986	82
452.207	83
452.428	86
452.648	87
452.869	85
453.089	79
453.31	92
453.53	86
453.751	76
453.971	92
454.192	80
454.412	87
454.633	79
454.853	84
455.073	73
455.294	82
455.514	84
455.734	83
455.955	90
456.175	83
456.395	83
456.616	81
456.836	90
457.056	90
457.276	63
457.497	79
457.717	78
457.937	76
458.157	75
458.377	91
458.598	83
458.818	87
459.038	90
459.258	81
459.478	77
459.698	80
459.918	79
460.138	95
460.358	74
460.578	95
460.798	78
461.018	83
461.238	86
461.458	78
461.678	77
461.898	97
462.118	96
462.338	80
462.558	83
462.777	77
462.997	97
463.217	87
463.437	89
463.657	84
463.876	85
464.096	95
464.316	76
464.536	85
464.755	80
464.975	104
465.195	71
465.414	79
465.634	72
465.854	90
466.073	82
466.293	79
466.512	74
466.732	83
466.951	83
467.171	90
467.391	83
467.61	91
467.829	82
468.049	97
468.268	79
468.488	80
468.707	73
468.927	72
469.146	91
469.365	87
469.585	76
469.804	83
470.023	84
470.243	84
470.462	87
470.681	97
470.901	101
471.12	86
471.339	83
471.558	81
471.777	93
471.997	98
472.216	81
472.435	95
472.654	87
472.873	68
473.092	74
473.311	83
473.53	83
473.749	84
473.968	85
474.187	95
474.406	82
474.625	80
474.844	83
475.063	89
475.282	87
475.501	84
475.72	92
475.939	94
476.158	96
476.377	97
476.596	82
476.814	84
477.033	72
477.252	88
477.471	96
477.69	68
477.908	77
478.127	80
478.346	81
478.564	81
478.783	71
479.002	69
479.22	80
479.439	64
479.658	85
479.876	80
480.095	91
480.313	80
480.532	85
480.751	91
480.969	79
481.188	89
481.406	93
481.624	87
481.843	80
482.061	79
482.28	80
482.498	83
482.717	97
482.935	80
483.153	83
483.372	86
483.59	85
483.808	88
484.027	85
484.245	77
484.463	92
484.681	99
484.9	89
485.118	82
485.336	85
485.554	71
485.772	87
485.99	76
486.209	91
486.427	83
486.645	84
486.863	90
487.081	71
487.299	69
487.517	96
487.735	100
487.953	80
488.171	86
488.389	80
488.607	85
488.825	81
489.043	99
489.261	83
489.479	92
489.696	83
489.914	88
490.132	68
490.35	76
490.568	88
490.786	73
491.003	96
491.221	75
491.439	90
491.657	97
491.874	88
492.092	83
492.31	89
492.527	74
492.745	81
492.963	79
493.18	84
493.398	89
493.615	80
493.833	81
494.05	82
494.268	71
494.485	85
494.703	83
494.92	69
495.138	83
495.355	81
495.573	89
495.79	87
496.008	92
496.225	81
496.442	77
496.66	83
496.877	90
497.094	87
497.312	88
497.529	107
497.746	95
497.963	98
498.181	75
498.398	76
498.615	101
498.832	81
499.049	77
499.267	84
499.484	90
499.701	85
499.918	93
500.135	104
500.352	79
500.569	83
500.786	86
501.003	79
501.22	79
501.437	86
501.654	99
501.871	94
502.088	68
502.305	83
502.522	79
502.739	82
502.956	79
503.172	79
503.389	79
503.606	85
503.823	84
504.04	100
504.256	107
504.473	80
504.69	87
504.907	88
505.123	85
505.34	82
505.557	90
505.773	102
505.99	93
506.207	87
506.423	83
506.64	83
506.856	80
507.073	86
507.289	87
507.506	92
507.722	88
507.939	78
508.155	97
508.372	87
508.588	97
508.805	87
509.021	86
509.238	93
509.454	87
509.67	95
509.887	83
510.103	92
510.319	91
510.536	84
510.752	83
510.968	79
511.184	95
511.401	80
511.617	83
511.833	88
512.049	97
512.265	89
512.481	89
512.698	89
512.914	87
513.13	86
513.346	81
513.562	78
513.778	81
513.994	75
514.21	87
514.426	97
514.642	82
514.858	97
515.074	87
515.29	91
515.506	85
515.721	78
515.937	81
516.153	87
516.369	84
516.585	83
516.801	96
517.016	93
517.232	85
517.448	94
517.664	87
517.879	86
518.095	96
518.311	91
518.527	88
518.742	74
518.958	88
519.173	88
519.389	94
519.605	90
519.82	89
520.036	81
520.251	102
520.467	95
520.682	95
520.898	95
521.113	88
521.329	83
521.544	97
521.76	75
521.975	99
522.19	87
522.406	79
522.621	97
522.836	81
523.052	87
523.267	89
523.482	79
523.698	86
523.913	86
524.128	99
524.343	81
524.559	94
524.774	68
524.989	98
525.204	99
525.419	88
525.634	80
525.849	101
526.064	95
526.28	87
526.495	86
526.71	82
526.925	93
527.14	98
527.355	88
527.57	93
527.785	76
527.999	84
528.214	82
528.429	86
528.644	69
528.859	84
529.074	83
529.289	87
529.503	89
529.718	88
529.933	98
530.148	72
530.363	85
530.577	80
530.792	81
531.007	77
531.221	74
531.436	99
531.651	99
531.865	87
532.08	89
532.295	89
532.509	97
532.724	84
532.938	88
533.153	93
533.367	96
533.582	80
533.796	81
534.011	96
534.225	95
534.44	96
534.654	93
534.868	91
535.083	95
535.297	91
535.511	80
535.726	89
535.94	79
536.154	91
536.369	79
536.583	93
536.797	75
537.011	83
537.225	79
537.44	99
537.654	87
537.868	80
538.082	76
538.296	93
538.51	86
538.724	91
538.938	84
539.153	81
539.367	95
539.581	89
539.795	76
540.009	101
540.222	91
540.436	89
540.65	84
540.864	82
541.078	92
541.292	92
541.506	87
541.72	88
541.934	80
542.147	88
542.361	90
542.575	85
542.789	93
543.002	89
543.216	82
543.43	88
543.644	87
543.857	97
544.071	74
544.285	76
544.498	81
544.712	91
544.925	86
545.139	84
545.352	83
545.566	89
545.779	85
545.993	87
546.206	81
546.42	80
546.633	85
546.847	92
547.06	70
547.274	79
547.487	80
547.7	92
547.914	105
548.127	83
548.34	107
548.554	90
548.767	98
548.98	111
549.193	86
549.407	103
549.62	97
549.833	87
550.046	91
550.259	83
550.473	91
550.686	81
550.899	79
551.112	77
551.325	81
551.538	103
551.751	83
551.964	98
552.177	102
552.39	98
552.603	90
552.816	86
553.029	86
553.242	76
553.455	88
553.667	90
553.88	85
554.093	84
554.306	81
554.519	76
554.732	82
554.944	90
555.157	95
555.37	87
555.583	87
555.795	93
556.008	97
556.221	86
556.433	90
556.646	80
556.859	84
557.071	96
557.284	95
557.496	89
557.709	100
557.921	96
558.134	102
558.346	89
558.559	88
558.771	97
558.984	99
559.196	88
559.409	75
559.621	91
559.833	75
560.046	88
560.258	93
560.47	87
560.683	88
560.895	91
561.107	73
561.32	92
561.532	96
561.744	87
561.956	77
562.168	72
562.381	84
562.593	84
562.805	87
563.017	84
563.229	90
563.441	93
563.653	83
563.865	82
564.077	83
564.289	86
564.501	84
564.713	80
564.925	84
565.137	90
565.349	77
565.561	90
565.773	88
565.985	93
566.197	84
566.408	83
566.62	85
566.832	88
567.044	82
567.255	91
567.467	94
567.679	79
567.891	85
568.102	91
568.314	109
568.526	86
568.737	105
568.949	106
569.161	85
569.372	96
569.584	83
569.795	87
570.007	95
570.218	100
570.43	83
570.641	85
570.853	83
571.064	80
571.276	82
571.487	77
571.698	81
571.91	104
572.121	77
572.333	81
572.544	93
572.755	91
572.966	84
573.178	91
573.389	89
573.6	80
573.811	76
574.023	69
574.234	88
574.445	98
574.656	73
574.867	84
575.078	83
575.289	77
575.501	104
575.712	84
575.923	92
576.134	81
576.345	93
576.556	108
576.767	95
576.978	92
577.188	95
577.399	95
577.61	81
577.821	91
578.032	90
578.243	97
578.454	86
578.665	83
578.875	84
579.086	83
579.297	101
579.508	110
579.718	95
579.929	83
580.14	101
580.35	79
580.561	89
580.772	75
580.982	81
581.193	95
581.403	92
581.614	107
581.825	83
582.035	83
582.246	83
582.456	88
582.667	94
582.877	90
583.087	89
583.298	83
583.508	84
583.719	83
583.929	85
584.139	98
584.35	89
584.56	88
584.77	82
584.981	90
585.191	89
585.401	73
585.611	85
585.821	71
586.032	91
586.242	80
586.452	91
586.662	80
586.872	93
587.082	87
587.292	85
587.502	69
587.713	83
587.923	94
588.133	99
588.343	92
588.553	78
588.762	89
588.972	107
589.182	93
589.392	76
589.602	78
589.812	87
590.022	88
590.232	85
