Data from BGNA1_HRD10591_00002.txt Node
Date: Fri Dec 27 14:32:19 EST 2024
User: Yrep
Spectrometer: HR+D1059
Trigger mode: 1
Integration Time (sec): 1.000000E-1
Scans to average: 1
Electric dark correction enabled: true
Nonlinearity correction enabled: false
Boxcar width: 0
XAxis mode: Wavelengths
Number of Pixels in Spectrum: 2048
>>>>>Begin Spectral Data<<<<<
223.165	-18.56
223.4	-18.56
223.635	-18.56
223.869	-23.56
224.104	-16.56
224.338	-19.56
224.573	-2.56
224.808	-0.56
225.042	-11.56
225.277	-2.56
225.511	-12.56
225.746	4.44
225.98	-0.56
226.215	12.44
226.449	10.44
226.683	21.44
226.918	15.44
227.152	44.44
227.387	34.44
227.621	31.44
227.856	52.44
228.09	49.44
228.324	62.44
228.559	60.44
228.793	60.44
229.027	56.44
229.262	56.44
229.496	54.44
229.73	79.44
229.964	80.44
230.199	71.44
230.433	61.44
230.667	81.44
230.901	83.44
231.136	80.44
231.37	71.44
231.604	75.44
231.838	77.44
232.072	77.44
232.306	89.44
232.541	71.44
232.775	82.44
233.009	77.44
233.243	74.44
233.477	61.44
233.711	93.44
233.945	79.44
234.179	89.44
234.413	79.44
234.647	80.44
234.881	62.44
235.115	77.44
235.349	80.44
235.583	68.44
235.817	57.44
236.051	77.44
236.285	62.44
236.519	71.44
236.753	67.44
236.987	71.44
237.221	71.44
237.455	78.44
237.689	81.44
237.922	76.44
238.156	75.44
238.39	70.44
238.624	79.44
238.858	66.44
239.091	69.44
239.325	58.44
239.559	71.44
239.793	72.44
240.027	97.44
240.26	90.44
240.494	85.44
240.728	70.44
240.961	59.44
241.195	62.44
241.429	69.44
241.662	64.44
241.896	70.44
242.13	82.44
242.363	83.44
242.597	71.44
242.83	74.44
243.064	67.44
243.298	78.44
243.531	80.44
243.765	60.44
243.998	89.44
244.232	80.44
244.465	76.44
244.699	76.44
244.932	65.44
245.166	70.44
245.399	69.44
245.633	84.44
245.866	81.44
246.099	79.44
246.333	93.44
246.566	85.44
246.8	80.44
247.033	76.44
247.266	74.44
247.5	72.44
247.733	84.44
247.966	84.44
248.2	74.44
248.433	81.44
248.666	82.44
248.899	75.44
249.133	78.44
249.366	75.44
249.599	61.44
249.832	70.44
250.066	70.44
250.299	71.44
250.532	81.44
250.765	93.44
250.998	81.44
251.231	63.44
251.465	66.44
251.698	71.44
251.931	81.44
252.164	71.44
252.397	86.44
252.63	72.44
252.863	60.44
253.096	70.44
253.329	75.44
253.562	65.44
253.795	84.44
254.028	67.44
254.261	60.44
254.494	87.44
254.727	83.44
254.96	73.44
255.193	84.44
255.426	65.44
255.659	71.44
255.892	91.44
256.124	73.44
256.357	79.44
256.59	66.44
256.823	91.44
257.056	81.44
257.289	66.44
257.521	80.44
257.754	69.44
257.987	79.44
258.22	89.44
258.452	74.44
258.685	76.44
258.918	82.44
259.151	78.44
259.383	70.44
259.616	76.44
259.849	73.44
260.081	82.44
260.314	77.44
260.547	73.44
260.779	78.44
261.012	70.44
261.244	82.44
261.477	77.44
261.71	72.44
261.942	59.44
262.175	85.44
262.407	89.44
262.64	75.44
262.872	75.44
263.105	87.44
263.337	89.44
263.57	81.44
263.802	81.44
264.035	89.44
264.267	86.44
264.499	74.44
264.732	76.44
264.964	66.44
265.197	85.44
265.429	85.44
265.661	85.44
265.894	74.44
266.126	86.44
266.358	74.44
266.591	95.44
266.823	77.44
267.055	67.44
267.287	73.44
267.52	64.44
267.752	85.44
267.984	72.44
268.216	65.44
268.448	87.44
268.681	92.44
268.913	79.44
269.145	82.44
269.377	73.44
269.609	78.44
269.841	73.44
270.073	77.44
270.306	81.44
270.538	86.44
270.77	81.44
271.002	89.44
271.234	81.44
271.466	86.44
271.698	72.44
271.93	67.44
272.162	68.44
272.394	67.44
272.626	71.44
272.858	75.44
273.09	73.44
273.322	70.44
273.553	64.44
273.785	81.44
274.017	77.44
274.249	84.44
274.481	73.44
274.713	81.44
274.945	90.44
275.176	75.44
275.408	80.44
275.64	90.44
275.872	73.44
276.104	89.44
276.335	80.44
276.567	85.44
276.799	74.44
277.031	95.44
277.262	78.44
277.494	92.44
277.726	88.44
277.957	80.44
278.189	75.44
278.421	79.44
278.652	76.44
278.884	84.44
279.115	87.44
279.347	77.44
279.579	71.44
279.81	86.44
280.042	75.44
280.273	70.44
280.505	68.44
280.736	75.44
280.968	91.44
281.199	75.44
281.431	72.44
281.662	84.44
281.894	89.44
282.125	70.44
282.356	75.44
282.588	67.44
282.819	69.44
283.051	66.44
283.282	64.44
283.513	83.44
283.745	88.44
283.976	91.44
284.207	84.44
284.439	74.44
284.67	76.44
284.901	78.44
285.132	80.44
285.364	87.44
285.595	71.44
285.826	85.44
286.057	78.44
286.288	75.44
286.52	72.44
286.751	82.44
286.982	80.44
287.213	88.44
287.444	82.44
287.675	84.44
287.906	87.44
288.138	67.44
288.369	73.44
288.6	77.44
288.831	103.44
289.062	91.44
289.293	69.44
289.524	76.44
289.755	84.44
289.986	75.44
290.217	68.44
290.448	76.44
290.679	94.44
290.91	84.44
291.141	83.44
291.371	62.44
291.602	84.44
291.833	87.44
292.064	85.44
292.295	85.44
292.526	81.44
292.757	78.44
292.987	86.44
293.218	77.44
293.449	91.44
293.68	75.44
293.91	82.44
294.141	84.44
294.372	86.44
294.603	81.44
294.833	75.44
295.064	86.44
295.295	79.44
295.525	69.44
295.756	74.44
295.987	71.44
296.217	80.44
296.448	75.44
296.679	90.44
296.909	77.44
297.14	67.44
297.37	81.44
297.601	76.44
297.831	84.44
298.062	81.44
298.292	79.44
298.523	76.44
298.753	90.44
298.984	83.44
299.214	83.44
299.445	81.44
299.675	92.44
299.905	65.44
300.136	65.44
300.366	82.44
300.597	79.44
300.827	74.44
301.057	88.44
301.288	78.44
301.518	80.44
301.748	80.44
301.979	90.44
302.209	94.44
302.439	79.44
302.669	87.44
302.9	70.44
303.13	73.44
303.36	86.44
303.59	95.44
303.82	79.44
304.051	91.44
304.281	89.44
304.511	94.44
304.741	89.44
304.971	97.44
305.201	86.44
305.431	72.44
305.661	92.44
305.891	77.44
306.121	73.44
306.352	78.44
306.582	82.44
306.812	85.44
307.042	70.44
307.272	74.44
307.502	74.44
307.731	87.44
307.961	94.44
308.191	90.44
308.421	77.44
308.651	89.44
308.881	73.44
309.111	79.44
309.341	81.44
309.571	83.44
309.8	82.44
310.03	78.44
310.26	85.44
310.49	63.44
310.72	86.44
310.949	82.44
311.179	81.44
311.409	76.44
311.639	82.44
311.868	84.44
312.098	90.44
312.328	85.44
312.557	78.44
312.787	91.44
313.017	86.44
313.246	89.44
313.476	78.44
313.706	90.44
313.935	69.44
314.165	86.44
314.394	84.44
314.624	87.44
314.853	95.44
315.083	85.44
315.312	91.44
315.542	82.44
315.771	66.44
316.001	79.44
316.23	89.44
316.46	67.44
316.689	70.44
316.919	75.44
317.148	77.44
317.377	79.44
317.607	92.44
317.836	89.44
318.065	77.44
318.295	83.44
318.524	79.44
318.753	85.44
318.983	86.44
319.212	77.44
319.441	79.44
319.67	73.44
319.9	78.44
320.129	81.44
320.358	71.44
320.587	78.44
320.816	82.44
321.046	73.44
321.275	84.44
321.504	87.44
321.733	76.44
321.962	81.44
322.191	85.44
322.42	86.44
322.649	81.44
322.878	86.44
323.108	69.44
323.337	81.44
323.566	82.44
323.795	92.44
324.024	67.44
324.253	84.44
324.482	79.44
324.71	84.44
324.939	84.44
325.168	74.44
325.397	77.44
325.626	92.44
325.855	80.44
326.084	86.44
326.313	77.44
326.542	77.44
326.77	76.44
326.999	83.44
327.228	90.44
327.457	78.44
327.686	84.44
327.914	83.44
328.143	79.44
328.372	81.44
328.6	74.44
328.829	72.44
329.058	88.44
329.287	69.44
329.515	77.44
329.744	91.44
329.972	84.44
330.201	86.44
330.43	81.44
330.658	78.44
330.887	76.44
331.115	79.44
331.344	93.44
331.572	81.44
331.801	81.44
332.03	77.44
332.258	96.44
332.486	83.44
332.715	69.44
332.943	77.44
333.172	76.44
333.4	82.44
333.629	90.44
333.857	89.44
334.085	74.44
334.314	83.44
334.542	74.44
334.771	84.44
334.999	86.44
335.227	72.44
335.455	84.44
335.684	96.44
335.912	93.44
336.14	89.44
336.369	96.44
336.597	81.44
336.825	84.44
337.053	73.44
337.281	77.44
337.51	86.44
337.738	86.44
337.966	76.44
338.194	68.44
338.422	91.44
338.65	91.44
338.878	80.44
339.106	73.44
339.334	74.44
339.562	81.44
339.79	82.44
340.018	75.44
340.246	83.44
340.474	91.44
340.702	74.44
340.93	73.44
341.158	84.44
341.386	89.44
341.614	77.44
341.842	81.44
342.07	84.44
342.298	95.44
342.526	84.44
342.754	79.44
342.981	75.44
343.209	77.44
343.437	99.44
343.665	73.44
343.893	96.44
344.12	72.44
344.348	92.44
344.576	95.44
344.804	76.44
345.031	65.44
345.259	84.44
345.487	82.44
345.714	85.44
345.942	80.44
346.17	64.44
346.397	74.44
346.625	75.44
346.853	77.44
347.08	78.44
347.308	92.44
347.535	68.44
347.763	71.44
347.99	81.44
348.218	91.44
348.445	84.44
348.673	73.44
348.9	87.44
349.128	96.44
349.355	86.44
349.583	78.44
349.81	61.44
350.037	86.44
350.265	80.44
350.492	73.44
350.72	84.44
350.947	76.44
351.174	72.44
351.402	84.44
351.629	95.44
351.856	93.44
352.083	87.44
352.311	88.44
352.538	77.44
352.765	74.44
352.992	95.44
353.22	71.44
353.447	73.44
353.674	90.44
353.901	82.44
354.128	77.44
354.355	83.44
354.583	70.44
354.81	92.44
355.037	90.44
355.264	79.44
355.491	83.44
355.718	72.44
355.945	90.44
356.172	69.44
356.399	68.44
356.626	61.44
356.853	82.44
357.08	73.44
357.307	101.44
357.534	97.44
357.761	80.44
357.988	77.44
358.215	86.44
358.441	94.44
358.668	90.44
358.895	84.44
359.122	78.44
359.349	89.44
359.576	68.44
359.802	71.44
360.029	80.44
360.256	91.44
360.483	80.44
360.709	88.44
360.936	87.44
361.163	85.44
361.39	78.44
361.616	81.44
361.843	81.44
362.07	89.44
362.296	84.44
362.523	69.44
362.749	84.44
362.976	85.44
363.203	88.44
363.429	87.44
363.656	81.44
363.882	68.44
364.109	78.44
364.335	86.44
364.562	70.44
364.788	91.44
365.015	84.44
365.241	76.44
365.468	102.44
365.694	70.44
365.92	75.44
366.147	73.44
366.373	85.44
366.599	73.44
366.826	80.44
367.052	91.44
367.278	71.44
367.505	80.44
367.731	78.44
367.957	74.44
368.184	68.44
368.41	69.44
368.636	72.44
368.862	81.44
369.089	83.44
369.315	79.44
369.541	86.44
369.767	82.44
369.993	75.44
370.219	80.44
370.445	69.44
370.672	86.44
370.898	90.44
371.124	76.44
371.35	77.44
371.576	67.44
371.802	80.44
372.028	91.44
372.254	77.44
372.48	75.44
372.706	72.44
372.932	83.44
373.158	98.44
373.384	92.44
373.61	90.44
373.835	74.44
374.061	81.44
374.287	95.44
374.513	77.44
374.739	85.44
374.965	89.44
375.191	95.44
375.416	86.44
375.642	68.44
375.868	91.44
376.094	86.44
376.319	90.44
376.545	81.44
376.771	77.44
376.997	77.44
377.222	91.44
377.448	83.44
377.674	69.44
377.899	69.44
378.125	81.44
378.35	89.44
378.576	71.44
378.802	85.44
379.027	76.44
379.253	79.44
379.478	69.44
379.704	81.44
379.929	92.44
380.155	69.44
380.38	77.44
380.606	71.44
380.831	77.44
381.057	96.44
381.282	95.44
381.507	82.44
381.733	91.44
381.958	71.44
382.184	98.44
382.409	79.44
382.634	84.44
382.86	94.44
383.085	92.44
383.31	85.44
383.535	81.44
383.761	82.44
383.986	86.44
384.211	82.44
384.436	62.44
384.662	83.44
384.887	84.44
385.112	81.44
385.337	73.44
385.562	84.44
385.787	82.44
386.013	77.44
386.238	91.44
386.463	87.44
386.688	76.44
386.913	73.44
387.138	78.44
387.363	78.44
387.588	77.44
387.813	85.44
388.038	86.44
388.263	74.44
388.488	68.44
388.713	90.44
388.938	75.44
389.163	91.44
389.387	78.44
389.612	93.44
389.837	81.44
390.062	83.44
390.287	82.44
390.512	64.44
390.736	88.44
390.961	83.44
391.186	93.44
391.411	87.44
391.636	82.44
391.86	72.44
392.085	78.44
392.31	71.44
392.534	83.44
392.759	82.44
392.984	89.44
393.208	89.44
393.433	71.44
393.658	71.44
393.882	76.44
394.107	65.44
394.331	76.44
394.556	79.44
394.78	68.44
395.005	80.44
395.229	86.44
395.454	79.44
395.678	76.44
395.903	93.44
396.127	83.44
396.352	88.44
396.576	95.44
396.801	93.44
397.025	71.44
397.249	84.44
397.474	77.44
397.698	89.44
397.922	79.44
398.147	89.44
398.371	65.44
398.595	93.44
398.82	85.44
399.044	79.44
399.268	77.44
399.492	81.44
399.717	92.44
399.941	79.44
400.165	70.44
400.389	73.44
400.613	79.44
400.837	86.44
401.062	76.44
401.286	76.44
401.51	75.44
401.734	75.44
401.958	65.44
402.182	82.44
402.406	80.44
402.63	94.44
402.854	77.44
403.078	90.44
403.302	76.44
403.526	80.44
403.75	92.44
403.974	92.44
404.198	80.44
404.422	83.44
404.645	71.44
404.869	86.44
405.093	79.44
405.317	75.44
405.541	90.44
405.765	82.44
405.988	80.44
406.212	90.44
406.436	78.44
406.66	76.44
406.883	86.44
407.107	79.44
407.331	73.44
407.555	87.44
407.778	87.44
408.002	68.44
408.226	73.44
408.449	83.44
408.673	79.44
408.896	84.44
409.12	80.44
409.344	77.44
409.567	78.44
409.791	89.44
410.014	83.44
410.238	76.44
410.461	85.44
410.685	74.44
410.908	74.44
411.132	76.44
411.355	98.44
411.578	85.44
411.802	81.44
412.025	72.44
412.249	79.44
412.472	90.44
412.695	80.44
412.919	73.44
413.142	86.44
413.365	91.44
413.589	87.44
413.812	99.44
414.035	90.44
414.258	77.44
414.482	83.44
414.705	73.44
414.928	85.44
415.151	74.44
415.374	81.44
415.597	82.44
415.821	86.44
416.044	67.44
416.267	78.44
416.49	74.44
416.713	74.44
416.936	76.44
417.159	71.44
417.382	74.44
417.605	69.44
417.828	88.44
418.051	77.44
418.274	78.44
418.497	83.44
418.72	76.44
418.943	94.44
419.166	66.44
419.389	91.44
419.611	77.44
419.834	76.44
420.057	79.44
420.28	86.44
420.503	69.44
420.726	74.44
420.948	71.44
421.171	77.44
421.394	64.44
421.617	73.44
421.839	89.44
422.062	66.44
422.285	89.44
422.507	69.44
422.73	73.44
422.953	87.44
423.175	72.44
423.398	86.44
423.621	73.44
423.843	65.44
424.066	69.44
424.288	76.44
424.511	74.44
424.733	85.44
424.956	82.44
425.178	92.44
425.401	89.44
425.623	79.44
425.846	83.44
426.068	75.44
426.291	71.44
426.513	79.44
426.735	68.44
426.958	81.44
427.18	62.44
427.402	89.44
427.625	88.44
427.847	78.44
428.069	95.44
428.292	81.44
428.514	84.44
428.736	72.44
428.958	77.44
429.181	80.44
429.403	76.44
429.625	72.44
429.847	83.44
430.069	83.44
430.292	86.44
430.514	87.44
430.736	73.44
430.958	54.44
431.18	77.44
431.402	77.44
431.624	80.44
431.846	91.44
432.068	92.44
432.29	82.44
432.512	101.44
432.734	85.44
432.956	75.44
433.178	76.44
433.4	75.44
433.622	71.44
433.844	81.44
434.066	89.44
434.287	81.44
434.509	71.44
434.731	73.44
434.953	71.44
435.175	84.44
435.397	73.44
435.618	63.44
435.84	79.44
436.062	75.44
436.284	82.44
436.505	83.44
436.727	66.44
436.949	92.44
437.17	83.44
437.392	75.44
437.614	93.44
437.835	85.44
438.057	80.44
438.278	82.44
438.5	93.44
438.721	75.44
438.943	67.44
439.165	75.44
439.386	60.44
439.608	78.44
439.829	75.44
440.05	82.44
440.272	86.44
440.493	95.44
440.715	73.44
440.936	82.44
441.158	101.44
441.379	89.44
441.6	75.44
441.822	75.44
442.043	74.44
442.264	89.44
442.486	79.44
442.707	81.44
442.928	93.44
443.149	76.44
443.371	61.44
443.592	79.44
443.813	69.44
444.034	84.44
444.255	80.44
444.476	73.44
444.698	81.44
444.919	76.44
445.14	147.44
445.361	105.44
445.582	84.44
445.803	79.44
446.024	78.44
446.245	86.44
446.466	77.44
446.687	69.44
446.908	80.44
447.129	75.44
447.35	80.44
447.571	78.44
447.792	76.44
448.013	74.44
448.234	68.44
448.455	63.44
448.675	72.44
448.896	86.44
449.117	73.44
449.338	74.44
449.559	79.44
449.779	53.44
450	79.44
450.221	85.44
450.442	76.44
450.662	74.44
450.883	78.44
451.104	81.44
451.324	89.44
451.545	63.44
451.766	78.44
451.986	85.44
452.207	79.44
452.428	62.44
452.648	90.44
452.869	95.44
453.089	70.44
453.31	91.44
453.53	65.44
453.751	66.44
453.971	71.44
454.192	78.44
454.412	83.44
454.633	86.44
454.853	96.44
455.073	81.44
455.294	76.44
455.514	84.44
455.734	73.44
455.955	77.44
456.175	70.44
456.395	81.44
456.616	77.44
456.836	81.44
457.056	83.44
457.276	85.44
457.497	69.44
457.717	76.44
457.937	91.44
458.157	75.44
458.377	69.44
458.598	77.44
458.818	88.44
459.038	99.44
459.258	86.44
459.478	77.44
459.698	83.44
459.918	77.44
460.138	74.44
460.358	79.44
460.578	90.44
460.798	77.44
461.018	77.44
461.238	72.44
461.458	64.44
461.678	76.44
461.898	86.44
462.118	73.44
462.338	95.44
462.558	85.44
462.777	86.44
462.997	82.44
463.217	80.44
463.437	71.44
463.657	84.44
463.876	85.44
464.096	86.44
464.316	70.44
464.536	83.44
464.755	92.44
464.975	89.44
465.195	68.44
465.414	81.44
465.634	84.44
465.854	74.44
466.073	73.44
466.293	81.44
466.512	71.44
466.732	68.44
466.951	83.44
467.171	83.44
467.391	80.44
467.61	78.44
467.829	64.44
468.049	100.44
468.268	74.44
468.488	75.44
468.707	86.44
468.927	77.44
469.146	74.44
469.365	79.44
469.585	77.44
469.804	89.44
470.023	82.44
470.243	83.44
470.462	100.44
470.681	77.44
470.901	65.44
471.12	87.44
471.339	84.44
471.558	82.44
471.777	80.44
471.997	82.44
472.216	80.44
472.435	71.44
472.654	68.44
472.873	66.44
473.092	76.44
473.311	81.44
473.53	80.44
473.749	80.44
473.968	95.44
474.187	80.44
474.406	67.44
474.625	93.44
474.844	97.44
475.063	82.44
475.282	84.44
475.501	94.44
475.72	85.44
475.939	77.44
476.158	81.44
476.377	81.44
476.596	80.44
476.814	76.44
477.033	80.44
477.252	71.44
477.471	78.44
477.69	76.44
477.908	86.44
478.127	74.44
478.346	91.44
478.564	67.44
478.783	75.44
479.002	73.44
479.22	80.44
479.439	82.44
479.658	76.44
479.876	91.44
480.095	75.44
480.313	82.44
480.532	75.44
480.751	77.44
480.969	84.44
481.188	76.44
481.406	82.44
481.624	79.44
481.843	79.44
482.061	73.44
482.28	84.44
482.498	73.44
482.717	81.44
482.935	80.44
483.153	85.44
483.372	82.44
483.59	90.44
483.808	76.44
484.027	71.44
484.245	85.44
484.463	85.44
484.681	97.44
484.9	79.44
485.118	84.44
485.336	80.44
485.554	88.44
485.772	71.44
485.99	80.44
486.209	78.44
486.427	83.44
486.645	93.44
486.863	87.44
487.081	73.44
487.299	95.44
487.517	83.44
487.735	68.44
487.953	77.44
488.171	81.44
488.389	71.44
488.607	79.44
488.825	85.44
489.043	79.44
489.261	75.44
489.479	79.44
489.696	84.44
489.914	67.44
490.132	78.44
490.35	76.44
490.568	87.44
490.786	70.44
491.003	76.44
491.221	84.44
491.439	86.44
491.657	86.44
491.874	74.44
492.092	79.44
492.31	69.44
492.527	86.44
492.745	84.44
492.963	82.44
493.18	78.44
493.398	76.44
493.615	77.44
493.833	66.44
494.05	73.44
494.268	68.44
494.485	75.44
494.703	89.44
494.92	91.44
495.138	71.44
495.355	83.44
495.573	75.44
495.79	79.44
496.008	83.44
496.225	79.44
496.442	92.44
496.66	81.44
496.877	76.44
497.094	81.44
497.312	73.44
497.529	79.44
497.746	84.44
497.963	95.44
498.181	73.44
498.398	76.44
498.615	79.44
498.832	88.44
499.049	77.44
499.267	93.44
499.484	89.44
499.701	78.44
499.918	75.44
500.135	77.44
500.352	78.44
500.569	77.44
500.786	89.44
501.003	83.44
501.22	70.44
501.437	76.44
501.654	81.44
501.871	76.44
502.088	79.44
502.305	73.44
502.522	83.44
502.739	86.44
502.956	91.44
503.172	82.44
503.389	87.44
503.606	83.44
503.823	74.44
504.04	87.44
504.256	69.44
504.473	74.44
504.69	87.44
504.907	83.44
505.123	77.44
505.34	76.44
505.557	78.44
505.773	73.44
505.99	77.44
506.207	81.44
506.423	77.44
506.64	78.44
506.856	80.44
507.073	79.44
507.289	67.44
507.506	82.44
507.722	80.44
507.939	69.44
508.155	81.44
508.372	68.44
508.588	81.44
508.805	86.44
509.021	78.44
509.238	90.44
509.454	80.44
509.67	83.44
509.887	81.44
510.103	88.44
510.319	62.44
510.536	85.44
510.752	90.44
510.968	81.44
511.184	62.44
511.401	82.44
511.617	86.44
511.833	76.44
512.049	71.44
512.265	82.44
512.481	65.44
512.698	87.44
512.914	91.44
513.13	84.44
513.346	75.44
513.562	88.44
513.778	83.44
513.994	86.44
514.21	78.44
514.426	87.44
514.642	90.44
514.858	79.44
515.074	72.44
515.29	76.44
515.506	80.44
515.721	81.44
515.937	76.44
516.153	80.44
516.369	98.44
516.585	79.44
516.801	73.44
517.016	78.44
517.232	78.44
517.448	78.44
517.664	72.44
517.879	77.44
518.095	90.44
518.311	79.44
518.527	86.44
518.742	86.44
518.958	73.44
519.173	95.44
519.389	91.44
519.605	90.44
519.82	80.44
520.036	77.44
520.251	78.44
