Data from BGNA1_HRD10591_00005.txt Node
Date: Fri Dec 27 14:32:22 EST 2024
User: Yrep
Spectrometer: HR+D1059
Trigger mode: 1
Integration Time (sec): 1.000000E-1
Scans to average: 1
Electric dark correction enabled: true
Nonlinearity correction enabled: false
Boxcar width: 0
XAxis mode: Wavelengths
Number of Pixels in Spectrum: 2048
>>>>>Begin Spectral Data<<<<<
223.165	-18.81
223.4	-18.81
223.635	-18.81
223.869	-7.81
224.104	-25.81
224.338	-14.81
224.573	-19.81
224.808	-10.81
225.042	-9.81
225.277	-11.81
225.511	-0.81
225.746	12.19
225.98	15.19
226.215	15.19
226.449	14.19
226.683	14.19
226.918	23.19
227.152	26.19
227.387	34.19
227.621	48.19
227.856	44.19
228.09	48.19
228.324	47.19
228.559	69.19
228.793	49.19
229.027	61.19
229.262	76.19
229.496	61.19
229.73	77.19
229.964	77.19
230.199	74.19
230.433	80.19
230.667	77.19
230.901	77.19
231.136	82.19
231.37	75.19
231.604	88.19
231.838	81.19
232.072	81.19
232.306	77.19
232.541	74.19
232.775	69.19
233.009	83.19
233.243	91.19
233.477	85.19
233.711	78.19
233.945	82.19
234.179	83.19
234.413	81.19
234.647	79.19
234.881	92.19
235.115	81.19
235.349	86.19
235.583	80.19
235.817	76.19
236.051	80.19
236.285	83.19
236.519	70.19
236.753	78.19
236.987	85.19
237.221	82.19
237.455	70.19
237.689	80.19
237.922	74.19
238.156	82.19
238.39	87.19
238.624	89.19
238.858	83.19
239.091	77.19
239.325	66.19
239.559	71.19
239.793	88.19
240.027	70.19
240.26	74.19
240.494	81.19
240.728	83.19
240.961	74.19
241.195	80.19
241.429	82.19
241.662	74.19
241.896	71.19
242.13	78.19
242.363	68.19
242.597	77.19
242.83	73.19
243.064	65.19
243.298	70.19
243.531	56.19
243.765	75.19
243.998	93.19
244.232	85.19
244.465	94.19
244.699	80.19
244.932	73.19
245.166	83.19
245.399	85.19
245.633	81.19
245.866	74.19
246.099	87.19
246.333	76.19
246.566	74.19
246.8	75.19
247.033	74.19
247.266	83.19
247.5	69.19
247.733	77.19
247.966	86.19
248.2	69.19
248.433	73.19
248.666	81.19
248.899	80.19
249.133	80.19
249.366	87.19
249.599	82.19
249.832	86.19
250.066	84.19
250.299	69.19
250.532	85.19
250.765	72.19
250.998	87.19
251.231	70.19
251.465	61.19
251.698	65.19
251.931	81.19
252.164	69.19
252.397	71.19
252.63	82.19
252.863	76.19
253.096	83.19
253.329	81.19
253.562	76.19
253.795	81.19
254.028	72.19
254.261	81.19
254.494	70.19
254.727	95.19
254.96	81.19
255.193	80.19
255.426	73.19
255.659	86.19
255.892	96.19
256.124	81.19
256.357	76.19
256.59	88.19
256.823	85.19
257.056	74.19
257.289	82.19
257.521	80.19
257.754	85.19
257.987	74.19
258.22	78.19
258.452	87.19
258.685	89.19
258.918	79.19
259.151	72.19
259.383	74.19
259.616	81.19
259.849	87.19
260.081	81.19
260.314	76.19
260.547	80.19
260.779	89.19
261.012	87.19
261.244	81.19
261.477	84.19
261.71	75.19
261.942	81.19
262.175	78.19
262.407	81.19
262.64	75.19
262.872	79.19
263.105	87.19
263.337	83.19
263.57	82.19
263.802	74.19
264.035	85.19
264.267	83.19
264.499	86.19
264.732	78.19
264.964	82.19
265.197	86.19
265.429	82.19
265.661	81.19
265.894	74.19
266.126	78.19
266.358	81.19
266.591	84.19
266.823	77.19
267.055	81.19
267.287	94.19
267.52	83.19
267.752	90.19
267.984	85.19
268.216	93.19
268.448	91.19
268.681	75.19
268.913	83.19
269.145	80.19
269.377	78.19
269.609	75.19
269.841	101.19
270.073	77.19
270.306	79.19
270.538	95.19
270.77	87.19
271.002	88.19
271.234	82.19
271.466	86.19
271.698	79.19
271.93	86.19
272.162	93.19
272.394	95.19
272.626	79.19
272.858	78.19
273.09	102.19
273.322	78.19
273.553	89.19
273.785	83.19
274.017	94.19
274.249	100.19
274.481	100.19
274.713	77.19
274.945	82.19
275.176	91.19
275.408	79.19
275.64	84.19
275.872	90.19
276.104	86.19
276.335	92.19
276.567	93.19
276.799	84.19
277.031	90.19
277.262	92.19
277.494	82.19
277.726	87.19
277.957	85.19
278.189	81.19
278.421	78.19
278.652	72.19
278.884	79.19
279.115	92.19
279.347	83.19
279.579	94.19
279.81	97.19
280.042	86.19
280.273	80.19
280.505	97.19
280.736	77.19
280.968	105.19
281.199	95.19
281.431	86.19
281.662	88.19
281.894	82.19
282.125	78.19
282.356	77.19
282.588	81.19
282.819	84.19
283.051	94.19
283.282	85.19
283.513	85.19
283.745	80.19
283.976	86.19
284.207	89.19
284.439	92.19
284.67	100.19
284.901	76.19
285.132	79.19
285.364	78.19
285.595	78.19
285.826	78.19
286.057	91.19
286.288	78.19
286.52	83.19
286.751	80.19
286.982	92.19
287.213	78.19
287.444	76.19
287.675	74.19
287.906	86.19
288.138	78.19
288.369	82.19
288.6	82.19
288.831	76.19
289.062	91.19
289.293	78.19
289.524	99.19
289.755	93.19
289.986	99.19
290.217	83.19
290.448	88.19
290.679	97.19
290.91	89.19
291.141	88.19
291.371	96.19
291.602	73.19
291.833	79.19
292.064	83.19
292.295	85.19
292.526	85.19
292.757	97.19
292.987	93.19
293.218	86.19
293.449	76.19
293.68	86.19
293.91	90.19
294.141	88.19
294.372	99.19
294.603	86.19
294.833	87.19
295.064	83.19
295.295	82.19
295.525	78.19
295.756	86.19
295.987	88.19
296.217	94.19
296.448	74.19
296.679	86.19
296.909	95.19
297.14	91.19
297.37	80.19
297.601	82.19
297.831	95.19
298.062	95.19
298.292	81.19
298.523	78.19
298.753	86.19
298.984	100.19
299.214	91.19
299.445	84.19
299.675	90.19
299.905	83.19
300.136	97.19
300.366	84.19
300.597	93.19
300.827	90.19
301.057	102.19
301.288	101.19
301.518	101.19
301.748	91.19
301.979	98.19
302.209	95.19
302.439	96.19
302.669	86.19
302.9	86.19
303.13	85.19
303.36	88.19
303.59	86.19
303.82	73.19
304.051	76.19
304.281	74.19
304.511	95.19
304.741	84.19
304.971	87.19
305.201	91.19
305.431	73.19
305.661	92.19
305.891	98.19
306.121	79.19
306.352	60.19
306.582	90.19
306.812	83.19
307.042	85.19
307.272	86.19
307.502	89.19
307.731	87.19
307.961	93.19
308.191	97.19
308.421	89.19
308.651	84.19
308.881	90.19
309.111	84.19
309.341	104.19
309.571	75.19
309.8	74.19
310.03	93.19
310.26	89.19
310.49	95.19
310.72	85.19
310.949	75.19
311.179	84.19
311.409	81.19
311.639	85.19
311.868	86.19
312.098	78.19
312.328	80.19
312.557	93.19
312.787	85.19
313.017	79.19
313.246	92.19
313.476	77.19
313.706	91.19
313.935	75.19
314.165	89.19
314.394	89.19
314.624	93.19
314.853	85.19
315.083	74.19
315.312	82.19
315.542	95.19
315.771	90.19
316.001	71.19
316.23	94.19
316.46	88.19
316.689	83.19
316.919	77.19
317.148	91.19
317.377	86.19
317.607	86.19
317.836	96.19
318.065	89.19
318.295	86.19
318.524	82.19
318.753	88.19
318.983	89.19
319.212	82.19
319.441	87.19
319.67	86.19
319.9	82.19
320.129	94.19
320.358	90.19
320.587	80.19
320.816	83.19
321.046	90.19
321.275	89.19
321.504	93.19
321.733	87.19
321.962	86.19
322.191	87.19
322.42	75.19
322.649	84.19
322.878	80.19
323.108	86.19
323.337	74.19
323.566	93.19
323.795	90.19
324.024	96.19
324.253	75.19
324.482	90.19
324.71	89.19
324.939	98.19
325.168	87.19
325.397	93.19
325.626	87.19
325.855	73.19
326.084	79.19
326.313	82.19
326.542	93.19
326.77	85.19
326.999	81.19
327.228	93.19
327.457	77.19
327.686	80.19
327.914	82.19
328.143	96.19
328.372	82.19
328.6	74.19
328.829	82.19
329.058	79.19
329.287	81.19
329.515	103.19
329.744	91.19
329.972	81.19
330.201	89.19
330.43	85.19
330.658	83.19
330.887	79.19
331.115	87.19
331.344	82.19
331.572	103.19
331.801	81.19
332.03	83.19
332.258	104.19
332.486	72.19
332.715	92.19
332.943	91.19
333.172	95.19
333.4	75.19
333.629	89.19
333.857	91.19
334.085	80.19
334.314	97.19
334.542	85.19
334.771	77.19
334.999	95.19
335.227	86.19
335.455	90.19
335.684	85.19
335.912	90.19
336.14	89.19
336.369	87.19
336.597	87.19
336.825	83.19
337.053	88.19
337.281	88.19
337.51	89.19
337.738	95.19
337.966	85.19
338.194	80.19
338.422	87.19
338.65	87.19
338.878	96.19
339.106	97.19
339.334	75.19
339.562	89.19
339.79	86.19
340.018	86.19
340.246	72.19
340.474	76.19
340.702	84.19
340.93	89.19
341.158	87.19
341.386	94.19
341.614	77.19
341.842	74.19
342.07	91.19
342.298	93.19
342.526	80.19
342.754	88.19
342.981	90.19
343.209	89.19
343.437	105.19
343.665	88.19
343.893	95.19
344.12	77.19
344.348	73.19
344.576	90.19
344.804	81.19
345.031	93.19
345.259	85.19
345.487	75.19
345.714	82.19
345.942	93.19
346.17	91.19
346.397	91.19
346.625	86.19
346.853	89.19
347.08	103.19
347.308	95.19
347.535	96.19
347.763	80.19
347.99	83.19
348.218	94.19
348.445	91.19
348.673	87.19
348.9	81.19
349.128	84.19
349.355	73.19
349.583	88.19
349.81	99.19
350.037	89.19
350.265	103.19
350.492	77.19
350.72	95.19
350.947	103.19
351.174	93.19
351.402	72.19
351.629	67.19
351.856	101.19
352.083	92.19
352.311	93.19
352.538	89.19
352.765	90.19
352.992	99.19
353.22	86.19
353.447	83.19
353.674	86.19
353.901	81.19
354.128	83.19
354.355	81.19
354.583	94.19
354.81	97.19
355.037	90.19
355.264	81.19
355.491	83.19
355.718	90.19
355.945	77.19
356.172	93.19
356.399	90.19
356.626	69.19
356.853	88.19
357.08	82.19
357.307	87.19
357.534	78.19
357.761	81.19
357.988	101.19
358.215	99.19
358.441	84.19
358.668	85.19
358.895	80.19
359.122	85.19
359.349	83.19
359.576	73.19
359.802	87.19
360.029	93.19
360.256	85.19
360.483	73.19
360.709	83.19
360.936	84.19
361.163	113.19
361.39	93.19
361.616	78.19
361.843	74.19
362.07	72.19
362.296	99.19
362.523	84.19
362.749	86.19
362.976	79.19
363.203	83.19
363.429	83.19
363.656	94.19
363.882	88.19
364.109	86.19
364.335	84.19
364.562	71.19
364.788	94.19
365.015	87.19
365.241	85.19
365.468	89.19
365.694	82.19
365.92	88.19
366.147	88.19
366.373	90.19
366.599	88.19
366.826	76.19
367.052	89.19
367.278	91.19
367.505	74.19
367.731	85.19
367.957	80.19
368.184	79.19
368.41	84.19
368.636	83.19
368.862	88.19
369.089	93.19
369.315	104.19
369.541	85.19
369.767	81.19
369.993	90.19
370.219	83.19
370.445	88.19
370.672	81.19
370.898	82.19
371.124	78.19
371.35	90.19
371.576	82.19
371.802	90.19
372.028	87.19
372.254	84.19
372.48	87.19
372.706	79.19
372.932	89.19
373.158	90.19
373.384	85.19
373.61	77.19
373.835	86.19
374.061	85.19
374.287	93.19
374.513	94.19
374.739	81.19
374.965	87.19
375.191	85.19
375.416	95.19
375.642	88.19
375.868	80.19
376.094	85.19
376.319	66.19
376.545	90.19
376.771	114.19
376.997	86.19
377.222	75.19
377.448	86.19
377.674	80.19
377.899	85.19
378.125	80.19
378.35	94.19
378.576	80.19
378.802	88.19
379.027	80.19
379.253	79.19
379.478	86.19
379.704	78.19
379.929	99.19
380.155	87.19
380.38	71.19
380.606	94.19
380.831	100.19
381.057	80.19
381.282	77.19
381.507	86.19
381.733	75.19
381.958	71.19
382.184	89.19
382.409	91.19
382.634	84.19
382.86	98.19
383.085	95.19
383.31	82.19
383.535	75.19
383.761	86.19
383.986	87.19
384.211	68.19
384.436	94.19
384.662	87.19
384.887	82.19
385.112	90.19
385.337	82.19
385.562	86.19
385.787	98.19
386.013	87.19
386.238	104.19
386.463	84.19
386.688	89.19
386.913	80.19
387.138	89.19
387.363	78.19
387.588	74.19
387.813	90.19
388.038	78.19
388.263	65.19
388.488	76.19
388.713	72.19
388.938	75.19
389.163	78.19
389.387	91.19
389.612	81.19
389.837	80.19
390.062	93.19
390.287	97.19
390.512	89.19
390.736	84.19
390.961	90.19
391.186	95.19
391.411	103.19
391.636	98.19
391.86	87.19
392.085	86.19
392.31	90.19
392.534	85.19
392.759	82.19
392.984	77.19
393.208	79.19
393.433	98.19
393.658	82.19
393.882	80.19
394.107	101.19
394.331	88.19
394.556	79.19
394.78	66.19
395.005	92.19
395.229	77.19
395.454	71.19
395.678	88.19
395.903	85.19
396.127	82.19
396.352	80.19
396.576	80.19
396.801	95.19
397.025	81.19
397.249	82.19
397.474	98.19
397.698	85.19
397.922	85.19
398.147	89.19
398.371	90.19
398.595	89.19
398.82	77.19
399.044	84.19
399.268	84.19
399.492	88.19
399.717	87.19
399.941	78.19
400.165	91.19
400.389	78.19
400.613	78.19
400.837	96.19
401.062	91.19
401.286	81.19
401.51	88.19
401.734	90.19
401.958	89.19
402.182	86.19
402.406	87.19
402.63	88.19
402.854	77.19
403.078	89.19
403.302	80.19
403.526	76.19
403.75	76.19
403.974	60.19
404.198	85.19
404.422	87.19
404.645	90.19
404.869	89.19
405.093	92.19
405.317	72.19
405.541	81.19
405.765	76.19
405.988	93.19
406.212	84.19
406.436	81.19
406.66	87.19
406.883	98.19
407.107	77.19
407.331	82.19
407.555	84.19
407.778	82.19
408.002	89.19
408.226	88.19
408.449	84.19
408.673	70.19
408.896	76.19
409.12	74.19
409.344	83.19
409.567	81.19
409.791	81.19
410.014	84.19
410.238	87.19
410.461	73.19
410.685	91.19
410.908	80.19
411.132	89.19
411.355	82.19
411.578	93.19
411.802	86.19
412.025	76.19
412.249	76.19
412.472	68.19
412.695	72.19
412.919	77.19
413.142	89.19
413.365	94.19
413.589	93.19
413.812	81.19
414.035	83.19
414.258	77.19
414.482	94.19
414.705	90.19
414.928	96.19
415.151	88.19
415.374	88.19
415.597	83.19
415.821	73.19
416.044	79.19
416.267	89.19
416.49	77.19
416.713	79.19
416.936	78.19
417.159	73.19
417.382	88.19
417.605	85.19
417.828	74.19
418.051	94.19
418.274	87.19
418.497	85.19
418.72	86.19
418.943	90.19
419.166	88.19
419.389	88.19
419.611	84.19
419.834	89.19
420.057	91.19
420.28	77.19
420.503	90.19
420.726	84.19
420.948	77.19
421.171	96.19
421.394	73.19
421.617	90.19
421.839	80.19
422.062	87.19
422.285	72.19
422.507	77.19
422.73	72.19
422.953	74.19
423.175	79.19
423.398	86.19
423.621	84.19
423.843	84.19
424.066	80.19
424.288	71.19
424.511	91.19
424.733	78.19
424.956	84.19
425.178	100.19
425.401	87.19
425.623	73.19
425.846	69.19
426.068	81.19
426.291	82.19
426.513	84.19
426.735	73.19
426.958	98.19
427.18	91.19
427.402	101.19
427.625	81.19
427.847	88.19
428.069	84.19
428.292	80.19
428.514	87.19
428.736	73.19
428.958	93.19
429.181	86.19
429.403	69.19
429.625	85.19
429.847	76.19
430.069	94.19
430.292	89.19
430.514	92.19
430.736	91.19
430.958	84.19
431.18	93.19
431.402	83.19
431.624	79.19
431.846	86.19
432.068	86.19
432.29	89.19
432.512	92.19
432.734	74.19
432.956	94.19
433.178	82.19
433.4	77.19
433.622	89.19
433.844	86.19
434.066	69.19
434.287	63.19
434.509	79.19
434.731	88.19
434.953	77.19
435.175	78.19
435.397	87.19
435.618	86.19
435.84	86.19
436.062	80.19
436.284	78.19
436.505	83.19
436.727	97.19
436.949	75.19
437.17	69.19
437.392	86.19
437.614	86.19
437.835	94.19
438.057	73.19
438.278	91.19
438.5	102.19
438.721	83.19
438.943	69.19
439.165	86.19
439.386	77.19
439.608	80.19
439.829	86.19
440.05	85.19
440.272	95.19
440.493	84.19
440.715	85.19
440.936	90.19
441.158	79.19
441.379	95.19
441.6	85.19
441.822	94.19
442.043	96.19
442.264	86.19
442.486	86.19
442.707	71.19
442.928	75.19
443.149	82.19
443.371	87.19
443.592	79.19
443.813	87.19
444.034	86.19
444.255	85.19
444.476	67.19
444.698	81.19
444.919	86.19
445.14	137.19
445.361	116.19
445.582	70.19
445.803	87.19
446.024	83.19
446.245	93.19
446.466	90.19
446.687	78.19
446.908	87.19
447.129	90.19
447.35	96.19
447.571	82.19
447.792	83.19
448.013	78.19
448.234	82.19
448.455	83.19
448.675	94.19
448.896	82.19
449.117	80.19
449.338	81.19
449.559	72.19
449.779	84.19
450	88.19
450.221	91.19
450.442	92.19
450.662	78.19
450.883	79.19
451.104	91.19
451.324	84.19
451.545	84.19
451.766	81.19
451.986	82.19
452.207	81.19
452.428	97.19
452.648	83.19
452.869	93.19
453.089	84.19
453.31	82.19
453.53	83.19
453.751	89.19
453.971	71.19
454.192	71.19
454.412	72.19
454.633	75.19
454.853	65.19
455.073	85.19
455.294	77.19
455.514	94.19
455.734	83.19
455.955	83.19
456.175	78.19
456.395	84.19
456.616	75.19
456.836	76.19
457.056	66.19
457.276	85.19
457.497	80.19
457.717	88.19
457.937	77.19
458.157	82.19
458.377	77.19
458.598	83.19
458.818	78.19
459.038	84.19
459.258	79.19
459.478	82.19
459.698	73.19
459.918	73.19
460.138	78.19
460.358	78.19
460.578	76.19
460.798	87.19
461.018	93.19
461.238	88.19
461.458	93.19
461.678	84.19
461.898	79.19
462.118	74.19
462.338	93.19
462.558	91.19
462.777	70.19
462.997	82.19
463.217	89.19
463.437	73.19
463.657	79.19
463.876	78.19
464.096	67.19
464.316	89.19
464.536	79.19
464.755	94.19
464.975	83.19
465.195	72.19
465.414	81.19
465.634	82.19
465.854	77.19
466.073	83.19
466.293	71.19
466.512	78.19
466.732	85.19
466.951	89.19
467.171	83.19
467.391	80.19
467.61	82.19
467.829	73.19
468.049	77.19
468.268	85.19
468.488	95.19
468.707	70.19
468.927	71.19
469.146	89.19
469.365	93.19
469.585	68.19
469.804	70.19
470.023	70.19
470.243	73.19
470.462	73.19
470.681	64.19
470.901	74.19
471.12	83.19
471.339	85.19
471.558	70.19
471.777	82.19
471.997	88.19
472.216	89.19
472.435	75.19
472.654	82.19
472.873	95.19
473.092	83.19
473.311	87.19
473.53	85.19
473.749	95.19
473.968	95.19
474.187	70.19
474.406	88.19
474.625	82.19
474.844	77.19
475.063	71.19
475.282	88.19
475.501	78.19
475.72	96.19
475.939	93.19
476.158	68.19
476.377	89.19
476.596	83.19
476.814	80.19
477.033	78.19
477.252	88.19
477.471	71.19
477.69	93.19
477.908	78.19
478.127	75.19
478.346	79.19
478.564	87.19
478.783	71.19
479.002	83.19
479.22	84.19
479.439	87.19
479.658	93.19
479.876	92.19
480.095	86.19
480.313	63.19
480.532	80.19
480.751	75.19
480.969	85.19
481.188	95.19
481.406	91.19
481.624	84.19
481.843	88.19
482.061	82.19
482.28	87.19
482.498	68.19
482.717	96.19
482.935	100.19
483.153	84.19
483.372	79.19
483.59	79.19
483.808	90.19
484.027	97.19
484.245	74.19
484.463	84.19
484.681	96.19
484.9	84.19
485.118	66.19
485.336	84.19
485.554	80.19
485.772	78.19
485.99	79.19
486.209	76.19
486.427	81.19
486.645	67.19
486.863	84.19
487.081	87.19
487.299	82.19
487.517	91.19
487.735	81.19
487.953	91.19
488.171	84.19
488.389	82.19
488.607	70.19
488.825	77.19
489.043	79.19
489.261	80.19
489.479	81.19
489.696	87.19
489.914	92.19
490.132	89.19
490.35	95.19
490.568	83.19
490.786	91.19
491.003	78.19
491.221	81.19
491.439	93.19
491.657	102.19
491.874	87.19
492.092	96.19
492.31	93.19
492.527	82.19
492.745	69.19
492.963	80.19
493.18	71.19
493.398	84.19
493.615	83.19
493.833	92.19
494.05	90.19
494.268	92.19
494.485	75.19
494.703	71.19
494.92	84.19
495.138	98.19
495.355	74.19
495.573	77.19
495.79	90.19
496.008	82.19
496.225	89.19
496.442	74.19
496.66	71.19
496.877	95.19
497.094	85.19
497.312	85.19
497.529	87.19
497.746	91.19
497.963	75.19
498.181	83.19
498.398	93.19
498.615	85.19
498.832	77.19
499.049	83.19
499.267	84.19
499.484	75.19
499.701	73.19
499.918	88.19
500.135	71.19
500.352	94.19
500.569	86.19
500.786	97.19
501.003	71.19
501.22	80.19
501.437	76.19
501.654	84.19
501.871	77.19
502.088	78.19
502.305	88.19
502.522	84.19
502.739	84.19
502.956	77.19
503.172	94.19
503.389	70.19
503.606	86.19
503.823	96.19
504.04	95.19
504.256	94.19
504.473	81.19
504.69	90.19
504.907	94.19
505.123	87.19
505.34	86.19
505.557	77.19
505.773	85.19
505.99	85.19
506.207	96.19
506.423	86.19
506.64	87.19
506.856	75.19
507.073	87.19
507.289	81.19
507.506	73.19
507.722	78.19
507.939	85.19
508.155	86.19
508.372	93.19
508.588	85.19
508.805	96.19
509.021	81.19
509.238	77.19
509.454	95.19
509.67	77.19
509.887	90.19
510.103	72.19
510.319	88.19
510.536	94.19
510.752	86.19
510.968	78.19
511.184	90.19
511.401	86.19
511.617	87.19
511.833	76.19
512.049	90.19
512.265	83.19
512.481	79.19
512.698	86.19
512.914	104.19
513.13	97.19
513.346	86.19
513.562	67.19
513.778	93.19
513.994	81.19
514.21	83.19
514.426	79.19
514.642	81.19
514.858	75.19
515.074	87.19
515.29	81.19
515.506	87.19
515.721	81.19
515.937	98.19
516.153	83.19
516.369	81.19
516.585	77.19
516.801	75.19
517.016	83.19
517.232	78.19
517.448	87.19
517.664	87.19
517.879	89.19
518.095	92.19
518.311	103.19
518.527	91.19
518.742	81.19
518.958	78.19
519.173	89.19
519.389	87.19
519.605	75.19
519.82	78.19
