Data from BGNA1_HRD10591_00018.txt Node
Date: Fri Dec 27 14:32:35 EST 2024
User: Yrep
Spectrometer: HR+D1059
Trigger mode: 1
Integration Time (sec): 1.000000E-1
Scans to average: 1
Electric dark correction enabled: true
Nonlinearity correction enabled: false
Boxcar width: 0
XAxis mode: Wavelengths
Number of Pixels in Spectrum: 2048
>>>>>Begin Spectral Data<<<<<
223.165	-18.75
223.4	-18.75
223.635	-18.75
223.869	-17.75
224.104	-15.75
224.338	-8.75
224.573	-14.75
224.808	-16.75
225.042	-9.75
225.277	7.25
225.511	-8.75
225.746	-5.75
225.98	3.25
226.215	8.25
226.449	27.25
226.683	14.25
226.918	20.25
227.152	36.25
227.387	32.25
227.621	27.25
227.856	51.25
228.09	52.25
228.324	43.25
228.559	63.25
228.793	79.25
229.027	65.25
229.262	72.25
229.496	71.25
229.73	68.25
229.964	67.25
230.199	60.25
230.433	73.25
230.667	76.25
230.901	66.25
231.136	69.25
231.37	77.25
231.604	90.25
231.838	85.25
232.072	83.25
232.306	87.25
232.541	87.25
232.775	87.25
233.009	78.25
233.243	81.25
233.477	77.25
233.711	71.25
233.945	82.25
234.179	82.25
234.413	83.25
234.647	79.25
234.881	80.25
235.115	72.25
235.349	68.25
235.583	81.25
235.817	76.25
236.051	83.25
236.285	74.25
236.519	82.25
236.753	74.25
236.987	80.25
237.221	82.25
237.455	70.25
237.689	84.25
237.922	86.25
238.156	76.25
238.39	70.25
238.624	75.25
238.858	72.25
239.091	87.25
239.325	80.25
239.559	62.25
239.793	75.25
240.027	80.25
240.26	79.25
240.494	82.25
240.728	75.25
240.961	81.25
241.195	77.25
241.429	69.25
241.662	74.25
241.896	81.25
242.13	84.25
242.363	84.25
242.597	81.25
242.83	86.25
243.064	83.25
243.298	74.25
243.531	64.25
243.765	67.25
243.998	68.25
244.232	72.25
244.465	84.25
244.699	87.25
244.932	68.25
245.166	82.25
245.399	74.25
245.633	91.25
245.866	74.25
246.099	73.25
246.333	65.25
246.566	76.25
246.8	68.25
247.033	82.25
247.266	84.25
247.5	78.25
247.733	96.25
247.966	85.25
248.2	77.25
248.433	59.25
248.666	84.25
248.899	83.25
249.133	82.25
249.366	93.25
249.599	76.25
249.832	82.25
250.066	73.25
250.299	80.25
250.532	81.25
250.765	86.25
250.998	79.25
251.231	75.25
251.465	75.25
251.698	76.25
251.931	89.25
252.164	85.25
252.397	72.25
252.63	79.25
252.863	70.25
253.096	75.25
253.329	77.25
253.562	74.25
253.795	70.25
254.028	83.25
254.261	92.25
254.494	77.25
254.727	76.25
254.96	79.25
255.193	79.25
255.426	92.25
255.659	81.25
255.892	83.25
256.124	82.25
256.357	78.25
256.59	83.25
256.823	79.25
257.056	95.25
257.289	89.25
257.521	73.25
257.754	77.25
257.987	92.25
258.22	95.25
258.452	74.25
258.685	87.25
258.918	78.25
259.151	71.25
259.383	83.25
259.616	80.25
259.849	102.25
260.081	76.25
260.314	79.25
260.547	83.25
260.779	82.25
261.012	77.25
261.244	65.25
261.477	88.25
261.71	89.25
261.942	85.25
262.175	73.25
262.407	73.25
262.64	80.25
262.872	96.25
263.105	84.25
263.337	88.25
263.57	72.25
263.802	80.25
264.035	87.25
264.267	83.25
264.499	64.25
264.732	87.25
264.964	83.25
265.197	98.25
265.429	74.25
265.661	83.25
265.894	77.25
266.126	84.25
266.358	82.25
266.591	83.25
266.823	84.25
267.055	82.25
267.287	86.25
267.52	92.25
267.752	89.25
267.984	94.25
268.216	85.25
268.448	82.25
268.681	89.25
268.913	86.25
269.145	87.25
269.377	78.25
269.609	83.25
269.841	80.25
270.073	94.25
270.306	70.25
270.538	90.25
270.77	81.25
271.002	81.25
271.234	91.25
271.466	78.25
271.698	69.25
271.93	92.25
272.162	87.25
272.394	94.25
272.626	78.25
272.858	85.25
273.09	96.25
273.322	84.25
273.553	83.25
273.785	84.25
274.017	77.25
274.249	94.25
274.481	82.25
274.713	90.25
274.945	85.25
275.176	74.25
275.408	71.25
275.64	90.25
275.872	87.25
276.104	79.25
276.335	88.25
276.567	73.25
276.799	81.25
277.031	92.25
277.262	76.25
277.494	80.25
277.726	80.25
277.957	82.25
278.189	91.25
278.421	82.25
278.652	81.25
278.884	79.25
279.115	84.25
279.347	87.25
279.579	83.25
279.81	81.25
280.042	97.25
280.273	95.25
280.505	85.25
280.736	82.25
280.968	87.25
281.199	98.25
281.431	84.25
281.662	86.25
281.894	89.25
282.125	89.25
282.356	87.25
282.588	81.25
282.819	89.25
283.051	95.25
283.282	90.25
283.513	87.25
283.745	69.25
283.976	69.25
284.207	89.25
284.439	91.25
284.67	87.25
284.901	103.25
285.132	89.25
285.364	84.25
285.595	74.25
285.826	83.25
286.057	91.25
286.288	80.25
286.52	79.25
286.751	85.25
286.982	96.25
287.213	84.25
287.444	92.25
287.675	71.25
287.906	76.25
288.138	81.25
288.369	80.25
288.6	80.25
288.831	60.25
289.062	91.25
289.293	89.25
289.524	75.25
289.755	98.25
289.986	94.25
290.217	72.25
290.448	74.25
290.679	74.25
290.91	88.25
291.141	79.25
291.371	89.25
291.602	83.25
291.833	95.25
292.064	100.25
292.295	86.25
292.526	86.25
292.757	86.25
292.987	81.25
293.218	94.25
293.449	87.25
293.68	92.25
293.91	99.25
294.141	78.25
294.372	82.25
294.603	81.25
294.833	82.25
295.064	90.25
295.295	81.25
295.525	86.25
295.756	85.25
295.987	91.25
296.217	88.25
296.448	74.25
296.679	94.25
296.909	103.25
297.14	74.25
297.37	94.25
297.601	79.25
297.831	86.25
298.062	88.25
298.292	95.25
298.523	84.25
298.753	72.25
298.984	92.25
299.214	92.25
299.445	82.25
299.675	86.25
299.905	75.25
300.136	80.25
300.366	85.25
300.597	75.25
300.827	88.25
301.057	62.25
301.288	91.25
301.518	75.25
301.748	97.25
301.979	102.25
302.209	91.25
302.439	88.25
302.669	95.25
302.9	85.25
303.13	90.25
303.36	77.25
303.59	100.25
303.82	85.25
304.051	90.25
304.281	82.25
304.511	95.25
304.741	82.25
304.971	82.25
305.201	83.25
305.431	86.25
305.661	87.25
305.891	105.25
306.121	83.25
306.352	83.25
306.582	73.25
306.812	81.25
307.042	81.25
307.272	98.25
307.502	97.25
307.731	79.25
307.961	78.25
308.191	79.25
308.421	71.25
308.651	85.25
308.881	79.25
309.111	93.25
309.341	83.25
309.571	85.25
309.8	78.25
310.03	83.25
310.26	77.25
310.49	85.25
310.72	85.25
310.949	98.25
311.179	82.25
311.409	86.25
311.639	84.25
311.868	95.25
312.098	88.25
312.328	74.25
312.557	81.25
312.787	79.25
313.017	86.25
313.246	94.25
313.476	104.25
313.706	97.25
313.935	80.25
314.165	93.25
314.394	81.25
314.624	80.25
314.853	94.25
315.083	96.25
315.312	89.25
315.542	96.25
315.771	89.25
316.001	92.25
316.23	85.25
316.46	78.25
316.689	88.25
316.919	83.25
317.148	77.25
317.377	77.25
317.607	86.25
317.836	88.25
318.065	92.25
318.295	85.25
318.524	75.25
318.753	86.25
318.983	83.25
319.212	84.25
319.441	75.25
319.67	80.25
319.9	82.25
320.129	79.25
320.358	86.25
320.587	81.25
320.816	86.25
321.046	86.25
321.275	90.25
321.504	92.25
321.733	100.25
321.962	84.25
322.191	91.25
322.42	71.25
322.649	78.25
322.878	77.25
323.108	90.25
323.337	98.25
323.566	75.25
323.795	89.25
324.024	88.25
324.253	87.25
324.482	100.25
324.71	77.25
324.939	96.25
325.168	95.25
325.397	104.25
325.626	84.25
325.855	91.25
326.084	76.25
326.313	84.25
326.542	96.25
326.77	80.25
326.999	75.25
327.228	79.25
327.457	96.25
327.686	78.25
327.914	80.25
328.143	99.25
328.372	81.25
328.6	84.25
328.829	76.25
329.058	90.25
329.287	82.25
329.515	86.25
329.744	80.25
329.972	94.25
330.201	85.25
330.43	80.25
330.658	78.25
330.887	81.25
331.115	82.25
331.344	83.25
331.572	84.25
331.801	79.25
332.03	76.25
332.258	85.25
332.486	81.25
332.715	91.25
332.943	87.25
333.172	86.25
333.4	85.25
333.629	92.25
333.857	91.25
334.085	81.25
334.314	78.25
334.542	70.25
334.771	79.25
334.999	87.25
335.227	84.25
335.455	77.25
335.684	66.25
335.912	78.25
336.14	92.25
336.369	78.25
336.597	87.25
336.825	75.25
337.053	76.25
337.281	86.25
337.51	69.25
337.738	88.25
337.966	90.25
338.194	73.25
338.422	75.25
338.65	92.25
338.878	86.25
339.106	100.25
339.334	100.25
339.562	96.25
339.79	82.25
340.018	73.25
340.246	92.25
340.474	82.25
340.702	76.25
340.93	75.25
341.158	75.25
341.386	85.25
341.614	90.25
341.842	82.25
342.07	85.25
342.298	90.25
342.526	90.25
342.754	89.25
342.981	82.25
343.209	91.25
343.437	106.25
343.665	83.25
343.893	78.25
344.12	81.25
344.348	74.25
344.576	91.25
344.804	92.25
345.031	87.25
345.259	88.25
345.487	85.25
345.714	78.25
345.942	85.25
346.17	89.25
346.397	81.25
346.625	82.25
346.853	72.25
347.08	73.25
347.308	75.25
347.535	81.25
347.763	96.25
347.99	76.25
348.218	73.25
348.445	81.25
348.673	79.25
348.9	83.25
349.128	83.25
349.355	91.25
349.583	71.25
349.81	66.25
350.037	76.25
350.265	72.25
350.492	89.25
350.72	74.25
350.947	75.25
351.174	82.25
351.402	80.25
351.629	95.25
351.856	76.25
352.083	70.25
352.311	106.25
352.538	71.25
352.765	70.25
352.992	96.25
353.22	75.25
353.447	84.25
353.674	87.25
353.901	91.25
354.128	77.25
354.355	83.25
354.583	77.25
354.81	82.25
355.037	74.25
355.264	80.25
355.491	71.25
355.718	74.25
355.945	75.25
356.172	89.25
356.399	81.25
356.626	91.25
356.853	101.25
357.08	85.25
357.307	70.25
357.534	82.25
357.761	104.25
357.988	98.25
358.215	86.25
358.441	87.25
358.668	95.25
358.895	80.25
359.122	84.25
359.349	79.25
359.576	86.25
359.802	87.25
360.029	84.25
360.256	80.25
360.483	90.25
360.709	84.25
360.936	101.25
361.163	82.25
361.39	76.25
361.616	71.25
361.843	71.25
362.07	84.25
362.296	89.25
362.523	90.25
362.749	76.25
362.976	77.25
363.203	78.25
363.429	87.25
363.656	99.25
363.882	70.25
364.109	98.25
364.335	82.25
364.562	91.25
364.788	95.25
365.015	83.25
365.241	87.25
365.468	95.25
365.694	96.25
365.92	90.25
366.147	86.25
366.373	82.25
366.599	85.25
366.826	82.25
367.052	80.25
367.278	91.25
367.505	75.25
367.731	75.25
367.957	90.25
368.184	83.25
368.41	80.25
368.636	80.25
368.862	95.25
369.089	75.25
369.315	82.25
369.541	79.25
369.767	89.25
369.993	87.25
370.219	90.25
370.445	73.25
370.672	80.25
370.898	72.25
371.124	98.25
371.35	78.25
371.576	75.25
371.802	84.25
372.028	69.25
372.254	86.25
372.48	88.25
372.706	84.25
372.932	72.25
373.158	83.25
373.384	89.25
373.61	94.25
373.835	93.25
374.061	87.25
374.287	104.25
374.513	80.25
374.739	78.25
374.965	84.25
375.191	90.25
375.416	77.25
375.642	75.25
375.868	88.25
376.094	77.25
376.319	78.25
376.545	86.25
376.771	89.25
376.997	89.25
377.222	87.25
377.448	92.25
377.674	78.25
377.899	76.25
378.125	75.25
378.35	82.25
378.576	75.25
378.802	91.25
379.027	98.25
379.253	84.25
379.478	92.25
379.704	84.25
379.929	88.25
380.155	83.25
380.38	82.25
380.606	74.25
380.831	79.25
381.057	76.25
381.282	65.25
381.507	79.25
381.733	84.25
381.958	87.25
382.184	70.25
382.409	81.25
382.634	88.25
382.86	74.25
383.085	82.25
383.31	94.25
383.535	72.25
383.761	74.25
383.986	84.25
384.211	87.25
384.436	84.25
384.662	79.25
384.887	82.25
385.112	87.25
385.337	80.25
385.562	83.25
385.787	84.25
386.013	104.25
386.238	86.25
386.463	84.25
386.688	92.25
386.913	82.25
387.138	80.25
387.363	92.25
387.588	77.25
387.813	83.25
388.038	80.25
388.263	75.25
388.488	80.25
388.713	94.25
388.938	89.25
389.163	84.25
389.387	77.25
389.612	80.25
389.837	79.25
390.062	85.25
390.287	73.25
390.512	82.25
390.736	88.25
390.961	83.25
391.186	80.25
391.411	91.25
391.636	76.25
391.86	89.25
392.085	87.25
392.31	68.25
392.534	69.25
392.759	75.25
392.984	73.25
393.208	75.25
393.433	83.25
393.658	76.25
393.882	81.25
394.107	78.25
394.331	79.25
394.556	78.25
394.78	79.25
395.005	73.25
395.229	73.25
395.454	69.25
395.678	85.25
395.903	69.25
396.127	79.25
396.352	76.25
396.576	78.25
396.801	72.25
397.025	80.25
397.249	88.25
397.474	89.25
397.698	75.25
397.922	75.25
398.147	81.25
398.371	89.25
398.595	73.25
398.82	91.25
399.044	87.25
399.268	91.25
399.492	59.25
399.717	75.25
399.941	74.25
400.165	79.25
400.389	80.25
400.613	66.25
400.837	83.25
401.062	86.25
401.286	88.25
401.51	107.25
401.734	83.25
401.958	81.25
402.182	73.25
402.406	83.25
402.63	67.25
402.854	72.25
403.078	81.25
403.302	80.25
403.526	79.25
403.75	80.25
403.974	75.25
404.198	90.25
404.422	71.25
404.645	79.25
404.869	81.25
405.093	86.25
405.317	88.25
405.541	89.25
405.765	92.25
405.988	70.25
406.212	87.25
406.436	67.25
406.66	83.25
406.883	79.25
407.107	84.25
407.331	84.25
407.555	76.25
407.778	72.25
408.002	83.25
408.226	92.25
408.449	90.25
408.673	77.25
408.896	78.25
409.12	75.25
409.344	83.25
409.567	83.25
409.791	86.25
410.014	90.25
410.238	69.25
410.461	87.25
410.685	89.25
410.908	98.25
411.132	75.25
411.355	87.25
411.578	83.25
411.802	88.25
412.025	87.25
412.249	88.25
412.472	108.25
412.695	71.25
412.919	78.25
413.142	67.25
413.365	78.25
413.589	75.25
413.812	80.25
414.035	87.25
414.258	70.25
414.482	70.25
414.705	87.25
414.928	87.25
415.151	85.25
415.374	89.25
415.597	65.25
415.821	80.25
416.044	84.25
416.267	88.25
416.49	79.25
416.713	75.25
416.936	92.25
417.159	83.25
417.382	89.25
417.605	93.25
417.828	82.25
418.051	84.25
418.274	84.25
418.497	84.25
418.72	74.25
418.943	81.25
419.166	81.25
419.389	73.25
419.611	75.25
419.834	76.25
420.057	86.25
420.28	74.25
420.503	81.25
420.726	94.25
420.948	80.25
421.171	67.25
421.394	88.25
421.617	74.25
421.839	77.25
422.062	83.25
422.285	91.25
422.507	79.25
422.73	80.25
422.953	79.25
423.175	68.25
423.398	82.25
423.621	79.25
423.843	89.25
424.066	77.25
424.288	67.25
424.511	63.25
424.733	86.25
424.956	77.25
425.178	60.25
425.401	104.25
425.623	82.25
425.846	74.25
426.068	82.25
426.291	81.25
426.513	90.25
426.735	80.25
426.958	74.25
427.18	73.25
427.402	77.25
427.625	72.25
427.847	82.25
428.069	94.25
428.292	74.25
428.514	90.25
428.736	80.25
428.958	78.25
429.181	87.25
429.403	84.25
429.625	75.25
429.847	78.25
430.069	70.25
430.292	69.25
430.514	80.25
430.736	75.25
430.958	88.25
431.18	90.25
431.402	73.25
431.624	81.25
431.846	88.25
432.068	78.25
432.29	98.25
432.512	77.25
432.734	90.25
432.956	84.25
433.178	90.25
433.4	79.25
433.622	79.25
433.844	75.25
434.066	80.25
434.287	91.25
434.509	80.25
434.731	76.25
434.953	85.25
435.175	89.25
435.397	82.25
435.618	75.25
435.84	74.25
436.062	83.25
436.284	79.25
436.505	78.25
436.727	88.25
436.949	104.25
437.17	87.25
437.392	82.25
437.614	76.25
437.835	81.25
438.057	76.25
438.278	98.25
438.5	79.25
438.721	89.25
438.943	79.25
439.165	84.25
439.386	98.25
439.608	84.25
439.829	82.25
440.05	92.25
440.272	74.25
440.493	79.25
440.715	83.25
440.936	81.25
441.158	91.25
441.379	86.25
441.6	87.25
441.822	83.25
442.043	87.25
442.264	79.25
442.486	73.25
442.707	82.25
442.928	77.25
443.149	73.25
443.371	84.25
443.592	75.25
443.813	76.25
444.034	75.25
444.255	86.25
444.476	90.25
444.698	100.25
444.919	78.25
445.14	143.25
445.361	111.25
445.582	103.25
445.803	87.25
446.024	81.25
446.245	86.25
446.466	83.25
446.687	80.25
446.908	68.25
447.129	79.25
447.35	68.25
447.571	73.25
447.792	78.25
448.013	87.25
448.234	80.25
448.455	92.25
448.675	94.25
448.896	79.25
449.117	75.25
449.338	69.25
449.559	77.25
449.779	78.25
450	94.25
450.221	83.25
450.442	72.25
450.662	74.25
450.883	76.25
451.104	76.25
451.324	73.25
451.545	85.25
451.766	88.25
451.986	75.25
452.207	85.25
452.428	94.25
452.648	75.25
452.869	73.25
453.089	79.25
453.31	78.25
453.53	72.25
453.751	95.25
453.971	81.25
454.192	91.25
454.412	92.25
454.633	81.25
454.853	82.25
455.073	86.25
455.294	79.25
455.514	76.25
455.734	65.25
455.955	80.25
456.175	78.25
456.395	88.25
456.616	85.25
456.836	89.25
457.056	75.25
457.276	72.25
457.497	64.25
457.717	80.25
457.937	80.25
458.157	76.25
458.377	83.25
458.598	88.25
458.818	88.25
459.038	80.25
459.258	78.25
459.478	83.25
459.698	74.25
459.918	82.25
460.138	82.25
460.358	82.25
460.578	74.25
460.798	78.25
461.018	83.25
461.238	79.25
461.458	75.25
461.678	84.25
461.898	77.25
462.118	77.25
462.338	89.25
462.558	74.25
462.777	88.25
462.997	90.25
463.217	73.25
463.437	74.25
463.657	89.25
463.876	84.25
464.096	86.25
464.316	73.25
464.536	73.25
464.755	79.25
464.975	66.25
465.195	85.25
465.414	86.25
465.634	83.25
465.854	83.25
466.073	87.25
466.293	75.25
466.512	92.25
466.732	80.25
466.951	101.25
467.171	74.25
467.391	101.25
467.61	71.25
467.829	86.25
468.049	75.25
468.268	78.25
468.488	66.25
468.707	97.25
468.927	82.25
469.146	87.25
469.365	91.25
469.585	82.25
469.804	91.25
470.023	94.25
470.243	86.25
470.462	84.25
470.681	88.25
470.901	82.25
471.12	75.25
471.339	81.25
471.558	88.25
471.777	74.25
471.997	86.25
472.216	82.25
472.435	75.25
472.654	90.25
472.873	72.25
473.092	82.25
473.311	73.25
473.53	76.25
473.749	87.25
473.968	75.25
474.187	70.25
474.406	84.25
474.625	85.25
474.844	84.25
475.063	80.25
475.282	84.25
475.501	81.25
475.72	88.25
475.939	67.25
476.158	71.25
476.377	91.25
476.596	81.25
476.814	78.25
477.033	73.25
477.252	67.25
477.471	92.25
477.69	85.25
477.908	80.25
478.127	83.25
478.346	87.25
478.564	89.25
478.783	79.25
479.002	75.25
479.22	89.25
479.439	83.25
479.658	84.25
479.876	80.25
480.095	83.25
480.313	75.25
480.532	80.25
480.751	88.25
480.969	94.25
481.188	88.25
481.406	89.25
481.624	85.25
481.843	70.25
482.061	76.25
482.28	90.25
482.498	80.25
482.717	88.25
482.935	84.25
483.153	69.25
483.372	85.25
483.59	86.25
483.808	81.25
484.027	96.25
484.245	74.25
484.463	80.25
484.681	79.25
484.9	91.25
485.118	88.25
485.336	78.25
485.554	86.25
485.772	88.25
485.99	86.25
486.209	91.25
486.427	82.25
486.645	83.25
486.863	96.25
487.081	76.25
487.299	76.25
487.517	78.25
487.735	75.25
487.953	88.25
488.171	89.25
488.389	86.25
488.607	83.25
488.825	81.25
489.043	88.25
489.261	97.25
489.479	88.25
489.696	97.25
489.914	80.25
490.132	79.25
490.35	81.25
490.568	73.25
490.786	69.25
491.003	80.25
491.221	82.25
491.439	89.25
491.657	85.25
491.874	80.25
492.092	82.25
492.31	91.25
492.527	94.25
492.745	70.25
492.963	78.25
493.18	89.25
493.398	91.25
493.615	83.25
493.833	78.25
494.05	81.25
494.268	86.25
494.485	82.25
494.703	84.25
494.92	82.25
495.138	88.25
495.355	88.25
495.573	89.25
495.79	91.25
496.008	81.25
496.225	81.25
496.442	76.25
496.66	86.25
496.877	71.25
497.094	89.25
497.312	84.25
497.529	89.25
497.746	83.25
497.963	83.25
498.181	72.25
498.398	91.25
498.615	86.25
498.832	89.25
499.049	86.25
499.267	98.25
499.484	84.25
499.701	85.25
499.918	87.25
500.135	79.25
500.352	74.25
500.569	90.25
500.786	92.25
501.003	85.25
501.22	87.25
501.437	88.25
501.654	92.25
501.871	82.25
502.088	91.25
502.305	87.25
502.522	70.25
502.739	81.25
502.956	84.25
503.172	103.25
503.389	76.25
503.606	87.25
503.823	78.25
504.04	81.25
504.256	98.25
504.473	69.25
504.69	96.25
504.907	84.25
505.123	81.25
505.34	87.25
505.557	83.25
505.773	94.25
505.99	76.25
506.207	88.25
506.423	82.25
506.64	74.25
506.856	79.25
507.073	81.25
507.289	85.25
507.506	94.25
507.722	92.25
507.939	92.25
508.155	87.25
508.372	78.25
508.588	76.25
508.805	82.25
509.021	89.25
509.238	110.25
509.454	84.25
509.67	88.25
509.887	87.25
510.103	86.25
510.319	72.25
510.536	76.25
510.752	96.25
510.968	84.25
511.184	82.25
511.401	97.25
511.617	94.25
511.833	78.25
512.049	89.25
512.265	96.25
512.481	85.25
512.698	78.25
512.914	82.25
513.13	84.25
513.346	95.25
513.562	76.25
513.778	96.25
513.994	96.25
514.21	84.25
514.426	87.25
514.642	86.25
514.858	86.25
515.074	75.25
515.29	81.25
515.506	91.25
515.721	91.25
515.937	84.25
516.153	72.25
516.369	84.25
516.585	81.25
516.801	80.25
517.016	98.25
517.232	90.25
517.448	89.25
517.664	83.25
517.879	73.25
518.095	80.25
518.311	84.25
518.527	82.25
518.742	76.25
518.958	94.25
519.173	95.25
519.389	92.25
519.605	98.25
519.82	81.25
