Data from BGNA1_HRD10591_00007.txt Node
Date: Fri Dec 27 14:32:24 EST 2024
User: Yrep
Spectrometer: HR+D1059
Trigger mode: 1
Integration Time (sec): 1.000000E-1
Scans to average: 1
Electric dark correction enabled: true
Nonlinearity correction enabled: false
Boxcar width: 0
XAxis mode: Wavelengths
Number of Pixels in Spectrum: 2048
>>>>>Begin Spectral Data<<<<<
223.165	-6.44
223.4	-6.44
223.635	-6.44
223.869	-16.44
224.104	-21.44
224.338	-10.44
224.573	-12.44
224.808	-7.44
225.042	2.56
225.277	-10.44
225.511	4.56
225.746	2.56
225.98	-3.44
226.215	16.56
226.449	10.56
226.683	19.56
226.918	10.56
227.152	21.56
227.387	43.56
227.621	35.56
227.856	43.56
228.09	47.56
228.324	51.56
228.559	63.56
228.793	76.56
229.027	54.56
229.262	64.56
229.496	68.56
229.73	58.56
229.964	84.56
230.199	75.56
230.433	69.56
230.667	72.56
230.901	78.56
231.136	77.56
231.37	75.56
231.604	80.56
231.838	64.56
232.072	66.56
232.306	79.56
232.541	88.56
232.775	81.56
233.009	88.56
233.243	84.56
233.477	88.56
233.711	75.56
233.945	80.56
234.179	85.56
234.413	85.56
234.647	85.56
234.881	81.56
235.115	82.56
235.349	81.56
235.583	81.56
235.817	71.56
236.051	75.56
236.285	76.56
236.519	65.56
236.753	64.56
236.987	80.56
237.221	71.56
237.455	73.56
237.689	76.56
237.922	75.56
238.156	75.56
238.39	81.56
238.624	66.56
238.858	77.56
239.091	84.56
239.325	79.56
239.559	76.56
239.793	73.56
240.027	91.56
240.26	67.56
240.494	74.56
240.728	67.56
240.961	78.56
241.195	86.56
241.429	78.56
241.662	88.56
241.896	84.56
242.13	79.56
242.363	86.56
242.597	60.56
242.83	68.56
243.064	80.56
243.298	72.56
243.531	58.56
243.765	85.56
243.998	74.56
244.232	69.56
244.465	73.56
244.699	71.56
244.932	73.56
245.166	76.56
245.399	78.56
245.633	91.56
245.866	95.56
246.099	74.56
246.333	68.56
246.566	69.56
246.8	76.56
247.033	64.56
247.266	84.56
247.5	78.56
247.733	79.56
247.966	88.56
248.2	67.56
248.433	77.56
248.666	82.56
248.899	83.56
249.133	80.56
249.366	98.56
249.599	81.56
249.832	74.56
250.066	79.56
250.299	81.56
250.532	82.56
250.765	85.56
250.998	79.56
251.231	79.56
251.465	70.56
251.698	58.56
251.931	72.56
252.164	63.56
252.397	68.56
252.63	84.56
252.863	62.56
253.096	76.56
253.329	72.56
253.562	75.56
253.795	82.56
254.028	83.56
254.261	76.56
254.494	81.56
254.727	85.56
254.96	77.56
255.193	83.56
255.426	74.56
255.659	64.56
255.892	79.56
256.124	78.56
256.357	84.56
256.59	80.56
256.823	97.56
257.056	79.56
257.289	70.56
257.521	86.56
257.754	80.56
257.987	83.56
258.22	90.56
258.452	81.56
258.685	92.56
258.918	84.56
259.151	82.56
259.383	91.56
259.616	69.56
259.849	64.56
260.081	74.56
260.314	81.56
260.547	89.56
260.779	78.56
261.012	76.56
261.244	87.56
261.477	90.56
261.71	75.56
261.942	78.56
262.175	75.56
262.407	81.56
262.64	86.56
262.872	86.56
263.105	71.56
263.337	79.56
263.57	71.56
263.802	97.56
264.035	74.56
264.267	90.56
264.499	80.56
264.732	77.56
264.964	85.56
265.197	80.56
265.429	84.56
265.661	88.56
265.894	76.56
266.126	90.56
266.358	87.56
266.591	66.56
266.823	77.56
267.055	78.56
267.287	91.56
267.52	80.56
267.752	86.56
267.984	80.56
268.216	72.56
268.448	81.56
268.681	86.56
268.913	83.56
269.145	83.56
269.377	81.56
269.609	74.56
269.841	73.56
270.073	74.56
270.306	73.56
270.538	75.56
270.77	74.56
271.002	90.56
271.234	95.56
271.466	83.56
271.698	85.56
271.93	83.56
272.162	76.56
272.394	77.56
272.626	78.56
272.858	82.56
273.09	74.56
273.322	90.56
273.553	68.56
273.785	85.56
274.017	77.56
274.249	67.56
274.481	78.56
274.713	68.56
274.945	78.56
275.176	94.56
275.408	75.56
275.64	79.56
275.872	67.56
276.104	77.56
276.335	74.56
276.567	85.56
276.799	91.56
277.031	75.56
277.262	76.56
277.494	86.56
277.726	87.56
277.957	93.56
278.189	82.56
278.421	76.56
278.652	78.56
278.884	80.56
279.115	92.56
279.347	77.56
279.579	90.56
279.81	85.56
280.042	80.56
280.273	71.56
280.505	79.56
280.736	78.56
280.968	76.56
281.199	69.56
281.431	84.56
281.662	74.56
281.894	84.56
282.125	85.56
282.356	75.56
282.588	70.56
282.819	75.56
283.051	88.56
283.282	75.56
283.513	75.56
283.745	86.56
283.976	82.56
284.207	68.56
284.439	65.56
284.67	82.56
284.901	94.56
285.132	92.56
285.364	85.56
285.595	74.56
285.826	91.56
286.057	90.56
286.288	71.56
286.52	96.56
286.751	84.56
286.982	80.56
287.213	87.56
287.444	98.56
287.675	96.56
287.906	95.56
288.138	75.56
288.369	80.56
288.6	88.56
288.831	81.56
289.062	87.56
289.293	75.56
289.524	84.56
289.755	82.56
289.986	80.56
290.217	66.56
290.448	75.56
290.679	65.56
290.91	89.56
291.141	87.56
291.371	94.56
291.602	98.56
291.833	76.56
292.064	101.56
292.295	96.56
292.526	87.56
292.757	90.56
292.987	64.56
293.218	78.56
293.449	92.56
293.68	70.56
293.91	86.56
294.141	98.56
294.372	84.56
294.603	96.56
294.833	71.56
295.064	88.56
295.295	89.56
295.525	88.56
295.756	84.56
295.987	71.56
296.217	76.56
296.448	90.56
296.679	82.56
296.909	74.56
297.14	91.56
297.37	80.56
297.601	63.56
297.831	71.56
298.062	77.56
298.292	74.56
298.523	88.56
298.753	87.56
298.984	80.56
299.214	77.56
299.445	76.56
299.675	72.56
299.905	79.56
300.136	83.56
300.366	82.56
300.597	72.56
300.827	86.56
301.057	82.56
301.288	76.56
301.518	91.56
301.748	92.56
301.979	103.56
302.209	85.56
302.439	85.56
302.669	100.56
302.9	90.56
303.13	81.56
303.36	91.56
303.59	92.56
303.82	84.56
304.051	77.56
304.281	80.56
304.511	85.56
304.741	83.56
304.971	78.56
305.201	86.56
305.431	86.56
305.661	89.56
305.891	78.56
306.121	80.56
306.352	88.56
306.582	83.56
306.812	73.56
307.042	90.56
307.272	79.56
307.502	85.56
307.731	85.56
307.961	82.56
308.191	94.56
308.421	85.56
308.651	86.56
308.881	79.56
309.111	85.56
309.341	100.56
309.571	85.56
309.8	95.56
310.03	95.56
310.26	76.56
310.49	81.56
310.72	87.56
310.949	64.56
311.179	81.56
311.409	78.56
311.639	89.56
311.868	93.56
312.098	81.56
312.328	88.56
312.557	74.56
312.787	87.56
313.017	79.56
313.246	80.56
313.476	77.56
313.706	81.56
313.935	79.56
314.165	70.56
314.394	92.56
314.624	87.56
314.853	80.56
315.083	84.56
315.312	78.56
315.542	87.56
315.771	92.56
316.001	92.56
316.23	93.56
316.46	79.56
316.689	84.56
316.919	91.56
317.148	84.56
317.377	90.56
317.607	84.56
317.836	83.56
318.065	77.56
318.295	89.56
318.524	86.56
318.753	82.56
318.983	82.56
319.212	82.56
319.441	85.56
319.67	79.56
319.9	96.56
320.129	99.56
320.358	70.56
320.587	81.56
320.816	83.56
321.046	79.56
321.275	92.56
321.504	76.56
321.733	86.56
321.962	82.56
322.191	93.56
322.42	87.56
322.649	76.56
322.878	89.56
323.108	91.56
323.337	98.56
323.566	89.56
323.795	72.56
324.024	70.56
324.253	88.56
324.482	83.56
324.71	95.56
324.939	90.56
325.168	79.56
325.397	72.56
325.626	70.56
325.855	76.56
326.084	98.56
326.313	86.56
326.542	92.56
326.77	90.56
326.999	86.56
327.228	78.56
327.457	93.56
327.686	75.56
327.914	79.56
328.143	90.56
328.372	90.56
328.6	73.56
328.829	72.56
329.058	77.56
329.287	98.56
329.515	87.56
329.744	85.56
329.972	75.56
330.201	85.56
330.43	88.56
330.658	81.56
330.887	92.56
331.115	84.56
331.344	95.56
331.572	86.56
331.801	71.56
332.03	74.56
332.258	79.56
332.486	77.56
332.715	99.56
332.943	99.56
333.172	82.56
333.4	83.56
333.629	73.56
333.857	83.56
334.085	87.56
334.314	93.56
334.542	79.56
334.771	89.56
334.999	99.56
335.227	81.56
335.455	77.56
335.684	90.56
335.912	72.56
336.14	90.56
336.369	83.56
336.597	69.56
336.825	81.56
337.053	69.56
337.281	82.56
337.51	78.56
337.738	88.56
337.966	86.56
338.194	92.56
338.422	90.56
338.65	83.56
338.878	90.56
339.106	86.56
339.334	78.56
339.562	78.56
339.79	84.56
340.018	83.56
340.246	79.56
340.474	78.56
340.702	78.56
340.93	87.56
341.158	76.56
341.386	78.56
341.614	86.56
341.842	92.56
342.07	74.56
342.298	97.56
342.526	83.56
342.754	82.56
342.981	100.56
343.209	85.56
343.437	94.56
343.665	73.56
343.893	74.56
344.12	90.56
344.348	99.56
344.576	76.56
344.804	70.56
345.031	74.56
345.259	71.56
345.487	73.56
345.714	80.56
345.942	92.56
346.17	84.56
346.397	84.56
346.625	80.56
346.853	77.56
347.08	91.56
347.308	96.56
347.535	90.56
347.763	77.56
347.99	81.56
348.218	79.56
348.445	87.56
348.673	73.56
348.9	87.56
349.128	90.56
349.355	78.56
349.583	71.56
349.81	80.56
350.037	84.56
350.265	88.56
350.492	94.56
350.72	92.56
350.947	89.56
351.174	93.56
351.402	78.56
351.629	82.56
351.856	83.56
352.083	82.56
352.311	89.56
352.538	79.56
352.765	72.56
352.992	86.56
353.22	84.56
353.447	80.56
353.674	88.56
353.901	80.56
354.128	82.56
354.355	75.56
354.583	85.56
354.81	88.56
355.037	83.56
355.264	84.56
355.491	86.56
355.718	90.56
355.945	94.56
356.172	95.56
356.399	91.56
356.626	61.56
356.853	72.56
357.08	83.56
357.307	84.56
357.534	79.56
357.761	82.56
357.988	71.56
358.215	82.56
358.441	82.56
358.668	94.56
358.895	87.56
359.122	82.56
359.349	91.56
359.576	83.56
359.802	88.56
360.029	83.56
360.256	90.56
360.483	83.56
360.709	82.56
360.936	92.56
361.163	90.56
361.39	93.56
361.616	84.56
361.843	79.56
362.07	66.56
362.296	78.56
362.523	83.56
362.749	77.56
362.976	79.56
363.203	82.56
363.429	93.56
363.656	89.56
363.882	88.56
364.109	79.56
364.335	78.56
364.562	86.56
364.788	80.56
365.015	82.56
365.241	74.56
365.468	72.56
365.694	83.56
365.92	92.56
366.147	86.56
366.373	70.56
366.599	70.56
366.826	87.56
367.052	77.56
367.278	74.56
367.505	87.56
367.731	96.56
367.957	83.56
368.184	83.56
368.41	74.56
368.636	76.56
368.862	77.56
369.089	87.56
369.315	89.56
369.541	76.56
369.767	98.56
369.993	76.56
370.219	89.56
370.445	87.56
370.672	84.56
370.898	86.56
371.124	70.56
371.35	87.56
371.576	74.56
371.802	89.56
372.028	80.56
372.254	87.56
372.48	82.56
372.706	78.56
372.932	92.56
373.158	75.56
373.384	92.56
373.61	76.56
373.835	76.56
374.061	74.56
374.287	88.56
374.513	103.56
374.739	90.56
374.965	93.56
375.191	63.56
375.416	94.56
375.642	73.56
375.868	90.56
376.094	96.56
376.319	71.56
376.545	83.56
376.771	82.56
376.997	76.56
377.222	84.56
377.448	77.56
377.674	74.56
377.899	79.56
378.125	81.56
378.35	75.56
378.576	68.56
378.802	74.56
379.027	74.56
379.253	82.56
379.478	79.56
379.704	97.56
379.929	85.56
380.155	79.56
380.38	79.56
380.606	76.56
380.831	85.56
381.057	83.56
381.282	88.56
381.507	83.56
381.733	81.56
381.958	85.56
382.184	87.56
382.409	82.56
382.634	74.56
382.86	79.56
383.085	79.56
383.31	90.56
383.535	83.56
383.761	70.56
383.986	83.56
384.211	83.56
384.436	82.56
384.662	83.56
384.887	76.56
385.112	82.56
385.337	100.56
385.562	84.56
385.787	72.56
386.013	86.56
386.238	72.56
386.463	78.56
386.688	92.56
386.913	72.56
387.138	64.56
387.363	94.56
387.588	78.56
387.813	72.56
388.038	73.56
388.263	74.56
388.488	71.56
388.713	99.56
388.938	80.56
389.163	84.56
389.387	70.56
389.612	72.56
389.837	79.56
390.062	78.56
390.287	81.56
390.512	77.56
390.736	78.56
390.961	88.56
391.186	85.56
391.411	90.56
391.636	84.56
391.86	76.56
392.085	79.56
392.31	67.56
392.534	78.56
392.759	81.56
392.984	68.56
393.208	81.56
393.433	88.56
393.658	81.56
393.882	85.56
394.107	84.56
394.331	73.56
394.556	71.56
394.78	70.56
395.005	85.56
395.229	84.56
395.454	87.56
395.678	94.56
395.903	82.56
396.127	79.56
396.352	76.56
396.576	75.56
396.801	76.56
397.025	84.56
397.249	77.56
397.474	84.56
397.698	83.56
397.922	87.56
398.147	65.56
398.371	80.56
398.595	85.56
398.82	92.56
399.044	75.56
399.268	78.56
399.492	74.56
399.717	86.56
399.941	77.56
400.165	84.56
400.389	86.56
400.613	90.56
400.837	81.56
401.062	76.56
401.286	77.56
401.51	84.56
401.734	55.56
401.958	70.56
402.182	83.56
402.406	85.56
402.63	82.56
402.854	69.56
403.078	80.56
403.302	82.56
403.526	78.56
403.75	81.56
403.974	84.56
404.198	82.56
404.422	81.56
404.645	87.56
404.869	72.56
405.093	81.56
405.317	84.56
405.541	74.56
405.765	95.56
405.988	67.56
406.212	70.56
406.436	82.56
406.66	101.56
406.883	82.56
407.107	77.56
407.331	72.56
407.555	82.56
407.778	74.56
408.002	86.56
408.226	86.56
408.449	80.56
408.673	77.56
408.896	75.56
409.12	84.56
409.344	93.56
409.567	80.56
409.791	83.56
410.014	71.56
410.238	72.56
410.461	76.56
410.685	92.56
410.908	79.56
411.132	91.56
411.355	87.56
411.578	70.56
411.802	89.56
412.025	85.56
412.249	84.56
412.472	77.56
412.695	82.56
412.919	80.56
413.142	84.56
413.365	67.56
413.589	74.56
413.812	87.56
414.035	93.56
414.258	94.56
414.482	91.56
414.705	80.56
414.928	79.56
415.151	78.56
415.374	82.56
415.597	82.56
415.821	78.56
416.044	79.56
416.267	80.56
416.49	84.56
416.713	70.56
416.936	75.56
417.159	76.56
417.382	75.56
417.605	79.56
417.828	76.56
418.051	73.56
418.274	79.56
418.497	64.56
418.72	74.56
418.943	84.56
419.166	83.56
419.389	85.56
419.611	79.56
419.834	75.56
420.057	101.56
420.28	68.56
420.503	79.56
420.726	76.56
420.948	69.56
421.171	71.56
421.394	67.56
421.617	80.56
421.839	76.56
422.062	69.56
422.285	78.56
422.507	80.56
422.73	87.56
422.953	77.56
423.175	75.56
423.398	83.56
423.621	79.56
423.843	95.56
424.066	86.56
424.288	73.56
424.511	72.56
424.733	84.56
424.956	77.56
425.178	70.56
425.401	87.56
425.623	96.56
425.846	78.56
426.068	79.56
426.291	79.56
426.513	88.56
426.735	96.56
426.958	86.56
427.18	88.56
427.402	86.56
427.625	77.56
427.847	65.56
428.069	77.56
428.292	88.56
428.514	79.56
428.736	74.56
428.958	83.56
429.181	92.56
429.403	80.56
429.625	87.56
429.847	74.56
430.069	78.56
430.292	75.56
430.514	79.56
430.736	69.56
430.958	93.56
431.18	79.56
431.402	84.56
431.624	64.56
431.846	83.56
432.068	83.56
432.29	82.56
432.512	79.56
432.734	65.56
432.956	83.56
433.178	94.56
433.4	77.56
433.622	86.56
433.844	82.56
434.066	80.56
434.287	77.56
434.509	79.56
434.731	80.56
434.953	90.56
435.175	79.56
435.397	80.56
435.618	92.56
435.84	79.56
436.062	68.56
436.284	81.56
436.505	80.56
436.727	58.56
436.949	77.56
437.17	70.56
437.392	75.56
437.614	83.56
437.835	76.56
438.057	77.56
438.278	90.56
438.5	76.56
438.721	86.56
438.943	73.56
439.165	94.56
439.386	62.56
439.608	96.56
439.829	67.56
440.05	80.56
440.272	79.56
440.493	67.56
440.715	75.56
440.936	81.56
441.158	80.56
441.379	84.56
441.6	82.56
441.822	72.56
442.043	72.56
442.264	96.56
442.486	73.56
442.707	79.56
442.928	82.56
443.149	64.56
443.371	71.56
443.592	80.56
443.813	74.56
444.034	78.56
444.255	79.56
444.476	72.56
444.698	75.56
444.919	82.56
445.14	143.56
445.361	103.56
445.582	78.56
445.803	68.56
446.024	73.56
446.245	78.56
446.466	68.56
446.687	71.56
446.908	81.56
447.129	70.56
447.35	80.56
447.571	85.56
447.792	86.56
448.013	86.56
448.234	82.56
448.455	81.56
448.675	90.56
448.896	76.56
449.117	72.56
449.338	81.56
449.559	70.56
449.779	83.56
450	75.56
450.221	79.56
450.442	75.56
450.662	80.56
450.883	75.56
451.104	85.56
451.324	72.56
451.545	91.56
451.766	74.56
451.986	71.56
452.207	94.56
452.428	77.56
452.648	90.56
452.869	94.56
453.089	82.56
453.31	78.56
453.53	82.56
453.751	75.56
453.971	77.56
454.192	75.56
454.412	80.56
454.633	96.56
454.853	79.56
455.073	73.56
455.294	77.56
455.514	93.56
455.734	79.56
455.955	84.56
456.175	86.56
456.395	86.56
456.616	76.56
456.836	94.56
457.056	69.56
457.276	78.56
457.497	81.56
457.717	75.56
457.937	82.56
458.157	67.56
458.377	84.56
458.598	77.56
458.818	83.56
459.038	79.56
459.258	94.56
459.478	76.56
459.698	98.56
459.918	87.56
460.138	67.56
460.358	79.56
460.578	74.56
460.798	72.56
461.018	71.56
461.238	76.56
461.458	78.56
461.678	71.56
461.898	75.56
462.118	85.56
462.338	88.56
462.558	79.56
462.777	82.56
462.997	83.56
463.217	77.56
463.437	85.56
463.657	78.56
463.876	67.56
464.096	88.56
464.316	82.56
464.536	66.56
464.755	88.56
464.975	84.56
465.195	89.56
465.414	98.56
465.634	76.56
465.854	90.56
466.073	88.56
466.293	83.56
466.512	70.56
466.732	80.56
466.951	81.56
467.171	88.56
467.391	79.56
467.61	66.56
467.829	75.56
468.049	61.56
468.268	84.56
468.488	75.56
468.707	87.56
468.927	72.56
469.146	88.56
469.365	81.56
469.585	71.56
469.804	63.56
470.023	74.56
470.243	56.56
470.462	61.56
470.681	81.56
470.901	76.56
471.12	74.56
471.339	74.56
471.558	64.56
471.777	71.56
471.997	69.56
472.216	64.56
472.435	83.56
472.654	94.56
472.873	84.56
473.092	82.56
473.311	75.56
473.53	92.56
473.749	80.56
473.968	85.56
474.187	79.56
474.406	70.56
474.625	76.56
474.844	87.56
475.063	80.56
475.282	94.56
475.501	77.56
475.72	76.56
475.939	75.56
476.158	75.56
476.377	77.56
476.596	81.56
476.814	92.56
477.033	94.56
477.252	78.56
477.471	81.56
477.69	85.56
477.908	82.56
478.127	77.56
478.346	74.56
478.564	76.56
478.783	77.56
479.002	63.56
479.22	68.56
479.439	75.56
479.658	90.56
479.876	84.56
480.095	72.56
480.313	95.56
480.532	82.56
480.751	71.56
480.969	71.56
481.188	84.56
481.406	80.56
481.624	85.56
481.843	74.56
482.061	76.56
482.28	75.56
482.498	66.56
482.717	77.56
482.935	72.56
483.153	91.56
483.372	87.56
483.59	76.56
483.808	79.56
484.027	84.56
484.245	77.56
484.463	80.56
484.681	70.56
484.9	85.56
485.118	73.56
485.336	93.56
485.554	75.56
485.772	84.56
485.99	79.56
486.209	67.56
486.427	63.56
486.645	74.56
486.863	94.56
487.081	79.56
487.299	90.56
487.517	83.56
487.735	94.56
487.953	85.56
488.171	88.56
488.389	86.56
488.607	78.56
488.825	83.56
489.043	82.56
489.261	90.56
489.479	82.56
489.696	76.56
489.914	83.56
490.132	73.56
490.35	85.56
490.568	75.56
490.786	67.56
491.003	87.56
491.221	68.56
491.439	102.56
491.657	69.56
491.874	80.56
492.092	88.56
492.31	95.56
492.527	75.56
492.745	82.56
492.963	79.56
493.18	87.56
493.398	78.56
493.615	82.56
493.833	79.56
494.05	78.56
494.268	87.56
494.485	70.56
494.703	79.56
494.92	86.56
495.138	72.56
495.355	77.56
495.573	77.56
495.79	101.56
496.008	82.56
496.225	76.56
496.442	75.56
496.66	78.56
496.877	77.56
497.094	67.56
497.312	79.56
497.529	89.56
497.746	76.56
497.963	84.56
498.181	76.56
498.398	96.56
498.615	82.56
498.832	83.56
499.049	72.56
499.267	90.56
499.484	75.56
499.701	87.56
499.918	100.56
500.135	78.56
500.352	76.56
500.569	76.56
500.786	84.56
501.003	76.56
501.22	81.56
501.437	78.56
501.654	88.56
501.871	68.56
502.088	86.56
502.305	93.56
502.522	90.56
502.739	85.56
502.956	71.56
503.172	82.56
503.389	72.56
503.606	68.56
503.823	78.56
504.04	76.56
504.256	79.56
504.473	84.56
504.69	78.56
504.907	90.56
505.123	94.56
505.34	84.56
505.557	68.56
505.773	81.56
505.99	87.56
506.207	84.56
506.423	78.56
506.64	86.56
506.856	77.56
507.073	74.56
507.289	86.56
507.506	83.56
507.722	84.56
507.939	81.56
508.155	73.56
508.372	77.56
508.588	73.56
508.805	90.56
509.021	85.56
509.238	76.56
509.454	97.56
509.67	72.56
509.887	85.56
510.103	97.56
510.319	76.56
510.536	74.56
510.752	79.56
510.968	77.56
511.184	85.56
511.401	88.56
511.617	68.56
511.833	91.56
512.049	87.56
512.265	78.56
512.481	73.56
512.698	79.56
512.914	77.56
513.13	82.56
513.346	78.56
513.562	71.56
513.778	82.56
513.994	85.56
514.21	73.56
514.426	75.56
514.642	79.56
514.858	75.56
515.074	64.56
515.29	84.56
515.506	78.56
515.721	63.56
515.937	72.56
516.153	92.56
516.369	99.56
516.585	87.56
516.801	82.56
517.016	92.56
517.232	79.56
517.448	78.56
517.664	90.56
517.879	78.56
518.095	78.56
518.311	85.56
518.527	72.56
518.742	90.56
518.958	86.56
519.173	81.56
519.389	82.56
519.605	82.56
519.82	70.56
520.036	79.56
520.251	89.56
