Data from BGNA1_HRD10591_00011.txt Node
Date: Fri Dec 27 14:32:28 EST 2024
User: Yrep
Spectrometer: HR+D1059
Trigger mode: 1
Integration Time (sec): 1.000000E-1
Scans to average: 1
Electric dark correction enabled: true
Nonlinearity correction enabled: false
Boxcar width: 0
XAxis mode: Wavelengths
Number of Pixels in Spectrum: 2048
>>>>>Begin Spectral Data<<<<<
223.165	-23.25
223.4	-23.25
223.635	-23.25
223.869	-23.25
224.104	-28.25
224.338	-16.25
224.573	-18.25
224.808	-34.25
225.042	-12.25
225.277	-12.25
225.511	9.75
225.746	13.75
225.98	-3.25
226.215	18.75
226.449	24.75
226.683	22.75
226.918	41.75
227.152	39.75
227.387	41.75
227.621	45.75
227.856	49.75
228.09	54.75
228.324	55.75
228.559	57.75
228.793	60.75
229.027	63.75
229.262	78.75
229.496	73.75
229.73	86.75
229.964	69.75
230.199	78.75
230.433	74.75
230.667	83.75
230.901	80.75
231.136	87.75
231.37	80.75
231.604	79.75
231.838	88.75
232.072	78.75
232.306	76.75
232.541	74.75
232.775	89.75
233.009	79.75
233.243	83.75
233.477	81.75
233.711	95.75
233.945	74.75
234.179	85.75
234.413	87.75
234.647	75.75
234.881	70.75
235.115	91.75
235.349	81.75
235.583	90.75
235.817	86.75
236.051	88.75
236.285	74.75
236.519	89.75
236.753	88.75
236.987	85.75
237.221	73.75
237.455	79.75
237.689	82.75
237.922	82.75
238.156	75.75
238.39	69.75
238.624	76.75
238.858	72.75
239.091	80.75
239.325	72.75
239.559	82.75
239.793	81.75
240.027	87.75
240.26	83.75
240.494	80.75
240.728	71.75
240.961	84.75
241.195	76.75
241.429	79.75
241.662	91.75
241.896	67.75
242.13	88.75
242.363	61.75
242.597	72.75
242.83	76.75
243.064	81.75
243.298	90.75
243.531	86.75
243.765	67.75
243.998	87.75
244.232	61.75
244.465	77.75
244.699	95.75
244.932	69.75
245.166	76.75
245.399	76.75
245.633	83.75
245.866	71.75
246.099	99.75
246.333	81.75
246.566	75.75
246.8	89.75
247.033	85.75
247.266	74.75
247.5	79.75
247.733	73.75
247.966	72.75
248.2	76.75
248.433	76.75
248.666	75.75
248.899	89.75
249.133	75.75
249.366	91.75
249.599	72.75
249.832	93.75
250.066	81.75
250.299	74.75
250.532	81.75
250.765	80.75
250.998	80.75
251.231	81.75
251.465	76.75
251.698	82.75
251.931	76.75
252.164	76.75
252.397	89.75
252.63	89.75
252.863	74.75
253.096	83.75
253.329	96.75
253.562	89.75
253.795	88.75
254.028	83.75
254.261	82.75
254.494	79.75
254.727	83.75
254.96	75.75
255.193	78.75
255.426	67.75
255.659	72.75
255.892	79.75
256.124	93.75
256.357	77.75
256.59	76.75
256.823	64.75
257.056	73.75
257.289	92.75
257.521	84.75
257.754	79.75
257.987	70.75
258.22	83.75
258.452	80.75
258.685	85.75
258.918	86.75
259.151	92.75
259.383	83.75
259.616	72.75
259.849	89.75
260.081	88.75
260.314	85.75
260.547	79.75
260.779	77.75
261.012	75.75
261.244	73.75
261.477	87.75
261.71	82.75
261.942	73.75
262.175	79.75
262.407	69.75
262.64	91.75
262.872	91.75
263.105	74.75
263.337	90.75
263.57	85.75
263.802	74.75
264.035	63.75
264.267	69.75
264.499	97.75
264.732	85.75
264.964	82.75
265.197	83.75
265.429	97.75
265.661	73.75
265.894	81.75
266.126	80.75
266.358	82.75
266.591	80.75
266.823	88.75
267.055	81.75
267.287	90.75
267.52	74.75
267.752	79.75
267.984	83.75
268.216	75.75
268.448	99.75
268.681	83.75
268.913	88.75
269.145	75.75
269.377	71.75
269.609	77.75
269.841	84.75
270.073	92.75
270.306	81.75
270.538	84.75
270.77	88.75
271.002	90.75
271.234	74.75
271.466	90.75
271.698	84.75
271.93	78.75
272.162	84.75
272.394	81.75
272.626	87.75
272.858	100.75
273.09	94.75
273.322	90.75
273.553	91.75
273.785	88.75
274.017	77.75
274.249	77.75
274.481	88.75
274.713	88.75
274.945	82.75
275.176	77.75
275.408	93.75
275.64	75.75
275.872	72.75
276.104	78.75
276.335	89.75
276.567	88.75
276.799	88.75
277.031	79.75
277.262	74.75
277.494	89.75
277.726	96.75
277.957	87.75
278.189	102.75
278.421	95.75
278.652	89.75
278.884	87.75
279.115	82.75
279.347	97.75
279.579	102.75
279.81	95.75
280.042	86.75
280.273	107.75
280.505	81.75
280.736	83.75
280.968	91.75
281.199	84.75
281.431	96.75
281.662	84.75
281.894	71.75
282.125	87.75
282.356	101.75
282.588	84.75
282.819	90.75
283.051	82.75
283.282	81.75
283.513	78.75
283.745	86.75
283.976	85.75
284.207	91.75
284.439	73.75
284.67	107.75
284.901	88.75
285.132	79.75
285.364	77.75
285.595	77.75
285.826	86.75
286.057	81.75
286.288	75.75
286.52	83.75
286.751	77.75
286.982	88.75
287.213	77.75
287.444	98.75
287.675	87.75
287.906	72.75
288.138	70.75
288.369	83.75
288.6	82.75
288.831	89.75
289.062	95.75
289.293	76.75
289.524	84.75
289.755	84.75
289.986	70.75
290.217	85.75
290.448	76.75
290.679	89.75
290.91	82.75
291.141	96.75
291.371	81.75
291.602	86.75
291.833	87.75
292.064	91.75
292.295	81.75
292.526	79.75
292.757	92.75
292.987	92.75
293.218	86.75
293.449	88.75
293.68	80.75
293.91	75.75
294.141	84.75
294.372	92.75
294.603	87.75
294.833	87.75
295.064	83.75
295.295	96.75
295.525	89.75
295.756	82.75
295.987	78.75
296.217	79.75
296.448	91.75
296.679	77.75
296.909	99.75
297.14	91.75
297.37	92.75
297.601	75.75
297.831	73.75
298.062	81.75
298.292	85.75
298.523	90.75
298.753	75.75
298.984	83.75
299.214	91.75
299.445	87.75
299.675	76.75
299.905	78.75
300.136	91.75
300.366	83.75
300.597	89.75
300.827	79.75
301.057	85.75
301.288	66.75
301.518	86.75
301.748	81.75
301.979	106.75
302.209	79.75
302.439	81.75
302.669	93.75
302.9	66.75
303.13	76.75
303.36	84.75
303.59	98.75
303.82	99.75
304.051	92.75
304.281	83.75
304.511	88.75
304.741	76.75
304.971	92.75
305.201	87.75
305.431	74.75
305.661	85.75
305.891	80.75
306.121	96.75
306.352	79.75
306.582	90.75
306.812	87.75
307.042	82.75
307.272	82.75
307.502	74.75
307.731	87.75
307.961	83.75
308.191	76.75
308.421	91.75
308.651	98.75
308.881	96.75
309.111	90.75
309.341	80.75
309.571	99.75
309.8	86.75
310.03	81.75
310.26	70.75
310.49	93.75
310.72	74.75
310.949	75.75
311.179	81.75
311.409	86.75
311.639	74.75
311.868	86.75
312.098	83.75
312.328	86.75
312.557	88.75
312.787	105.75
313.017	82.75
313.246	88.75
313.476	71.75
313.706	79.75
313.935	88.75
314.165	82.75
314.394	85.75
314.624	87.75
314.853	88.75
315.083	93.75
315.312	91.75
315.542	81.75
315.771	97.75
316.001	94.75
316.23	90.75
316.46	82.75
316.689	84.75
316.919	82.75
317.148	96.75
317.377	95.75
317.607	85.75
317.836	77.75
318.065	72.75
318.295	76.75
318.524	95.75
318.753	88.75
318.983	84.75
319.212	92.75
319.441	79.75
319.67	90.75
319.9	78.75
320.129	80.75
320.358	84.75
320.587	91.75
320.816	79.75
321.046	77.75
321.275	92.75
321.504	100.75
321.733	92.75
321.962	80.75
322.191	81.75
322.42	81.75
322.649	84.75
322.878	92.75
323.108	77.75
323.337	88.75
323.566	84.75
323.795	83.75
324.024	104.75
324.253	80.75
324.482	68.75
324.71	74.75
324.939	78.75
325.168	72.75
325.397	90.75
325.626	80.75
325.855	91.75
326.084	94.75
326.313	82.75
326.542	88.75
326.77	99.75
326.999	79.75
327.228	78.75
327.457	81.75
327.686	91.75
327.914	95.75
328.143	108.75
328.372	76.75
328.6	85.75
328.829	95.75
329.058	83.75
329.287	80.75
329.515	96.75
329.744	86.75
329.972	82.75
330.201	81.75
330.43	80.75
330.658	85.75
330.887	88.75
331.115	76.75
331.344	85.75
331.572	73.75
331.801	87.75
332.03	96.75
332.258	88.75
332.486	84.75
332.715	97.75
332.943	85.75
333.172	88.75
333.4	74.75
333.629	93.75
333.857	85.75
334.085	96.75
334.314	87.75
334.542	90.75
334.771	91.75
334.999	67.75
335.227	88.75
335.455	90.75
335.684	93.75
335.912	87.75
336.14	91.75
336.369	87.75
336.597	74.75
336.825	79.75
337.053	84.75
337.281	90.75
337.51	89.75
337.738	91.75
337.966	83.75
338.194	85.75
338.422	83.75
338.65	87.75
338.878	72.75
339.106	83.75
339.334	90.75
339.562	72.75
339.79	86.75
340.018	73.75
340.246	99.75
340.474	73.75
340.702	100.75
340.93	76.75
341.158	92.75
341.386	90.75
341.614	85.75
341.842	80.75
342.07	91.75
342.298	81.75
342.526	73.75
342.754	79.75
342.981	88.75
343.209	89.75
343.437	102.75
343.665	88.75
343.893	80.75
344.12	102.75
344.348	83.75
344.576	93.75
344.804	73.75
345.031	92.75
345.259	88.75
345.487	97.75
345.714	90.75
345.942	86.75
346.17	88.75
346.397	85.75
346.625	87.75
346.853	89.75
347.08	82.75
347.308	81.75
347.535	99.75
347.763	86.75
347.99	91.75
348.218	82.75
348.445	82.75
348.673	83.75
348.9	87.75
349.128	99.75
349.355	84.75
349.583	80.75
349.81	89.75
350.037	83.75
350.265	72.75
350.492	77.75
350.72	75.75
350.947	84.75
351.174	84.75
351.402	93.75
351.629	102.75
351.856	90.75
352.083	101.75
352.311	89.75
352.538	77.75
352.765	78.75
352.992	83.75
353.22	93.75
353.447	95.75
353.674	74.75
353.901	82.75
354.128	99.75
354.355	87.75
354.583	83.75
354.81	90.75
355.037	83.75
355.264	74.75
355.491	80.75
355.718	88.75
355.945	90.75
356.172	86.75
356.399	86.75
356.626	82.75
356.853	96.75
357.08	88.75
357.307	77.75
357.534	85.75
357.761	87.75
357.988	103.75
358.215	91.75
358.441	90.75
358.668	79.75
358.895	89.75
359.122	84.75
359.349	78.75
359.576	86.75
359.802	72.75
360.029	82.75
360.256	82.75
360.483	88.75
360.709	77.75
360.936	81.75
361.163	94.75
361.39	87.75
361.616	76.75
361.843	90.75
362.07	99.75
362.296	77.75
362.523	90.75
362.749	86.75
362.976	106.75
363.203	96.75
363.429	84.75
363.656	89.75
363.882	88.75
364.109	98.75
364.335	97.75
364.562	86.75
364.788	92.75
365.015	90.75
365.241	92.75
365.468	106.75
365.694	83.75
365.92	78.75
366.147	80.75
366.373	76.75
366.599	90.75
366.826	95.75
367.052	81.75
367.278	80.75
367.505	81.75
367.731	89.75
367.957	88.75
368.184	85.75
368.41	87.75
368.636	89.75
368.862	92.75
369.089	90.75
369.315	82.75
369.541	84.75
369.767	85.75
369.993	82.75
370.219	81.75
370.445	78.75
370.672	86.75
370.898	99.75
371.124	88.75
371.35	84.75
371.576	89.75
371.802	79.75
372.028	92.75
372.254	84.75
372.48	90.75
372.706	88.75
372.932	85.75
373.158	86.75
373.384	82.75
373.61	87.75
373.835	82.75
374.061	77.75
374.287	87.75
374.513	77.75
374.739	70.75
374.965	85.75
375.191	84.75
375.416	92.75
375.642	99.75
375.868	89.75
376.094	84.75
376.319	66.75
376.545	81.75
376.771	91.75
376.997	88.75
377.222	89.75
377.448	84.75
377.674	90.75
377.899	90.75
378.125	70.75
378.35	84.75
378.576	84.75
378.802	76.75
379.027	93.75
379.253	94.75
379.478	79.75
379.704	87.75
379.929	88.75
380.155	80.75
380.38	72.75
380.606	85.75
380.831	89.75
381.057	86.75
381.282	90.75
381.507	97.75
381.733	88.75
381.958	72.75
382.184	98.75
382.409	84.75
382.634	82.75
382.86	81.75
383.085	84.75
383.31	81.75
383.535	96.75
383.761	84.75
383.986	73.75
384.211	91.75
384.436	82.75
384.662	84.75
384.887	84.75
385.112	90.75
385.337	86.75
385.562	81.75
385.787	82.75
386.013	87.75
386.238	80.75
386.463	87.75
386.688	95.75
386.913	76.75
387.138	81.75
387.363	76.75
387.588	83.75
387.813	74.75
388.038	99.75
388.263	82.75
388.488	77.75
388.713	80.75
388.938	82.75
389.163	98.75
389.387	79.75
389.612	83.75
389.837	72.75
390.062	96.75
390.287	95.75
390.512	87.75
390.736	95.75
390.961	85.75
391.186	87.75
391.411	92.75
391.636	87.75
391.86	81.75
392.085	75.75
392.31	79.75
392.534	71.75
392.759	84.75
392.984	84.75
393.208	83.75
393.433	76.75
393.658	89.75
393.882	69.75
394.107	82.75
394.331	83.75
394.556	91.75
394.78	83.75
395.005	74.75
395.229	87.75
395.454	70.75
395.678	94.75
395.903	81.75
396.127	83.75
396.352	91.75
396.576	80.75
396.801	67.75
397.025	85.75
397.249	87.75
397.474	84.75
397.698	87.75
397.922	79.75
398.147	72.75
398.371	98.75
398.595	86.75
398.82	76.75
399.044	82.75
399.268	77.75
399.492	80.75
399.717	88.75
399.941	72.75
400.165	80.75
400.389	88.75
400.613	86.75
400.837	88.75
401.062	72.75
401.286	92.75
401.51	80.75
401.734	89.75
401.958	83.75
402.182	87.75
402.406	65.75
402.63	76.75
402.854	89.75
403.078	89.75
403.302	83.75
403.526	90.75
403.75	65.75
403.974	71.75
404.198	83.75
404.422	85.75
404.645	84.75
404.869	88.75
405.093	75.75
405.317	82.75
405.541	79.75
405.765	89.75
405.988	92.75
406.212	84.75
406.436	91.75
406.66	77.75
406.883	76.75
407.107	84.75
407.331	81.75
407.555	89.75
407.778	71.75
408.002	59.75
408.226	95.75
408.449	82.75
408.673	72.75
408.896	70.75
409.12	82.75
409.344	85.75
409.567	88.75
409.791	90.75
410.014	91.75
410.238	81.75
410.461	71.75
410.685	81.75
410.908	83.75
411.132	92.75
411.355	89.75
411.578	91.75
411.802	88.75
412.025	81.75
412.249	89.75
412.472	76.75
412.695	84.75
412.919	86.75
413.142	79.75
413.365	78.75
413.589	90.75
413.812	73.75
414.035	81.75
414.258	77.75
414.482	80.75
414.705	77.75
414.928	60.75
415.151	86.75
415.374	78.75
415.597	71.75
415.821	88.75
416.044	83.75
416.267	84.75
416.49	84.75
416.713	84.75
416.936	74.75
417.159	82.75
417.382	83.75
417.605	70.75
417.828	90.75
418.051	95.75
418.274	71.75
418.497	71.75
418.72	76.75
418.943	84.75
419.166	90.75
419.389	89.75
419.611	78.75
419.834	91.75
420.057	98.75
420.28	95.75
420.503	87.75
420.726	95.75
420.948	75.75
421.171	73.75
421.394	73.75
421.617	84.75
421.839	89.75
422.062	89.75
422.285	72.75
422.507	71.75
422.73	75.75
422.953	92.75
423.175	102.75
423.398	90.75
423.621	80.75
423.843	78.75
424.066	68.75
424.288	85.75
424.511	76.75
424.733	74.75
424.956	84.75
425.178	88.75
425.401	89.75
425.623	82.75
425.846	80.75
426.068	77.75
426.291	82.75
426.513	76.75
426.735	74.75
426.958	78.75
427.18	84.75
427.402	92.75
427.625	78.75
427.847	76.75
428.069	80.75
428.292	99.75
428.514	82.75
428.736	84.75
428.958	79.75
429.181	74.75
429.403	82.75
429.625	89.75
429.847	86.75
430.069	84.75
430.292	84.75
430.514	96.75
430.736	88.75
430.958	82.75
431.18	72.75
431.402	82.75
431.624	76.75
431.846	66.75
432.068	70.75
432.29	88.75
432.512	83.75
432.734	85.75
432.956	86.75
433.178	94.75
433.4	95.75
433.622	83.75
433.844	69.75
434.066	77.75
434.287	73.75
434.509	86.75
434.731	67.75
434.953	78.75
435.175	91.75
435.397	82.75
435.618	89.75
435.84	67.75
436.062	80.75
436.284	86.75
436.505	71.75
436.727	79.75
436.949	73.75
437.17	83.75
437.392	79.75
437.614	78.75
437.835	67.75
438.057	84.75
438.278	94.75
438.5	81.75
438.721	82.75
438.943	90.75
439.165	84.75
439.386	87.75
439.608	96.75
439.829	77.75
440.05	80.75
440.272	77.75
440.493	76.75
440.715	97.75
440.936	98.75
441.158	91.75
441.379	89.75
441.6	82.75
441.822	95.75
442.043	83.75
442.264	74.75
442.486	92.75
442.707	89.75
442.928	83.75
443.149	83.75
443.371	83.75
443.592	74.75
443.813	88.75
444.034	85.75
444.255	75.75
444.476	79.75
444.698	68.75
444.919	85.75
445.14	145.75
445.361	121.75
445.582	81.75
445.803	87.75
446.024	82.75
446.245	97.75
446.466	87.75
446.687	76.75
446.908	99.75
447.129	89.75
447.35	88.75
447.571	70.75
447.792	83.75
448.013	76.75
448.234	80.75
448.455	80.75
448.675	78.75
448.896	88.75
449.117	104.75
449.338	97.75
449.559	91.75
449.779	79.75
450	80.75
450.221	82.75
450.442	89.75
450.662	72.75
450.883	86.75
451.104	87.75
451.324	78.75
451.545	78.75
451.766	87.75
451.986	80.75
452.207	105.75
452.428	104.75
452.648	100.75
452.869	78.75
453.089	86.75
453.31	90.75
453.53	90.75
453.751	95.75
453.971	79.75
454.192	77.75
454.412	68.75
454.633	75.75
454.853	97.75
455.073	70.75
455.294	77.75
455.514	81.75
455.734	82.75
455.955	85.75
456.175	86.75
456.395	83.75
456.616	70.75
456.836	77.75
457.056	90.75
457.276	80.75
457.497	76.75
457.717	86.75
457.937	78.75
458.157	74.75
458.377	70.75
458.598	88.75
458.818	95.75
459.038	88.75
459.258	81.75
459.478	69.75
459.698	86.75
459.918	80.75
460.138	84.75
460.358	80.75
460.578	101.75
460.798	103.75
461.018	77.75
461.238	80.75
461.458	96.75
461.678	79.75
461.898	90.75
462.118	83.75
462.338	79.75
462.558	84.75
462.777	89.75
462.997	78.75
463.217	87.75
463.437	84.75
463.657	81.75
463.876	88.75
464.096	90.75
464.316	81.75
464.536	98.75
464.755	79.75
464.975	83.75
465.195	90.75
465.414	84.75
465.634	93.75
465.854	88.75
466.073	76.75
466.293	71.75
466.512	82.75
466.732	86.75
466.951	96.75
467.171	82.75
467.391	79.75
467.61	71.75
467.829	102.75
468.049	79.75
468.268	83.75
468.488	83.75
468.707	84.75
468.927	84.75
469.146	79.75
469.365	74.75
469.585	89.75
469.804	86.75
470.023	76.75
470.243	85.75
470.462	86.75
470.681	96.75
470.901	88.75
471.12	84.75
471.339	78.75
471.558	64.75
471.777	76.75
471.997	84.75
472.216	73.75
472.435	83.75
472.654	88.75
472.873	81.75
473.092	83.75
473.311	76.75
473.53	87.75
473.749	96.75
473.968	88.75
474.187	89.75
474.406	88.75
474.625	85.75
474.844	89.75
475.063	84.75
475.282	100.75
475.501	93.75
475.72	90.75
475.939	92.75
476.158	83.75
476.377	83.75
476.596	98.75
476.814	90.75
477.033	83.75
477.252	98.75
477.471	89.75
477.69	87.75
477.908	83.75
478.127	87.75
478.346	91.75
478.564	80.75
478.783	89.75
479.002	89.75
479.22	71.75
479.439	79.75
479.658	78.75
479.876	95.75
480.095	85.75
480.313	76.75
480.532	94.75
480.751	91.75
480.969	85.75
481.188	96.75
481.406	87.75
481.624	89.75
481.843	71.75
482.061	77.75
482.28	81.75
482.498	89.75
482.717	82.75
482.935	91.75
483.153	94.75
483.372	92.75
483.59	72.75
483.808	64.75
484.027	96.75
484.245	74.75
484.463	74.75
484.681	80.75
484.9	91.75
485.118	90.75
485.336	84.75
485.554	82.75
485.772	92.75
485.99	83.75
486.209	87.75
486.427	88.75
486.645	81.75
486.863	86.75
487.081	100.75
487.299	100.75
487.517	100.75
487.735	89.75
487.953	67.75
488.171	78.75
488.389	83.75
488.607	73.75
488.825	88.75
489.043	84.75
489.261	95.75
489.479	88.75
489.696	82.75
489.914	96.75
490.132	97.75
490.35	81.75
490.568	83.75
490.786	89.75
491.003	79.75
491.221	86.75
491.439	72.75
491.657	71.75
491.874	83.75
492.092	80.75
492.31	88.75
492.527	83.75
492.745	82.75
492.963	89.75
493.18	78.75
493.398	82.75
493.615	80.75
493.833	86.75
494.05	89.75
494.268	75.75
494.485	89.75
494.703	81.75
494.92	87.75
495.138	88.75
495.355	92.75
495.573	88.75
495.79	76.75
496.008	80.75
496.225	84.75
496.442	89.75
496.66	88.75
496.877	77.75
497.094	82.75
497.312	85.75
497.529	88.75
497.746	68.75
497.963	86.75
498.181	80.75
498.398	81.75
498.615	78.75
498.832	87.75
499.049	84.75
499.267	85.75
499.484	72.75
499.701	81.75
499.918	84.75
500.135	91.75
500.352	98.75
500.569	89.75
500.786	83.75
501.003	85.75
501.22	97.75
501.437	99.75
501.654	84.75
501.871	75.75
502.088	90.75
502.305	83.75
502.522	81.75
502.739	88.75
502.956	88.75
503.172	76.75
503.389	90.75
503.606	90.75
503.823	95.75
504.04	83.75
504.256	86.75
504.473	108.75
504.69	79.75
504.907	93.75
505.123	90.75
505.34	84.75
505.557	79.75
505.773	97.75
505.99	81.75
506.207	82.75
506.423	89.75
506.64	93.75
506.856	76.75
507.073	77.75
507.289	89.75
507.506	108.75
507.722	87.75
507.939	84.75
508.155	91.75
508.372	96.75
508.588	90.75
508.805	86.75
509.021	90.75
509.238	92.75
509.454	87.75
509.67	76.75
509.887	82.75
510.103	79.75
510.319	83.75
510.536	88.75
510.752	87.75
510.968	96.75
511.184	81.75
511.401	83.75
511.617	81.75
511.833	77.75
512.049	79.75
512.265	101.75
512.481	81.75
512.698	89.75
512.914	83.75
513.13	90.75
513.346	96.75
513.562	76.75
513.778	97.75
513.994	78.75
514.21	105.75
514.426	95.75
514.642	78.75
514.858	91.75
515.074	83.75
515.29	84.75
515.506	97.75
515.721	89.75
515.937	99.75
516.153	85.75
516.369	90.75
516.585	71.75
516.801	73.75
517.016	84.75
517.232	87.75
517.448	77.75
517.664	85.75
517.879	79.75
518.095	87.75
518.311	76.75
518.527	80.75
518.742	91.75
518.958	88.75
519.173	87.75
519.389	91.75
519.605	88.75
519.82	96.75
