Data from BGNA1_HRD10591_00016.txt Node
Date: Fri Dec 27 14:32:33 EST 2024
User: Yrep
Spectrometer: HR+D1059
Trigger mode: 1
Integration Time (sec): 1.000000E-1
Scans to average: 1
Electric dark correction enabled: true
Nonlinearity correction enabled: false
Boxcar width: 0
XAxis mode: Wavelengths
Number of Pixels in Spectrum: 2048
>>>>>Begin Spectral Data<<<<<
223.165	-12.94
223.4	-12.94
223.635	-12.94
223.869	-10.94
224.104	-17.94
224.338	-13.94
224.573	-13.94
224.808	-23.94
225.042	0.06
225.277	-14.94
225.511	-3.94
225.746	-1.94
225.98	-2.94
226.215	20.06
226.449	6.06
226.683	21.06
226.918	33.06
227.152	37.06
227.387	55.06
227.621	30.06
227.856	50.06
228.09	52.06
228.324	44.06
228.559	62.06
228.793	55.06
229.027	54.06
229.262	62.06
229.496	58.06
229.73	62.06
229.964	76.06
230.199	63.06
230.433	71.06
230.667	62.06
230.901	53.06
231.136	76.06
231.37	85.06
231.604	73.06
231.838	81.06
232.072	90.06
232.306	78.06
232.541	100.06
232.775	74.06
233.009	84.06
233.243	77.06
233.477	90.06
233.711	70.06
233.945	72.06
234.179	99.06
234.413	78.06
234.647	94.06
234.881	74.06
235.115	86.06
235.349	83.06
235.583	89.06
235.817	87.06
236.051	73.06
236.285	72.06
236.519	80.06
236.753	72.06
236.987	69.06
237.221	84.06
237.455	71.06
237.689	72.06
237.922	80.06
238.156	75.06
238.39	67.06
238.624	68.06
238.858	71.06
239.091	64.06
239.325	75.06
239.559	71.06
239.793	84.06
240.027	66.06
240.26	82.06
240.494	64.06
240.728	78.06
240.961	69.06
241.195	93.06
241.429	75.06
241.662	68.06
241.896	77.06
242.13	76.06
242.363	74.06
242.597	79.06
242.83	77.06
243.064	68.06
243.298	67.06
243.531	68.06
243.765	81.06
243.998	71.06
244.232	83.06
244.465	82.06
244.699	83.06
244.932	78.06
245.166	74.06
245.399	83.06
245.633	76.06
245.866	76.06
246.099	66.06
246.333	83.06
246.566	79.06
246.8	90.06
247.033	75.06
247.266	74.06
247.5	72.06
247.733	75.06
247.966	79.06
248.2	72.06
248.433	70.06
248.666	78.06
248.899	95.06
249.133	78.06
249.366	77.06
249.599	71.06
249.832	74.06
250.066	88.06
250.299	82.06
250.532	64.06
250.765	76.06
250.998	76.06
251.231	74.06
251.465	77.06
251.698	85.06
251.931	89.06
252.164	74.06
252.397	75.06
252.63	56.06
252.863	71.06
253.096	76.06
253.329	77.06
253.562	67.06
253.795	71.06
254.028	88.06
254.261	74.06
254.494	71.06
254.727	86.06
254.96	75.06
255.193	83.06
255.426	77.06
255.659	94.06
255.892	85.06
256.124	76.06
256.357	85.06
256.59	83.06
256.823	82.06
257.056	84.06
257.289	80.06
257.521	95.06
257.754	74.06
257.987	76.06
258.22	77.06
258.452	82.06
258.685	81.06
258.918	65.06
259.151	78.06
259.383	79.06
259.616	72.06
259.849	79.06
260.081	88.06
260.314	90.06
260.547	84.06
260.779	80.06
261.012	80.06
261.244	73.06
261.477	76.06
261.71	94.06
261.942	78.06
262.175	74.06
262.407	74.06
262.64	76.06
262.872	81.06
263.105	70.06
263.337	78.06
263.57	83.06
263.802	85.06
264.035	69.06
264.267	77.06
264.499	99.06
264.732	92.06
264.964	78.06
265.197	83.06
265.429	81.06
265.661	83.06
265.894	82.06
266.126	69.06
266.358	82.06
266.591	80.06
266.823	87.06
267.055	73.06
267.287	95.06
267.52	87.06
267.752	86.06
267.984	86.06
268.216	75.06
268.448	84.06
268.681	93.06
268.913	72.06
269.145	85.06
269.377	86.06
269.609	70.06
269.841	78.06
270.073	75.06
270.306	84.06
270.538	70.06
270.77	85.06
271.002	92.06
271.234	84.06
271.466	97.06
271.698	76.06
271.93	88.06
272.162	95.06
272.394	92.06
272.626	78.06
272.858	80.06
273.09	77.06
273.322	72.06
273.553	75.06
273.785	83.06
274.017	76.06
274.249	82.06
274.481	80.06
274.713	88.06
274.945	70.06
275.176	75.06
275.408	80.06
275.64	80.06
275.872	86.06
276.104	90.06
276.335	88.06
276.567	91.06
276.799	85.06
277.031	85.06
277.262	73.06
277.494	78.06
277.726	67.06
277.957	81.06
278.189	81.06
278.421	75.06
278.652	90.06
278.884	89.06
279.115	76.06
279.347	83.06
279.579	92.06
279.81	90.06
280.042	80.06
280.273	85.06
280.505	85.06
280.736	87.06
280.968	80.06
281.199	75.06
281.431	83.06
281.662	81.06
281.894	79.06
282.125	93.06
282.356	85.06
282.588	64.06
282.819	76.06
283.051	89.06
283.282	89.06
283.513	81.06
283.745	70.06
283.976	62.06
284.207	75.06
284.439	90.06
284.67	74.06
284.901	78.06
285.132	71.06
285.364	79.06
285.595	93.06
285.826	80.06
286.057	87.06
286.288	85.06
286.52	82.06
286.751	78.06
286.982	75.06
287.213	85.06
287.444	93.06
287.675	80.06
287.906	76.06
288.138	85.06
288.369	73.06
288.6	85.06
288.831	75.06
289.062	76.06
289.293	95.06
289.524	76.06
289.755	82.06
289.986	89.06
290.217	80.06
290.448	75.06
290.679	80.06
290.91	101.06
291.141	83.06
291.371	85.06
291.602	88.06
291.833	90.06
292.064	81.06
292.295	85.06
292.526	91.06
292.757	82.06
292.987	93.06
293.218	86.06
293.449	80.06
293.68	81.06
293.91	72.06
294.141	75.06
294.372	81.06
294.603	77.06
294.833	85.06
295.064	70.06
295.295	80.06
295.525	76.06
295.756	82.06
295.987	100.06
296.217	95.06
296.448	90.06
296.679	84.06
296.909	90.06
297.14	76.06
297.37	85.06
297.601	83.06
297.831	68.06
298.062	89.06
298.292	74.06
298.523	87.06
298.753	77.06
298.984	74.06
299.214	77.06
299.445	81.06
299.675	74.06
299.905	90.06
300.136	83.06
300.366	92.06
300.597	90.06
300.827	87.06
301.057	85.06
301.288	87.06
301.518	90.06
301.748	102.06
301.979	97.06
302.209	91.06
302.439	80.06
302.669	80.06
302.9	91.06
303.13	94.06
303.36	82.06
303.59	70.06
303.82	95.06
304.051	86.06
304.281	88.06
304.511	81.06
304.741	81.06
304.971	80.06
305.201	85.06
305.431	100.06
305.661	77.06
305.891	95.06
306.121	89.06
306.352	84.06
306.582	92.06
306.812	79.06
307.042	90.06
307.272	92.06
307.502	80.06
307.731	90.06
307.961	85.06
308.191	75.06
308.421	97.06
308.651	73.06
308.881	86.06
309.111	94.06
309.341	69.06
309.571	69.06
309.8	77.06
310.03	92.06
310.26	85.06
310.49	86.06
310.72	83.06
310.949	91.06
311.179	90.06
311.409	87.06
311.639	72.06
311.868	93.06
312.098	90.06
312.328	77.06
312.557	91.06
312.787	84.06
313.017	86.06
313.246	88.06
313.476	92.06
313.706	90.06
313.935	80.06
314.165	70.06
314.394	73.06
314.624	78.06
314.853	94.06
315.083	81.06
315.312	103.06
315.542	80.06
315.771	86.06
316.001	80.06
316.23	96.06
316.46	83.06
316.689	83.06
316.919	86.06
317.148	78.06
317.377	73.06
317.607	96.06
317.836	90.06
318.065	74.06
318.295	88.06
318.524	86.06
318.753	82.06
318.983	83.06
319.212	86.06
319.441	80.06
319.67	78.06
319.9	82.06
320.129	89.06
320.358	79.06
320.587	75.06
320.816	84.06
321.046	78.06
321.275	88.06
321.504	86.06
321.733	72.06
321.962	86.06
322.191	80.06
322.42	95.06
322.649	94.06
322.878	88.06
323.108	85.06
323.337	75.06
323.566	86.06
323.795	86.06
324.024	98.06
324.253	79.06
324.482	92.06
324.71	84.06
324.939	95.06
325.168	90.06
325.397	67.06
325.626	84.06
325.855	68.06
326.084	97.06
326.313	86.06
326.542	83.06
326.77	83.06
326.999	81.06
327.228	84.06
327.457	72.06
327.686	85.06
327.914	88.06
328.143	86.06
328.372	70.06
328.6	95.06
328.829	85.06
329.058	88.06
329.287	85.06
329.515	85.06
329.744	96.06
329.972	92.06
330.201	86.06
330.43	97.06
330.658	82.06
330.887	71.06
331.115	93.06
331.344	71.06
331.572	91.06
331.801	82.06
332.03	71.06
332.258	90.06
332.486	77.06
332.715	84.06
332.943	89.06
333.172	74.06
333.4	69.06
333.629	76.06
333.857	76.06
334.085	75.06
334.314	83.06
334.542	79.06
334.771	70.06
334.999	78.06
335.227	86.06
335.455	74.06
335.684	96.06
335.912	82.06
336.14	82.06
336.369	78.06
336.597	89.06
336.825	88.06
337.053	97.06
337.281	78.06
337.51	76.06
337.738	64.06
337.966	90.06
338.194	91.06
338.422	80.06
338.65	70.06
338.878	85.06
339.106	90.06
339.334	97.06
339.562	87.06
339.79	85.06
340.018	83.06
340.246	81.06
340.474	76.06
340.702	65.06
340.93	89.06
341.158	79.06
341.386	78.06
341.614	75.06
341.842	81.06
342.07	90.06
342.298	68.06
342.526	76.06
342.754	78.06
342.981	91.06
343.209	96.06
343.437	106.06
343.665	79.06
343.893	83.06
344.12	102.06
344.348	72.06
344.576	67.06
344.804	81.06
345.031	86.06
345.259	75.06
345.487	88.06
345.714	77.06
345.942	78.06
346.17	72.06
346.397	94.06
346.625	86.06
346.853	75.06
347.08	66.06
347.308	91.06
347.535	97.06
347.763	88.06
347.99	83.06
348.218	90.06
348.445	70.06
348.673	85.06
348.9	91.06
349.128	81.06
349.355	81.06
349.583	72.06
349.81	76.06
350.037	83.06
350.265	79.06
350.492	81.06
350.72	79.06
350.947	74.06
351.174	72.06
351.402	87.06
351.629	75.06
351.856	85.06
352.083	75.06
352.311	82.06
352.538	77.06
352.765	85.06
352.992	89.06
353.22	84.06
353.447	84.06
353.674	91.06
353.901	91.06
354.128	80.06
354.355	78.06
354.583	75.06
354.81	78.06
355.037	62.06
355.264	91.06
355.491	90.06
355.718	72.06
355.945	81.06
356.172	85.06
356.399	83.06
356.626	80.06
356.853	82.06
357.08	80.06
357.307	86.06
357.534	71.06
357.761	73.06
357.988	93.06
358.215	100.06
358.441	71.06
358.668	73.06
358.895	78.06
359.122	80.06
359.349	71.06
359.576	83.06
359.802	94.06
360.029	88.06
360.256	72.06
360.483	81.06
360.709	94.06
360.936	70.06
361.163	87.06
361.39	84.06
361.616	80.06
361.843	88.06
362.07	88.06
362.296	79.06
362.523	81.06
362.749	81.06
362.976	79.06
363.203	88.06
363.429	82.06
363.656	78.06
363.882	94.06
364.109	69.06
364.335	76.06
364.562	88.06
364.788	91.06
365.015	85.06
365.241	77.06
365.468	75.06
365.694	76.06
365.92	84.06
366.147	78.06
366.373	70.06
366.599	93.06
366.826	79.06
367.052	62.06
367.278	98.06
367.505	75.06
367.731	87.06
367.957	77.06
368.184	78.06
368.41	85.06
368.636	77.06
368.862	71.06
369.089	83.06
369.315	83.06
369.541	69.06
369.767	90.06
369.993	83.06
370.219	67.06
370.445	78.06
370.672	73.06
370.898	87.06
371.124	78.06
371.35	69.06
371.576	71.06
371.802	87.06
372.028	88.06
372.254	78.06
372.48	80.06
372.706	70.06
372.932	88.06
373.158	85.06
373.384	75.06
373.61	71.06
373.835	91.06
374.061	78.06
374.287	74.06
374.513	90.06
374.739	93.06
374.965	77.06
375.191	91.06
375.416	76.06
375.642	83.06
375.868	89.06
376.094	74.06
376.319	75.06
376.545	83.06
376.771	73.06
376.997	93.06
377.222	77.06
377.448	92.06
377.674	75.06
377.899	80.06
378.125	81.06
378.35	76.06
378.576	67.06
378.802	101.06
379.027	77.06
379.253	76.06
379.478	81.06
379.704	83.06
379.929	84.06
380.155	67.06
380.38	78.06
380.606	78.06
380.831	85.06
381.057	84.06
381.282	87.06
381.507	67.06
381.733	76.06
381.958	76.06
382.184	81.06
382.409	96.06
382.634	79.06
382.86	93.06
383.085	85.06
383.31	87.06
383.535	87.06
383.761	78.06
383.986	85.06
384.211	80.06
384.436	80.06
384.662	60.06
384.887	74.06
385.112	84.06
385.337	72.06
385.562	79.06
385.787	81.06
386.013	84.06
386.238	77.06
386.463	85.06
386.688	93.06
386.913	81.06
387.138	85.06
387.363	76.06
387.588	80.06
387.813	76.06
388.038	81.06
388.263	64.06
388.488	86.06
388.713	74.06
388.938	69.06
389.163	71.06
389.387	79.06
389.612	76.06
389.837	99.06
390.062	72.06
390.287	87.06
390.512	85.06
390.736	70.06
390.961	78.06
391.186	81.06
391.411	81.06
391.636	82.06
391.86	83.06
392.085	62.06
392.31	88.06
392.534	95.06
392.759	62.06
392.984	71.06
393.208	82.06
393.433	65.06
393.658	64.06
393.882	65.06
394.107	83.06
394.331	83.06
394.556	62.06
394.78	68.06
395.005	82.06
395.229	76.06
395.454	81.06
395.678	76.06
395.903	76.06
396.127	84.06
396.352	83.06
396.576	76.06
396.801	92.06
397.025	82.06
397.249	82.06
397.474	77.06
397.698	79.06
397.922	71.06
398.147	72.06
398.371	78.06
398.595	88.06
398.82	95.06
399.044	92.06
399.268	74.06
399.492	83.06
399.717	91.06
399.941	96.06
400.165	74.06
400.389	78.06
400.613	76.06
400.837	92.06
401.062	84.06
401.286	83.06
401.51	77.06
401.734	75.06
401.958	82.06
402.182	80.06
402.406	71.06
402.63	75.06
402.854	69.06
403.078	70.06
403.302	84.06
403.526	96.06
403.75	84.06
403.974	69.06
404.198	85.06
404.422	86.06
404.645	69.06
404.869	69.06
405.093	72.06
405.317	83.06
405.541	77.06
405.765	75.06
405.988	69.06
406.212	82.06
406.436	85.06
406.66	81.06
406.883	69.06
407.107	72.06
407.331	88.06
407.555	90.06
407.778	82.06
408.002	69.06
408.226	81.06
408.449	76.06
408.673	65.06
408.896	81.06
409.12	78.06
409.344	83.06
409.567	76.06
409.791	84.06
410.014	71.06
410.238	76.06
410.461	74.06
410.685	73.06
410.908	74.06
411.132	87.06
411.355	70.06
411.578	72.06
411.802	80.06
412.025	85.06
412.249	85.06
412.472	76.06
412.695	80.06
412.919	70.06
413.142	85.06
413.365	76.06
413.589	70.06
413.812	81.06
414.035	92.06
414.258	87.06
414.482	84.06
414.705	87.06
414.928	79.06
415.151	80.06
415.374	78.06
415.597	88.06
415.821	78.06
416.044	79.06
416.267	71.06
416.49	75.06
416.713	76.06
416.936	69.06
417.159	68.06
417.382	71.06
417.605	72.06
417.828	84.06
418.051	71.06
418.274	76.06
418.497	83.06
418.72	70.06
418.943	70.06
419.166	74.06
419.389	87.06
419.611	64.06
419.834	76.06
420.057	71.06
420.28	85.06
420.503	86.06
420.726	75.06
420.948	87.06
421.171	78.06
421.394	71.06
421.617	75.06
421.839	80.06
422.062	79.06
422.285	66.06
422.507	88.06
422.73	64.06
422.953	78.06
423.175	85.06
423.398	87.06
423.621	78.06
423.843	68.06
424.066	75.06
424.288	82.06
424.511	86.06
424.733	67.06
424.956	75.06
425.178	73.06
425.401	81.06
425.623	78.06
425.846	72.06
426.068	72.06
426.291	80.06
426.513	71.06
426.735	81.06
426.958	73.06
427.18	92.06
427.402	89.06
427.625	72.06
427.847	80.06
428.069	73.06
428.292	73.06
428.514	88.06
428.736	67.06
428.958	77.06
429.181	71.06
429.403	80.06
429.625	82.06
429.847	71.06
430.069	75.06
430.292	74.06
430.514	76.06
430.736	75.06
430.958	79.06
431.18	62.06
431.402	88.06
431.624	74.06
431.846	73.06
432.068	90.06
432.29	65.06
432.512	83.06
432.734	65.06
432.956	80.06
433.178	83.06
433.4	76.06
433.622	84.06
433.844	68.06
434.066	64.06
434.287	84.06
434.509	86.06
434.731	79.06
434.953	74.06
435.175	76.06
435.397	90.06
435.618	94.06
435.84	91.06
436.062	67.06
436.284	79.06
436.505	77.06
436.727	79.06
436.949	94.06
437.17	89.06
437.392	88.06
437.614	94.06
437.835	65.06
438.057	83.06
438.278	67.06
438.5	81.06
438.721	81.06
438.943	79.06
439.165	83.06
439.386	75.06
439.608	82.06
439.829	79.06
440.05	77.06
440.272	77.06
440.493	84.06
440.715	85.06
440.936	84.06
441.158	85.06
441.379	78.06
441.6	73.06
441.822	64.06
442.043	81.06
442.264	67.06
442.486	79.06
442.707	82.06
442.928	82.06
443.149	83.06
443.371	90.06
443.592	68.06
443.813	83.06
444.034	91.06
444.255	81.06
444.476	79.06
444.698	94.06
444.919	85.06
445.14	141.06
445.361	116.06
445.582	80.06
445.803	83.06
446.024	85.06
446.245	90.06
446.466	77.06
446.687	84.06
446.908	86.06
447.129	77.06
447.35	80.06
447.571	85.06
447.792	80.06
448.013	78.06
448.234	75.06
448.455	86.06
448.675	59.06
448.896	82.06
449.117	78.06
449.338	84.06
449.559	86.06
449.779	77.06
450	72.06
450.221	74.06
450.442	68.06
450.662	74.06
450.883	79.06
451.104	83.06
451.324	64.06
451.545	74.06
451.766	79.06
451.986	66.06
452.207	79.06
452.428	62.06
452.648	79.06
452.869	85.06
453.089	88.06
453.31	82.06
453.53	79.06
453.751	86.06
453.971	85.06
454.192	88.06
454.412	87.06
454.633	72.06
454.853	80.06
455.073	79.06
455.294	83.06
455.514	72.06
455.734	83.06
455.955	69.06
456.175	81.06
456.395	73.06
456.616	84.06
456.836	81.06
457.056	74.06
457.276	81.06
457.497	70.06
457.717	74.06
457.937	66.06
458.157	83.06
458.377	74.06
458.598	81.06
458.818	70.06
459.038	82.06
459.258	80.06
459.478	71.06
459.698	66.06
459.918	68.06
460.138	89.06
460.358	85.06
460.578	78.06
460.798	75.06
461.018	83.06
461.238	70.06
461.458	79.06
461.678	78.06
461.898	77.06
462.118	94.06
462.338	83.06
462.558	74.06
462.777	80.06
462.997	83.06
463.217	85.06
463.437	74.06
463.657	77.06
463.876	94.06
464.096	72.06
464.316	86.06
464.536	84.06
464.755	100.06
464.975	72.06
465.195	87.06
465.414	94.06
465.634	60.06
465.854	82.06
466.073	84.06
466.293	91.06
466.512	94.06
466.732	77.06
466.951	94.06
467.171	82.06
467.391	69.06
467.61	87.06
467.829	91.06
468.049	84.06
468.268	78.06
468.488	79.06
468.707	77.06
468.927	69.06
469.146	80.06
469.365	82.06
469.585	91.06
469.804	91.06
470.023	79.06
470.243	84.06
470.462	78.06
470.681	94.06
470.901	85.06
471.12	78.06
471.339	65.06
471.558	76.06
471.777	79.06
471.997	83.06
472.216	91.06
472.435	89.06
472.654	81.06
472.873	77.06
473.092	86.06
473.311	89.06
473.53	82.06
473.749	72.06
473.968	80.06
474.187	80.06
474.406	88.06
474.625	75.06
474.844	76.06
475.063	71.06
475.282	93.06
475.501	77.06
475.72	90.06
475.939	92.06
476.158	79.06
476.377	83.06
476.596	80.06
476.814	78.06
477.033	88.06
477.252	89.06
477.471	67.06
477.69	68.06
477.908	81.06
478.127	87.06
478.346	84.06
478.564	87.06
478.783	72.06
479.002	77.06
479.22	85.06
479.439	72.06
479.658	83.06
479.876	86.06
480.095	75.06
480.313	70.06
480.532	73.06
480.751	80.06
480.969	92.06
481.188	98.06
481.406	82.06
481.624	79.06
481.843	79.06
482.061	75.06
482.28	93.06
482.498	90.06
482.717	88.06
482.935	65.06
483.153	74.06
483.372	97.06
483.59	71.06
483.808	62.06
484.027	72.06
484.245	69.06
484.463	76.06
484.681	92.06
484.9	85.06
485.118	79.06
485.336	66.06
485.554	92.06
485.772	95.06
485.99	81.06
486.209	76.06
486.427	82.06
486.645	79.06
486.863	88.06
487.081	81.06
487.299	86.06
487.517	80.06
487.735	90.06
487.953	76.06
488.171	95.06
488.389	79.06
488.607	83.06
488.825	72.06
489.043	90.06
489.261	84.06
489.479	70.06
489.696	86.06
489.914	78.06
490.132	96.06
490.35	75.06
490.568	83.06
490.786	58.06
491.003	78.06
491.221	79.06
491.439	81.06
491.657	68.06
491.874	69.06
492.092	100.06
492.31	92.06
492.527	76.06
492.745	78.06
492.963	84.06
493.18	68.06
493.398	90.06
493.615	94.06
493.833	74.06
494.05	74.06
494.268	67.06
494.485	84.06
494.703	82.06
494.92	89.06
495.138	95.06
495.355	93.06
495.573	87.06
495.79	80.06
496.008	83.06
496.225	77.06
496.442	81.06
496.66	94.06
496.877	78.06
497.094	89.06
497.312	75.06
497.529	75.06
497.746	78.06
497.963	83.06
498.181	82.06
498.398	83.06
498.615	71.06
498.832	78.06
499.049	80.06
499.267	87.06
499.484	82.06
499.701	82.06
499.918	91.06
500.135	82.06
500.352	90.06
500.569	78.06
500.786	103.06
501.003	81.06
501.22	82.06
501.437	94.06
501.654	92.06
501.871	70.06
502.088	77.06
502.305	80.06
502.522	72.06
502.739	77.06
502.956	92.06
503.172	86.06
503.389	86.06
503.606	72.06
503.823	95.06
504.04	80.06
504.256	85.06
504.473	80.06
504.69	80.06
504.907	95.06
505.123	92.06
505.34	90.06
505.557	80.06
505.773	76.06
505.99	86.06
506.207	86.06
506.423	64.06
506.64	81.06
506.856	74.06
507.073	75.06
507.289	68.06
507.506	95.06
507.722	71.06
507.939	82.06
508.155	78.06
508.372	87.06
508.588	90.06
508.805	99.06
509.021	75.06
509.238	88.06
509.454	81.06
509.67	90.06
509.887	92.06
510.103	80.06
510.319	79.06
510.536	83.06
510.752	72.06
510.968	81.06
511.184	100.06
511.401	87.06
511.617	88.06
511.833	80.06
512.049	87.06
512.265	70.06
512.481	73.06
512.698	87.06
512.914	81.06
513.13	86.06
513.346	88.06
513.562	82.06
513.778	80.06
513.994	70.06
514.21	79.06
514.426	87.06
514.642	78.06
514.858	82.06
515.074	84.06
515.29	91.06
515.506	97.06
515.721	83.06
515.937	71.06
516.153	82.06
516.369	74.06
516.585	90.06
516.801	82.06
517.016	70.06
517.232	93.06
517.448	71.06
517.664	95.06
517.879	74.06
518.095	84.06
518.311	88.06
518.527	92.06
518.742	80.06
518.958	83.06
519.173	78.06
519.389	90.06
519.605	90.06
519.82	85.06
520.036	74.06
