Data from BGNA1_HRD10591_00010.txt Node
Date: Fri Dec 27 14:32:27 EST 2024
User: Yrep
Spectrometer: HR+D1059
Trigger mode: 1
Integration Time (sec): 1.000000E-1
Scans to average: 1
Electric dark correction enabled: true
Nonlinearity correction enabled: false
Boxcar width: 0
XAxis mode: Wavelengths
Number of Pixels in Spectrum: 2048
>>>>>Begin Spectral Data<<<<<
223.165	-6.62
223.4	-6.62
223.635	-6.62
223.869	-2.62
224.104	-14.62
224.338	-13.62
224.573	-10.62
224.808	-15.62
225.042	-12.62
225.277	-10.62
225.511	6.38
225.746	-10.62
225.98	4.38
226.215	7.38
226.449	1.38
226.683	21.38
226.918	27.38
227.152	29.38
227.387	26.38
227.621	40.38
227.856	40.38
228.09	42.38
228.324	46.38
228.559	37.38
228.793	59.38
229.027	61.38
229.262	52.38
229.496	51.38
229.73	54.38
229.964	65.38
230.199	75.38
230.433	77.38
230.667	76.38
230.901	67.38
231.136	95.38
231.37	73.38
231.604	59.38
231.838	78.38
232.072	78.38
232.306	76.38
232.541	71.38
232.775	83.38
233.009	76.38
233.243	83.38
233.477	85.38
233.711	79.38
233.945	66.38
234.179	67.38
234.413	61.38
234.647	69.38
234.881	73.38
235.115	78.38
235.349	85.38
235.583	68.38
235.817	81.38
236.051	78.38
236.285	70.38
236.519	78.38
236.753	66.38
236.987	78.38
237.221	85.38
237.455	75.38
237.689	70.38
237.922	78.38
238.156	68.38
238.39	82.38
238.624	73.38
238.858	70.38
239.091	70.38
239.325	81.38
239.559	76.38
239.793	69.38
240.027	64.38
240.26	63.38
240.494	77.38
240.728	68.38
240.961	76.38
241.195	83.38
241.429	77.38
241.662	75.38
241.896	64.38
242.13	66.38
242.363	75.38
242.597	68.38
242.83	61.38
243.064	72.38
243.298	79.38
243.531	75.38
243.765	62.38
243.998	80.38
244.232	81.38
244.465	69.38
244.699	71.38
244.932	68.38
245.166	76.38
245.399	79.38
245.633	71.38
245.866	74.38
246.099	69.38
246.333	73.38
246.566	68.38
246.8	71.38
247.033	65.38
247.266	72.38
247.5	81.38
247.733	85.38
247.966	73.38
248.2	71.38
248.433	69.38
248.666	68.38
248.899	71.38
249.133	74.38
249.366	78.38
249.599	85.38
249.832	85.38
250.066	68.38
250.299	81.38
250.532	80.38
250.765	85.38
250.998	76.38
251.231	64.38
251.465	73.38
251.698	70.38
251.931	81.38
252.164	77.38
252.397	65.38
252.63	70.38
252.863	64.38
253.096	73.38
253.329	57.38
253.562	82.38
253.795	70.38
254.028	74.38
254.261	63.38
254.494	74.38
254.727	79.38
254.96	83.38
255.193	77.38
255.426	77.38
255.659	75.38
255.892	70.38
256.124	61.38
256.357	82.38
256.59	76.38
256.823	67.38
257.056	83.38
257.289	68.38
257.521	83.38
257.754	81.38
257.987	62.38
258.22	68.38
258.452	65.38
258.685	78.38
258.918	65.38
259.151	75.38
259.383	69.38
259.616	91.38
259.849	79.38
260.081	80.38
260.314	81.38
260.547	77.38
260.779	80.38
261.012	79.38
261.244	72.38
261.477	77.38
261.71	77.38
261.942	69.38
262.175	73.38
262.407	87.38
262.64	83.38
262.872	73.38
263.105	80.38
263.337	77.38
263.57	75.38
263.802	76.38
264.035	84.38
264.267	79.38
264.499	86.38
264.732	69.38
264.964	85.38
265.197	75.38
265.429	82.38
265.661	78.38
265.894	80.38
266.126	72.38
266.358	80.38
266.591	79.38
266.823	91.38
267.055	73.38
267.287	96.38
267.52	67.38
267.752	83.38
267.984	77.38
268.216	72.38
268.448	85.38
268.681	75.38
268.913	79.38
269.145	77.38
269.377	76.38
269.609	99.38
269.841	91.38
270.073	81.38
270.306	94.38
270.538	83.38
270.77	67.38
271.002	85.38
271.234	80.38
271.466	86.38
271.698	81.38
271.93	83.38
272.162	88.38
272.394	86.38
272.626	69.38
272.858	83.38
273.09	80.38
273.322	89.38
273.553	82.38
273.785	87.38
274.017	71.38
274.249	85.38
274.481	96.38
274.713	92.38
274.945	74.38
275.176	75.38
275.408	97.38
275.64	75.38
275.872	77.38
276.104	83.38
276.335	83.38
276.567	80.38
276.799	88.38
277.031	75.38
277.262	70.38
277.494	71.38
277.726	81.38
277.957	74.38
278.189	91.38
278.421	87.38
278.652	82.38
278.884	82.38
279.115	76.38
279.347	77.38
279.579	85.38
279.81	85.38
280.042	70.38
280.273	69.38
280.505	83.38
280.736	72.38
280.968	92.38
281.199	82.38
281.431	88.38
281.662	83.38
281.894	77.38
282.125	85.38
282.356	93.38
282.588	82.38
282.819	81.38
283.051	87.38
283.282	74.38
283.513	76.38
283.745	79.38
283.976	77.38
284.207	76.38
284.439	87.38
284.67	81.38
284.901	73.38
285.132	76.38
285.364	80.38
285.595	75.38
285.826	86.38
286.057	95.38
286.288	72.38
286.52	82.38
286.751	87.38
286.982	78.38
287.213	83.38
287.444	82.38
287.675	69.38
287.906	95.38
288.138	93.38
288.369	92.38
288.6	67.38
288.831	83.38
289.062	83.38
289.293	83.38
289.524	79.38
289.755	88.38
289.986	93.38
290.217	92.38
290.448	75.38
290.679	72.38
290.91	97.38
291.141	77.38
291.371	85.38
291.602	87.38
291.833	97.38
292.064	78.38
292.295	81.38
292.526	78.38
292.757	69.38
292.987	86.38
293.218	83.38
293.449	75.38
293.68	76.38
293.91	63.38
294.141	87.38
294.372	72.38
294.603	80.38
294.833	73.38
295.064	78.38
295.295	88.38
295.525	80.38
295.756	87.38
295.987	81.38
296.217	87.38
296.448	78.38
296.679	84.38
296.909	81.38
297.14	78.38
297.37	84.38
297.601	78.38
297.831	78.38
298.062	79.38
298.292	83.38
298.523	80.38
298.753	78.38
298.984	72.38
299.214	76.38
299.445	88.38
299.675	75.38
299.905	83.38
300.136	88.38
300.366	79.38
300.597	78.38
300.827	74.38
301.057	77.38
301.288	86.38
301.518	92.38
301.748	93.38
301.979	79.38
302.209	87.38
302.439	95.38
302.669	79.38
302.9	81.38
303.13	87.38
303.36	76.38
303.59	83.38
303.82	82.38
304.051	70.38
304.281	87.38
304.511	78.38
304.741	79.38
304.971	80.38
305.201	89.38
305.431	87.38
305.661	81.38
305.891	89.38
306.121	82.38
306.352	79.38
306.582	92.38
306.812	79.38
307.042	77.38
307.272	87.38
307.502	83.38
307.731	81.38
307.961	67.38
308.191	79.38
308.421	92.38
308.651	88.38
308.881	78.38
309.111	80.38
309.341	82.38
309.571	75.38
309.8	76.38
310.03	86.38
310.26	77.38
310.49	81.38
310.72	75.38
310.949	77.38
311.179	78.38
311.409	79.38
311.639	70.38
311.868	95.38
312.098	81.38
312.328	78.38
312.557	87.38
312.787	83.38
313.017	84.38
313.246	88.38
313.476	83.38
313.706	69.38
313.935	85.38
314.165	85.38
314.394	87.38
314.624	78.38
314.853	88.38
315.083	79.38
315.312	74.38
315.542	77.38
315.771	79.38
316.001	82.38
316.23	82.38
316.46	84.38
316.689	94.38
316.919	91.38
317.148	79.38
317.377	94.38
317.607	72.38
317.836	79.38
318.065	88.38
318.295	69.38
318.524	95.38
318.753	75.38
318.983	75.38
319.212	90.38
319.441	76.38
319.67	79.38
319.9	92.38
320.129	79.38
320.358	85.38
320.587	82.38
320.816	95.38
321.046	72.38
321.275	85.38
321.504	79.38
321.733	85.38
321.962	84.38
322.191	75.38
322.42	87.38
322.649	87.38
322.878	80.38
323.108	84.38
323.337	77.38
323.566	75.38
323.795	82.38
324.024	85.38
324.253	84.38
324.482	80.38
324.71	82.38
324.939	86.38
325.168	76.38
325.397	78.38
325.626	76.38
325.855	68.38
326.084	84.38
326.313	94.38
326.542	76.38
326.77	73.38
326.999	78.38
327.228	85.38
327.457	69.38
327.686	75.38
327.914	78.38
328.143	80.38
328.372	87.38
328.6	89.38
328.829	85.38
329.058	80.38
329.287	72.38
329.515	78.38
329.744	91.38
329.972	75.38
330.201	73.38
330.43	79.38
330.658	81.38
330.887	83.38
331.115	94.38
331.344	93.38
331.572	74.38
331.801	68.38
332.03	85.38
332.258	72.38
332.486	76.38
332.715	82.38
332.943	76.38
333.172	77.38
333.4	99.38
333.629	86.38
333.857	81.38
334.085	78.38
334.314	88.38
334.542	85.38
334.771	91.38
334.999	87.38
335.227	92.38
335.455	76.38
335.684	81.38
335.912	96.38
336.14	83.38
336.369	78.38
336.597	76.38
336.825	78.38
337.053	83.38
337.281	88.38
337.51	93.38
337.738	87.38
337.966	77.38
338.194	91.38
338.422	95.38
338.65	80.38
338.878	80.38
339.106	83.38
339.334	78.38
339.562	76.38
339.79	81.38
340.018	93.38
340.246	91.38
340.474	83.38
340.702	84.38
340.93	81.38
341.158	83.38
341.386	91.38
341.614	88.38
341.842	88.38
342.07	85.38
342.298	99.38
342.526	71.38
342.754	79.38
342.981	89.38
343.209	79.38
343.437	92.38
343.665	69.38
343.893	91.38
344.12	95.38
344.348	70.38
344.576	70.38
344.804	82.38
345.031	72.38
345.259	80.38
345.487	80.38
345.714	65.38
345.942	85.38
346.17	79.38
346.397	72.38
346.625	78.38
346.853	78.38
347.08	86.38
347.308	78.38
347.535	73.38
347.763	75.38
347.99	84.38
348.218	75.38
348.445	84.38
348.673	84.38
348.9	76.38
349.128	84.38
349.355	96.38
349.583	89.38
349.81	69.38
350.037	69.38
350.265	71.38
350.492	77.38
350.72	84.38
350.947	84.38
351.174	86.38
351.402	88.38
351.629	75.38
351.856	73.38
352.083	75.38
352.311	82.38
352.538	85.38
352.765	92.38
352.992	78.38
353.22	88.38
353.447	87.38
353.674	76.38
353.901	83.38
354.128	67.38
354.355	81.38
354.583	74.38
354.81	88.38
355.037	100.38
355.264	87.38
355.491	95.38
355.718	79.38
355.945	103.38
356.172	93.38
356.399	82.38
356.626	95.38
356.853	75.38
357.08	91.38
357.307	97.38
357.534	98.38
357.761	103.38
357.988	94.38
358.215	80.38
358.441	76.38
358.668	96.38
358.895	82.38
359.122	91.38
359.349	82.38
359.576	81.38
359.802	81.38
360.029	85.38
360.256	73.38
360.483	85.38
360.709	85.38
360.936	76.38
361.163	79.38
361.39	79.38
361.616	72.38
361.843	78.38
362.07	80.38
362.296	81.38
362.523	72.38
362.749	74.38
362.976	84.38
363.203	84.38
363.429	88.38
363.656	80.38
363.882	78.38
364.109	80.38
364.335	80.38
364.562	82.38
364.788	88.38
365.015	91.38
365.241	89.38
365.468	78.38
365.694	79.38
365.92	90.38
366.147	71.38
366.373	75.38
366.599	86.38
366.826	94.38
367.052	81.38
367.278	91.38
367.505	82.38
367.731	86.38
367.957	87.38
368.184	88.38
368.41	87.38
368.636	81.38
368.862	70.38
369.089	79.38
369.315	91.38
369.541	85.38
369.767	78.38
369.993	80.38
370.219	71.38
370.445	96.38
370.672	71.38
370.898	66.38
371.124	92.38
371.35	85.38
371.576	75.38
371.802	70.38
372.028	88.38
372.254	73.38
372.48	79.38
372.706	86.38
372.932	76.38
373.158	75.38
373.384	85.38
373.61	75.38
373.835	91.38
374.061	79.38
374.287	77.38
374.513	83.38
374.739	87.38
374.965	78.38
375.191	84.38
375.416	89.38
375.642	84.38
375.868	96.38
376.094	77.38
376.319	80.38
376.545	79.38
376.771	78.38
376.997	74.38
377.222	78.38
377.448	73.38
377.674	72.38
377.899	76.38
378.125	88.38
378.35	81.38
378.576	83.38
378.802	80.38
379.027	82.38
379.253	84.38
379.478	76.38
379.704	78.38
379.929	88.38
380.155	92.38
380.38	72.38
380.606	75.38
380.831	88.38
381.057	88.38
381.282	81.38
381.507	67.38
381.733	84.38
381.958	83.38
382.184	93.38
382.409	60.38
382.634	79.38
382.86	86.38
383.085	93.38
383.31	75.38
383.535	84.38
383.761	91.38
383.986	88.38
384.211	72.38
384.436	84.38
384.662	85.38
384.887	69.38
385.112	84.38
385.337	68.38
385.562	78.38
385.787	79.38
386.013	72.38
386.238	75.38
386.463	74.38
386.688	101.38
386.913	87.38
387.138	73.38
387.363	83.38
387.588	97.38
387.813	80.38
388.038	80.38
388.263	86.38
388.488	82.38
388.713	77.38
388.938	78.38
389.163	75.38
389.387	73.38
389.612	74.38
389.837	86.38
390.062	77.38
390.287	79.38
390.512	88.38
390.736	76.38
390.961	77.38
391.186	77.38
391.411	88.38
391.636	84.38
391.86	72.38
392.085	69.38
392.31	76.38
392.534	95.38
392.759	78.38
392.984	80.38
393.208	89.38
393.433	70.38
393.658	86.38
393.882	87.38
394.107	78.38
394.331	87.38
394.556	92.38
394.78	78.38
395.005	93.38
395.229	79.38
395.454	79.38
395.678	92.38
395.903	72.38
396.127	79.38
396.352	84.38
396.576	73.38
396.801	87.38
397.025	83.38
397.249	86.38
397.474	93.38
397.698	83.38
397.922	78.38
398.147	86.38
398.371	96.38
398.595	73.38
398.82	85.38
399.044	80.38
399.268	73.38
399.492	67.38
399.717	80.38
399.941	89.38
400.165	79.38
400.389	81.38
400.613	69.38
400.837	71.38
401.062	80.38
401.286	78.38
401.51	78.38
401.734	92.38
401.958	68.38
402.182	83.38
402.406	71.38
402.63	78.38
402.854	78.38
403.078	88.38
403.302	72.38
403.526	82.38
403.75	78.38
403.974	82.38
404.198	72.38
404.422	80.38
404.645	65.38
404.869	75.38
405.093	76.38
405.317	82.38
405.541	83.38
405.765	68.38
405.988	82.38
406.212	71.38
406.436	85.38
406.66	78.38
406.883	85.38
407.107	82.38
407.331	72.38
407.555	77.38
407.778	84.38
408.002	74.38
408.226	69.38
408.449	84.38
408.673	70.38
408.896	86.38
409.12	69.38
409.344	86.38
409.567	84.38
409.791	76.38
410.014	76.38
410.238	73.38
410.461	73.38
410.685	94.38
410.908	75.38
411.132	80.38
411.355	83.38
411.578	84.38
411.802	92.38
412.025	85.38
412.249	77.38
412.472	77.38
412.695	82.38
412.919	88.38
413.142	81.38
413.365	79.38
413.589	81.38
413.812	74.38
414.035	73.38
414.258	92.38
414.482	71.38
414.705	66.38
414.928	91.38
415.151	71.38
415.374	80.38
415.597	76.38
415.821	77.38
416.044	84.38
416.267	75.38
416.49	63.38
416.713	72.38
416.936	81.38
417.159	91.38
417.382	81.38
417.605	67.38
417.828	72.38
418.051	75.38
418.274	74.38
418.497	70.38
418.72	81.38
418.943	95.38
419.166	80.38
419.389	86.38
419.611	81.38
419.834	83.38
420.057	75.38
420.28	72.38
420.503	85.38
420.726	86.38
420.948	64.38
421.171	71.38
421.394	71.38
421.617	68.38
421.839	76.38
422.062	73.38
422.285	74.38
422.507	70.38
422.73	71.38
422.953	78.38
423.175	85.38
423.398	79.38
423.621	66.38
423.843	79.38
424.066	69.38
424.288	80.38
424.511	86.38
424.733	79.38
424.956	88.38
425.178	79.38
425.401	81.38
425.623	72.38
425.846	75.38
426.068	68.38
426.291	79.38
426.513	95.38
426.735	81.38
426.958	78.38
427.18	72.38
427.402	88.38
427.625	80.38
427.847	85.38
428.069	71.38
428.292	77.38
428.514	73.38
428.736	77.38
428.958	76.38
429.181	81.38
429.403	80.38
429.625	83.38
429.847	76.38
430.069	62.38
430.292	63.38
430.514	80.38
430.736	69.38
430.958	87.38
431.18	79.38
431.402	78.38
431.624	75.38
431.846	76.38
432.068	86.38
432.29	77.38
432.512	94.38
432.734	69.38
432.956	73.38
433.178	88.38
433.4	68.38
433.622	88.38
433.844	73.38
434.066	78.38
434.287	77.38
434.509	78.38
434.731	86.38
434.953	75.38
435.175	87.38
435.397	76.38
435.618	76.38
435.84	82.38
436.062	81.38
436.284	77.38
436.505	76.38
436.727	86.38
436.949	91.38
437.17	83.38
437.392	78.38
437.614	73.38
437.835	79.38
438.057	87.38
438.278	86.38
438.5	80.38
438.721	70.38
438.943	66.38
439.165	79.38
439.386	66.38
439.608	75.38
439.829	76.38
440.05	93.38
440.272	84.38
440.493	88.38
440.715	82.38
440.936	94.38
441.158	84.38
441.379	79.38
441.6	77.38
441.822	75.38
442.043	74.38
442.264	74.38
442.486	86.38
442.707	85.38
442.928	72.38
443.149	69.38
443.371	99.38
443.592	80.38
443.813	80.38
444.034	78.38
444.255	80.38
444.476	76.38
444.698	77.38
444.919	62.38
445.14	131.38
445.361	111.38
445.582	91.38
445.803	79.38
446.024	85.38
446.245	73.38
446.466	87.38
446.687	69.38
446.908	83.38
447.129	76.38
447.35	68.38
447.571	61.38
447.792	67.38
448.013	81.38
448.234	77.38
448.455	86.38
448.675	87.38
448.896	64.38
449.117	75.38
449.338	76.38
449.559	72.38
449.779	81.38
450	70.38
450.221	75.38
450.442	74.38
450.662	83.38
450.883	77.38
451.104	70.38
451.324	82.38
451.545	71.38
451.766	72.38
451.986	72.38
452.207	70.38
452.428	76.38
452.648	75.38
452.869	88.38
453.089	89.38
453.31	71.38
453.53	63.38
453.751	88.38
453.971	83.38
454.192	70.38
454.412	69.38
454.633	80.38
454.853	75.38
455.073	66.38
455.294	81.38
455.514	71.38
455.734	71.38
455.955	96.38
456.175	79.38
456.395	75.38
456.616	74.38
456.836	68.38
457.056	92.38
457.276	65.38
457.497	83.38
457.717	64.38
457.937	81.38
458.157	81.38
458.377	75.38
458.598	73.38
458.818	68.38
459.038	77.38
459.258	83.38
459.478	83.38
459.698	79.38
459.918	81.38
460.138	85.38
460.358	76.38
460.578	80.38
460.798	86.38
461.018	92.38
461.238	87.38
461.458	91.38
461.678	71.38
461.898	71.38
462.118	82.38
462.338	75.38
462.558	94.38
462.777	86.38
462.997	60.38
463.217	67.38
463.437	65.38
463.657	88.38
463.876	79.38
464.096	85.38
464.316	79.38
464.536	80.38
464.755	75.38
464.975	83.38
465.195	77.38
465.414	76.38
465.634	78.38
465.854	64.38
466.073	66.38
466.293	83.38
466.512	72.38
466.732	84.38
466.951	67.38
467.171	73.38
467.391	70.38
467.61	57.38
467.829	68.38
468.049	75.38
468.268	70.38
468.488	81.38
468.707	62.38
468.927	69.38
469.146	84.38
469.365	78.38
469.585	80.38
469.804	79.38
470.023	84.38
470.243	70.38
470.462	86.38
470.681	88.38
470.901	90.38
471.12	94.38
471.339	77.38
471.558	82.38
471.777	77.38
471.997	82.38
472.216	67.38
472.435	74.38
472.654	82.38
472.873	81.38
473.092	87.38
473.311	83.38
473.53	85.38
473.749	80.38
473.968	78.38
474.187	81.38
474.406	86.38
474.625	70.38
474.844	76.38
475.063	86.38
475.282	62.38
475.501	66.38
475.72	78.38
475.939	79.38
476.158	82.38
476.377	78.38
476.596	84.38
476.814	73.38
477.033	67.38
477.252	74.38
477.471	87.38
477.69	75.38
477.908	83.38
478.127	76.38
478.346	72.38
478.564	86.38
478.783	91.38
479.002	77.38
479.22	63.38
479.439	86.38
479.658	85.38
479.876	82.38
480.095	74.38
480.313	80.38
480.532	80.38
480.751	94.38
480.969	88.38
481.188	68.38
481.406	91.38
481.624	76.38
481.843	83.38
482.061	76.38
482.28	67.38
482.498	80.38
482.717	76.38
482.935	87.38
483.153	89.38
483.372	78.38
483.59	89.38
483.808	80.38
484.027	86.38
484.245	76.38
484.463	70.38
484.681	87.38
484.9	78.38
485.118	98.38
485.336	78.38
485.554	88.38
485.772	91.38
485.99	82.38
486.209	88.38
486.427	80.38
486.645	77.38
486.863	80.38
487.081	83.38
487.299	84.38
487.517	77.38
487.735	72.38
487.953	85.38
488.171	85.38
488.389	76.38
488.607	71.38
488.825	72.38
489.043	87.38
489.261	80.38
489.479	81.38
489.696	79.38
489.914	70.38
490.132	86.38
490.35	84.38
490.568	75.38
490.786	61.38
491.003	76.38
491.221	64.38
491.439	80.38
491.657	79.38
491.874	76.38
492.092	89.38
492.31	67.38
492.527	73.38
492.745	78.38
492.963	77.38
493.18	75.38
493.398	75.38
493.615	78.38
493.833	70.38
494.05	81.38
494.268	82.38
494.485	87.38
494.703	78.38
494.92	61.38
495.138	74.38
495.355	82.38
495.573	89.38
495.79	84.38
496.008	81.38
496.225	77.38
496.442	64.38
496.66	80.38
496.877	83.38
497.094	79.38
497.312	80.38
497.529	81.38
497.746	81.38
497.963	82.38
498.181	77.38
498.398	71.38
498.615	73.38
498.832	72.38
499.049	97.38
499.267	74.38
499.484	76.38
499.701	80.38
499.918	104.38
500.135	64.38
500.352	89.38
500.569	81.38
500.786	81.38
501.003	83.38
501.22	102.38
501.437	70.38
501.654	81.38
501.871	83.38
502.088	78.38
502.305	93.38
502.522	87.38
502.739	86.38
502.956	80.38
503.172	70.38
503.389	96.38
503.606	77.38
503.823	83.38
504.04	75.38
504.256	86.38
504.473	73.38
504.69	88.38
504.907	101.38
505.123	70.38
505.34	91.38
505.557	74.38
505.773	63.38
505.99	74.38
506.207	87.38
506.423	89.38
506.64	84.38
506.856	80.38
507.073	78.38
507.289	72.38
507.506	89.38
507.722	85.38
507.939	87.38
508.155	80.38
508.372	84.38
508.588	73.38
508.805	82.38
509.021	81.38
509.238	80.38
509.454	67.38
509.67	86.38
509.887	72.38
510.103	93.38
510.319	69.38
510.536	85.38
510.752	81.38
510.968	87.38
511.184	84.38
511.401	81.38
511.617	77.38
511.833	71.38
512.049	85.38
512.265	90.38
512.481	79.38
512.698	82.38
512.914	82.38
513.13	80.38
513.346	88.38
513.562	81.38
513.778	85.38
513.994	73.38
514.21	78.38
514.426	81.38
514.642	89.38
514.858	83.38
515.074	92.38
515.29	63.38
515.506	78.38
515.721	67.38
515.937	91.38
516.153	84.38
516.369	76.38
516.585	73.38
516.801	84.38
517.016	83.38
517.232	76.38
517.448	81.38
517.664	67.38
517.879	96.38
518.095	81.38
518.311	79.38
518.527	69.38
518.742	89.38
518.958	75.38
519.173	86.38
519.389	93.38
519.605	85.38
519.82	82.38
520.036	85.38
520.251	64.38
