Data from BGNA1_HRD10591_00015.txt Node
Date: Fri Dec 27 14:32:32 EST 2024
User: Yrep
Spectrometer: HR+D1059
Trigger mode: 1
Integration Time (sec): 1.000000E-1
Scans to average: 1
Electric dark correction enabled: true
Nonlinearity correction enabled: false
Boxcar width: 0
XAxis mode: Wavelengths
Number of Pixels in Spectrum: 2048
>>>>>Begin Spectral Data<<<<<
223.165	-11.5
223.4	-11.5
223.635	-11.5
223.869	-18.5
224.104	-26.5
224.338	-16.5
224.573	-17.5
224.808	-30.5
225.042	-11.5
225.277	1.5
225.511	0.5
225.746	12.5
225.98	13.5
226.215	3.5
226.449	26.5
226.683	21.5
226.918	22.5
227.152	30.5
227.387	19.5
227.621	36.5
227.856	54.5
228.09	41.5
228.324	49.5
228.559	62.5
228.793	66.5
229.027	57.5
229.262	54.5
229.496	57.5
229.73	71.5
229.964	77.5
230.199	72.5
230.433	63.5
230.667	70.5
230.901	66.5
231.136	81.5
231.37	87.5
231.604	84.5
231.838	79.5
232.072	74.5
232.306	70.5
232.541	78.5
232.775	85.5
233.009	85.5
233.243	83.5
233.477	79.5
233.711	78.5
233.945	96.5
234.179	94.5
234.413	81.5
234.647	81.5
234.881	65.5
235.115	75.5
235.349	85.5
235.583	67.5
235.817	82.5
236.051	82.5
236.285	83.5
236.519	69.5
236.753	90.5
236.987	72.5
237.221	64.5
237.455	95.5
237.689	79.5
237.922	77.5
238.156	78.5
238.39	78.5
238.624	75.5
238.858	74.5
239.091	75.5
239.325	80.5
239.559	76.5
239.793	82.5
240.027	72.5
240.26	70.5
240.494	78.5
240.728	81.5
240.961	74.5
241.195	73.5
241.429	78.5
241.662	76.5
241.896	79.5
242.13	73.5
242.363	80.5
242.597	74.5
242.83	65.5
243.064	88.5
243.298	71.5
243.531	93.5
243.765	72.5
243.998	72.5
244.232	72.5
244.465	81.5
244.699	76.5
244.932	64.5
245.166	70.5
245.399	62.5
245.633	70.5
245.866	69.5
246.099	82.5
246.333	88.5
246.566	70.5
246.8	83.5
247.033	93.5
247.266	78.5
247.5	68.5
247.733	78.5
247.966	73.5
248.2	75.5
248.433	71.5
248.666	72.5
248.899	76.5
249.133	81.5
249.366	75.5
249.599	73.5
249.832	81.5
250.066	79.5
250.299	69.5
250.532	72.5
250.765	77.5
250.998	81.5
251.231	81.5
251.465	73.5
251.698	85.5
251.931	83.5
252.164	80.5
252.397	82.5
252.63	73.5
252.863	72.5
253.096	78.5
253.329	73.5
253.562	68.5
253.795	72.5
254.028	93.5
254.261	74.5
254.494	92.5
254.727	76.5
254.96	86.5
255.193	90.5
255.426	86.5
255.659	87.5
255.892	91.5
256.124	86.5
256.357	71.5
256.59	79.5
256.823	80.5
257.056	85.5
257.289	84.5
257.521	83.5
257.754	78.5
257.987	73.5
258.22	74.5
258.452	73.5
258.685	74.5
258.918	75.5
259.151	69.5
259.383	85.5
259.616	67.5
259.849	91.5
260.081	95.5
260.314	85.5
260.547	73.5
260.779	68.5
261.012	69.5
261.244	83.5
261.477	80.5
261.71	79.5
261.942	75.5
262.175	90.5
262.407	78.5
262.64	78.5
262.872	86.5
263.105	95.5
263.337	89.5
263.57	80.5
263.802	83.5
264.035	89.5
264.267	103.5
264.499	72.5
264.732	87.5
264.964	89.5
265.197	81.5
265.429	81.5
265.661	79.5
265.894	83.5
266.126	85.5
266.358	74.5
266.591	90.5
266.823	82.5
267.055	86.5
267.287	83.5
267.52	73.5
267.752	85.5
267.984	77.5
268.216	71.5
268.448	88.5
268.681	82.5
268.913	93.5
269.145	77.5
269.377	93.5
269.609	78.5
269.841	79.5
270.073	85.5
270.306	79.5
270.538	74.5
270.77	75.5
271.002	73.5
271.234	65.5
271.466	90.5
271.698	87.5
271.93	79.5
272.162	89.5
272.394	93.5
272.626	90.5
272.858	89.5
273.09	89.5
273.322	85.5
273.553	77.5
273.785	71.5
274.017	72.5
274.249	75.5
274.481	87.5
274.713	85.5
274.945	94.5
275.176	90.5
275.408	77.5
275.64	80.5
275.872	74.5
276.104	69.5
276.335	86.5
276.567	82.5
276.799	76.5
277.031	75.5
277.262	90.5
277.494	85.5
277.726	75.5
277.957	92.5
278.189	88.5
278.421	82.5
278.652	76.5
278.884	91.5
279.115	110.5
279.347	82.5
279.579	67.5
279.81	71.5
280.042	86.5
280.273	82.5
280.505	96.5
280.736	91.5
280.968	91.5
281.199	77.5
281.431	77.5
281.662	80.5
281.894	79.5
282.125	82.5
282.356	81.5
282.588	93.5
282.819	79.5
283.051	82.5
283.282	96.5
283.513	89.5
283.745	94.5
283.976	94.5
284.207	103.5
284.439	87.5
284.67	100.5
284.901	80.5
285.132	82.5
285.364	82.5
285.595	86.5
285.826	75.5
286.057	87.5
286.288	89.5
286.52	97.5
286.751	86.5
286.982	85.5
287.213	74.5
287.444	89.5
287.675	86.5
287.906	91.5
288.138	89.5
288.369	78.5
288.6	91.5
288.831	61.5
289.062	70.5
289.293	89.5
289.524	79.5
289.755	82.5
289.986	88.5
290.217	78.5
290.448	82.5
290.679	88.5
290.91	111.5
291.141	69.5
291.371	95.5
291.602	95.5
291.833	91.5
292.064	82.5
292.295	88.5
292.526	83.5
292.757	85.5
292.987	80.5
293.218	86.5
293.449	82.5
293.68	86.5
293.91	81.5
294.141	81.5
294.372	79.5
294.603	85.5
294.833	81.5
295.064	82.5
295.295	78.5
295.525	76.5
295.756	80.5
295.987	99.5
296.217	75.5
296.448	93.5
296.679	103.5
296.909	98.5
297.14	95.5
297.37	91.5
297.601	85.5
297.831	80.5
298.062	89.5
298.292	83.5
298.523	76.5
298.753	80.5
298.984	86.5
299.214	71.5
299.445	76.5
299.675	80.5
299.905	94.5
300.136	85.5
300.366	93.5
300.597	89.5
300.827	96.5
301.057	78.5
301.288	79.5
301.518	86.5
301.748	93.5
301.979	97.5
302.209	79.5
302.439	88.5
302.669	92.5
302.9	74.5
303.13	78.5
303.36	78.5
303.59	80.5
303.82	78.5
304.051	86.5
304.281	101.5
304.511	84.5
304.741	89.5
304.971	91.5
305.201	87.5
305.431	61.5
305.661	78.5
305.891	76.5
306.121	88.5
306.352	86.5
306.582	88.5
306.812	80.5
307.042	78.5
307.272	87.5
307.502	87.5
307.731	79.5
307.961	87.5
308.191	85.5
308.421	78.5
308.651	75.5
308.881	76.5
309.111	69.5
309.341	78.5
309.571	82.5
309.8	94.5
310.03	91.5
310.26	89.5
310.49	78.5
310.72	85.5
310.949	78.5
311.179	86.5
311.409	75.5
311.639	85.5
311.868	90.5
312.098	72.5
312.328	69.5
312.557	78.5
312.787	80.5
313.017	83.5
313.246	82.5
313.476	89.5
313.706	78.5
313.935	93.5
314.165	97.5
314.394	86.5
314.624	88.5
314.853	84.5
315.083	81.5
315.312	71.5
315.542	75.5
315.771	81.5
316.001	87.5
316.23	80.5
316.46	86.5
316.689	90.5
316.919	96.5
317.148	91.5
317.377	90.5
317.607	97.5
317.836	87.5
318.065	103.5
318.295	84.5
318.524	91.5
318.753	88.5
318.983	74.5
319.212	84.5
319.441	84.5
319.67	101.5
319.9	71.5
320.129	98.5
320.358	76.5
320.587	87.5
320.816	97.5
321.046	81.5
321.275	85.5
321.504	90.5
321.733	74.5
321.962	74.5
322.191	88.5
322.42	75.5
322.649	83.5
322.878	100.5
323.108	85.5
323.337	93.5
323.566	103.5
323.795	77.5
324.024	78.5
324.253	69.5
324.482	94.5
324.71	77.5
324.939	81.5
325.168	73.5
325.397	86.5
325.626	86.5
325.855	93.5
326.084	93.5
326.313	82.5
326.542	91.5
326.77	88.5
326.999	75.5
327.228	77.5
327.457	89.5
327.686	84.5
327.914	82.5
328.143	104.5
328.372	85.5
328.6	95.5
328.829	80.5
329.058	56.5
329.287	72.5
329.515	77.5
329.744	82.5
329.972	79.5
330.201	75.5
330.43	95.5
330.658	84.5
330.887	75.5
331.115	94.5
331.344	89.5
331.572	105.5
331.801	82.5
332.03	82.5
332.258	77.5
332.486	97.5
332.715	92.5
332.943	82.5
333.172	85.5
333.4	79.5
333.629	77.5
333.857	71.5
334.085	76.5
334.314	79.5
334.542	84.5
334.771	89.5
334.999	78.5
335.227	87.5
335.455	83.5
335.684	84.5
335.912	92.5
336.14	86.5
336.369	86.5
336.597	86.5
336.825	85.5
337.053	81.5
337.281	82.5
337.51	87.5
337.738	81.5
337.966	82.5
338.194	81.5
338.422	91.5
338.65	80.5
338.878	87.5
339.106	78.5
339.334	74.5
339.562	72.5
339.79	88.5
340.018	73.5
340.246	72.5
340.474	81.5
340.702	106.5
340.93	85.5
341.158	90.5
341.386	82.5
341.614	82.5
341.842	92.5
342.07	86.5
342.298	86.5
342.526	69.5
342.754	81.5
342.981	78.5
343.209	90.5
343.437	96.5
343.665	80.5
343.893	79.5
344.12	80.5
344.348	87.5
344.576	94.5
344.804	72.5
345.031	62.5
345.259	74.5
345.487	87.5
345.714	84.5
345.942	81.5
346.17	95.5
346.397	74.5
346.625	89.5
346.853	86.5
347.08	59.5
347.308	72.5
347.535	93.5
347.763	79.5
347.99	84.5
348.218	73.5
348.445	79.5
348.673	82.5
348.9	78.5
349.128	96.5
349.355	88.5
349.583	82.5
349.81	76.5
350.037	109.5
350.265	87.5
350.492	88.5
350.72	84.5
350.947	82.5
351.174	81.5
351.402	80.5
351.629	83.5
351.856	82.5
352.083	84.5
352.311	74.5
352.538	95.5
352.765	82.5
352.992	90.5
353.22	87.5
353.447	75.5
353.674	88.5
353.901	87.5
354.128	102.5
354.355	79.5
354.583	72.5
354.81	80.5
355.037	89.5
355.264	90.5
355.491	90.5
355.718	92.5
355.945	93.5
356.172	83.5
356.399	61.5
356.626	82.5
356.853	79.5
357.08	94.5
357.307	80.5
357.534	78.5
357.761	97.5
357.988	88.5
358.215	89.5
358.441	80.5
358.668	77.5
358.895	71.5
359.122	102.5
359.349	73.5
359.576	76.5
359.802	83.5
360.029	83.5
360.256	82.5
360.483	88.5
360.709	98.5
360.936	81.5
361.163	75.5
361.39	71.5
361.616	77.5
361.843	86.5
362.07	81.5
362.296	86.5
362.523	68.5
362.749	79.5
362.976	85.5
363.203	86.5
363.429	77.5
363.656	82.5
363.882	71.5
364.109	93.5
364.335	79.5
364.562	81.5
364.788	86.5
365.015	87.5
365.241	85.5
365.468	93.5
365.694	93.5
365.92	69.5
366.147	91.5
366.373	76.5
366.599	69.5
366.826	88.5
367.052	81.5
367.278	79.5
367.505	85.5
367.731	86.5
367.957	85.5
368.184	69.5
368.41	86.5
368.636	95.5
368.862	89.5
369.089	65.5
369.315	77.5
369.541	87.5
369.767	77.5
369.993	85.5
370.219	74.5
370.445	78.5
370.672	94.5
370.898	82.5
371.124	74.5
371.35	96.5
371.576	75.5
371.802	75.5
372.028	73.5
372.254	86.5
372.48	85.5
372.706	89.5
372.932	70.5
373.158	71.5
373.384	103.5
373.61	73.5
373.835	97.5
374.061	77.5
374.287	81.5
374.513	69.5
374.739	86.5
374.965	92.5
375.191	84.5
375.416	82.5
375.642	82.5
375.868	94.5
376.094	86.5
376.319	96.5
376.545	95.5
376.771	86.5
376.997	88.5
377.222	88.5
377.448	70.5
377.674	96.5
377.899	85.5
378.125	85.5
378.35	70.5
378.576	77.5
378.802	96.5
379.027	69.5
379.253	99.5
379.478	66.5
379.704	68.5
379.929	68.5
380.155	81.5
380.38	85.5
380.606	94.5
380.831	78.5
381.057	83.5
381.282	82.5
381.507	73.5
381.733	72.5
381.958	83.5
382.184	98.5
382.409	83.5
382.634	93.5
382.86	89.5
383.085	74.5
383.31	96.5
383.535	76.5
383.761	85.5
383.986	82.5
384.211	75.5
384.436	86.5
384.662	84.5
384.887	77.5
385.112	67.5
385.337	87.5
385.562	82.5
385.787	81.5
386.013	68.5
386.238	85.5
386.463	89.5
386.688	100.5
386.913	66.5
387.138	91.5
387.363	82.5
387.588	93.5
387.813	72.5
388.038	88.5
388.263	88.5
388.488	76.5
388.713	85.5
388.938	86.5
389.163	89.5
389.387	77.5
389.612	81.5
389.837	79.5
390.062	74.5
390.287	68.5
390.512	84.5
390.736	73.5
390.961	63.5
391.186	89.5
391.411	69.5
391.636	83.5
391.86	84.5
392.085	77.5
392.31	77.5
392.534	92.5
392.759	84.5
392.984	77.5
393.208	80.5
393.433	82.5
393.658	97.5
393.882	81.5
394.107	73.5
394.331	83.5
394.556	77.5
394.78	82.5
395.005	81.5
395.229	86.5
395.454	74.5
395.678	71.5
395.903	88.5
396.127	76.5
396.352	84.5
396.576	74.5
396.801	88.5
397.025	67.5
397.249	72.5
397.474	82.5
397.698	76.5
397.922	88.5
398.147	90.5
398.371	89.5
398.595	72.5
398.82	84.5
399.044	81.5
399.268	68.5
399.492	69.5
399.717	85.5
399.941	92.5
400.165	79.5
400.389	70.5
400.613	80.5
400.837	73.5
401.062	72.5
401.286	74.5
401.51	93.5
401.734	96.5
401.958	80.5
402.182	82.5
402.406	73.5
402.63	68.5
402.854	89.5
403.078	92.5
403.302	84.5
403.526	91.5
403.75	79.5
403.974	97.5
404.198	85.5
404.422	95.5
404.645	73.5
404.869	88.5
405.093	80.5
405.317	84.5
405.541	76.5
405.765	81.5
405.988	74.5
406.212	70.5
406.436	86.5
406.66	90.5
406.883	80.5
407.107	85.5
407.331	74.5
407.555	74.5
407.778	79.5
408.002	82.5
408.226	80.5
408.449	85.5
408.673	77.5
408.896	88.5
409.12	77.5
409.344	61.5
409.567	74.5
409.791	83.5
410.014	77.5
410.238	84.5
410.461	82.5
410.685	69.5
410.908	83.5
411.132	80.5
411.355	87.5
411.578	82.5
411.802	78.5
412.025	80.5
412.249	77.5
412.472	85.5
412.695	74.5
412.919	81.5
413.142	79.5
413.365	70.5
413.589	83.5
413.812	78.5
414.035	76.5
414.258	74.5
414.482	83.5
414.705	79.5
414.928	87.5
415.151	81.5
415.374	85.5
415.597	73.5
415.821	78.5
416.044	69.5
416.267	80.5
416.49	86.5
416.713	75.5
416.936	82.5
417.159	79.5
417.382	97.5
417.605	74.5
417.828	81.5
418.051	89.5
418.274	89.5
418.497	76.5
418.72	62.5
418.943	93.5
419.166	74.5
419.389	81.5
419.611	76.5
419.834	62.5
420.057	70.5
420.28	76.5
420.503	80.5
420.726	78.5
420.948	94.5
421.171	81.5
421.394	93.5
421.617	81.5
421.839	71.5
422.062	73.5
422.285	75.5
422.507	79.5
422.73	80.5
422.953	78.5
423.175	72.5
423.398	95.5
423.621	74.5
423.843	91.5
424.066	83.5
424.288	72.5
424.511	65.5
424.733	81.5
424.956	83.5
425.178	87.5
425.401	86.5
425.623	80.5
425.846	89.5
426.068	84.5
426.291	90.5
426.513	72.5
426.735	84.5
426.958	78.5
427.18	75.5
427.402	88.5
427.625	68.5
427.847	81.5
428.069	78.5
428.292	83.5
428.514	74.5
428.736	74.5
428.958	81.5
429.181	87.5
429.403	88.5
429.625	69.5
429.847	87.5
430.069	80.5
430.292	86.5
430.514	81.5
430.736	73.5
430.958	84.5
431.18	81.5
431.402	80.5
431.624	76.5
431.846	70.5
432.068	64.5
432.29	76.5
432.512	88.5
432.734	78.5
432.956	82.5
433.178	79.5
433.4	92.5
433.622	78.5
433.844	80.5
434.066	75.5
434.287	77.5
434.509	74.5
434.731	74.5
434.953	74.5
435.175	84.5
435.397	83.5
435.618	88.5
435.84	80.5
436.062	66.5
436.284	71.5
436.505	90.5
436.727	87.5
436.949	103.5
437.17	67.5
437.392	87.5
437.614	83.5
437.835	81.5
438.057	75.5
438.278	80.5
438.5	71.5
438.721	94.5
438.943	77.5
439.165	82.5
439.386	85.5
439.608	95.5
439.829	83.5
440.05	70.5
440.272	88.5
440.493	69.5
440.715	88.5
440.936	86.5
441.158	81.5
441.379	82.5
441.6	76.5
441.822	85.5
442.043	87.5
442.264	97.5
442.486	74.5
442.707	90.5
442.928	94.5
443.149	83.5
443.371	73.5
443.592	73.5
443.813	73.5
444.034	89.5
444.255	88.5
444.476	78.5
444.698	83.5
444.919	85.5
445.14	135.5
445.361	110.5
445.582	73.5
445.803	76.5
446.024	68.5
446.245	90.5
446.466	77.5
446.687	70.5
446.908	69.5
447.129	73.5
447.35	82.5
447.571	84.5
447.792	65.5
448.013	75.5
448.234	87.5
448.455	70.5
448.675	85.5
448.896	86.5
449.117	66.5
449.338	69.5
449.559	72.5
449.779	77.5
450	72.5
450.221	77.5
450.442	67.5
450.662	83.5
450.883	78.5
451.104	77.5
451.324	94.5
451.545	86.5
451.766	67.5
451.986	78.5
452.207	80.5
452.428	87.5
452.648	89.5
452.869	82.5
453.089	86.5
453.31	76.5
453.53	83.5
453.751	84.5
453.971	84.5
454.192	79.5
454.412	82.5
454.633	64.5
454.853	69.5
455.073	71.5
455.294	87.5
455.514	82.5
455.734	73.5
455.955	86.5
456.175	67.5
456.395	78.5
456.616	79.5
456.836	67.5
457.056	77.5
457.276	55.5
457.497	85.5
457.717	77.5
457.937	88.5
458.157	67.5
458.377	69.5
458.598	77.5
458.818	86.5
459.038	84.5
459.258	66.5
459.478	84.5
459.698	74.5
459.918	93.5
460.138	73.5
460.358	86.5
460.578	75.5
460.798	83.5
461.018	91.5
461.238	89.5
461.458	70.5
461.678	74.5
461.898	67.5
462.118	85.5
462.338	84.5
462.558	77.5
462.777	84.5
462.997	88.5
463.217	78.5
463.437	88.5
463.657	79.5
463.876	68.5
464.096	71.5
464.316	79.5
464.536	86.5
464.755	91.5
464.975	88.5
465.195	87.5
465.414	82.5
465.634	87.5
465.854	75.5
466.073	84.5
466.293	70.5
466.512	70.5
466.732	86.5
466.951	75.5
467.171	67.5
467.391	79.5
467.61	78.5
467.829	82.5
468.049	71.5
468.268	67.5
468.488	85.5
468.707	65.5
468.927	80.5
469.146	86.5
469.365	75.5
469.585	72.5
469.804	80.5
470.023	84.5
470.243	74.5
470.462	97.5
470.681	78.5
470.901	94.5
471.12	86.5
471.339	82.5
471.558	80.5
471.777	82.5
471.997	70.5
472.216	76.5
472.435	73.5
472.654	78.5
472.873	85.5
473.092	85.5
473.311	78.5
473.53	85.5
473.749	83.5
473.968	84.5
474.187	73.5
474.406	79.5
474.625	81.5
474.844	85.5
475.063	70.5
475.282	82.5
475.501	76.5
475.72	79.5
475.939	70.5
476.158	69.5
476.377	79.5
476.596	69.5
476.814	80.5
477.033	78.5
477.252	87.5
477.471	85.5
477.69	76.5
477.908	86.5
478.127	86.5
478.346	84.5
478.564	71.5
478.783	85.5
479.002	87.5
479.22	72.5
479.439	89.5
479.658	79.5
479.876	78.5
480.095	88.5
480.313	95.5
480.532	78.5
480.751	89.5
480.969	56.5
481.188	90.5
481.406	62.5
481.624	82.5
481.843	77.5
482.061	86.5
482.28	87.5
482.498	74.5
482.717	74.5
482.935	91.5
483.153	81.5
483.372	85.5
483.59	78.5
483.808	82.5
484.027	88.5
484.245	84.5
484.463	90.5
484.681	94.5
484.9	74.5
485.118	94.5
485.336	84.5
485.554	73.5
485.772	77.5
485.99	85.5
486.209	63.5
486.427	72.5
486.645	77.5
486.863	72.5
487.081	87.5
487.299	79.5
487.517	101.5
487.735	76.5
487.953	87.5
488.171	77.5
488.389	85.5
488.607	65.5
488.825	72.5
489.043	82.5
489.261	86.5
489.479	87.5
489.696	80.5
489.914	95.5
490.132	82.5
490.35	94.5
490.568	74.5
490.786	76.5
491.003	76.5
491.221	74.5
491.439	80.5
491.657	78.5
491.874	80.5
492.092	71.5
492.31	78.5
492.527	86.5
492.745	69.5
492.963	65.5
493.18	82.5
493.398	86.5
493.615	81.5
493.833	73.5
494.05	64.5
494.268	79.5
494.485	85.5
494.703	93.5
494.92	87.5
495.138	70.5
495.355	80.5
495.573	75.5
495.79	91.5
496.008	96.5
496.225	90.5
496.442	77.5
496.66	95.5
496.877	85.5
497.094	77.5
497.312	84.5
497.529	67.5
497.746	81.5
497.963	88.5
498.181	77.5
498.398	81.5
498.615	94.5
498.832	71.5
499.049	81.5
499.267	87.5
499.484	70.5
499.701	80.5
499.918	79.5
500.135	81.5
500.352	68.5
500.569	91.5
500.786	89.5
501.003	89.5
501.22	81.5
501.437	76.5
501.654	81.5
501.871	85.5
502.088	80.5
502.305	77.5
502.522	80.5
502.739	102.5
502.956	68.5
503.172	79.5
503.389	82.5
503.606	86.5
503.823	74.5
504.04	80.5
504.256	90.5
504.473	101.5
504.69	77.5
504.907	102.5
505.123	72.5
505.34	76.5
505.557	85.5
505.773	87.5
505.99	99.5
506.207	86.5
506.423	91.5
506.64	83.5
506.856	74.5
507.073	78.5
507.289	77.5
507.506	91.5
507.722	82.5
507.939	93.5
508.155	86.5
508.372	83.5
508.588	79.5
508.805	89.5
509.021	90.5
509.238	77.5
509.454	91.5
509.67	74.5
509.887	77.5
510.103	71.5
510.319	83.5
510.536	73.5
510.752	94.5
510.968	77.5
511.184	77.5
511.401	84.5
511.617	69.5
511.833	78.5
512.049	77.5
512.265	87.5
512.481	86.5
512.698	80.5
512.914	75.5
513.13	79.5
513.346	96.5
513.562	97.5
513.778	93.5
513.994	69.5
514.21	84.5
514.426	92.5
514.642	91.5
514.858	83.5
515.074	88.5
515.29	83.5
515.506	83.5
515.721	80.5
515.937	73.5
516.153	93.5
516.369	77.5
516.585	80.5
516.801	65.5
517.016	80.5
517.232	89.5
517.448	76.5
517.664	79.5
517.879	92.5
518.095	81.5
518.311	80.5
518.527	71.5
518.742	88.5
518.958	77.5
519.173	79.5
519.389	86.5
519.605	93.5
519.82	80.5
520.036	96.5
520.251	82.5
520.467	89.5
520.682	83.5
520.898	90.5
521.113	92.5
521.329	98.5
521.544	82.5
521.76	73.5
521.975	80.5
522.19	80.5
522.406	76.5
522.621	93.5
522.836	84.5
523.052	87.5
523.267	83.5
523.482	78.5
523.698	89.5
523.913	88.5
524.128	72.5
524.343	83.5
524.559	89.5
524.774	79.5
524.989	82.5
525.204	80.5
525.419	83.5
525.634	78.5
525.849	89.5
526.064	82.5
526.28	81.5
526.495	97.5
526.71	74.5
526.925	70.5
527.14	87.5
527.355	88.5
527.57	87.5
527.785	91.5
527.999	77.5
528.214	83.5
528.429	77.5
528.644	88.5
528.859	83.5
529.074	91.5
529.289	90.5
529.503	92.5
529.718	83.5
529.933	92.5
530.148	87.5
530.363	77.5
530.577	75.5
530.792	89.5
531.007	96.5
531.221	85.5
531.436	89.5
531.651	78.5
531.865	77.5
532.08	72.5
532.295	73.5
532.509	69.5
532.724	87.5
532.938	81.5
533.153	86.5
533.367	102.5
533.582	89.5
533.796	87.5
534.011	81.5
534.225	84.5
534.44	80.5
534.654	86.5
534.868	78.5
535.083	87.5
535.297	101.5
535.511	84.5
535.726	86.5
535.94	85.5
536.154	82.5
536.369	77.5
536.583	76.5
536.797	79.5
537.011	91.5
537.225	83.5
537.44	79.5
537.654	80.5
537.868	83.5
538.082	68.5
538.296	86.5
538.51	76.5
538.724	74.5
538.938	83.5
539.153	82.5
539.367	82.5
539.581	84.5
539.795	97.5
540.009	90.5
540.222	83.5
