Data from BGNA1_HRD10591_00014.txt Node
Date: Fri Dec 27 14:32:31 EST 2024
User: Yrep
Spectrometer: HR+D1059
Trigger mode: 1
Integration Time (sec): 1.000000E-1
Scans to average: 1
Electric dark correction enabled: true
Nonlinearity correction enabled: false
Boxcar width: 0
XAxis mode: Wavelengths
Number of Pixels in Spectrum: 2048
>>>>>Begin Spectral Data<<<<<
223.165	-12.88
223.4	-12.88
223.635	-12.88
223.869	-16.88
224.104	-19.88
224.338	-21.88
224.573	-33.88
224.808	-17.88
225.042	-1.88
225.277	-0.88
225.511	-4.88
225.746	-5.88
225.98	7.12
226.215	21.12
226.449	19.12
226.683	23.12
226.918	35.12
227.152	31.12
227.387	18.12
227.621	30.12
227.856	49.12
228.09	37.12
228.324	48.12
228.559	47.12
228.793	58.12
229.027	60.12
229.262	60.12
229.496	57.12
229.73	57.12
229.964	69.12
230.199	67.12
230.433	66.12
230.667	76.12
230.901	82.12
231.136	66.12
231.37	73.12
231.604	69.12
231.838	61.12
232.072	73.12
232.306	78.12
232.541	79.12
232.775	72.12
233.009	67.12
233.243	60.12
233.477	83.12
233.711	69.12
233.945	78.12
234.179	70.12
234.413	77.12
234.647	74.12
234.881	79.12
235.115	83.12
235.349	64.12
235.583	52.12
235.817	81.12
236.051	73.12
236.285	74.12
236.519	71.12
236.753	82.12
236.987	81.12
237.221	64.12
237.455	73.12
237.689	73.12
237.922	77.12
238.156	72.12
238.39	85.12
238.624	64.12
238.858	70.12
239.091	77.12
239.325	66.12
239.559	73.12
239.793	61.12
240.027	75.12
240.26	89.12
240.494	74.12
240.728	75.12
240.961	79.12
241.195	82.12
241.429	73.12
241.662	65.12
241.896	80.12
242.13	76.12
242.363	75.12
242.597	77.12
242.83	92.12
243.064	88.12
243.298	73.12
243.531	74.12
243.765	48.12
243.998	66.12
244.232	66.12
244.465	79.12
244.699	69.12
244.932	49.12
245.166	60.12
245.399	86.12
245.633	60.12
245.866	67.12
246.099	65.12
246.333	80.12
246.566	72.12
246.8	79.12
247.033	78.12
247.266	75.12
247.5	71.12
247.733	70.12
247.966	73.12
248.2	61.12
248.433	58.12
248.666	79.12
248.899	76.12
249.133	72.12
249.366	87.12
249.599	84.12
249.832	74.12
250.066	92.12
250.299	80.12
250.532	55.12
250.765	70.12
250.998	81.12
251.231	63.12
251.465	81.12
251.698	76.12
251.931	64.12
252.164	73.12
252.397	72.12
252.63	68.12
252.863	74.12
253.096	80.12
253.329	71.12
253.562	72.12
253.795	85.12
254.028	82.12
254.261	85.12
254.494	71.12
254.727	80.12
254.96	71.12
255.193	79.12
255.426	74.12
255.659	81.12
255.892	77.12
256.124	74.12
256.357	76.12
256.59	73.12
256.823	75.12
257.056	72.12
257.289	82.12
257.521	65.12
257.754	80.12
257.987	67.12
258.22	76.12
258.452	80.12
258.685	70.12
258.918	70.12
259.151	58.12
259.383	78.12
259.616	76.12
259.849	78.12
260.081	80.12
260.314	80.12
260.547	83.12
260.779	71.12
261.012	77.12
261.244	64.12
261.477	73.12
261.71	78.12
261.942	65.12
262.175	68.12
262.407	76.12
262.64	71.12
262.872	63.12
263.105	71.12
263.337	90.12
263.57	84.12
263.802	70.12
264.035	91.12
264.267	92.12
264.499	83.12
264.732	75.12
264.964	79.12
265.197	72.12
265.429	67.12
265.661	69.12
265.894	81.12
266.126	72.12
266.358	86.12
266.591	67.12
266.823	76.12
267.055	64.12
267.287	61.12
267.52	73.12
267.752	79.12
267.984	77.12
268.216	66.12
268.448	89.12
268.681	73.12
268.913	78.12
269.145	82.12
269.377	77.12
269.609	67.12
269.841	76.12
270.073	84.12
270.306	93.12
270.538	79.12
270.77	80.12
271.002	89.12
271.234	78.12
271.466	78.12
271.698	79.12
271.93	78.12
272.162	67.12
272.394	76.12
272.626	75.12
272.858	67.12
273.09	74.12
273.322	76.12
273.553	77.12
273.785	72.12
274.017	78.12
274.249	72.12
274.481	76.12
274.713	74.12
274.945	88.12
275.176	71.12
275.408	72.12
275.64	80.12
275.872	100.12
276.104	96.12
276.335	81.12
276.567	77.12
276.799	74.12
277.031	80.12
277.262	66.12
277.494	84.12
277.726	83.12
277.957	68.12
278.189	73.12
278.421	71.12
278.652	84.12
278.884	75.12
279.115	92.12
279.347	72.12
279.579	82.12
279.81	87.12
280.042	73.12
280.273	90.12
280.505	68.12
280.736	77.12
280.968	82.12
281.199	68.12
281.431	83.12
281.662	83.12
281.894	78.12
282.125	68.12
282.356	75.12
282.588	92.12
282.819	78.12
283.051	89.12
283.282	82.12
283.513	84.12
283.745	87.12
283.976	71.12
284.207	84.12
284.439	78.12
284.67	77.12
284.901	82.12
285.132	87.12
285.364	68.12
285.595	86.12
285.826	77.12
286.057	78.12
286.288	82.12
286.52	81.12
286.751	63.12
286.982	79.12
287.213	85.12
287.444	70.12
287.675	71.12
287.906	73.12
288.138	71.12
288.369	89.12
288.6	81.12
288.831	80.12
289.062	81.12
289.293	88.12
289.524	72.12
289.755	74.12
289.986	79.12
290.217	90.12
290.448	79.12
290.679	81.12
290.91	98.12
291.141	77.12
291.371	81.12
291.602	69.12
291.833	78.12
292.064	73.12
292.295	79.12
292.526	80.12
292.757	76.12
292.987	88.12
293.218	84.12
293.449	78.12
293.68	76.12
293.91	85.12
294.141	72.12
294.372	80.12
294.603	77.12
294.833	79.12
295.064	74.12
295.295	70.12
295.525	79.12
295.756	80.12
295.987	85.12
296.217	78.12
296.448	67.12
296.679	71.12
296.909	84.12
297.14	86.12
297.37	74.12
297.601	79.12
297.831	79.12
298.062	77.12
298.292	71.12
298.523	82.12
298.753	81.12
298.984	89.12
299.214	80.12
299.445	81.12
299.675	73.12
299.905	79.12
300.136	82.12
300.366	81.12
300.597	84.12
300.827	55.12
301.057	86.12
301.288	64.12
301.518	88.12
301.748	82.12
301.979	86.12
302.209	59.12
302.439	73.12
302.669	67.12
302.9	78.12
303.13	82.12
303.36	76.12
303.59	86.12
303.82	91.12
304.051	86.12
304.281	74.12
304.511	79.12
304.741	82.12
304.971	79.12
305.201	77.12
305.431	83.12
305.661	75.12
305.891	70.12
306.121	68.12
306.352	71.12
306.582	80.12
306.812	93.12
307.042	72.12
307.272	75.12
307.502	91.12
307.731	79.12
307.961	90.12
308.191	88.12
308.421	81.12
308.651	82.12
308.881	95.12
309.111	78.12
309.341	82.12
309.571	59.12
309.8	70.12
310.03	82.12
310.26	74.12
310.49	85.12
310.72	68.12
310.949	68.12
311.179	66.12
311.409	82.12
311.639	66.12
311.868	69.12
312.098	80.12
312.328	77.12
312.557	81.12
312.787	67.12
313.017	74.12
313.246	83.12
313.476	82.12
313.706	69.12
313.935	65.12
314.165	71.12
314.394	66.12
314.624	67.12
314.853	78.12
315.083	83.12
315.312	84.12
315.542	74.12
315.771	70.12
316.001	71.12
316.23	75.12
316.46	76.12
316.689	72.12
316.919	76.12
317.148	78.12
317.377	80.12
317.607	73.12
317.836	79.12
318.065	78.12
318.295	67.12
318.524	75.12
318.753	89.12
318.983	83.12
319.212	87.12
319.441	90.12
319.67	74.12
319.9	81.12
320.129	76.12
320.358	74.12
320.587	79.12
320.816	73.12
321.046	70.12
321.275	96.12
321.504	83.12
321.733	77.12
321.962	91.12
322.191	69.12
322.42	75.12
322.649	78.12
322.878	78.12
323.108	97.12
323.337	103.12
323.566	65.12
323.795	90.12
324.024	83.12
324.253	69.12
324.482	87.12
324.71	76.12
324.939	87.12
325.168	75.12
325.397	70.12
325.626	68.12
325.855	95.12
326.084	65.12
326.313	79.12
326.542	63.12
326.77	75.12
326.999	82.12
327.228	81.12
327.457	68.12
327.686	70.12
327.914	71.12
328.143	76.12
328.372	75.12
328.6	87.12
328.829	80.12
329.058	74.12
329.287	90.12
329.515	67.12
329.744	84.12
329.972	86.12
330.201	85.12
330.43	89.12
330.658	81.12
330.887	87.12
331.115	72.12
331.344	78.12
331.572	86.12
331.801	76.12
332.03	88.12
332.258	82.12
332.486	92.12
332.715	100.12
332.943	82.12
333.172	69.12
333.4	61.12
333.629	74.12
333.857	72.12
334.085	74.12
334.314	71.12
334.542	69.12
334.771	84.12
334.999	77.12
335.227	67.12
335.455	72.12
335.684	72.12
335.912	93.12
336.14	73.12
336.369	82.12
336.597	76.12
336.825	89.12
337.053	68.12
337.281	82.12
337.51	87.12
337.738	94.12
337.966	90.12
338.194	61.12
338.422	64.12
338.65	92.12
338.878	66.12
339.106	63.12
339.334	92.12
339.562	71.12
339.79	77.12
340.018	78.12
340.246	81.12
340.474	83.12
340.702	70.12
340.93	83.12
341.158	83.12
341.386	72.12
341.614	103.12
341.842	75.12
342.07	83.12
342.298	62.12
342.526	83.12
342.754	76.12
342.981	91.12
343.209	83.12
343.437	101.12
343.665	76.12
343.893	90.12
344.12	80.12
344.348	88.12
344.576	81.12
344.804	83.12
345.031	75.12
345.259	82.12
345.487	86.12
345.714	85.12
345.942	72.12
346.17	81.12
346.397	67.12
346.625	81.12
346.853	64.12
347.08	94.12
347.308	80.12
347.535	73.12
347.763	73.12
347.99	84.12
348.218	86.12
348.445	76.12
348.673	78.12
348.9	81.12
349.128	67.12
349.355	80.12
349.583	73.12
349.81	74.12
350.037	78.12
350.265	82.12
350.492	71.12
350.72	71.12
350.947	76.12
351.174	79.12
351.402	87.12
351.629	68.12
351.856	92.12
352.083	89.12
352.311	86.12
352.538	74.12
352.765	76.12
352.992	88.12
353.22	74.12
353.447	67.12
353.674	83.12
353.901	90.12
354.128	93.12
354.355	79.12
354.583	77.12
354.81	86.12
355.037	91.12
355.264	82.12
355.491	92.12
355.718	72.12
355.945	82.12
356.172	78.12
356.399	82.12
356.626	71.12
356.853	84.12
357.08	59.12
357.307	80.12
357.534	68.12
357.761	100.12
357.988	98.12
358.215	72.12
358.441	76.12
358.668	81.12
358.895	79.12
359.122	68.12
359.349	87.12
359.576	57.12
359.802	66.12
360.029	92.12
360.256	98.12
360.483	91.12
360.709	90.12
360.936	88.12
361.163	76.12
361.39	79.12
361.616	73.12
361.843	79.12
362.07	75.12
362.296	77.12
362.523	77.12
362.749	80.12
362.976	76.12
363.203	89.12
363.429	82.12
363.656	68.12
363.882	86.12
364.109	74.12
364.335	86.12
364.562	71.12
364.788	88.12
365.015	77.12
365.241	72.12
365.468	66.12
365.694	61.12
365.92	88.12
366.147	86.12
366.373	62.12
366.599	77.12
366.826	86.12
367.052	83.12
367.278	76.12
367.505	86.12
367.731	92.12
367.957	83.12
368.184	80.12
368.41	87.12
368.636	74.12
368.862	71.12
369.089	79.12
369.315	78.12
369.541	71.12
369.767	71.12
369.993	68.12
370.219	89.12
370.445	80.12
370.672	73.12
370.898	74.12
371.124	77.12
371.35	91.12
371.576	86.12
371.802	81.12
372.028	75.12
372.254	88.12
372.48	70.12
372.706	69.12
372.932	84.12
373.158	77.12
373.384	75.12
373.61	85.12
373.835	67.12
374.061	98.12
374.287	75.12
374.513	74.12
374.739	78.12
374.965	78.12
375.191	74.12
375.416	78.12
375.642	90.12
375.868	74.12
376.094	76.12
376.319	66.12
376.545	76.12
376.771	80.12
376.997	76.12
377.222	69.12
377.448	78.12
377.674	72.12
377.899	80.12
378.125	59.12
378.35	74.12
378.576	74.12
378.802	71.12
379.027	63.12
379.253	85.12
379.478	65.12
379.704	73.12
379.929	64.12
380.155	76.12
380.38	100.12
380.606	82.12
380.831	81.12
381.057	90.12
381.282	93.12
381.507	72.12
381.733	97.12
381.958	76.12
382.184	62.12
382.409	78.12
382.634	79.12
382.86	80.12
383.085	81.12
383.31	80.12
383.535	79.12
383.761	60.12
383.986	84.12
384.211	95.12
384.436	75.12
384.662	72.12
384.887	89.12
385.112	80.12
385.337	73.12
385.562	86.12
385.787	75.12
386.013	60.12
386.238	92.12
386.463	75.12
386.688	75.12
386.913	80.12
387.138	76.12
387.363	72.12
387.588	70.12
387.813	66.12
388.038	74.12
388.263	65.12
388.488	69.12
388.713	75.12
388.938	73.12
389.163	85.12
389.387	74.12
389.612	88.12
389.837	73.12
390.062	83.12
390.287	80.12
390.512	76.12
390.736	75.12
390.961	65.12
391.186	75.12
391.411	62.12
391.636	70.12
391.86	73.12
392.085	74.12
392.31	66.12
392.534	57.12
392.759	75.12
392.984	84.12
393.208	73.12
393.433	76.12
393.658	73.12
393.882	84.12
394.107	77.12
394.331	99.12
394.556	85.12
394.78	88.12
395.005	90.12
395.229	68.12
395.454	74.12
395.678	69.12
395.903	71.12
396.127	81.12
396.352	70.12
396.576	73.12
396.801	69.12
397.025	69.12
397.249	98.12
397.474	77.12
397.698	78.12
397.922	75.12
398.147	70.12
398.371	71.12
398.595	86.12
398.82	90.12
399.044	89.12
399.268	77.12
399.492	63.12
399.717	70.12
399.941	76.12
400.165	82.12
400.389	68.12
400.613	76.12
400.837	82.12
401.062	75.12
401.286	77.12
401.51	73.12
401.734	79.12
401.958	78.12
402.182	77.12
402.406	61.12
402.63	66.12
402.854	79.12
403.078	73.12
403.302	79.12
403.526	85.12
403.75	74.12
403.974	82.12
404.198	79.12
404.422	80.12
404.645	75.12
404.869	72.12
405.093	87.12
405.317	86.12
405.541	85.12
405.765	79.12
405.988	78.12
406.212	82.12
406.436	72.12
406.66	65.12
406.883	74.12
407.107	73.12
407.331	79.12
407.555	83.12
407.778	92.12
408.002	67.12
408.226	74.12
408.449	55.12
408.673	68.12
408.896	64.12
409.12	67.12
409.344	77.12
409.567	61.12
409.791	63.12
410.014	82.12
410.238	79.12
410.461	75.12
410.685	87.12
410.908	71.12
411.132	97.12
411.355	86.12
411.578	77.12
411.802	79.12
412.025	78.12
412.249	96.12
412.472	68.12
412.695	77.12
412.919	78.12
413.142	82.12
413.365	71.12
413.589	74.12
413.812	70.12
414.035	80.12
414.258	79.12
414.482	73.12
414.705	71.12
414.928	68.12
415.151	76.12
415.374	73.12
415.597	77.12
415.821	78.12
416.044	78.12
416.267	73.12
416.49	82.12
416.713	98.12
416.936	77.12
417.159	90.12
417.382	74.12
417.605	65.12
417.828	83.12
418.051	72.12
418.274	81.12
418.497	81.12
418.72	89.12
418.943	66.12
419.166	90.12
419.389	78.12
419.611	63.12
419.834	77.12
420.057	91.12
420.28	83.12
420.503	78.12
420.726	83.12
420.948	68.12
421.171	58.12
421.394	76.12
421.617	70.12
421.839	73.12
422.062	67.12
422.285	58.12
422.507	81.12
422.73	74.12
422.953	70.12
423.175	80.12
423.398	73.12
423.621	86.12
423.843	68.12
424.066	66.12
424.288	70.12
424.511	79.12
424.733	78.12
424.956	74.12
425.178	77.12
425.401	77.12
425.623	74.12
425.846	87.12
426.068	71.12
426.291	81.12
426.513	68.12
426.735	70.12
426.958	78.12
427.18	51.12
427.402	89.12
427.625	79.12
427.847	66.12
428.069	67.12
428.292	97.12
428.514	89.12
428.736	51.12
428.958	78.12
429.181	66.12
429.403	71.12
429.625	95.12
429.847	83.12
430.069	80.12
430.292	78.12
430.514	84.12
430.736	67.12
430.958	83.12
431.18	81.12
431.402	72.12
431.624	78.12
431.846	80.12
432.068	68.12
432.29	74.12
432.512	88.12
432.734	81.12
432.956	84.12
433.178	75.12
433.4	84.12
433.622	73.12
433.844	83.12
434.066	80.12
434.287	75.12
434.509	85.12
434.731	76.12
434.953	74.12
435.175	75.12
435.397	81.12
435.618	65.12
435.84	55.12
436.062	67.12
436.284	78.12
436.505	83.12
436.727	80.12
436.949	70.12
437.17	75.12
437.392	67.12
437.614	81.12
437.835	84.12
438.057	81.12
438.278	83.12
438.5	79.12
438.721	82.12
438.943	97.12
439.165	74.12
439.386	86.12
439.608	74.12
439.829	74.12
440.05	74.12
440.272	76.12
440.493	80.12
440.715	85.12
440.936	70.12
441.158	75.12
441.379	79.12
441.6	79.12
441.822	71.12
442.043	76.12
442.264	81.12
442.486	77.12
442.707	67.12
442.928	76.12
443.149	67.12
443.371	72.12
443.592	71.12
443.813	72.12
444.034	83.12
444.255	66.12
444.476	79.12
444.698	68.12
444.919	85.12
445.14	144.12
445.361	106.12
445.582	87.12
445.803	68.12
446.024	80.12
446.245	77.12
446.466	72.12
446.687	82.12
446.908	75.12
447.129	73.12
447.35	63.12
447.571	81.12
447.792	82.12
448.013	77.12
448.234	68.12
448.455	87.12
448.675	74.12
448.896	75.12
449.117	86.12
449.338	75.12
449.559	84.12
449.779	65.12
450	76.12
450.221	75.12
450.442	88.12
450.662	72.12
450.883	68.12
451.104	84.12
451.324	72.12
451.545	76.12
451.766	80.12
451.986	73.12
452.207	77.12
452.428	78.12
452.648	70.12
452.869	72.12
453.089	80.12
453.31	78.12
453.53	73.12
453.751	86.12
453.971	88.12
454.192	79.12
454.412	67.12
454.633	78.12
454.853	81.12
455.073	83.12
455.294	80.12
455.514	74.12
455.734	67.12
455.955	79.12
456.175	77.12
456.395	79.12
456.616	63.12
456.836	86.12
457.056	69.12
457.276	81.12
457.497	87.12
457.717	82.12
457.937	71.12
458.157	87.12
458.377	72.12
458.598	81.12
458.818	82.12
459.038	77.12
459.258	57.12
459.478	76.12
459.698	89.12
459.918	96.12
460.138	85.12
460.358	72.12
460.578	75.12
460.798	80.12
461.018	69.12
461.238	65.12
461.458	76.12
461.678	71.12
461.898	62.12
462.118	83.12
462.338	86.12
462.558	88.12
462.777	81.12
462.997	77.12
463.217	58.12
463.437	71.12
463.657	68.12
463.876	88.12
464.096	81.12
464.316	58.12
464.536	75.12
464.755	75.12
464.975	89.12
465.195	78.12
465.414	86.12
465.634	86.12
465.854	67.12
466.073	68.12
466.293	84.12
466.512	88.12
466.732	79.12
466.951	73.12
467.171	76.12
467.391	76.12
467.61	75.12
467.829	74.12
468.049	71.12
468.268	74.12
468.488	61.12
468.707	72.12
468.927	76.12
469.146	81.12
469.365	63.12
469.585	78.12
469.804	64.12
470.023	68.12
470.243	91.12
470.462	89.12
470.681	63.12
470.901	59.12
471.12	70.12
471.339	78.12
471.558	74.12
471.777	72.12
471.997	60.12
472.216	76.12
472.435	79.12
472.654	87.12
472.873	73.12
473.092	79.12
473.311	79.12
473.53	80.12
473.749	75.12
473.968	71.12
474.187	71.12
474.406	78.12
474.625	79.12
474.844	83.12
475.063	79.12
475.282	78.12
475.501	60.12
475.72	76.12
475.939	83.12
476.158	79.12
476.377	71.12
476.596	70.12
476.814	73.12
477.033	81.12
477.252	75.12
477.471	72.12
477.69	79.12
477.908	77.12
478.127	89.12
478.346	83.12
478.564	73.12
478.783	71.12
479.002	75.12
479.22	79.12
479.439	95.12
479.658	85.12
479.876	74.12
480.095	78.12
480.313	83.12
480.532	71.12
480.751	66.12
480.969	77.12
481.188	90.12
481.406	81.12
481.624	85.12
481.843	86.12
482.061	62.12
482.28	75.12
482.498	78.12
482.717	81.12
482.935	71.12
483.153	87.12
483.372	83.12
483.59	66.12
483.808	75.12
484.027	75.12
484.245	62.12
484.463	78.12
484.681	72.12
484.9	65.12
485.118	76.12
485.336	74.12
485.554	84.12
485.772	72.12
485.99	74.12
486.209	70.12
486.427	80.12
486.645	84.12
486.863	74.12
487.081	67.12
487.299	67.12
487.517	79.12
487.735	76.12
487.953	72.12
488.171	82.12
488.389	91.12
488.607	74.12
488.825	71.12
489.043	79.12
489.261	77.12
489.479	77.12
489.696	74.12
489.914	74.12
490.132	73.12
490.35	71.12
490.568	77.12
490.786	78.12
491.003	89.12
491.221	75.12
491.439	75.12
491.657	71.12
491.874	86.12
492.092	84.12
492.31	83.12
492.527	80.12
492.745	78.12
492.963	73.12
493.18	84.12
493.398	90.12
493.615	71.12
493.833	73.12
494.05	86.12
494.268	87.12
494.485	78.12
494.703	72.12
494.92	66.12
495.138	67.12
495.355	77.12
495.573	90.12
495.79	90.12
496.008	95.12
496.225	78.12
496.442	104.12
496.66	84.12
496.877	86.12
497.094	81.12
497.312	71.12
497.529	69.12
497.746	74.12
497.963	89.12
498.181	89.12
498.398	80.12
498.615	83.12
498.832	86.12
499.049	79.12
499.267	78.12
499.484	81.12
499.701	73.12
499.918	79.12
500.135	80.12
500.352	67.12
500.569	78.12
500.786	73.12
501.003	83.12
501.22	79.12
501.437	69.12
501.654	77.12
501.871	78.12
502.088	72.12
502.305	87.12
502.522	67.12
502.739	90.12
502.956	78.12
503.172	83.12
503.389	73.12
503.606	80.12
503.823	68.12
504.04	69.12
504.256	91.12
504.473	86.12
504.69	80.12
504.907	91.12
505.123	82.12
505.34	66.12
505.557	83.12
505.773	74.12
505.99	69.12
506.207	65.12
506.423	65.12
506.64	88.12
506.856	83.12
507.073	76.12
507.289	84.12
507.506	73.12
507.722	59.12
507.939	90.12
508.155	83.12
508.372	89.12
508.588	94.12
508.805	80.12
509.021	78.12
509.238	88.12
509.454	86.12
509.67	70.12
509.887	83.12
510.103	89.12
510.319	79.12
510.536	88.12
510.752	85.12
510.968	89.12
511.184	81.12
511.401	78.12
511.617	80.12
511.833	80.12
512.049	79.12
512.265	81.12
512.481	77.12
512.698	82.12
512.914	98.12
513.13	79.12
513.346	88.12
513.562	80.12
513.778	96.12
513.994	82.12
514.21	74.12
514.426	79.12
514.642	75.12
514.858	74.12
515.074	73.12
515.29	77.12
515.506	68.12
515.721	72.12
515.937	75.12
516.153	82.12
516.369	61.12
516.585	84.12
516.801	77.12
517.016	82.12
517.232	87.12
517.448	79.12
517.664	80.12
517.879	82.12
518.095	81.12
518.311	74.12
518.527	83.12
518.742	73.12
518.958	79.12
519.173	74.12
519.389	82.12
519.605	80.12
519.82	73.12
520.036	87.12
520.251	86.12
