Data from BGNA1_HRD10591_00003.txt Node
Date: Fri Dec 27 14:32:20 EST 2024
User: Yrep
Spectrometer: HR+D1059
Trigger mode: 1
Integration Time (sec): 1.000000E-1
Scans to average: 1
Electric dark correction enabled: true
Nonlinearity correction enabled: false
Boxcar width: 0
XAxis mode: Wavelengths
Number of Pixels in Spectrum: 2048
>>>>>Begin Spectral Data<<<<<
223.165	-25.38
223.4	-25.38
223.635	-25.38
223.869	-12.38
224.104	-24.38
224.338	-18.38
224.573	-4.38
224.808	-20.38
225.042	-0.38
225.277	-8.38
225.511	-2.38
225.746	13.62
225.98	15.62
226.215	4.62
226.449	15.62
226.683	18.62
226.918	21.62
227.152	26.62
227.387	53.62
227.621	33.62
227.856	39.62
228.09	42.62
228.324	50.62
228.559	65.62
228.793	62.62
229.027	61.62
229.262	67.62
229.496	80.62
229.73	82.62
229.964	71.62
230.199	71.62
230.433	79.62
230.667	73.62
230.901	80.62
231.136	97.62
231.37	87.62
231.604	84.62
231.838	87.62
232.072	85.62
232.306	87.62
232.541	78.62
232.775	77.62
233.009	88.62
233.243	89.62
233.477	101.62
233.711	88.62
233.945	83.62
234.179	90.62
234.413	94.62
234.647	81.62
234.881	73.62
235.115	73.62
235.349	77.62
235.583	83.62
235.817	86.62
236.051	76.62
236.285	69.62
236.519	82.62
236.753	71.62
236.987	67.62
237.221	71.62
237.455	82.62
237.689	81.62
237.922	86.62
238.156	69.62
238.39	82.62
238.624	66.62
238.858	75.62
239.091	70.62
239.325	73.62
239.559	82.62
239.793	83.62
240.027	85.62
240.26	89.62
240.494	83.62
240.728	79.62
240.961	78.62
241.195	75.62
241.429	90.62
241.662	66.62
241.896	77.62
242.13	80.62
242.363	75.62
242.597	69.62
242.83	83.62
243.064	71.62
243.298	84.62
243.531	79.62
243.765	71.62
243.998	78.62
244.232	86.62
244.465	81.62
244.699	87.62
244.932	78.62
245.166	68.62
245.399	67.62
245.633	83.62
245.866	95.62
246.099	76.62
246.333	89.62
246.566	88.62
246.8	85.62
247.033	93.62
247.266	89.62
247.5	89.62
247.733	97.62
247.966	86.62
248.2	75.62
248.433	77.62
248.666	82.62
248.899	87.62
249.133	97.62
249.366	76.62
249.599	61.62
249.832	81.62
250.066	91.62
250.299	84.62
250.532	91.62
250.765	78.62
250.998	78.62
251.231	74.62
251.465	75.62
251.698	64.62
251.931	77.62
252.164	86.62
252.397	85.62
252.63	86.62
252.863	66.62
253.096	86.62
253.329	99.62
253.562	87.62
253.795	87.62
254.028	80.62
254.261	74.62
254.494	76.62
254.727	87.62
254.96	75.62
255.193	93.62
255.426	80.62
255.659	81.62
255.892	66.62
256.124	83.62
256.357	86.62
256.59	83.62
256.823	86.62
257.056	74.62
257.289	98.62
257.521	91.62
257.754	88.62
257.987	93.62
258.22	95.62
258.452	76.62
258.685	88.62
258.918	69.62
259.151	71.62
259.383	84.62
259.616	86.62
259.849	98.62
260.081	81.62
260.314	80.62
260.547	95.62
260.779	92.62
261.012	70.62
261.244	77.62
261.477	93.62
261.71	89.62
261.942	96.62
262.175	73.62
262.407	87.62
262.64	84.62
262.872	87.62
263.105	72.62
263.337	87.62
263.57	89.62
263.802	89.62
264.035	79.62
264.267	85.62
264.499	84.62
264.732	81.62
264.964	74.62
265.197	82.62
265.429	75.62
265.661	92.62
265.894	77.62
266.126	88.62
266.358	78.62
266.591	91.62
266.823	87.62
267.055	89.62
267.287	99.62
267.52	93.62
267.752	83.62
267.984	93.62
268.216	90.62
268.448	83.62
268.681	79.62
268.913	84.62
269.145	74.62
269.377	76.62
269.609	84.62
269.841	69.62
270.073	88.62
270.306	101.62
270.538	81.62
270.77	105.62
271.002	87.62
271.234	95.62
271.466	76.62
271.698	93.62
271.93	83.62
272.162	75.62
272.394	94.62
272.626	90.62
272.858	86.62
273.09	101.62
273.322	99.62
273.553	93.62
273.785	75.62
274.017	82.62
274.249	76.62
274.481	80.62
274.713	88.62
274.945	88.62
275.176	71.62
275.408	75.62
275.64	81.62
275.872	84.62
276.104	83.62
276.335	88.62
276.567	85.62
276.799	76.62
277.031	86.62
277.262	87.62
277.494	85.62
277.726	95.62
277.957	92.62
278.189	72.62
278.421	82.62
278.652	84.62
278.884	76.62
279.115	85.62
279.347	85.62
279.579	71.62
279.81	106.62
280.042	89.62
280.273	102.62
280.505	83.62
280.736	86.62
280.968	75.62
281.199	83.62
281.431	86.62
281.662	100.62
281.894	92.62
282.125	84.62
282.356	82.62
282.588	76.62
282.819	73.62
283.051	88.62
283.282	95.62
283.513	89.62
283.745	102.62
283.976	100.62
284.207	77.62
284.439	89.62
284.67	86.62
284.901	91.62
285.132	81.62
285.364	74.62
285.595	94.62
285.826	83.62
286.057	93.62
286.288	84.62
286.52	90.62
286.751	76.62
286.982	93.62
287.213	82.62
287.444	95.62
287.675	97.62
287.906	93.62
288.138	93.62
288.369	87.62
288.6	88.62
288.831	87.62
289.062	86.62
289.293	104.62
289.524	83.62
289.755	80.62
289.986	85.62
290.217	83.62
290.448	83.62
290.679	84.62
290.91	82.62
291.141	85.62
291.371	90.62
291.602	82.62
291.833	83.62
292.064	87.62
292.295	85.62
292.526	85.62
292.757	72.62
292.987	85.62
293.218	88.62
293.449	92.62
293.68	78.62
293.91	83.62
294.141	92.62
294.372	93.62
294.603	97.62
294.833	93.62
295.064	90.62
295.295	87.62
295.525	79.62
295.756	74.62
295.987	84.62
296.217	81.62
296.448	74.62
296.679	94.62
296.909	88.62
297.14	90.62
297.37	86.62
297.601	86.62
297.831	95.62
298.062	106.62
298.292	100.62
298.523	98.62
298.753	92.62
298.984	90.62
299.214	92.62
299.445	85.62
299.675	92.62
299.905	87.62
300.136	82.62
300.366	83.62
300.597	81.62
300.827	86.62
301.057	81.62
301.288	97.62
301.518	93.62
301.748	67.62
301.979	111.62
302.209	76.62
302.439	78.62
302.669	88.62
302.9	89.62
303.13	88.62
303.36	91.62
303.59	90.62
303.82	84.62
304.051	100.62
304.281	94.62
304.511	98.62
304.741	98.62
304.971	84.62
305.201	96.62
305.431	107.62
305.661	105.62
305.891	87.62
306.121	86.62
306.352	99.62
306.582	89.62
306.812	89.62
307.042	86.62
307.272	83.62
307.502	88.62
307.731	87.62
307.961	86.62
308.191	85.62
308.421	98.62
308.651	80.62
308.881	85.62
309.111	78.62
309.341	94.62
309.571	80.62
309.8	86.62
310.03	98.62
310.26	81.62
310.49	88.62
310.72	82.62
310.949	70.62
311.179	83.62
311.409	80.62
311.639	93.62
311.868	88.62
312.098	100.62
312.328	94.62
312.557	97.62
312.787	85.62
313.017	99.62
313.246	87.62
313.476	86.62
313.706	93.62
313.935	73.62
314.165	87.62
314.394	93.62
314.624	94.62
314.853	89.62
315.083	82.62
315.312	80.62
315.542	84.62
315.771	90.62
316.001	78.62
316.23	89.62
316.46	65.62
316.689	90.62
316.919	99.62
317.148	83.62
317.377	87.62
317.607	61.62
317.836	83.62
318.065	80.62
318.295	86.62
318.524	93.62
318.753	92.62
318.983	101.62
319.212	93.62
319.441	82.62
319.67	91.62
319.9	87.62
320.129	97.62
320.358	90.62
320.587	85.62
320.816	84.62
321.046	89.62
321.275	83.62
321.504	92.62
321.733	102.62
321.962	108.62
322.191	85.62
322.42	66.62
322.649	81.62
322.878	91.62
323.108	102.62
323.337	83.62
323.566	100.62
323.795	76.62
324.024	87.62
324.253	89.62
324.482	80.62
324.71	100.62
324.939	91.62
325.168	81.62
325.397	80.62
325.626	85.62
325.855	94.62
326.084	92.62
326.313	82.62
326.542	82.62
326.77	86.62
326.999	84.62
327.228	95.62
327.457	104.62
327.686	83.62
327.914	73.62
328.143	96.62
328.372	91.62
328.6	83.62
328.829	86.62
329.058	80.62
329.287	84.62
329.515	93.62
329.744	83.62
329.972	89.62
330.201	99.62
330.43	84.62
330.658	81.62
330.887	86.62
331.115	92.62
331.344	84.62
331.572	95.62
331.801	83.62
332.03	96.62
332.258	78.62
332.486	89.62
332.715	91.62
332.943	100.62
333.172	81.62
333.4	78.62
333.629	88.62
333.857	84.62
334.085	100.62
334.314	86.62
334.542	102.62
334.771	94.62
334.999	79.62
335.227	80.62
335.455	82.62
335.684	91.62
335.912	85.62
336.14	82.62
336.369	84.62
336.597	94.62
336.825	82.62
337.053	83.62
337.281	78.62
337.51	94.62
337.738	84.62
337.966	81.62
338.194	75.62
338.422	91.62
338.65	81.62
338.878	102.62
339.106	83.62
339.334	86.62
339.562	86.62
339.79	74.62
340.018	81.62
340.246	69.62
340.474	93.62
340.702	85.62
340.93	93.62
341.158	102.62
341.386	88.62
341.614	74.62
341.842	86.62
342.07	79.62
342.298	90.62
342.526	82.62
342.754	94.62
342.981	86.62
343.209	82.62
343.437	101.62
343.665	86.62
343.893	85.62
344.12	86.62
344.348	93.62
344.576	88.62
344.804	97.62
345.031	97.62
345.259	84.62
345.487	81.62
345.714	91.62
345.942	93.62
346.17	85.62
346.397	93.62
346.625	85.62
346.853	86.62
347.08	86.62
347.308	83.62
347.535	87.62
347.763	86.62
347.99	94.62
348.218	99.62
348.445	75.62
348.673	78.62
348.9	71.62
349.128	109.62
349.355	82.62
349.583	77.62
349.81	80.62
350.037	80.62
350.265	99.62
350.492	82.62
350.72	85.62
350.947	85.62
351.174	91.62
351.402	99.62
351.629	106.62
351.856	87.62
352.083	71.62
352.311	78.62
352.538	86.62
352.765	93.62
352.992	104.62
353.22	93.62
353.447	84.62
353.674	97.62
353.901	92.62
354.128	90.62
354.355	92.62
354.583	79.62
354.81	101.62
355.037	86.62
355.264	85.62
355.491	86.62
355.718	78.62
355.945	85.62
356.172	90.62
356.399	101.62
356.626	85.62
356.853	95.62
357.08	85.62
357.307	91.62
357.534	72.62
357.761	90.62
357.988	106.62
358.215	103.62
358.441	86.62
358.668	87.62
358.895	94.62
359.122	72.62
359.349	75.62
359.576	85.62
359.802	86.62
360.029	90.62
360.256	89.62
360.483	80.62
360.709	92.62
360.936	106.62
361.163	91.62
361.39	90.62
361.616	94.62
361.843	91.62
362.07	81.62
362.296	82.62
362.523	77.62
362.749	75.62
362.976	81.62
363.203	98.62
363.429	97.62
363.656	73.62
363.882	78.62
364.109	76.62
364.335	78.62
364.562	95.62
364.788	98.62
365.015	71.62
365.241	96.62
365.468	82.62
365.694	87.62
365.92	84.62
366.147	81.62
366.373	89.62
366.599	82.62
366.826	90.62
367.052	89.62
367.278	90.62
367.505	105.62
367.731	95.62
367.957	79.62
368.184	86.62
368.41	72.62
368.636	76.62
368.862	85.62
369.089	89.62
369.315	82.62
369.541	89.62
369.767	91.62
369.993	81.62
370.219	86.62
370.445	81.62
370.672	92.62
370.898	102.62
371.124	83.62
371.35	88.62
371.576	94.62
371.802	87.62
372.028	86.62
372.254	89.62
372.48	78.62
372.706	82.62
372.932	87.62
373.158	83.62
373.384	92.62
373.61	95.62
373.835	91.62
374.061	91.62
374.287	84.62
374.513	85.62
374.739	76.62
374.965	74.62
375.191	93.62
375.416	91.62
375.642	87.62
375.868	90.62
376.094	83.62
376.319	87.62
376.545	103.62
376.771	87.62
376.997	93.62
377.222	94.62
377.448	89.62
377.674	82.62
377.899	99.62
378.125	78.62
378.35	73.62
378.576	106.62
378.802	87.62
379.027	89.62
379.253	85.62
379.478	83.62
379.704	77.62
379.929	85.62
380.155	84.62
380.38	93.62
380.606	85.62
380.831	84.62
381.057	86.62
381.282	82.62
381.507	102.62
381.733	91.62
381.958	97.62
382.184	79.62
382.409	65.62
382.634	86.62
382.86	82.62
383.085	90.62
383.31	86.62
383.535	93.62
383.761	89.62
383.986	84.62
384.211	87.62
384.436	87.62
384.662	82.62
384.887	84.62
385.112	90.62
385.337	88.62
385.562	92.62
385.787	98.62
386.013	90.62
386.238	92.62
386.463	98.62
386.688	97.62
386.913	94.62
387.138	84.62
387.363	95.62
387.588	92.62
387.813	87.62
388.038	87.62
388.263	88.62
388.488	84.62
388.713	92.62
388.938	67.62
389.163	89.62
389.387	94.62
389.612	84.62
389.837	82.62
390.062	82.62
390.287	94.62
390.512	74.62
390.736	77.62
390.961	79.62
391.186	109.62
391.411	95.62
391.636	79.62
391.86	89.62
392.085	77.62
392.31	75.62
392.534	88.62
392.759	85.62
392.984	83.62
393.208	82.62
393.433	83.62
393.658	96.62
393.882	76.62
394.107	91.62
394.331	86.62
394.556	79.62
394.78	91.62
395.005	93.62
395.229	92.62
395.454	103.62
395.678	82.62
395.903	74.62
396.127	87.62
396.352	88.62
396.576	82.62
396.801	76.62
397.025	93.62
397.249	82.62
397.474	89.62
397.698	86.62
397.922	84.62
398.147	84.62
398.371	87.62
398.595	79.62
398.82	72.62
399.044	94.62
399.268	105.62
399.492	88.62
399.717	89.62
399.941	83.62
400.165	94.62
400.389	78.62
400.613	104.62
400.837	75.62
401.062	93.62
401.286	89.62
401.51	99.62
401.734	86.62
401.958	75.62
402.182	82.62
402.406	82.62
402.63	84.62
402.854	84.62
403.078	86.62
403.302	90.62
403.526	85.62
403.75	101.62
403.974	81.62
404.198	79.62
404.422	68.62
404.645	80.62
404.869	92.62
405.093	78.62
405.317	81.62
405.541	92.62
405.765	86.62
405.988	92.62
406.212	95.62
406.436	85.62
406.66	91.62
406.883	87.62
407.107	75.62
407.331	80.62
407.555	78.62
407.778	87.62
408.002	72.62
408.226	91.62
408.449	77.62
408.673	81.62
408.896	88.62
409.12	70.62
409.344	87.62
409.567	82.62
409.791	77.62
410.014	83.62
410.238	89.62
410.461	74.62
410.685	85.62
410.908	92.62
411.132	99.62
411.355	72.62
411.578	91.62
411.802	79.62
412.025	84.62
412.249	94.62
412.472	82.62
412.695	88.62
412.919	92.62
413.142	101.62
413.365	100.62
413.589	86.62
413.812	81.62
414.035	83.62
414.258	82.62
414.482	85.62
414.705	76.62
414.928	97.62
415.151	92.62
415.374	82.62
415.597	89.62
415.821	89.62
416.044	72.62
416.267	92.62
416.49	74.62
416.713	78.62
416.936	86.62
417.159	80.62
417.382	89.62
417.605	85.62
417.828	82.62
418.051	77.62
418.274	78.62
418.497	72.62
418.72	75.62
418.943	82.62
419.166	78.62
419.389	95.62
419.611	87.62
419.834	75.62
420.057	89.62
420.28	81.62
420.503	101.62
420.726	92.62
420.948	82.62
421.171	79.62
421.394	87.62
421.617	89.62
421.839	69.62
422.062	82.62
422.285	92.62
422.507	96.62
422.73	92.62
422.953	80.62
423.175	93.62
423.398	92.62
423.621	92.62
423.843	93.62
424.066	81.62
424.288	89.62
424.511	79.62
424.733	79.62
424.956	86.62
425.178	78.62
425.401	84.62
425.623	95.62
425.846	89.62
426.068	82.62
426.291	92.62
426.513	88.62
426.735	103.62
426.958	80.62
427.18	94.62
427.402	86.62
427.625	81.62
427.847	95.62
428.069	88.62
428.292	86.62
428.514	88.62
428.736	98.62
428.958	95.62
429.181	91.62
429.403	78.62
429.625	72.62
429.847	84.62
430.069	85.62
430.292	79.62
430.514	77.62
430.736	77.62
430.958	81.62
431.18	91.62
431.402	89.62
431.624	87.62
431.846	85.62
432.068	83.62
432.29	73.62
432.512	102.62
432.734	88.62
432.956	90.62
433.178	90.62
433.4	84.62
433.622	74.62
433.844	73.62
434.066	83.62
434.287	94.62
434.509	88.62
434.731	74.62
434.953	85.62
435.175	85.62
435.397	78.62
435.618	90.62
435.84	74.62
436.062	85.62
436.284	82.62
436.505	93.62
436.727	82.62
436.949	86.62
437.17	91.62
437.392	94.62
437.614	85.62
437.835	88.62
438.057	84.62
438.278	87.62
438.5	87.62
438.721	85.62
438.943	72.62
439.165	88.62
439.386	98.62
439.608	86.62
439.829	93.62
440.05	89.62
440.272	89.62
440.493	90.62
440.715	85.62
440.936	81.62
441.158	93.62
441.379	94.62
441.6	91.62
441.822	85.62
442.043	90.62
442.264	91.62
442.486	94.62
442.707	90.62
442.928	86.62
443.149	91.62
443.371	102.62
443.592	84.62
443.813	88.62
444.034	92.62
444.255	75.62
444.476	74.62
444.698	80.62
444.919	82.62
445.14	141.62
445.361	103.62
445.582	81.62
445.803	81.62
446.024	90.62
446.245	90.62
446.466	86.62
446.687	68.62
446.908	95.62
447.129	75.62
447.35	84.62
447.571	103.62
447.792	70.62
448.013	87.62
448.234	83.62
448.455	72.62
448.675	97.62
448.896	74.62
449.117	80.62
449.338	86.62
449.559	104.62
449.779	82.62
450	104.62
450.221	97.62
450.442	77.62
450.662	83.62
450.883	87.62
451.104	93.62
451.324	94.62
451.545	74.62
451.766	103.62
451.986	84.62
452.207	81.62
452.428	84.62
452.648	85.62
452.869	82.62
453.089	86.62
453.31	77.62
453.53	85.62
453.751	86.62
453.971	85.62
454.192	69.62
454.412	88.62
454.633	86.62
454.853	89.62
455.073	82.62
455.294	81.62
455.514	93.62
455.734	94.62
455.955	76.62
456.175	80.62
456.395	76.62
456.616	68.62
456.836	82.62
457.056	86.62
457.276	84.62
457.497	76.62
457.717	67.62
457.937	85.62
458.157	86.62
458.377	98.62
458.598	91.62
458.818	85.62
459.038	73.62
459.258	94.62
459.478	97.62
459.698	89.62
459.918	95.62
460.138	67.62
460.358	81.62
460.578	81.62
460.798	86.62
461.018	71.62
461.238	91.62
461.458	85.62
461.678	81.62
461.898	101.62
462.118	87.62
462.338	88.62
462.558	83.62
462.777	106.62
462.997	88.62
463.217	83.62
463.437	72.62
463.657	88.62
463.876	79.62
464.096	91.62
464.316	81.62
464.536	82.62
464.755	91.62
464.975	82.62
465.195	73.62
465.414	94.62
465.634	92.62
465.854	75.62
466.073	80.62
466.293	75.62
466.512	82.62
466.732	90.62
466.951	87.62
467.171	83.62
467.391	87.62
467.61	86.62
467.829	80.62
468.049	90.62
468.268	73.62
468.488	83.62
468.707	92.62
468.927	84.62
469.146	74.62
469.365	87.62
469.585	89.62
469.804	82.62
470.023	88.62
470.243	94.62
470.462	80.62
470.681	92.62
470.901	93.62
471.12	82.62
471.339	89.62
471.558	87.62
471.777	93.62
471.997	89.62
472.216	78.62
472.435	90.62
472.654	96.62
472.873	86.62
473.092	87.62
473.311	82.62
473.53	93.62
473.749	107.62
473.968	97.62
474.187	79.62
474.406	88.62
474.625	72.62
474.844	88.62
475.063	102.62
475.282	84.62
475.501	75.62
475.72	82.62
475.939	74.62
476.158	79.62
476.377	83.62
476.596	73.62
476.814	92.62
477.033	86.62
477.252	92.62
477.471	77.62
477.69	77.62
477.908	89.62
478.127	93.62
478.346	86.62
478.564	71.62
478.783	83.62
479.002	77.62
479.22	74.62
479.439	71.62
479.658	85.62
479.876	73.62
480.095	77.62
480.313	90.62
480.532	86.62
480.751	83.62
480.969	78.62
481.188	79.62
481.406	75.62
481.624	91.62
481.843	90.62
482.061	88.62
482.28	89.62
482.498	82.62
482.717	76.62
482.935	81.62
483.153	68.62
483.372	97.62
483.59	85.62
483.808	94.62
484.027	89.62
484.245	85.62
484.463	92.62
484.681	97.62
484.9	87.62
485.118	88.62
485.336	88.62
485.554	89.62
485.772	86.62
485.99	90.62
486.209	73.62
486.427	78.62
486.645	85.62
486.863	87.62
487.081	90.62
487.299	83.62
487.517	86.62
487.735	88.62
487.953	98.62
488.171	96.62
488.389	83.62
488.607	81.62
488.825	85.62
489.043	102.62
489.261	90.62
489.479	76.62
489.696	94.62
489.914	73.62
490.132	77.62
490.35	92.62
490.568	86.62
490.786	81.62
491.003	79.62
491.221	69.62
491.439	82.62
491.657	85.62
491.874	93.62
492.092	81.62
492.31	83.62
492.527	104.62
492.745	87.62
492.963	88.62
493.18	83.62
493.398	81.62
493.615	82.62
493.833	87.62
494.05	86.62
494.268	98.62
494.485	85.62
494.703	84.62
494.92	83.62
495.138	86.62
495.355	84.62
495.573	101.62
495.79	80.62
496.008	81.62
496.225	90.62
496.442	82.62
496.66	89.62
496.877	81.62
497.094	98.62
497.312	95.62
497.529	84.62
497.746	75.62
497.963	75.62
498.181	98.62
498.398	75.62
498.615	92.62
498.832	85.62
499.049	84.62
499.267	91.62
499.484	80.62
499.701	90.62
499.918	87.62
500.135	87.62
500.352	77.62
500.569	88.62
500.786	78.62
501.003	78.62
501.22	83.62
501.437	85.62
501.654	90.62
501.871	96.62
502.088	79.62
502.305	83.62
502.522	78.62
502.739	78.62
502.956	88.62
503.172	76.62
503.389	92.62
503.606	86.62
503.823	91.62
504.04	74.62
504.256	90.62
504.473	78.62
504.69	74.62
504.907	85.62
505.123	83.62
505.34	93.62
505.557	87.62
505.773	90.62
505.99	82.62
506.207	89.62
506.423	91.62
506.64	82.62
506.856	98.62
507.073	75.62
507.289	90.62
507.506	86.62
507.722	90.62
507.939	83.62
508.155	82.62
508.372	75.62
508.588	72.62
508.805	71.62
509.021	95.62
509.238	106.62
509.454	81.62
509.67	97.62
509.887	75.62
510.103	98.62
510.319	81.62
510.536	88.62
510.752	90.62
510.968	72.62
511.184	85.62
511.401	84.62
511.617	83.62
511.833	99.62
512.049	95.62
512.265	83.62
512.481	89.62
512.698	70.62
512.914	82.62
513.13	86.62
513.346	92.62
513.562	88.62
513.778	89.62
513.994	103.62
514.21	75.62
514.426	84.62
514.642	87.62
514.858	97.62
515.074	86.62
515.29	91.62
515.506	88.62
515.721	87.62
515.937	89.62
516.153	88.62
516.369	75.62
516.585	93.62
516.801	80.62
517.016	106.62
517.232	75.62
517.448	98.62
517.664	79.62
517.879	89.62
518.095	79.62
518.311	86.62
518.527	87.62
518.742	90.62
518.958	91.62
519.173	79.62
519.389	82.62
