Data from BGNA1_HRD10591_00012.txt Node
Date: Fri Dec 27 14:32:29 EST 2024
User: Yrep
Spectrometer: HR+D1059
Trigger mode: 1
Integration Time (sec): 1.000000E-1
Scans to average: 1
Electric dark correction enabled: true
Nonlinearity correction enabled: false
Boxcar width: 0
XAxis mode: Wavelengths
Number of Pixels in Spectrum: 2048
>>>>>Begin Spectral Data<<<<<
223.165	-27.56
223.4	-27.56
223.635	-27.56
223.869	-15.56
224.104	-37.56
224.338	-9.56
224.573	-6.56
224.808	-11.56
225.042	2.44
225.277	-13.56
225.511	-16.56
225.746	2.44
225.98	8.44
226.215	18.44
226.449	28.44
226.683	20.44
226.918	30.44
227.152	27.44
227.387	50.44
227.621	47.44
227.856	47.44
228.09	54.44
228.324	53.44
228.559	69.44
228.793	61.44
229.027	58.44
229.262	73.44
229.496	92.44
229.73	70.44
229.964	76.44
230.199	74.44
230.433	75.44
230.667	84.44
230.901	66.44
231.136	90.44
231.37	86.44
231.604	88.44
231.838	96.44
232.072	91.44
232.306	80.44
232.541	80.44
232.775	88.44
233.009	88.44
233.243	85.44
233.477	84.44
233.711	85.44
233.945	66.44
234.179	82.44
234.413	84.44
234.647	83.44
234.881	79.44
235.115	68.44
235.349	70.44
235.583	86.44
235.817	87.44
236.051	60.44
236.285	86.44
236.519	83.44
236.753	71.44
236.987	86.44
237.221	83.44
237.455	71.44
237.689	78.44
237.922	66.44
238.156	70.44
238.39	87.44
238.624	70.44
238.858	70.44
239.091	75.44
239.325	72.44
239.559	67.44
239.793	73.44
240.027	75.44
240.26	72.44
240.494	85.44
240.728	70.44
240.961	86.44
241.195	81.44
241.429	74.44
241.662	79.44
241.896	81.44
242.13	83.44
242.363	83.44
242.597	80.44
242.83	74.44
243.064	78.44
243.298	68.44
243.531	78.44
243.765	96.44
243.998	94.44
244.232	79.44
244.465	91.44
244.699	73.44
244.932	82.44
245.166	83.44
245.399	71.44
245.633	87.44
245.866	78.44
246.099	73.44
246.333	74.44
246.566	78.44
246.8	79.44
247.033	90.44
247.266	81.44
247.5	98.44
247.733	98.44
247.966	80.44
248.2	80.44
248.433	71.44
248.666	83.44
248.899	74.44
249.133	83.44
249.366	95.44
249.599	82.44
249.832	86.44
250.066	99.44
250.299	71.44
250.532	97.44
250.765	70.44
250.998	78.44
251.231	94.44
251.465	75.44
251.698	90.44
251.931	75.44
252.164	83.44
252.397	76.44
252.63	73.44
252.863	76.44
253.096	91.44
253.329	88.44
253.562	75.44
253.795	76.44
254.028	86.44
254.261	81.44
254.494	85.44
254.727	88.44
254.96	95.44
255.193	77.44
255.426	80.44
255.659	82.44
255.892	78.44
256.124	82.44
256.357	84.44
256.59	87.44
256.823	96.44
257.056	78.44
257.289	74.44
257.521	92.44
257.754	85.44
257.987	78.44
258.22	85.44
258.452	90.44
258.685	88.44
258.918	81.44
259.151	88.44
259.383	82.44
259.616	81.44
259.849	82.44
260.081	85.44
260.314	91.44
260.547	88.44
260.779	83.44
261.012	78.44
261.244	83.44
261.477	91.44
261.71	71.44
261.942	88.44
262.175	63.44
262.407	79.44
262.64	90.44
262.872	89.44
263.105	87.44
263.337	83.44
263.57	91.44
263.802	96.44
264.035	86.44
264.267	99.44
264.499	80.44
264.732	91.44
264.964	98.44
265.197	94.44
265.429	86.44
265.661	99.44
265.894	84.44
266.126	81.44
266.358	80.44
266.591	83.44
266.823	78.44
267.055	90.44
267.287	73.44
267.52	82.44
267.752	81.44
267.984	85.44
268.216	84.44
268.448	85.44
268.681	89.44
268.913	83.44
269.145	81.44
269.377	98.44
269.609	86.44
269.841	86.44
270.073	95.44
270.306	96.44
270.538	91.44
270.77	87.44
271.002	66.44
271.234	79.44
271.466	91.44
271.698	82.44
271.93	83.44
272.162	85.44
272.394	93.44
272.626	83.44
272.858	86.44
273.09	79.44
273.322	82.44
273.553	86.44
273.785	87.44
274.017	74.44
274.249	102.44
274.481	98.44
274.713	70.44
274.945	74.44
275.176	65.44
275.408	76.44
275.64	92.44
275.872	92.44
276.104	87.44
276.335	79.44
276.567	74.44
276.799	84.44
277.031	88.44
277.262	87.44
277.494	83.44
277.726	98.44
277.957	95.44
278.189	82.44
278.421	90.44
278.652	85.44
278.884	87.44
279.115	76.44
279.347	81.44
279.579	81.44
279.81	81.44
280.042	75.44
280.273	81.44
280.505	97.44
280.736	99.44
280.968	82.44
281.199	89.44
281.431	93.44
281.662	81.44
281.894	89.44
282.125	92.44
282.356	90.44
282.588	85.44
282.819	78.44
283.051	72.44
283.282	73.44
283.513	97.44
283.745	97.44
283.976	91.44
284.207	79.44
284.439	82.44
284.67	99.44
284.901	91.44
285.132	93.44
285.364	79.44
285.595	72.44
285.826	81.44
286.057	71.44
286.288	87.44
286.52	92.44
286.751	96.44
286.982	80.44
287.213	91.44
287.444	91.44
287.675	86.44
287.906	91.44
288.138	69.44
288.369	90.44
288.6	92.44
288.831	83.44
289.062	98.44
289.293	79.44
289.524	96.44
289.755	76.44
289.986	78.44
290.217	94.44
290.448	78.44
290.679	83.44
290.91	85.44
291.141	94.44
291.371	76.44
291.602	93.44
291.833	100.44
292.064	89.44
292.295	78.44
292.526	91.44
292.757	94.44
292.987	83.44
293.218	80.44
293.449	97.44
293.68	87.44
293.91	94.44
294.141	98.44
294.372	78.44
294.603	90.44
294.833	75.44
295.064	83.44
295.295	80.44
295.525	103.44
295.756	90.44
295.987	90.44
296.217	91.44
296.448	94.44
296.679	88.44
296.909	93.44
297.14	74.44
297.37	82.44
297.601	83.44
297.831	81.44
298.062	79.44
298.292	99.44
298.523	102.44
298.753	83.44
298.984	87.44
299.214	74.44
299.445	76.44
299.675	108.44
299.905	107.44
300.136	94.44
300.366	76.44
300.597	76.44
300.827	84.44
301.057	82.44
301.288	81.44
301.518	78.44
301.748	78.44
301.979	98.44
302.209	85.44
302.439	88.44
302.669	94.44
302.9	84.44
303.13	91.44
303.36	81.44
303.59	84.44
303.82	85.44
304.051	88.44
304.281	90.44
304.511	76.44
304.741	82.44
304.971	80.44
305.201	84.44
305.431	94.44
305.661	88.44
305.891	93.44
306.121	98.44
306.352	86.44
306.582	89.44
306.812	90.44
307.042	80.44
307.272	72.44
307.502	86.44
307.731	91.44
307.961	96.44
308.191	75.44
308.421	81.44
308.651	94.44
308.881	76.44
309.111	75.44
309.341	91.44
309.571	86.44
309.8	85.44
310.03	89.44
310.26	94.44
310.49	77.44
310.72	109.44
310.949	91.44
311.179	94.44
311.409	95.44
311.639	82.44
311.868	87.44
312.098	100.44
312.328	86.44
312.557	91.44
312.787	80.44
313.017	97.44
313.246	83.44
313.476	98.44
313.706	85.44
313.935	83.44
314.165	87.44
314.394	90.44
314.624	98.44
314.853	91.44
315.083	86.44
315.312	72.44
315.542	90.44
315.771	91.44
316.001	83.44
316.23	82.44
316.46	81.44
316.689	91.44
316.919	101.44
317.148	78.44
317.377	83.44
317.607	104.44
317.836	76.44
318.065	90.44
318.295	85.44
318.524	73.44
318.753	84.44
318.983	87.44
319.212	84.44
319.441	97.44
319.67	83.44
319.9	88.44
320.129	86.44
320.358	98.44
320.587	81.44
320.816	97.44
321.046	86.44
321.275	90.44
321.504	83.44
321.733	92.44
321.962	83.44
322.191	90.44
322.42	96.44
322.649	93.44
322.878	89.44
323.108	97.44
323.337	82.44
323.566	94.44
323.795	88.44
324.024	90.44
324.253	79.44
324.482	95.44
324.71	95.44
324.939	96.44
325.168	83.44
325.397	92.44
325.626	95.44
325.855	90.44
326.084	86.44
326.313	78.44
326.542	91.44
326.77	94.44
326.999	77.44
327.228	85.44
327.457	84.44
327.686	90.44
327.914	102.44
328.143	89.44
328.372	92.44
328.6	87.44
328.829	80.44
329.058	92.44
329.287	88.44
329.515	96.44
329.744	96.44
329.972	83.44
330.201	86.44
330.43	84.44
330.658	82.44
330.887	76.44
331.115	91.44
331.344	78.44
331.572	88.44
331.801	90.44
332.03	90.44
332.258	80.44
332.486	88.44
332.715	83.44
332.943	81.44
333.172	82.44
333.4	87.44
333.629	80.44
333.857	97.44
334.085	76.44
334.314	88.44
334.542	99.44
334.771	89.44
334.999	88.44
335.227	86.44
335.455	86.44
335.684	80.44
335.912	82.44
336.14	78.44
336.369	93.44
336.597	71.44
336.825	79.44
337.053	100.44
337.281	79.44
337.51	88.44
337.738	81.44
337.966	86.44
338.194	86.44
338.422	74.44
338.65	82.44
338.878	79.44
339.106	84.44
339.334	85.44
339.562	91.44
339.79	73.44
340.018	83.44
340.246	82.44
340.474	96.44
340.702	88.44
340.93	89.44
341.158	86.44
341.386	98.44
341.614	80.44
341.842	80.44
342.07	90.44
342.298	85.44
342.526	94.44
342.754	101.44
342.981	91.44
343.209	85.44
343.437	94.44
343.665	84.44
343.893	80.44
344.12	91.44
344.348	83.44
344.576	95.44
344.804	82.44
345.031	88.44
345.259	77.44
345.487	85.44
345.714	92.44
345.942	86.44
346.17	95.44
346.397	104.44
346.625	103.44
346.853	91.44
347.08	68.44
347.308	79.44
347.535	91.44
347.763	88.44
347.99	72.44
348.218	97.44
348.445	90.44
348.673	94.44
348.9	94.44
349.128	91.44
349.355	76.44
349.583	92.44
349.81	71.44
350.037	81.44
350.265	88.44
350.492	89.44
350.72	82.44
350.947	76.44
351.174	90.44
351.402	101.44
351.629	81.44
351.856	98.44
352.083	81.44
352.311	97.44
352.538	82.44
352.765	91.44
352.992	86.44
353.22	90.44
353.447	77.44
353.674	78.44
353.901	89.44
354.128	86.44
354.355	90.44
354.583	94.44
354.81	84.44
355.037	82.44
355.264	84.44
355.491	84.44
355.718	81.44
355.945	97.44
356.172	80.44
356.399	84.44
356.626	84.44
356.853	97.44
357.08	82.44
357.307	87.44
357.534	77.44
357.761	85.44
357.988	92.44
358.215	85.44
358.441	80.44
358.668	83.44
358.895	86.44
359.122	98.44
359.349	87.44
359.576	84.44
359.802	84.44
360.029	77.44
360.256	96.44
360.483	85.44
360.709	86.44
360.936	79.44
361.163	86.44
361.39	78.44
361.616	77.44
361.843	88.44
362.07	79.44
362.296	79.44
362.523	88.44
362.749	89.44
362.976	86.44
363.203	101.44
363.429	96.44
363.656	86.44
363.882	82.44
364.109	81.44
364.335	95.44
364.562	85.44
364.788	79.44
365.015	81.44
365.241	98.44
365.468	81.44
365.694	82.44
365.92	81.44
366.147	78.44
366.373	89.44
366.599	94.44
366.826	82.44
367.052	93.44
367.278	88.44
367.505	74.44
367.731	92.44
367.957	85.44
368.184	89.44
368.41	90.44
368.636	81.44
368.862	106.44
369.089	89.44
369.315	82.44
369.541	92.44
369.767	94.44
369.993	74.44
370.219	94.44
370.445	77.44
370.672	86.44
370.898	86.44
371.124	88.44
371.35	68.44
371.576	90.44
371.802	68.44
372.028	85.44
372.254	88.44
372.48	86.44
372.706	84.44
372.932	93.44
373.158	86.44
373.384	106.44
373.61	90.44
373.835	98.44
374.061	84.44
374.287	94.44
374.513	74.44
374.739	92.44
374.965	100.44
375.191	80.44
375.416	82.44
375.642	83.44
375.868	87.44
376.094	94.44
376.319	84.44
376.545	82.44
376.771	86.44
376.997	74.44
377.222	75.44
377.448	90.44
377.674	88.44
377.899	82.44
378.125	81.44
378.35	101.44
378.576	81.44
378.802	84.44
379.027	87.44
379.253	90.44
379.478	82.44
379.704	88.44
379.929	88.44
380.155	91.44
380.38	89.44
380.606	92.44
380.831	90.44
381.057	79.44
381.282	98.44
381.507	72.44
381.733	104.44
381.958	90.44
382.184	77.44
382.409	90.44
382.634	89.44
382.86	80.44
383.085	81.44
383.31	107.44
383.535	82.44
383.761	85.44
383.986	87.44
384.211	90.44
384.436	77.44
384.662	75.44
384.887	90.44
385.112	67.44
385.337	95.44
385.562	88.44
385.787	85.44
386.013	88.44
386.238	91.44
386.463	85.44
386.688	102.44
386.913	70.44
387.138	71.44
387.363	89.44
387.588	90.44
387.813	99.44
388.038	81.44
388.263	92.44
388.488	79.44
388.713	96.44
388.938	72.44
389.163	87.44
389.387	84.44
389.612	81.44
389.837	96.44
390.062	90.44
390.287	86.44
390.512	82.44
390.736	82.44
390.961	79.44
391.186	81.44
391.411	73.44
391.636	79.44
391.86	88.44
392.085	92.44
392.31	92.44
392.534	92.44
392.759	80.44
392.984	79.44
393.208	80.44
393.433	87.44
393.658	81.44
393.882	88.44
394.107	94.44
394.331	82.44
394.556	84.44
394.78	94.44
395.005	75.44
395.229	88.44
395.454	85.44
395.678	74.44
395.903	79.44
396.127	89.44
396.352	72.44
396.576	90.44
396.801	102.44
397.025	90.44
397.249	96.44
397.474	83.44
397.698	88.44
397.922	87.44
398.147	100.44
398.371	82.44
398.595	96.44
398.82	84.44
399.044	89.44
399.268	84.44
399.492	94.44
399.717	88.44
399.941	72.44
400.165	95.44
400.389	87.44
400.613	90.44
400.837	95.44
401.062	100.44
401.286	95.44
401.51	90.44
401.734	79.44
401.958	71.44
402.182	80.44
402.406	82.44
402.63	81.44
402.854	89.44
403.078	90.44
403.302	86.44
403.526	104.44
403.75	83.44
403.974	80.44
404.198	74.44
404.422	85.44
404.645	79.44
404.869	99.44
405.093	75.44
405.317	73.44
405.541	74.44
405.765	81.44
405.988	86.44
406.212	82.44
406.436	78.44
406.66	82.44
406.883	80.44
407.107	83.44
407.331	82.44
407.555	86.44
407.778	88.44
408.002	91.44
408.226	79.44
408.449	87.44
408.673	99.44
408.896	82.44
409.12	80.44
409.344	92.44
409.567	73.44
409.791	80.44
410.014	83.44
410.238	73.44
410.461	92.44
410.685	93.44
410.908	82.44
411.132	83.44
411.355	79.44
411.578	89.44
411.802	81.44
412.025	82.44
412.249	79.44
412.472	87.44
412.695	66.44
412.919	89.44
413.142	78.44
413.365	94.44
413.589	100.44
413.812	90.44
414.035	92.44
414.258	84.44
414.482	75.44
414.705	75.44
414.928	91.44
415.151	87.44
415.374	83.44
415.597	79.44
415.821	74.44
416.044	84.44
416.267	82.44
416.49	81.44
416.713	75.44
416.936	88.44
417.159	90.44
417.382	67.44
417.605	79.44
417.828	78.44
418.051	84.44
418.274	87.44
418.497	80.44
418.72	86.44
418.943	87.44
419.166	81.44
419.389	74.44
419.611	87.44
419.834	81.44
420.057	89.44
420.28	81.44
420.503	70.44
420.726	82.44
420.948	70.44
421.171	81.44
421.394	83.44
421.617	81.44
421.839	76.44
422.062	87.44
422.285	73.44
422.507	86.44
422.73	79.44
422.953	71.44
423.175	73.44
423.398	83.44
423.621	82.44
423.843	92.44
424.066	78.44
424.288	90.44
424.511	81.44
424.733	85.44
424.956	86.44
425.178	80.44
425.401	79.44
425.623	85.44
425.846	84.44
426.068	77.44
426.291	82.44
426.513	80.44
426.735	74.44
426.958	66.44
427.18	87.44
427.402	94.44
427.625	96.44
427.847	91.44
428.069	82.44
428.292	75.44
428.514	96.44
428.736	89.44
428.958	77.44
429.181	95.44
429.403	78.44
429.625	88.44
429.847	85.44
430.069	84.44
430.292	80.44
430.514	83.44
430.736	88.44
430.958	92.44
431.18	77.44
431.402	88.44
431.624	78.44
431.846	77.44
432.068	74.44
432.29	73.44
432.512	83.44
432.734	84.44
432.956	97.44
433.178	78.44
433.4	88.44
433.622	98.44
433.844	81.44
434.066	82.44
434.287	83.44
434.509	89.44
434.731	99.44
434.953	88.44
435.175	87.44
435.397	80.44
435.618	83.44
435.84	77.44
436.062	79.44
436.284	86.44
436.505	93.44
436.727	95.44
436.949	84.44
437.17	97.44
437.392	76.44
437.614	77.44
437.835	86.44
438.057	66.44
438.278	85.44
438.5	90.44
438.721	91.44
438.943	84.44
439.165	79.44
439.386	82.44
439.608	86.44
439.829	90.44
440.05	82.44
440.272	89.44
440.493	84.44
440.715	81.44
440.936	95.44
441.158	102.44
441.379	84.44
441.6	89.44
441.822	91.44
442.043	86.44
442.264	71.44
442.486	85.44
442.707	81.44
442.928	85.44
443.149	83.44
443.371	87.44
443.592	74.44
443.813	96.44
444.034	94.44
444.255	93.44
444.476	74.44
444.698	82.44
444.919	78.44
445.14	147.44
445.361	106.44
445.582	74.44
445.803	92.44
446.024	85.44
446.245	97.44
446.466	87.44
446.687	89.44
446.908	82.44
447.129	91.44
447.35	103.44
447.571	86.44
447.792	75.44
448.013	84.44
448.234	90.44
448.455	72.44
448.675	77.44
448.896	90.44
449.117	67.44
449.338	73.44
449.559	87.44
449.779	76.44
450	86.44
450.221	76.44
450.442	94.44
450.662	76.44
450.883	82.44
451.104	85.44
451.324	78.44
451.545	80.44
451.766	85.44
451.986	84.44
452.207	79.44
452.428	83.44
452.648	80.44
452.869	82.44
453.089	81.44
453.31	92.44
453.53	78.44
453.751	89.44
453.971	99.44
454.192	73.44
454.412	83.44
454.633	101.44
454.853	76.44
455.073	83.44
455.294	83.44
455.514	83.44
455.734	89.44
455.955	88.44
456.175	89.44
456.395	83.44
456.616	74.44
456.836	84.44
457.056	76.44
457.276	78.44
457.497	77.44
457.717	94.44
457.937	86.44
458.157	81.44
458.377	84.44
458.598	75.44
458.818	75.44
459.038	75.44
459.258	80.44
459.478	76.44
459.698	97.44
459.918	90.44
460.138	74.44
460.358	78.44
460.578	90.44
460.798	100.44
461.018	91.44
461.238	76.44
461.458	97.44
461.678	92.44
461.898	85.44
462.118	85.44
462.338	96.44
462.558	89.44
462.777	82.44
462.997	92.44
463.217	85.44
463.437	91.44
463.657	92.44
463.876	81.44
464.096	89.44
464.316	73.44
464.536	88.44
464.755	78.44
464.975	85.44
465.195	67.44
465.414	98.44
465.634	88.44
465.854	84.44
466.073	90.44
466.293	81.44
466.512	94.44
466.732	94.44
466.951	99.44
467.171	96.44
467.391	90.44
467.61	76.44
467.829	85.44
468.049	94.44
468.268	72.44
468.488	84.44
468.707	89.44
468.927	82.44
469.146	71.44
469.365	85.44
469.585	81.44
469.804	96.44
470.023	75.44
470.243	80.44
470.462	86.44
470.681	94.44
470.901	66.44
471.12	87.44
471.339	88.44
471.558	75.44
471.777	69.44
471.997	84.44
472.216	93.44
472.435	82.44
472.654	84.44
472.873	76.44
473.092	89.44
473.311	82.44
473.53	83.44
473.749	77.44
473.968	85.44
474.187	72.44
474.406	76.44
474.625	95.44
474.844	89.44
475.063	98.44
475.282	84.44
475.501	89.44
475.72	96.44
475.939	82.44
476.158	86.44
476.377	79.44
476.596	97.44
476.814	70.44
477.033	74.44
477.252	75.44
477.471	96.44
477.69	94.44
477.908	74.44
478.127	82.44
478.346	85.44
478.564	85.44
478.783	76.44
479.002	86.44
479.22	81.44
479.439	89.44
479.658	88.44
479.876	81.44
480.095	82.44
480.313	90.44
480.532	83.44
480.751	82.44
480.969	81.44
481.188	81.44
481.406	81.44
481.624	89.44
481.843	65.44
482.061	76.44
482.28	97.44
482.498	87.44
482.717	77.44
482.935	88.44
483.153	90.44
483.372	100.44
483.59	98.44
483.808	79.44
484.027	94.44
484.245	81.44
484.463	89.44
484.681	85.44
484.9	73.44
485.118	86.44
485.336	81.44
485.554	79.44
485.772	80.44
485.99	82.44
486.209	101.44
486.427	78.44
486.645	88.44
486.863	75.44
487.081	91.44
487.299	88.44
487.517	82.44
487.735	73.44
487.953	89.44
488.171	82.44
488.389	106.44
488.607	78.44
488.825	101.44
489.043	90.44
489.261	89.44
489.479	89.44
489.696	89.44
489.914	89.44
490.132	86.44
490.35	82.44
490.568	91.44
490.786	85.44
491.003	93.44
491.221	95.44
491.439	88.44
491.657	85.44
491.874	79.44
492.092	73.44
492.31	97.44
492.527	94.44
492.745	79.44
492.963	81.44
493.18	83.44
493.398	90.44
493.615	102.44
493.833	94.44
494.05	87.44
494.268	81.44
494.485	89.44
494.703	81.44
494.92	73.44
495.138	83.44
495.355	80.44
495.573	87.44
495.79	82.44
496.008	99.44
496.225	77.44
496.442	82.44
496.66	92.44
496.877	86.44
497.094	75.44
497.312	86.44
497.529	94.44
497.746	84.44
497.963	96.44
498.181	85.44
498.398	82.44
498.615	82.44
498.832	92.44
499.049	95.44
499.267	98.44
499.484	87.44
499.701	92.44
499.918	97.44
500.135	81.44
500.352	61.44
500.569	91.44
500.786	89.44
501.003	92.44
501.22	75.44
501.437	103.44
501.654	92.44
501.871	106.44
502.088	83.44
502.305	89.44
502.522	85.44
502.739	77.44
502.956	91.44
503.172	86.44
503.389	98.44
503.606	89.44
503.823	86.44
504.04	102.44
504.256	95.44
504.473	80.44
504.69	80.44
504.907	85.44
505.123	82.44
505.34	90.44
505.557	73.44
505.773	98.44
505.99	82.44
506.207	81.44
506.423	80.44
506.64	69.44
506.856	81.44
507.073	83.44
507.289	95.44
507.506	71.44
507.722	86.44
507.939	86.44
508.155	86.44
508.372	72.44
508.588	74.44
508.805	82.44
509.021	72.44
509.238	93.44
509.454	90.44
509.67	80.44
509.887	89.44
510.103	90.44
510.319	89.44
510.536	63.44
510.752	86.44
510.968	73.44
511.184	88.44
511.401	89.44
511.617	78.44
511.833	87.44
512.049	92.44
512.265	88.44
512.481	83.44
512.698	84.44
512.914	86.44
513.13	84.44
513.346	95.44
513.562	100.44
513.778	81.44
513.994	92.44
514.21	87.44
514.426	87.44
514.642	96.44
514.858	87.44
515.074	96.44
515.29	91.44
515.506	96.44
515.721	93.44
515.937	68.44
516.153	85.44
516.369	84.44
516.585	81.44
516.801	77.44
517.016	86.44
517.232	78.44
517.448	89.44
517.664	90.44
517.879	102.44
518.095	96.44
518.311	89.44
518.527	98.44
518.742	87.44
518.958	81.44
519.173	80.44
519.389	85.44
519.605	85.44
