Data from Uncirc_1999_H10_HRD10591_00047.txt Node
Date: Wed Jan 03 11:22:14 EST 2024
User: Yrep
Spectrometer: HR+D1059
Trigger mode: 1
Integration Time (sec): 1.000000E-1
Scans to average: 1
Electric dark correction enabled: true
Nonlinearity correction enabled: false
Boxcar width: 0
XAxis mode: Wavelengths
Number of Pixels in Spectrum: 2048
>>>>>Begin Spectral Data<<<<<
223.165	-13.38
223.4	-13.38
223.635	-13.38
223.869	-22.38
224.104	-12.38
224.338	-19.38
224.573	-15.38
224.808	-14.38
225.042	-13.38
225.277	-8.38
225.511	-3.38
225.746	5.62
225.98	3.62
226.215	9.62
226.449	23.62
226.683	33.62
226.918	21.62
227.152	24.62
227.387	32.62
227.621	50.62
227.856	40.62
228.09	46.62
228.324	62.62
228.559	44.62
228.793	61.62
229.027	64.62
229.262	77.62
229.496	64.62
229.73	69.62
229.964	76.62
230.199	65.62
230.433	80.62
230.667	73.62
230.901	72.62
231.136	82.62
231.37	75.62
231.604	81.62
231.838	80.62
232.072	89.62
232.306	80.62
232.541	92.62
232.775	73.62
233.009	71.62
233.243	86.62
233.477	73.62
233.711	83.62
233.945	93.62
234.179	78.62
234.413	84.62
234.647	79.62
234.881	60.62
235.115	91.62
235.349	87.62
235.583	73.62
235.817	69.62
236.051	72.62
236.285	76.62
236.519	81.62
236.753	61.62
236.987	75.62
237.221	79.62
237.455	87.62
237.689	72.62
237.922	75.62
238.156	79.62
238.39	63.62
238.624	73.62
238.858	73.62
239.091	74.62
239.325	55.62
239.559	63.62
239.793	94.62
240.027	74.62
240.26	69.62
240.494	74.62
240.728	77.62
240.961	92.62
241.195	77.62
241.429	76.62
241.662	72.62
241.896	66.62
242.13	62.62
242.363	80.62
242.597	62.62
242.83	64.62
243.064	85.62
243.298	71.62
243.531	87.62
243.765	72.62
243.998	75.62
244.232	76.62
244.465	75.62
244.699	84.62
244.932	76.62
245.166	75.62
245.399	70.62
245.633	86.62
245.866	63.62
246.099	56.62
246.333	66.62
246.566	79.62
246.8	82.62
247.033	75.62
247.266	87.62
247.5	78.62
247.733	77.62
247.966	80.62
248.2	87.62
248.433	87.62
248.666	79.62
248.899	72.62
249.133	93.62
249.366	101.62
249.599	95.62
249.832	82.62
250.066	82.62
250.299	90.62
250.532	92.62
250.765	89.62
250.998	81.62
251.231	66.62
251.465	77.62
251.698	69.62
251.931	81.62
252.164	81.62
252.397	91.62
252.63	84.62
252.863	81.62
253.096	87.62
253.329	88.62
253.562	67.62
253.795	75.62
254.028	81.62
254.261	88.62
254.494	91.62
254.727	82.62
254.96	65.62
255.193	92.62
255.426	72.62
255.659	75.62
255.892	93.62
256.124	92.62
256.357	83.62
256.59	78.62
256.823	83.62
257.056	72.62
257.289	82.62
257.521	86.62
257.754	87.62
257.987	79.62
258.22	76.62
258.452	76.62
258.685	73.62
258.918	83.62
259.151	82.62
259.383	83.62
259.616	71.62
259.849	79.62
260.081	88.62
260.314	86.62
260.547	73.62
260.779	77.62
261.012	86.62
261.244	82.62
261.477	95.62
261.71	94.62
261.942	83.62
262.175	105.62
262.407	92.62
262.64	95.62
262.872	78.62
263.105	84.62
263.337	91.62
263.57	71.62
263.802	73.62
264.035	70.62
264.267	84.62
264.499	79.62
264.732	90.62
264.964	94.62
265.197	85.62
265.429	85.62
265.661	91.62
265.894	88.62
266.126	85.62
266.358	87.62
266.591	78.62
266.823	84.62
267.055	85.62
267.287	89.62
267.52	74.62
267.752	85.62
267.984	82.62
268.216	81.62
268.448	72.62
268.681	84.62
268.913	87.62
269.145	89.62
269.377	92.62
269.609	76.62
269.841	71.62
270.073	74.62
270.306	92.62
270.538	75.62
270.77	79.62
271.002	93.62
271.234	95.62
271.466	96.62
271.698	86.62
271.93	91.62
272.162	94.62
272.394	87.62
272.626	95.62
272.858	87.62
273.09	86.62
273.322	78.62
273.553	78.62
273.785	74.62
274.017	69.62
274.249	83.62
274.481	77.62
274.713	90.62
274.945	71.62
275.176	80.62
275.408	76.62
275.64	83.62
275.872	80.62
276.104	89.62
276.335	98.62
276.567	96.62
276.799	103.62
277.031	97.62
277.262	85.62
277.494	95.62
277.726	94.62
277.957	73.62
278.189	85.62
278.421	89.62
278.652	93.62
278.884	83.62
279.115	80.62
279.347	69.62
279.579	89.62
279.81	94.62
280.042	75.62
280.273	93.62
280.505	73.62
280.736	80.62
280.968	95.62
281.199	83.62
281.431	92.62
281.662	71.62
281.894	89.62
282.125	93.62
282.356	114.62
282.588	132.62
282.819	104.62
283.051	97.62
283.282	98.62
283.513	89.62
283.745	84.62
283.976	76.62
284.207	83.62
284.439	81.62
284.67	91.62
284.901	90.62
285.132	83.62
285.364	82.62
285.595	87.62
285.826	80.62
286.057	74.62
286.288	75.62
286.52	76.62
286.751	86.62
286.982	82.62
287.213	76.62
287.444	78.62
287.675	94.62
287.906	83.62
288.138	84.62
288.369	89.62
288.6	85.62
288.831	75.62
289.062	94.62
289.293	80.62
289.524	85.62
289.755	92.62
289.986	94.62
290.217	81.62
290.448	83.62
290.679	88.62
290.91	78.62
291.141	83.62
291.371	84.62
291.602	90.62
291.833	88.62
292.064	86.62
292.295	80.62
292.526	94.62
292.757	84.62
292.987	86.62
293.218	73.62
293.449	84.62
293.68	67.62
293.91	93.62
294.141	94.62
294.372	83.62
294.603	90.62
294.833	98.62
295.064	84.62
295.295	102.62
295.525	90.62
295.756	91.62
295.987	93.62
296.217	122.62
296.448	111.62
296.679	107.62
296.909	109.62
297.14	91.62
297.37	99.62
297.601	97.62
297.831	83.62
298.062	87.62
298.292	94.62
298.523	85.62
298.753	97.62
298.984	91.62
299.214	73.62
299.445	101.62
299.675	90.62
299.905	97.62
300.136	82.62
300.366	85.62
300.597	71.62
300.827	92.62
301.057	83.62
301.288	101.62
301.518	88.62
301.748	87.62
301.979	100.62
302.209	79.62
302.439	85.62
302.669	72.62
302.9	92.62
303.13	92.62
303.36	80.62
303.59	91.62
303.82	109.62
304.051	80.62
304.281	96.62
304.511	78.62
304.741	88.62
304.971	86.62
305.201	88.62
305.431	82.62
305.661	62.62
305.891	86.62
306.121	99.62
306.352	89.62
306.582	92.62
306.812	90.62
307.042	100.62
307.272	92.62
307.502	87.62
307.731	84.62
307.961	102.62
308.191	74.62
308.421	83.62
308.651	88.62
308.881	93.62
309.111	85.62
309.341	91.62
309.571	91.62
309.8	87.62
310.03	99.62
310.26	82.62
310.49	90.62
310.72	103.62
310.949	107.62
311.179	100.62
311.409	100.62
311.639	97.62
311.868	96.62
312.098	103.62
312.328	101.62
312.557	97.62
312.787	99.62
313.017	88.62
313.246	91.62
313.476	92.62
313.706	105.62
313.935	102.62
314.165	97.62
314.394	100.62
314.624	96.62
314.853	101.62
315.083	83.62
315.312	100.62
315.542	95.62
315.771	92.62
316.001	85.62
316.23	97.62
316.46	97.62
316.689	79.62
316.919	86.62
317.148	104.62
317.377	88.62
317.607	89.62
317.836	92.62
318.065	90.62
318.295	80.62
318.524	95.62
318.753	85.62
318.983	96.62
319.212	90.62
319.441	96.62
319.67	107.62
319.9	105.62
320.129	98.62
320.358	90.62
320.587	94.62
320.816	97.62
321.046	90.62
321.275	102.62
321.504	92.62
321.733	96.62
321.962	90.62
322.191	88.62
322.42	97.62
322.649	112.62
322.878	98.62
323.108	107.62
323.337	116.62
323.566	134.62
323.795	158.62
324.024	213.62
324.253	367.62
324.482	816.62
324.71	1723.62
324.939	2199.62
325.168	837.62
325.397	243.62
325.626	158.62
325.855	128.62
326.084	132.62
326.313	130.62
326.542	164.62
326.77	246.62
326.999	475.62
327.228	969.62
327.457	1771.62
327.686	1423.62
327.914	371.62
328.143	179.62
328.372	143.62
328.6	119.62
328.829	99.62
329.058	109.62
329.287	114.62
329.515	110.62
329.744	99.62
329.972	89.62
330.201	103.62
330.43	97.62
330.658	109.62
330.887	125.62
331.115	106.62
331.344	92.62
331.572	105.62
331.801	104.62
332.03	111.62
332.258	92.62
332.486	91.62
332.715	88.62
332.943	101.62
333.172	91.62
333.4	110.62
333.629	99.62
333.857	115.62
334.085	92.62
334.314	108.62
334.542	111.62
334.771	101.62
334.999	117.62
335.227	105.62
335.455	91.62
335.684	80.62
335.912	109.62
336.14	93.62
336.369	93.62
336.597	101.62
336.825	82.62
337.053	92.62
337.281	93.62
337.51	98.62
337.738	89.62
337.966	81.62
338.194	108.62
338.422	94.62
338.65	82.62
338.878	92.62
339.106	83.62
339.334	102.62
339.562	101.62
339.79	88.62
340.018	94.62
340.246	95.62
340.474	91.62
340.702	94.62
340.93	88.62
341.158	83.62
341.386	92.62
341.614	109.62
341.842	95.62
342.07	99.62
342.298	94.62
342.526	78.62
342.754	90.62
342.981	102.62
343.209	89.62
343.437	88.62
343.665	91.62
343.893	93.62
344.12	102.62
344.348	86.62
344.576	102.62
344.804	95.62
345.031	103.62
345.259	103.62
345.487	87.62
345.714	95.62
345.942	101.62
346.17	85.62
346.397	99.62
346.625	88.62
346.853	86.62
347.08	84.62
347.308	86.62
347.535	95.62
347.763	99.62
347.99	99.62
348.218	95.62
348.445	94.62
348.673	93.62
348.9	95.62
349.128	96.62
349.355	83.62
349.583	94.62
349.81	95.62
350.037	96.62
350.265	101.62
350.492	86.62
350.72	96.62
350.947	98.62
351.174	104.62
351.402	108.62
351.629	99.62
351.856	118.62
352.083	93.62
352.311	107.62
352.538	104.62
352.765	106.62
352.992	116.62
353.22	118.62
353.447	107.62
353.674	92.62
353.901	77.62
354.128	99.62
354.355	94.62
354.583	88.62
354.81	106.62
355.037	94.62
355.264	95.62
355.491	105.62
355.718	91.62
355.945	108.62
356.172	96.62
356.399	87.62
356.626	104.62
356.853	109.62
357.08	110.62
357.307	89.62
357.534	99.62
357.761	94.62
357.988	110.62
358.215	91.62
358.441	105.62
358.668	89.62
358.895	91.62
359.122	87.62
359.349	92.62
359.576	96.62
359.802	92.62
360.029	100.62
360.256	108.62
360.483	108.62
360.709	94.62
360.936	101.62
361.163	81.62
361.39	84.62
361.616	95.62
361.843	86.62
362.07	85.62
362.296	84.62
362.523	91.62
362.749	85.62
362.976	90.62
363.203	97.62
363.429	86.62
363.656	90.62
363.882	94.62
364.109	82.62
364.335	89.62
364.562	90.62
364.788	82.62
365.015	96.62
365.241	107.62
365.468	108.62
365.694	86.62
365.92	102.62
366.147	100.62
366.373	102.62
366.599	87.62
366.826	81.62
367.052	87.62
367.278	97.62
367.505	85.62
367.731	74.62
367.957	89.62
368.184	104.62
368.41	99.62
368.636	118.62
368.862	107.62
369.089	101.62
369.315	91.62
369.541	76.62
369.767	85.62
369.993	106.62
370.219	78.62
370.445	100.62
370.672	85.62
370.898	81.62
371.124	102.62
371.35	92.62
371.576	83.62
371.802	96.62
372.028	87.62
372.254	83.62
372.48	96.62
372.706	89.62
372.932	97.62
373.158	87.62
373.384	93.62
373.61	91.62
373.835	103.62
374.061	92.62
374.287	83.62
374.513	86.62
374.739	79.62
374.965	87.62
375.191	97.62
375.416	101.62
375.642	87.62
375.868	87.62
376.094	106.62
376.319	84.62
376.545	91.62
376.771	94.62
376.997	104.62
377.222	84.62
377.448	96.62
377.674	86.62
377.899	95.62
378.125	94.62
378.35	88.62
378.576	85.62
378.802	87.62
379.027	88.62
379.253	102.62
379.478	96.62
379.704	89.62
379.929	83.62
380.155	102.62
380.38	103.62
380.606	92.62
380.831	99.62
381.057	95.62
381.282	89.62
381.507	98.62
381.733	103.62
381.958	98.62
382.184	101.62
382.409	107.62
382.634	98.62
382.86	116.62
383.085	96.62
383.31	92.62
383.535	105.62
383.761	116.62
383.986	90.62
384.211	91.62
384.436	96.62
384.662	93.62
384.887	94.62
385.112	106.62
385.337	87.62
385.562	105.62
385.787	103.62
386.013	108.62
386.238	105.62
386.463	108.62
386.688	105.62
386.913	106.62
387.138	116.62
387.363	125.62
387.588	109.62
387.813	109.62
388.038	98.62
388.263	113.62
388.488	115.62
388.713	93.62
388.938	101.62
389.163	107.62
389.387	95.62
389.612	102.62
389.837	90.62
390.062	82.62
390.287	96.62
390.512	95.62
390.736	99.62
390.961	94.62
391.186	92.62
391.411	97.62
391.636	88.62
391.86	87.62
392.085	86.62
392.31	93.62
392.534	92.62
392.759	90.62
392.984	97.62
393.208	99.62
393.433	89.62
393.658	94.62
393.882	85.62
394.107	77.62
394.331	69.62
394.556	88.62
394.78	97.62
395.005	83.62
395.229	89.62
395.454	94.62
395.678	84.62
395.903	98.62
396.127	96.62
396.352	91.62
396.576	86.62
396.801	84.62
397.025	78.62
397.249	96.62
397.474	88.62
397.698	77.62
397.922	82.62
398.147	76.62
398.371	75.62
398.595	93.62
398.82	80.62
399.044	87.62
399.268	93.62
399.492	90.62
399.717	89.62
399.941	86.62
400.165	93.62
400.389	105.62
400.613	89.62
400.837	87.62
401.062	88.62
401.286	88.62
401.51	80.62
401.734	69.62
401.958	96.62
402.182	115.62
402.406	146.62
402.63	119.62
402.854	88.62
403.078	80.62
403.302	81.62
403.526	94.62
403.75	95.62
403.974	97.62
404.198	86.62
404.422	98.62
404.645	93.62
404.869	90.62
405.093	90.62
405.317	98.62
405.541	94.62
405.765	89.62
405.988	107.62
406.212	144.62
406.436	195.62
406.66	137.62
406.883	95.62
407.107	88.62
407.331	94.62
407.555	117.62
407.778	83.62
408.002	87.62
408.226	80.62
408.449	85.62
408.673	87.62
408.896	89.62
409.12	107.62
409.344	89.62
409.567	93.62
409.791	96.62
410.014	83.62
410.238	88.62
410.461	101.62
410.685	107.62
410.908	105.62
411.132	106.62
411.355	100.62
411.578	89.62
411.802	99.62
412.025	82.62
412.249	89.62
412.472	83.62
412.695	93.62
412.919	87.62
413.142	85.62
413.365	96.62
413.589	89.62
413.812	75.62
414.035	93.62
414.258	80.62
414.482	78.62
414.705	87.62
414.928	74.62
415.151	93.62
415.374	72.62
415.597	91.62
415.821	82.62
416.044	74.62
416.267	83.62
416.49	84.62
416.713	87.62
416.936	100.62
417.159	99.62
417.382	71.62
417.605	87.62
417.828	94.62
418.051	96.62
418.274	112.62
418.497	86.62
418.72	102.62
418.943	88.62
419.166	93.62
419.389	92.62
419.611	77.62
419.834	79.62
420.057	92.62
420.28	94.62
420.503	83.62
420.726	93.62
420.948	90.62
421.171	92.62
421.394	80.62
421.617	92.62
421.839	104.62
422.062	90.62
422.285	86.62
422.507	95.62
422.73	98.62
422.953	94.62
423.175	88.62
423.398	94.62
423.621	86.62
423.843	101.62
424.066	102.62
424.288	94.62
424.511	92.62
424.733	93.62
424.956	91.62
425.178	91.62
425.401	100.62
425.623	97.62
425.846	94.62
426.068	92.62
426.291	88.62
426.513	101.62
426.735	91.62
426.958	99.62
427.18	104.62
427.402	123.62
427.625	165.62
427.847	111.62
428.069	99.62
428.292	93.62
428.514	84.62
428.736	70.62
428.958	72.62
429.181	73.62
429.403	86.62
429.625	92.62
429.847	85.62
430.069	109.62
430.292	69.62
430.514	86.62
430.736	84.62
430.958	79.62
431.18	83.62
431.402	91.62
431.624	93.62
431.846	84.62
432.068	93.62
432.29	85.62
432.512	88.62
432.734	87.62
432.956	88.62
433.178	91.62
433.4	102.62
433.622	90.62
433.844	83.62
434.066	76.62
434.287	92.62
434.509	75.62
434.731	96.62
434.953	85.62
435.175	95.62
435.397	89.62
435.618	87.62
435.84	90.62
436.062	111.62
436.284	126.62
436.505	109.62
436.727	97.62
436.949	93.62
437.17	96.62
437.392	84.62
437.614	95.62
437.835	106.62
438.057	98.62
438.278	112.62
438.5	103.62
438.721	131.62
438.943	93.62
439.165	92.62
439.386	88.62
439.608	94.62
439.829	104.62
440.05	126.62
440.272	139.62
440.493	91.62
440.715	89.62
440.936	83.62
441.158	92.62
441.379	83.62
441.6	91.62
441.822	101.62
442.043	97.62
442.264	111.62
442.486	83.62
442.707	98.62
442.928	101.62
443.149	112.62
443.371	122.62
443.592	108.62
443.813	100.62
444.034	93.62
444.255	96.62
444.476	87.62
444.698	87.62
444.919	93.62
445.14	129.62
445.361	123.62
445.582	93.62
445.803	121.62
446.024	113.62
446.245	124.62
446.466	102.62
446.687	93.62
446.908	91.62
447.129	85.62
447.35	77.62
447.571	101.62
447.792	89.62
448.013	89.62
448.234	95.62
448.455	96.62
448.675	103.62
448.896	110.62
449.117	121.62
449.338	113.62
449.559	130.62
449.779	124.62
450	85.62
450.221	91.62
450.442	83.62
450.662	89.62
450.883	95.62
451.104	117.62
451.324	93.62
451.545	94.62
451.766	87.62
451.986	78.62
452.207	93.62
452.428	99.62
452.648	95.62
452.869	105.62
453.089	116.62
453.31	103.62
453.53	88.62
453.751	89.62
453.971	96.62
454.192	106.62
454.412	90.62
454.633	92.62
454.853	102.62
455.073	81.62
455.294	101.62
455.514	89.62
455.734	89.62
455.955	76.62
456.175	87.62
456.395	84.62
456.616	84.62
456.836	73.62
457.056	72.62
457.276	89.62
457.497	83.62
457.717	83.62
457.937	94.62
458.157	80.62
458.377	87.62
458.598	115.62
458.818	131.62
459.038	149.62
459.258	100.62
459.478	94.62
459.698	82.62
459.918	86.62
460.138	92.62
460.358	96.62
460.578	98.62
460.798	92.62
461.018	77.62
461.238	92.62
461.458	77.62
461.678	86.62
461.898	66.62
462.118	92.62
462.338	89.62
462.558	79.62
462.777	94.62
462.997	76.62
463.217	84.62
463.437	81.62
463.657	87.62
463.876	82.62
464.096	90.62
464.316	99.62
464.536	96.62
464.755	111.62
464.975	116.62
465.195	143.62
465.414	149.62
465.634	90.62
465.854	100.62
466.073	83.62
466.293	73.62
466.512	84.62
466.732	91.62
466.951	74.62
467.171	95.62
467.391	90.62
467.61	95.62
467.829	86.62
468.049	97.62
468.268	98.62
468.488	91.62
468.707	88.62
468.927	83.62
469.146	84.62
469.365	86.62
469.585	67.62
469.804	92.62
470.023	89.62
470.243	79.62
470.462	96.62
470.681	92.62
470.901	84.62
471.12	81.62
471.339	75.62
471.558	81.62
471.777	79.62
471.997	79.62
472.216	108.62
472.435	92.62
472.654	86.62
472.873	101.62
473.092	87.62
473.311	70.62
473.53	70.62
473.749	84.62
473.968	105.62
474.187	90.62
474.406	110.62
474.625	88.62
474.844	94.62
475.063	92.62
475.282	77.62
475.501	72.62
475.72	89.62
475.939	79.62
476.158	88.62
476.377	97.62
476.596	86.62
476.814	98.62
477.033	105.62
477.252	82.62
477.471	87.62
477.69	76.62
477.908	97.62
478.127	90.62
478.346	88.62
478.564	87.62
478.783	81.62
479.002	115.62
479.22	87.62
479.439	96.62
479.658	102.62
479.876	95.62
480.095	83.62
480.313	96.62
480.532	84.62
480.751	88.62
480.969	95.62
481.188	117.62
481.406	105.62
481.624	101.62
481.843	100.62
482.061	92.62
482.28	100.62
482.498	85.62
482.717	90.62
482.935	86.62
483.153	90.62
483.372	85.62
483.59	84.62
483.808	99.62
484.027	89.62
484.245	93.62
484.463	99.62
484.681	89.62
484.9	106.62
485.118	99.62
485.336	104.62
485.554	97.62
485.772	111.62
485.99	110.62
486.209	103.62
486.427	93.62
486.645	96.62
486.863	94.62
487.081	108.62
487.299	105.62
487.517	99.62
487.735	88.62
487.953	83.62
488.171	83.62
488.389	100.62
488.607	108.62
488.825	91.62
489.043	90.62
489.261	91.62
489.479	92.62
489.696	97.62
489.914	99.62
490.132	85.62
490.35	83.62
490.568	84.62
490.786	80.62
491.003	80.62
491.221	80.62
491.439	96.62
491.657	93.62
491.874	89.62
492.092	91.62
492.31	84.62
492.527	81.62
492.745	96.62
492.963	92.62
493.18	92.62
493.398	99.62
493.615	92.62
493.833	104.62
494.05	82.62
494.268	89.62
494.485	93.62
494.703	84.62
494.92	93.62
495.138	84.62
495.355	93.62
495.573	87.62
495.79	86.62
496.008	94.62
496.225	94.62
496.442	109.62
496.66	87.62
496.877	101.62
497.094	97.62
497.312	90.62
497.529	95.62
497.746	85.62
497.963	91.62
498.181	88.62
498.398	105.62
498.615	103.62
498.832	92.62
499.049	87.62
499.267	95.62
499.484	89.62
499.701	100.62
499.918	90.62
500.135	88.62
500.352	86.62
500.569	81.62
500.786	80.62
501.003	97.62
501.22	92.62
501.437	92.62
501.654	84.62
501.871	94.62
502.088	85.62
502.305	87.62
502.522	72.62
502.739	90.62
502.956	93.62
503.172	84.62
503.389	79.62
503.606	92.62
503.823	91.62
504.04	101.62
504.256	107.62
504.473	85.62
504.69	81.62
504.907	93.62
505.123	88.62
505.34	83.62
505.557	87.62
505.773	93.62
505.99	83.62
506.207	86.62
506.423	88.62
506.64	86.62
506.856	82.62
507.073	82.62
507.289	90.62
507.506	98.62
507.722	103.62
507.939	105.62
508.155	100.62
508.372	91.62
508.588	83.62
508.805	94.62
509.021	99.62
509.238	101.62
509.454	92.62
509.67	101.62
509.887	101.62
510.103	139.62
510.319	209.62
510.536	721.62
510.752	2264.62
510.968	613.62
511.184	151.62
511.401	101.62
511.617	105.62
511.833	95.62
512.049	99.62
512.265	91.62
512.481	90.62
512.698	109.62
512.914	85.62
513.13	96.62
513.346	93.62
513.562	89.62
513.778	94.62
513.994	89.62
514.21	102.62
514.426	121.62
514.642	135.62
514.858	124.62
515.074	162.62
515.29	419.62
515.506	1315.62
515.721	489.62
515.937	128.62
516.153	113.62
