Data from Uncirc_1999_H10_HRD10591_00086.txt Node
Date: Wed Jan 03 11:22:22 EST 2024
User: Yrep
Spectrometer: HR+D1059
Trigger mode: 1
Integration Time (sec): 1.000000E-1
Scans to average: 1
Electric dark correction enabled: true
Nonlinearity correction enabled: false
Boxcar width: 0
XAxis mode: Wavelengths
Number of Pixels in Spectrum: 2048
>>>>>Begin Spectral Data<<<<<
223.165	-16.88
223.4	-16.88
223.635	-16.88
223.869	-18.88
224.104	-21.88
224.338	-21.88
224.573	-8.88
224.808	-13.88
225.042	-10.88
225.277	-3.88
225.511	-4.88
225.746	13.12
225.98	5.12
226.215	12.12
226.449	15.12
226.683	15.12
226.918	24.12
227.152	37.12
227.387	31.12
227.621	37.12
227.856	33.12
228.09	57.12
228.324	42.12
228.559	50.12
228.793	64.12
229.027	48.12
229.262	68.12
229.496	69.12
229.73	100.12
229.964	89.12
230.199	77.12
230.433	82.12
230.667	75.12
230.901	74.12
231.136	86.12
231.37	66.12
231.604	75.12
231.838	75.12
232.072	86.12
232.306	80.12
232.541	91.12
232.775	77.12
233.009	82.12
233.243	88.12
233.477	94.12
233.711	67.12
233.945	80.12
234.179	90.12
234.413	85.12
234.647	82.12
234.881	78.12
235.115	63.12
235.349	80.12
235.583	90.12
235.817	82.12
236.051	73.12
236.285	81.12
236.519	86.12
236.753	63.12
236.987	73.12
237.221	75.12
237.455	83.12
237.689	85.12
237.922	77.12
238.156	73.12
238.39	93.12
238.624	83.12
238.858	66.12
239.091	69.12
239.325	63.12
239.559	89.12
239.793	79.12
240.027	69.12
240.26	80.12
240.494	86.12
240.728	87.12
240.961	85.12
241.195	71.12
241.429	84.12
241.662	75.12
241.896	72.12
242.13	89.12
242.363	77.12
242.597	83.12
242.83	73.12
243.064	86.12
243.298	88.12
243.531	84.12
243.765	70.12
243.998	80.12
244.232	69.12
244.465	87.12
244.699	87.12
244.932	90.12
245.166	85.12
245.399	84.12
245.633	75.12
245.866	71.12
246.099	74.12
246.333	82.12
246.566	79.12
246.8	67.12
247.033	74.12
247.266	73.12
247.5	81.12
247.733	81.12
247.966	83.12
248.2	105.12
248.433	86.12
248.666	59.12
248.899	76.12
249.133	81.12
249.366	90.12
249.599	95.12
249.832	79.12
250.066	83.12
250.299	90.12
250.532	89.12
250.765	70.12
250.998	85.12
251.231	79.12
251.465	73.12
251.698	73.12
251.931	87.12
252.164	80.12
252.397	58.12
252.63	85.12
252.863	75.12
253.096	79.12
253.329	75.12
253.562	83.12
253.795	78.12
254.028	89.12
254.261	90.12
254.494	83.12
254.727	98.12
254.96	76.12
255.193	87.12
255.426	83.12
255.659	66.12
255.892	74.12
256.124	78.12
256.357	69.12
256.59	90.12
256.823	82.12
257.056	87.12
257.289	94.12
257.521	78.12
257.754	71.12
257.987	90.12
258.22	87.12
258.452	100.12
258.685	99.12
258.918	77.12
259.151	90.12
259.383	90.12
259.616	76.12
259.849	80.12
260.081	74.12
260.314	95.12
260.547	90.12
260.779	69.12
261.012	87.12
261.244	89.12
261.477	89.12
261.71	91.12
261.942	108.12
262.175	93.12
262.407	95.12
262.64	91.12
262.872	83.12
263.105	90.12
263.337	81.12
263.57	68.12
263.802	79.12
264.035	81.12
264.267	80.12
264.499	78.12
264.732	87.12
264.964	77.12
265.197	85.12
265.429	100.12
265.661	79.12
265.894	74.12
266.126	98.12
266.358	76.12
266.591	71.12
266.823	93.12
267.055	88.12
267.287	98.12
267.52	99.12
267.752	95.12
267.984	84.12
268.216	81.12
268.448	99.12
268.681	80.12
268.913	92.12
269.145	83.12
269.377	85.12
269.609	89.12
269.841	87.12
270.073	86.12
270.306	86.12
270.538	85.12
270.77	79.12
271.002	93.12
271.234	90.12
271.466	80.12
271.698	86.12
271.93	71.12
272.162	81.12
272.394	81.12
272.626	92.12
272.858	84.12
273.09	86.12
273.322	81.12
273.553	67.12
273.785	81.12
274.017	83.12
274.249	81.12
274.481	95.12
274.713	82.12
274.945	82.12
275.176	87.12
275.408	99.12
275.64	92.12
275.872	80.12
276.104	97.12
276.335	93.12
276.567	103.12
276.799	93.12
277.031	104.12
277.262	106.12
277.494	97.12
277.726	80.12
277.957	77.12
278.189	86.12
278.421	92.12
278.652	77.12
278.884	92.12
279.115	95.12
279.347	91.12
279.579	78.12
279.81	80.12
280.042	93.12
280.273	90.12
280.505	86.12
280.736	83.12
280.968	90.12
281.199	98.12
281.431	86.12
281.662	79.12
281.894	82.12
282.125	91.12
282.356	135.12
282.588	142.12
282.819	111.12
283.051	92.12
283.282	87.12
283.513	88.12
283.745	86.12
283.976	95.12
284.207	76.12
284.439	82.12
284.67	87.12
284.901	87.12
285.132	82.12
285.364	83.12
285.595	90.12
285.826	80.12
286.057	90.12
286.288	87.12
286.52	79.12
286.751	87.12
286.982	80.12
287.213	89.12
287.444	90.12
287.675	79.12
287.906	99.12
288.138	94.12
288.369	95.12
288.6	95.12
288.831	90.12
289.062	75.12
289.293	85.12
289.524	93.12
289.755	82.12
289.986	87.12
290.217	97.12
290.448	89.12
290.679	102.12
290.91	88.12
291.141	94.12
291.371	92.12
291.602	91.12
291.833	76.12
292.064	97.12
292.295	83.12
292.526	94.12
292.757	88.12
292.987	101.12
293.218	91.12
293.449	94.12
293.68	89.12
293.91	90.12
294.141	90.12
294.372	92.12
294.603	72.12
294.833	81.12
295.064	96.12
295.295	85.12
295.525	86.12
295.756	87.12
295.987	102.12
296.217	140.12
296.448	123.12
296.679	95.12
296.909	78.12
297.14	85.12
297.37	93.12
297.601	106.12
297.831	81.12
298.062	87.12
298.292	89.12
298.523	99.12
298.753	89.12
298.984	80.12
299.214	84.12
299.445	89.12
299.675	94.12
299.905	103.12
300.136	99.12
300.366	91.12
300.597	87.12
300.827	92.12
301.057	100.12
301.288	102.12
301.518	91.12
301.748	97.12
301.979	91.12
302.209	75.12
302.439	94.12
302.669	84.12
302.9	83.12
303.13	90.12
303.36	105.12
303.59	104.12
303.82	114.12
304.051	93.12
304.281	99.12
304.511	89.12
304.741	93.12
304.971	112.12
305.201	110.12
305.431	91.12
305.661	95.12
305.891	97.12
306.121	94.12
306.352	109.12
306.582	109.12
306.812	97.12
307.042	100.12
307.272	106.12
307.502	99.12
307.731	89.12
307.961	88.12
308.191	83.12
308.421	86.12
308.651	103.12
308.881	86.12
309.111	116.12
309.341	96.12
309.571	85.12
309.8	95.12
310.03	95.12
310.26	100.12
310.49	85.12
310.72	84.12
310.949	99.12
311.179	99.12
311.409	93.12
311.639	91.12
311.868	96.12
312.098	89.12
312.328	84.12
312.557	97.12
312.787	103.12
313.017	102.12
313.246	107.12
313.476	93.12
313.706	101.12
313.935	100.12
314.165	90.12
314.394	95.12
314.624	89.12
314.853	86.12
315.083	90.12
315.312	85.12
315.542	96.12
315.771	97.12
316.001	93.12
316.23	87.12
316.46	93.12
316.689	94.12
316.919	98.12
317.148	94.12
317.377	90.12
317.607	98.12
317.836	89.12
318.065	81.12
318.295	94.12
318.524	87.12
318.753	95.12
318.983	84.12
319.212	96.12
319.441	112.12
319.67	86.12
319.9	86.12
320.129	93.12
320.358	97.12
320.587	106.12
320.816	104.12
321.046	100.12
321.275	105.12
321.504	94.12
321.733	112.12
321.962	96.12
322.191	103.12
322.42	105.12
322.649	111.12
322.878	112.12
323.108	117.12
323.337	130.12
323.566	148.12
323.795	141.12
324.024	207.12
324.253	411.12
324.482	911.12
324.71	1892.12
324.939	2479.12
325.168	900.12
325.397	262.12
325.626	168.12
325.855	149.12
326.084	130.12
326.313	159.12
326.542	161.12
326.77	232.12
326.999	500.12
327.228	1045.12
327.457	1915.12
327.686	1509.12
327.914	406.12
328.143	205.12
328.372	161.12
328.6	120.12
328.829	113.12
329.058	137.12
329.287	125.12
329.515	104.12
329.744	110.12
329.972	92.12
330.201	96.12
330.43	112.12
330.658	122.12
330.887	134.12
331.115	137.12
331.344	92.12
331.572	105.12
331.801	89.12
332.03	94.12
332.258	87.12
332.486	92.12
332.715	93.12
332.943	82.12
333.172	97.12
333.4	100.12
333.629	104.12
333.857	130.12
334.085	114.12
334.314	101.12
334.542	104.12
334.771	104.12
334.999	91.12
335.227	99.12
335.455	110.12
335.684	101.12
335.912	95.12
336.14	100.12
336.369	99.12
336.597	91.12
336.825	91.12
337.053	97.12
337.281	97.12
337.51	90.12
337.738	82.12
337.966	82.12
338.194	93.12
338.422	96.12
338.65	99.12
338.878	104.12
339.106	92.12
339.334	101.12
339.562	96.12
339.79	99.12
340.018	99.12
340.246	96.12
340.474	97.12
340.702	90.12
340.93	94.12
341.158	97.12
341.386	102.12
341.614	103.12
341.842	90.12
342.07	88.12
342.298	92.12
342.526	91.12
342.754	104.12
342.981	87.12
343.209	99.12
343.437	103.12
343.665	102.12
343.893	92.12
344.12	94.12
344.348	87.12
344.576	95.12
344.804	87.12
345.031	96.12
345.259	110.12
345.487	105.12
345.714	103.12
345.942	102.12
346.17	93.12
346.397	104.12
346.625	96.12
346.853	103.12
347.08	98.12
347.308	84.12
347.535	110.12
347.763	79.12
347.99	94.12
348.218	95.12
348.445	100.12
348.673	95.12
348.9	104.12
349.128	94.12
349.355	89.12
349.583	96.12
349.81	81.12
350.037	73.12
350.265	101.12
350.492	93.12
350.72	94.12
350.947	98.12
351.174	113.12
351.402	111.12
351.629	102.12
351.856	97.12
352.083	95.12
352.311	109.12
352.538	95.12
352.765	106.12
352.992	117.12
353.22	116.12
353.447	105.12
353.674	86.12
353.901	99.12
354.128	107.12
354.355	99.12
354.583	97.12
354.81	110.12
355.037	95.12
355.264	96.12
355.491	90.12
355.718	107.12
355.945	87.12
356.172	88.12
356.399	112.12
356.626	98.12
356.853	96.12
357.08	95.12
357.307	97.12
357.534	97.12
357.761	90.12
357.988	88.12
358.215	86.12
358.441	93.12
358.668	88.12
358.895	99.12
359.122	93.12
359.349	93.12
359.576	102.12
359.802	103.12
360.029	107.12
360.256	107.12
360.483	86.12
360.709	93.12
360.936	104.12
361.163	98.12
361.39	90.12
361.616	108.12
361.843	90.12
362.07	89.12
362.296	99.12
362.523	101.12
362.749	101.12
362.976	90.12
363.203	93.12
363.429	89.12
363.656	109.12
363.882	99.12
364.109	78.12
364.335	87.12
364.562	104.12
364.788	94.12
365.015	98.12
365.241	108.12
365.468	119.12
365.694	93.12
365.92	101.12
366.147	96.12
366.373	85.12
366.599	90.12
366.826	80.12
367.052	97.12
367.278	93.12
367.505	91.12
367.731	89.12
367.957	106.12
368.184	102.12
368.41	96.12
368.636	116.12
368.862	120.12
369.089	85.12
369.315	90.12
369.541	92.12
369.767	89.12
369.993	87.12
370.219	95.12
370.445	88.12
370.672	98.12
370.898	83.12
371.124	84.12
371.35	75.12
371.576	85.12
371.802	88.12
372.028	95.12
372.254	94.12
372.48	85.12
372.706	97.12
372.932	87.12
373.158	97.12
373.384	103.12
373.61	90.12
373.835	82.12
374.061	97.12
374.287	89.12
374.513	87.12
374.739	95.12
374.965	92.12
375.191	85.12
375.416	96.12
375.642	99.12
375.868	94.12
376.094	102.12
376.319	103.12
376.545	93.12
376.771	97.12
376.997	89.12
377.222	85.12
377.448	92.12
377.674	97.12
377.899	86.12
378.125	86.12
378.35	95.12
378.576	82.12
378.802	87.12
379.027	93.12
379.253	97.12
379.478	77.12
379.704	73.12
379.929	101.12
380.155	115.12
380.38	86.12
380.606	110.12
380.831	92.12
381.057	98.12
381.282	98.12
381.507	95.12
381.733	105.12
381.958	93.12
382.184	89.12
382.409	107.12
382.634	93.12
382.86	94.12
383.085	120.12
383.31	99.12
383.535	92.12
383.761	95.12
383.986	90.12
384.211	98.12
384.436	113.12
384.662	87.12
384.887	99.12
385.112	95.12
385.337	89.12
385.562	89.12
385.787	90.12
386.013	120.12
386.238	106.12
386.463	103.12
386.688	108.12
386.913	107.12
387.138	116.12
387.363	98.12
387.588	99.12
387.813	115.12
388.038	103.12
388.263	119.12
388.488	102.12
388.713	105.12
388.938	99.12
389.163	91.12
389.387	97.12
389.612	92.12
389.837	110.12
390.062	93.12
390.287	104.12
390.512	89.12
390.736	83.12
390.961	105.12
391.186	101.12
391.411	90.12
391.636	105.12
391.86	82.12
392.085	96.12
392.31	86.12
392.534	78.12
392.759	76.12
392.984	91.12
393.208	87.12
393.433	98.12
393.658	89.12
393.882	87.12
394.107	92.12
394.331	85.12
394.556	90.12
394.78	90.12
395.005	99.12
395.229	76.12
395.454	85.12
395.678	96.12
395.903	75.12
396.127	99.12
396.352	87.12
396.576	93.12
396.801	89.12
397.025	95.12
397.249	78.12
397.474	75.12
397.698	92.12
397.922	88.12
398.147	87.12
398.371	91.12
398.595	92.12
398.82	90.12
399.044	77.12
399.268	89.12
399.492	86.12
399.717	100.12
399.941	103.12
400.165	97.12
400.389	100.12
400.613	90.12
400.837	95.12
401.062	87.12
401.286	85.12
401.51	81.12
401.734	96.12
401.958	93.12
402.182	133.12
402.406	146.12
402.63	117.12
402.854	92.12
403.078	94.12
403.302	106.12
403.526	83.12
403.75	90.12
403.974	97.12
404.198	98.12
404.422	90.12
404.645	90.12
404.869	99.12
405.093	108.12
405.317	93.12
405.541	86.12
405.765	110.12
405.988	117.12
406.212	166.12
406.436	224.12
406.66	136.12
406.883	95.12
407.107	100.12
407.331	106.12
407.555	94.12
407.778	102.12
408.002	75.12
408.226	90.12
408.449	91.12
408.673	82.12
408.896	85.12
409.12	94.12
409.344	97.12
409.567	99.12
409.791	104.12
410.014	105.12
410.238	102.12
410.461	103.12
410.685	93.12
410.908	81.12
411.132	113.12
411.355	93.12
411.578	95.12
411.802	91.12
412.025	86.12
412.249	82.12
412.472	87.12
412.695	95.12
412.919	91.12
413.142	86.12
413.365	97.12
413.589	82.12
413.812	103.12
414.035	101.12
414.258	83.12
414.482	87.12
414.705	94.12
414.928	98.12
415.151	98.12
415.374	92.12
415.597	97.12
415.821	89.12
416.044	95.12
416.267	75.12
416.49	77.12
416.713	96.12
416.936	89.12
417.159	88.12
417.382	89.12
417.605	83.12
417.828	89.12
418.051	100.12
418.274	91.12
418.497	93.12
418.72	92.12
418.943	88.12
419.166	85.12
419.389	90.12
419.611	88.12
419.834	96.12
420.057	93.12
420.28	86.12
420.503	95.12
420.726	86.12
420.948	89.12
421.171	93.12
421.394	97.12
421.617	87.12
421.839	77.12
422.062	90.12
422.285	106.12
422.507	104.12
422.73	91.12
422.953	98.12
423.175	93.12
423.398	117.12
423.621	96.12
423.843	95.12
424.066	89.12
424.288	112.12
424.511	91.12
424.733	91.12
424.956	99.12
425.178	103.12
425.401	107.12
425.623	98.12
425.846	82.12
426.068	96.12
426.291	105.12
426.513	91.12
426.735	97.12
426.958	93.12
427.18	109.12
427.402	138.12
427.625	165.12
427.847	126.12
428.069	105.12
428.292	103.12
428.514	77.12
428.736	97.12
428.958	89.12
429.181	86.12
429.403	87.12
429.625	98.12
429.847	79.12
430.069	104.12
430.292	95.12
430.514	87.12
430.736	92.12
430.958	98.12
431.18	92.12
431.402	86.12
431.624	103.12
431.846	90.12
432.068	90.12
432.29	91.12
432.512	90.12
432.734	83.12
432.956	88.12
433.178	95.12
433.4	98.12
433.622	87.12
433.844	83.12
434.066	74.12
434.287	99.12
434.509	83.12
434.731	95.12
434.953	90.12
435.175	96.12
435.397	95.12
435.618	89.12
435.84	106.12
436.062	126.12
436.284	101.12
436.505	113.12
436.727	116.12
436.949	87.12
437.17	93.12
437.392	83.12
437.614	102.12
437.835	99.12
438.057	111.12
438.278	109.12
438.5	106.12
438.721	114.12
438.943	90.12
439.165	115.12
439.386	74.12
439.608	105.12
439.829	94.12
440.05	109.12
440.272	130.12
440.493	105.12
440.715	105.12
440.936	87.12
441.158	93.12
441.379	90.12
441.6	95.12
441.822	90.12
442.043	89.12
442.264	98.12
442.486	112.12
442.707	108.12
442.928	102.12
443.149	126.12
443.371	112.12
443.592	109.12
443.813	112.12
444.034	103.12
444.255	79.12
444.476	90.12
444.698	89.12
444.919	96.12
445.14	126.12
445.361	111.12
445.582	111.12
445.803	130.12
446.024	133.12
446.245	126.12
446.466	105.12
446.687	82.12
446.908	98.12
447.129	86.12
447.35	103.12
447.571	90.12
447.792	110.12
448.013	98.12
448.234	109.12
448.455	104.12
448.675	106.12
448.896	99.12
449.117	93.12
449.338	96.12
449.559	139.12
449.779	149.12
450	87.12
450.221	74.12
450.442	87.12
450.662	102.12
450.883	101.12
451.104	114.12
451.324	112.12
451.545	91.12
451.766	83.12
451.986	78.12
452.207	99.12
452.428	107.12
452.648	93.12
452.869	112.12
453.089	114.12
453.31	120.12
453.53	103.12
453.751	106.12
453.971	96.12
454.192	112.12
454.412	101.12
454.633	94.12
454.853	80.12
455.073	81.12
455.294	85.12
455.514	72.12
455.734	89.12
455.955	95.12
456.175	98.12
456.395	76.12
456.616	84.12
456.836	87.12
457.056	89.12
457.276	96.12
457.497	81.12
457.717	93.12
457.937	87.12
458.157	81.12
458.377	97.12
458.598	104.12
458.818	143.12
459.038	147.12
459.258	91.12
459.478	91.12
459.698	85.12
459.918	88.12
460.138	90.12
460.358	93.12
460.578	93.12
460.798	85.12
461.018	98.12
461.238	85.12
461.458	100.12
461.678	107.12
461.898	96.12
462.118	92.12
462.338	90.12
462.558	89.12
462.777	78.12
462.997	83.12
463.217	91.12
463.437	80.12
463.657	83.12
463.876	103.12
464.096	73.12
464.316	89.12
464.536	89.12
464.755	102.12
464.975	123.12
465.195	155.12
465.414	143.12
465.634	91.12
465.854	85.12
466.073	77.12
466.293	93.12
466.512	90.12
466.732	82.12
466.951	87.12
467.171	97.12
467.391	108.12
467.61	104.12
467.829	105.12
468.049	94.12
468.268	92.12
468.488	82.12
468.707	92.12
468.927	71.12
469.146	77.12
469.365	90.12
469.585	86.12
469.804	97.12
470.023	94.12
470.243	87.12
470.462	91.12
470.681	94.12
470.901	99.12
471.12	87.12
471.339	81.12
471.558	87.12
471.777	84.12
471.997	87.12
472.216	103.12
472.435	104.12
472.654	89.12
472.873	81.12
473.092	88.12
473.311	86.12
473.53	78.12
473.749	93.12
473.968	98.12
474.187	100.12
474.406	97.12
474.625	85.12
474.844	94.12
475.063	95.12
475.282	90.12
475.501	90.12
475.72	91.12
475.939	85.12
476.158	87.12
476.377	80.12
476.596	87.12
476.814	85.12
477.033	96.12
477.252	77.12
477.471	97.12
477.69	98.12
477.908	88.12
478.127	95.12
478.346	81.12
478.564	90.12
478.783	89.12
479.002	97.12
479.22	76.12
479.439	100.12
479.658	100.12
479.876	97.12
480.095	90.12
480.313	93.12
480.532	86.12
480.751	91.12
480.969	84.12
481.188	105.12
481.406	114.12
481.624	110.12
481.843	97.12
482.061	86.12
482.28	82.12
482.498	93.12
482.717	102.12
482.935	85.12
483.153	91.12
483.372	82.12
483.59	108.12
483.808	81.12
484.027	91.12
484.245	86.12
484.463	95.12
484.681	98.12
484.9	110.12
485.118	93.12
485.336	104.12
485.554	92.12
485.772	98.12
485.99	107.12
486.209	96.12
486.427	104.12
486.645	106.12
486.863	90.12
487.081	96.12
487.299	92.12
487.517	92.12
487.735	94.12
487.953	97.12
488.171	93.12
488.389	93.12
488.607	90.12
488.825	86.12
489.043	96.12
489.261	94.12
489.479	93.12
489.696	98.12
489.914	95.12
490.132	84.12
490.35	93.12
490.568	85.12
490.786	80.12
491.003	84.12
491.221	98.12
491.439	90.12
491.657	97.12
491.874	106.12
492.092	97.12
492.31	105.12
492.527	94.12
492.745	100.12
492.963	83.12
493.18	88.12
493.398	91.12
493.615	95.12
493.833	90.12
494.05	92.12
494.268	83.12
494.485	97.12
494.703	85.12
494.92	105.12
495.138	104.12
495.355	96.12
495.573	86.12
495.79	82.12
496.008	83.12
496.225	88.12
496.442	105.12
496.66	108.12
496.877	94.12
497.094	74.12
497.312	93.12
497.529	90.12
497.746	98.12
497.963	85.12
498.181	87.12
498.398	109.12
498.615	125.12
498.832	93.12
499.049	96.12
499.267	77.12
499.484	78.12
499.701	86.12
499.918	98.12
500.135	88.12
500.352	106.12
500.569	83.12
500.786	92.12
501.003	87.12
501.22	85.12
501.437	83.12
501.654	95.12
501.871	122.12
502.088	83.12
502.305	90.12
502.522	97.12
502.739	91.12
502.956	78.12
503.172	91.12
503.389	95.12
503.606	98.12
503.823	101.12
504.04	94.12
504.256	100.12
504.473	95.12
504.69	96.12
504.907	92.12
505.123	88.12
505.34	80.12
505.557	94.12
505.773	89.12
505.99	97.12
506.207	92.12
506.423	103.12
506.64	103.12
506.856	95.12
507.073	106.12
507.289	104.12
507.506	102.12
507.722	113.12
507.939	109.12
508.155	94.12
508.372	106.12
508.588	99.12
508.805	98.12
509.021	94.12
509.238	88.12
509.454	114.12
509.67	109.12
509.887	110.12
510.103	128.12
510.319	237.12
510.536	827.12
510.752	2554.12
510.968	721.12
511.184	173.12
511.401	130.12
511.617	90.12
511.833	85.12
512.049	97.12
512.265	104.12
512.481	85.12
512.698	76.12
512.914	95.12
513.13	106.12
513.346	107.12
513.562	109.12
513.778	89.12
513.994	108.12
514.21	115.12
514.426	128.12
514.642	129.12
514.858	142.12
515.074	159.12
515.29	458.12
515.506	1463.12
