Data from Uncirc_1999_H10_HRD10591_00046.txt Node
Date: Wed Jan 03 11:22:14 EST 2024
User: Yrep
Spectrometer: HR+D1059
Trigger mode: 1
Integration Time (sec): 1.000000E-1
Scans to average: 1
Electric dark correction enabled: true
Nonlinearity correction enabled: false
Boxcar width: 0
XAxis mode: Wavelengths
Number of Pixels in Spectrum: 2048
>>>>>Begin Spectral Data<<<<<
223.165	-18.19
223.4	-18.19
223.635	-18.19
223.869	-13.19
224.104	-24.19
224.338	-21.19
224.573	-11.19
224.808	-13.19
225.042	-2.19
225.277	-9.19
225.511	6.81
225.746	11.81
225.98	9.81
226.215	17.81
226.449	16.81
226.683	14.81
226.918	8.81
227.152	25.81
227.387	17.81
227.621	29.81
227.856	34.81
228.09	48.81
228.324	46.81
228.559	51.81
228.793	53.81
229.027	62.81
229.262	41.81
229.496	69.81
229.73	61.81
229.964	94.81
230.199	61.81
230.433	79.81
230.667	78.81
230.901	75.81
231.136	76.81
231.37	77.81
231.604	67.81
231.838	80.81
232.072	74.81
232.306	77.81
232.541	79.81
232.775	82.81
233.009	78.81
233.243	64.81
233.477	76.81
233.711	61.81
233.945	76.81
234.179	82.81
234.413	76.81
234.647	71.81
234.881	88.81
235.115	75.81
235.349	77.81
235.583	75.81
235.817	87.81
236.051	100.81
236.285	84.81
236.519	83.81
236.753	69.81
236.987	76.81
237.221	59.81
237.455	73.81
237.689	81.81
237.922	72.81
238.156	85.81
238.39	72.81
238.624	76.81
238.858	62.81
239.091	73.81
239.325	74.81
239.559	85.81
239.793	81.81
240.027	77.81
240.26	65.81
240.494	72.81
240.728	73.81
240.961	80.81
241.195	83.81
241.429	72.81
241.662	75.81
241.896	82.81
242.13	71.81
242.363	59.81
242.597	69.81
242.83	92.81
243.064	66.81
243.298	76.81
243.531	66.81
243.765	71.81
243.998	77.81
244.232	88.81
244.465	81.81
244.699	80.81
244.932	74.81
245.166	69.81
245.399	86.81
245.633	79.81
245.866	79.81
246.099	86.81
246.333	70.81
246.566	70.81
246.8	73.81
247.033	68.81
247.266	65.81
247.5	82.81
247.733	80.81
247.966	64.81
248.2	80.81
248.433	76.81
248.666	69.81
248.899	76.81
249.133	72.81
249.366	88.81
249.599	92.81
249.832	70.81
250.066	76.81
250.299	76.81
250.532	74.81
250.765	68.81
250.998	68.81
251.231	77.81
251.465	68.81
251.698	71.81
251.931	69.81
252.164	50.81
252.397	89.81
252.63	68.81
252.863	92.81
253.096	67.81
253.329	69.81
253.562	88.81
253.795	70.81
254.028	69.81
254.261	73.81
254.494	74.81
254.727	68.81
254.96	69.81
255.193	73.81
255.426	74.81
255.659	68.81
255.892	66.81
256.124	75.81
256.357	61.81
256.59	80.81
256.823	71.81
257.056	86.81
257.289	73.81
257.521	80.81
257.754	67.81
257.987	73.81
258.22	77.81
258.452	74.81
258.685	72.81
258.918	85.81
259.151	83.81
259.383	72.81
259.616	70.81
259.849	68.81
260.081	72.81
260.314	71.81
260.547	67.81
260.779	77.81
261.012	86.81
261.244	64.81
261.477	66.81
261.71	92.81
261.942	94.81
262.175	91.81
262.407	87.81
262.64	69.81
262.872	79.81
263.105	75.81
263.337	93.81
263.57	73.81
263.802	87.81
264.035	72.81
264.267	78.81
264.499	76.81
264.732	83.81
264.964	75.81
265.197	65.81
265.429	80.81
265.661	77.81
265.894	71.81
266.126	69.81
266.358	67.81
266.591	80.81
266.823	84.81
267.055	81.81
267.287	73.81
267.52	76.81
267.752	74.81
267.984	81.81
268.216	76.81
268.448	81.81
268.681	78.81
268.913	73.81
269.145	83.81
269.377	70.81
269.609	85.81
269.841	96.81
270.073	80.81
270.306	86.81
270.538	70.81
270.77	73.81
271.002	79.81
271.234	82.81
271.466	74.81
271.698	84.81
271.93	75.81
272.162	74.81
272.394	74.81
272.626	67.81
272.858	71.81
273.09	86.81
273.322	77.81
273.553	75.81
273.785	88.81
274.017	76.81
274.249	79.81
274.481	80.81
274.713	90.81
274.945	97.81
275.176	80.81
275.408	76.81
275.64	76.81
275.872	76.81
276.104	93.81
276.335	75.81
276.567	92.81
276.799	97.81
277.031	90.81
277.262	88.81
277.494	84.81
277.726	76.81
277.957	87.81
278.189	84.81
278.421	72.81
278.652	80.81
278.884	77.81
279.115	74.81
279.347	75.81
279.579	69.81
279.81	78.81
280.042	85.81
280.273	90.81
280.505	98.81
280.736	70.81
280.968	67.81
281.199	76.81
281.431	81.81
281.662	102.81
281.894	76.81
282.125	110.81
282.356	110.81
282.588	120.81
282.819	105.81
283.051	88.81
283.282	83.81
283.513	73.81
283.745	82.81
283.976	82.81
284.207	84.81
284.439	86.81
284.67	94.81
284.901	74.81
285.132	75.81
285.364	83.81
285.595	80.81
285.826	85.81
286.057	81.81
286.288	88.81
286.52	77.81
286.751	92.81
286.982	86.81
287.213	97.81
287.444	79.81
287.675	92.81
287.906	85.81
288.138	77.81
288.369	80.81
288.6	88.81
288.831	89.81
289.062	78.81
289.293	85.81
289.524	76.81
289.755	83.81
289.986	73.81
290.217	75.81
290.448	76.81
290.679	88.81
290.91	84.81
291.141	94.81
291.371	72.81
291.602	77.81
291.833	72.81
292.064	94.81
292.295	84.81
292.526	76.81
292.757	86.81
292.987	71.81
293.218	77.81
293.449	95.81
293.68	100.81
293.91	87.81
294.141	85.81
294.372	86.81
294.603	90.81
294.833	74.81
295.064	86.81
295.295	84.81
295.525	102.81
295.756	88.81
295.987	98.81
296.217	128.81
296.448	103.81
296.679	81.81
296.909	83.81
297.14	90.81
297.37	71.81
297.601	68.81
297.831	79.81
298.062	90.81
298.292	78.81
298.523	74.81
298.753	86.81
298.984	89.81
299.214	85.81
299.445	107.81
299.675	77.81
299.905	105.81
300.136	82.81
300.366	75.81
300.597	84.81
300.827	88.81
301.057	77.81
301.288	101.81
301.518	87.81
301.748	86.81
301.979	82.81
302.209	70.81
302.439	81.81
302.669	80.81
302.9	96.81
303.13	95.81
303.36	90.81
303.59	105.81
303.82	94.81
304.051	93.81
304.281	83.81
304.511	79.81
304.741	87.81
304.971	83.81
305.201	94.81
305.431	84.81
305.661	97.81
305.891	96.81
306.121	94.81
306.352	105.81
306.582	90.81
306.812	99.81
307.042	83.81
307.272	75.81
307.502	88.81
307.731	96.81
307.961	93.81
308.191	85.81
308.421	77.81
308.651	72.81
308.881	99.81
309.111	85.81
309.341	82.81
309.571	97.81
309.8	99.81
310.03	91.81
310.26	94.81
310.49	87.81
310.72	92.81
310.949	99.81
311.179	94.81
311.409	93.81
311.639	103.81
311.868	98.81
312.098	93.81
312.328	90.81
312.557	99.81
312.787	104.81
313.017	87.81
313.246	96.81
313.476	97.81
313.706	86.81
313.935	99.81
314.165	86.81
314.394	95.81
314.624	104.81
314.853	102.81
315.083	86.81
315.312	79.81
315.542	90.81
315.771	89.81
316.001	81.81
316.23	92.81
316.46	83.81
316.689	88.81
316.919	83.81
317.148	91.81
317.377	80.81
317.607	80.81
317.836	100.81
318.065	88.81
318.295	93.81
318.524	94.81
318.753	99.81
318.983	94.81
319.212	94.81
319.441	110.81
319.67	105.81
319.9	93.81
320.129	78.81
320.358	73.81
320.587	94.81
320.816	92.81
321.046	96.81
321.275	90.81
321.504	79.81
321.733	99.81
321.962	109.81
322.191	98.81
322.42	105.81
322.649	99.81
322.878	108.81
323.108	114.81
323.337	114.81
323.566	125.81
323.795	152.81
324.024	205.81
324.253	396.81
324.482	848.81
324.71	1738.81
324.939	2233.81
325.168	820.81
325.397	251.81
325.626	145.81
325.855	137.81
326.084	133.81
326.313	134.81
326.542	148.81
326.77	222.81
326.999	455.81
327.228	969.81
327.457	1743.81
327.686	1382.81
327.914	370.81
328.143	182.81
328.372	131.81
328.6	123.81
328.829	118.81
329.058	119.81
329.287	110.81
329.515	98.81
329.744	98.81
329.972	101.81
330.201	97.81
330.43	104.81
330.658	114.81
330.887	117.81
331.115	103.81
331.344	89.81
331.572	94.81
331.801	94.81
332.03	94.81
332.258	99.81
332.486	92.81
332.715	95.81
332.943	94.81
333.172	101.81
333.4	75.81
333.629	98.81
333.857	107.81
334.085	100.81
334.314	100.81
334.542	86.81
334.771	105.81
334.999	91.81
335.227	85.81
335.455	80.81
335.684	91.81
335.912	98.81
336.14	96.81
336.369	87.81
336.597	100.81
336.825	104.81
337.053	92.81
337.281	100.81
337.51	92.81
337.738	85.81
337.966	87.81
338.194	76.81
338.422	77.81
338.65	85.81
338.878	77.81
339.106	96.81
339.334	82.81
339.562	85.81
339.79	81.81
340.018	79.81
340.246	86.81
340.474	99.81
340.702	90.81
340.93	89.81
341.158	82.81
341.386	91.81
341.614	80.81
341.842	95.81
342.07	99.81
342.298	76.81
342.526	67.81
342.754	84.81
342.981	91.81
343.209	93.81
343.437	102.81
343.665	83.81
343.893	85.81
344.12	89.81
344.348	90.81
344.576	79.81
344.804	78.81
345.031	84.81
345.259	100.81
345.487	92.81
345.714	81.81
345.942	97.81
346.17	99.81
346.397	79.81
346.625	88.81
346.853	85.81
347.08	78.81
347.308	86.81
347.535	96.81
347.763	86.81
347.99	94.81
348.218	98.81
348.445	98.81
348.673	105.81
348.9	80.81
349.128	88.81
349.355	105.81
349.583	90.81
349.81	95.81
350.037	103.81
350.265	80.81
350.492	97.81
350.72	93.81
350.947	117.81
351.174	90.81
351.402	92.81
351.629	93.81
351.856	96.81
352.083	101.81
352.311	104.81
352.538	90.81
352.765	111.81
352.992	107.81
353.22	100.81
353.447	102.81
353.674	92.81
353.901	92.81
354.128	99.81
354.355	88.81
354.583	94.81
354.81	97.81
355.037	91.81
355.264	98.81
355.491	85.81
355.718	96.81
355.945	82.81
356.172	87.81
356.399	87.81
356.626	83.81
356.853	94.81
357.08	100.81
357.307	87.81
357.534	91.81
357.761	107.81
357.988	87.81
358.215	94.81
358.441	106.81
358.668	81.81
358.895	85.81
359.122	84.81
359.349	101.81
359.576	75.81
359.802	85.81
360.029	89.81
360.256	106.81
360.483	90.81
360.709	76.81
360.936	91.81
361.163	91.81
361.39	74.81
361.616	89.81
361.843	90.81
362.07	80.81
362.296	92.81
362.523	98.81
362.749	81.81
362.976	94.81
363.203	98.81
363.429	81.81
363.656	83.81
363.882	99.81
364.109	97.81
364.335	92.81
364.562	83.81
364.788	92.81
365.015	93.81
365.241	101.81
365.468	111.81
365.694	97.81
365.92	89.81
366.147	81.81
366.373	68.81
366.599	97.81
366.826	87.81
367.052	80.81
367.278	70.81
367.505	92.81
367.731	84.81
367.957	85.81
368.184	77.81
368.41	90.81
368.636	89.81
368.862	101.81
369.089	105.81
369.315	80.81
369.541	78.81
369.767	86.81
369.993	91.81
370.219	89.81
370.445	76.81
370.672	85.81
370.898	80.81
371.124	72.81
371.35	83.81
371.576	76.81
371.802	77.81
372.028	99.81
372.254	77.81
372.48	92.81
372.706	76.81
372.932	87.81
373.158	85.81
373.384	76.81
373.61	91.81
373.835	93.81
374.061	73.81
374.287	70.81
374.513	74.81
374.739	85.81
374.965	73.81
375.191	82.81
375.416	81.81
375.642	81.81
375.868	93.81
376.094	86.81
376.319	82.81
376.545	83.81
376.771	93.81
376.997	89.81
377.222	86.81
377.448	97.81
377.674	103.81
377.899	75.81
378.125	92.81
378.35	100.81
378.576	88.81
378.802	86.81
379.027	105.81
379.253	90.81
379.478	87.81
379.704	100.81
379.929	82.81
380.155	95.81
380.38	104.81
380.606	98.81
380.831	77.81
381.057	96.81
381.282	87.81
381.507	80.81
381.733	89.81
381.958	105.81
382.184	102.81
382.409	99.81
382.634	100.81
382.86	95.81
383.085	90.81
383.31	106.81
383.535	103.81
383.761	105.81
383.986	97.81
384.211	94.81
384.436	92.81
384.662	100.81
384.887	116.81
385.112	118.81
385.337	96.81
385.562	97.81
385.787	91.81
386.013	110.81
386.238	114.81
386.463	118.81
386.688	111.81
386.913	97.81
387.138	108.81
387.363	104.81
387.588	90.81
387.813	101.81
388.038	103.81
388.263	120.81
388.488	98.81
388.713	94.81
388.938	84.81
389.163	90.81
389.387	98.81
389.612	94.81
389.837	81.81
390.062	91.81
390.287	76.81
390.512	74.81
390.736	89.81
390.961	79.81
391.186	81.81
391.411	87.81
391.636	65.81
391.86	78.81
392.085	75.81
392.31	87.81
392.534	89.81
392.759	83.81
392.984	91.81
393.208	76.81
393.433	89.81
393.658	76.81
393.882	76.81
394.107	89.81
394.331	82.81
394.556	85.81
394.78	103.81
395.005	85.81
395.229	81.81
395.454	80.81
395.678	71.81
395.903	79.81
396.127	94.81
396.352	84.81
396.576	97.81
396.801	91.81
397.025	76.81
397.249	88.81
397.474	77.81
397.698	92.81
397.922	73.81
398.147	78.81
398.371	82.81
398.595	94.81
398.82	99.81
399.044	96.81
399.268	70.81
399.492	86.81
399.717	79.81
399.941	79.81
400.165	94.81
400.389	101.81
400.613	90.81
400.837	82.81
401.062	97.81
401.286	88.81
401.51	89.81
401.734	96.81
401.958	91.81
402.182	107.81
402.406	151.81
402.63	97.81
402.854	99.81
403.078	98.81
403.302	76.81
403.526	90.81
403.75	85.81
403.974	83.81
404.198	80.81
404.422	72.81
404.645	87.81
404.869	89.81
405.093	78.81
405.317	90.81
405.541	83.81
405.765	98.81
405.988	104.81
406.212	172.81
406.436	217.81
406.66	134.81
406.883	80.81
407.107	102.81
407.331	85.81
407.555	73.81
407.778	90.81
408.002	81.81
408.226	77.81
408.449	87.81
408.673	84.81
408.896	79.81
409.12	84.81
409.344	89.81
409.567	71.81
409.791	89.81
410.014	90.81
410.238	73.81
410.461	88.81
410.685	90.81
410.908	92.81
411.132	100.81
411.355	93.81
411.578	69.81
411.802	76.81
412.025	84.81
412.249	68.81
412.472	75.81
412.695	92.81
412.919	74.81
413.142	65.81
413.365	87.81
413.589	85.81
413.812	104.81
414.035	88.81
414.258	82.81
414.482	78.81
414.705	83.81
414.928	103.81
415.151	92.81
415.374	104.81
415.597	81.81
415.821	95.81
416.044	94.81
416.267	84.81
416.49	102.81
416.713	78.81
416.936	84.81
417.159	89.81
417.382	86.81
417.605	94.81
417.828	80.81
418.051	92.81
418.274	74.81
418.497	78.81
418.72	80.81
418.943	93.81
419.166	93.81
419.389	83.81
419.611	87.81
419.834	72.81
420.057	72.81
420.28	92.81
420.503	80.81
420.726	80.81
420.948	89.81
421.171	84.81
421.394	88.81
421.617	87.81
421.839	95.81
422.062	83.81
422.285	94.81
422.507	84.81
422.73	106.81
422.953	93.81
423.175	91.81
423.398	87.81
423.621	98.81
423.843	73.81
424.066	84.81
424.288	93.81
424.511	87.81
424.733	95.81
424.956	97.81
425.178	85.81
425.401	94.81
425.623	101.81
425.846	83.81
426.068	88.81
426.291	81.81
426.513	89.81
426.735	89.81
426.958	96.81
427.18	100.81
427.402	123.81
427.625	152.81
427.847	105.81
428.069	103.81
428.292	85.81
428.514	83.81
428.736	72.81
428.958	64.81
429.181	83.81
429.403	87.81
429.625	79.81
429.847	91.81
430.069	104.81
430.292	84.81
430.514	83.81
430.736	88.81
430.958	92.81
431.18	82.81
431.402	90.81
431.624	84.81
431.846	85.81
432.068	88.81
432.29	86.81
432.512	76.81
432.734	88.81
432.956	79.81
433.178	100.81
433.4	88.81
433.622	87.81
433.844	93.81
434.066	87.81
434.287	80.81
434.509	87.81
434.731	62.81
434.953	89.81
435.175	74.81
435.397	94.81
435.618	84.81
435.84	97.81
436.062	117.81
436.284	108.81
436.505	100.81
436.727	97.81
436.949	85.81
437.17	89.81
437.392	98.81
437.614	102.81
437.835	105.81
438.057	101.81
438.278	93.81
438.5	91.81
438.721	78.81
438.943	93.81
439.165	84.81
439.386	92.81
439.608	77.81
439.829	95.81
440.05	114.81
440.272	121.81
440.493	93.81
440.715	82.81
440.936	92.81
441.158	80.81
441.379	82.81
441.6	88.81
441.822	92.81
442.043	83.81
442.264	97.81
442.486	101.81
442.707	75.81
442.928	100.81
443.149	112.81
443.371	115.81
443.592	101.81
443.813	113.81
444.034	100.81
444.255	94.81
444.476	86.81
444.698	90.81
444.919	86.81
445.14	121.81
445.361	124.81
445.582	100.81
445.803	129.81
446.024	121.81
446.245	125.81
446.466	121.81
446.687	85.81
446.908	84.81
447.129	85.81
447.35	82.81
447.571	70.81
447.792	106.81
448.013	103.81
448.234	96.81
448.455	82.81
448.675	93.81
448.896	97.81
449.117	88.81
449.338	100.81
449.559	111.81
449.779	119.81
450	89.81
450.221	79.81
450.442	95.81
450.662	83.81
450.883	93.81
451.104	99.81
451.324	83.81
451.545	78.81
451.766	80.81
451.986	85.81
452.207	62.81
452.428	85.81
452.648	89.81
452.869	92.81
453.089	102.81
453.31	109.81
453.53	84.81
453.751	76.81
453.971	95.81
454.192	89.81
454.412	80.81
454.633	70.81
454.853	74.81
455.073	75.81
455.294	81.81
455.514	91.81
455.734	65.81
455.955	72.81
456.175	71.81
456.395	78.81
456.616	72.81
456.836	91.81
457.056	73.81
457.276	88.81
457.497	70.81
457.717	70.81
457.937	91.81
458.157	80.81
458.377	82.81
458.598	97.81
458.818	140.81
459.038	134.81
459.258	98.81
459.478	70.81
459.698	77.81
459.918	74.81
460.138	63.81
460.358	81.81
460.578	84.81
460.798	81.81
461.018	87.81
461.238	83.81
461.458	75.81
461.678	84.81
461.898	76.81
462.118	78.81
462.338	78.81
462.558	99.81
462.777	90.81
462.997	86.81
463.217	90.81
463.437	69.81
463.657	74.81
463.876	83.81
464.096	72.81
464.316	71.81
464.536	92.81
464.755	94.81
464.975	94.81
465.195	123.81
465.414	136.81
465.634	68.81
465.854	77.81
466.073	90.81
466.293	80.81
466.512	74.81
466.732	72.81
466.951	85.81
467.171	93.81
467.391	90.81
467.61	104.81
467.829	91.81
468.049	100.81
468.268	96.81
468.488	77.81
468.707	72.81
468.927	70.81
469.146	81.81
469.365	84.81
469.585	81.81
469.804	84.81
470.023	84.81
470.243	97.81
470.462	107.81
470.681	105.81
470.901	87.81
471.12	86.81
471.339	79.81
471.558	92.81
471.777	90.81
471.997	77.81
472.216	86.81
472.435	107.81
472.654	85.81
472.873	78.81
473.092	81.81
473.311	89.81
473.53	84.81
473.749	77.81
473.968	96.81
474.187	90.81
474.406	97.81
474.625	88.81
474.844	82.81
475.063	86.81
475.282	96.81
475.501	88.81
475.72	78.81
475.939	90.81
476.158	88.81
476.377	78.81
476.596	89.81
476.814	87.81
477.033	78.81
477.252	81.81
477.471	75.81
477.69	82.81
477.908	100.81
478.127	82.81
478.346	84.81
478.564	87.81
478.783	81.81
479.002	86.81
479.22	82.81
479.439	99.81
479.658	93.81
479.876	83.81
480.095	100.81
480.313	81.81
480.532	88.81
480.751	87.81
480.969	96.81
481.188	126.81
481.406	96.81
481.624	78.81
481.843	101.81
482.061	86.81
482.28	89.81
482.498	86.81
482.717	72.81
482.935	86.81
483.153	68.81
483.372	83.81
483.59	85.81
483.808	81.81
484.027	94.81
484.245	90.81
484.463	86.81
484.681	86.81
484.9	84.81
485.118	97.81
485.336	86.81
485.554	94.81
485.772	100.81
485.99	95.81
486.209	87.81
486.427	100.81
486.645	100.81
486.863	113.81
487.081	99.81
487.299	91.81
487.517	88.81
487.735	89.81
487.953	88.81
488.171	98.81
488.389	88.81
488.607	93.81
488.825	85.81
489.043	85.81
489.261	95.81
489.479	84.81
489.696	95.81
489.914	73.81
490.132	81.81
490.35	93.81
490.568	84.81
490.786	87.81
491.003	86.81
491.221	92.81
491.439	93.81
491.657	80.81
491.874	96.81
492.092	93.81
492.31	93.81
492.527	88.81
492.745	76.81
492.963	94.81
493.18	81.81
493.398	97.81
493.615	100.81
493.833	84.81
494.05	73.81
494.268	88.81
494.485	84.81
494.703	85.81
494.92	98.81
495.138	86.81
495.355	76.81
495.573	89.81
495.79	102.81
496.008	96.81
496.225	93.81
496.442	86.81
496.66	94.81
496.877	88.81
497.094	85.81
497.312	92.81
497.529	88.81
497.746	83.81
497.963	84.81
498.181	87.81
498.398	97.81
498.615	109.81
498.832	111.81
499.049	76.81
499.267	88.81
499.484	84.81
499.701	88.81
499.918	85.81
500.135	91.81
500.352	93.81
500.569	102.81
500.786	89.81
501.003	101.81
501.22	83.81
501.437	86.81
501.654	103.81
501.871	104.81
502.088	85.81
502.305	83.81
502.522	82.81
502.739	88.81
502.956	81.81
503.172	76.81
503.389	82.81
503.606	87.81
503.823	92.81
504.04	83.81
504.256	85.81
504.473	77.81
504.69	87.81
504.907	89.81
505.123	87.81
505.34	93.81
505.557	73.81
505.773	73.81
505.99	93.81
506.207	82.81
506.423	83.81
506.64	102.81
506.856	90.81
507.073	89.81
507.289	92.81
507.506	88.81
507.722	116.81
507.939	100.81
508.155	88.81
508.372	92.81
508.588	97.81
508.805	80.81
509.021	75.81
509.238	93.81
509.454	80.81
509.67	100.81
509.887	112.81
510.103	125.81
510.319	219.81
510.536	725.81
510.752	2180.81
510.968	627.81
511.184	136.81
511.401	106.81
511.617	91.81
511.833	95.81
512.049	72.81
512.265	85.81
512.481	86.81
512.698	90.81
512.914	86.81
513.13	88.81
513.346	85.81
513.562	91.81
513.778	82.81
513.994	103.81
514.21	98.81
514.426	120.81
514.642	116.81
514.858	114.81
515.074	155.81
515.29	384.81
515.506	1282.81
515.721	470.81
515.937	142.81
516.153	105.81
516.369	83.81
516.585	110.81
516.801	86.81
517.016	87.81
