Data from Uncirc_1999_H10_HRD10591_00026.txt Node
Date: Wed Jan 03 11:22:10 EST 2024
User: Yrep
Spectrometer: HR+D1059
Trigger mode: 1
Integration Time (sec): 1.000000E-1
Scans to average: 1
Electric dark correction enabled: true
Nonlinearity correction enabled: false
Boxcar width: 0
XAxis mode: Wavelengths
Number of Pixels in Spectrum: 2048
>>>>>Begin Spectral Data<<<<<
223.165	-15.94
223.4	-15.94
223.635	-15.94
223.869	-16.94
224.104	-31.94
224.338	-33.94
224.573	-13.94
224.808	-11.94
225.042	-6.94
225.277	-2.94
225.511	2.06
225.746	3.06
225.98	0.06
226.215	17.06
226.449	26.06
226.683	21.06
226.918	34.06
227.152	31.06
227.387	34.06
227.621	35.06
227.856	46.06
228.09	48.06
228.324	47.06
228.559	57.06
228.793	57.06
229.027	67.06
229.262	54.06
229.496	78.06
229.73	71.06
229.964	75.06
230.199	85.06
230.433	72.06
230.667	80.06
230.901	68.06
231.136	71.06
231.37	71.06
231.604	85.06
231.838	76.06
232.072	89.06
232.306	91.06
232.541	90.06
232.775	92.06
233.009	90.06
233.243	82.06
233.477	87.06
233.711	81.06
233.945	75.06
234.179	89.06
234.413	87.06
234.647	82.06
234.881	72.06
235.115	84.06
235.349	82.06
235.583	76.06
235.817	90.06
236.051	74.06
236.285	86.06
236.519	87.06
236.753	61.06
236.987	63.06
237.221	79.06
237.455	79.06
237.689	84.06
237.922	83.06
238.156	79.06
238.39	67.06
238.624	78.06
238.858	65.06
239.091	86.06
239.325	80.06
239.559	72.06
239.793	78.06
240.027	85.06
240.26	71.06
240.494	69.06
240.728	71.06
240.961	85.06
241.195	76.06
241.429	84.06
241.662	77.06
241.896	73.06
242.13	76.06
242.363	94.06
242.597	79.06
242.83	76.06
243.064	82.06
243.298	70.06
243.531	84.06
243.765	67.06
243.998	71.06
244.232	92.06
244.465	91.06
244.699	91.06
244.932	96.06
245.166	84.06
245.399	96.06
245.633	83.06
245.866	92.06
246.099	81.06
246.333	85.06
246.566	80.06
246.8	82.06
247.033	80.06
247.266	85.06
247.5	73.06
247.733	104.06
247.966	80.06
248.2	96.06
248.433	90.06
248.666	82.06
248.899	85.06
249.133	99.06
249.366	106.06
249.599	93.06
249.832	76.06
250.066	100.06
250.299	81.06
250.532	81.06
250.765	75.06
250.998	77.06
251.231	78.06
251.465	78.06
251.698	93.06
251.931	89.06
252.164	89.06
252.397	74.06
252.63	83.06
252.863	79.06
253.096	95.06
253.329	92.06
253.562	93.06
253.795	76.06
254.028	79.06
254.261	87.06
254.494	82.06
254.727	80.06
254.96	84.06
255.193	73.06
255.426	73.06
255.659	76.06
255.892	85.06
256.124	93.06
256.357	81.06
256.59	85.06
256.823	95.06
257.056	101.06
257.289	85.06
257.521	93.06
257.754	83.06
257.987	84.06
258.22	84.06
258.452	80.06
258.685	95.06
258.918	75.06
259.151	76.06
259.383	73.06
259.616	74.06
259.849	81.06
260.081	82.06
260.314	66.06
260.547	81.06
260.779	83.06
261.012	81.06
261.244	87.06
261.477	91.06
261.71	98.06
261.942	120.06
262.175	115.06
262.407	77.06
262.64	84.06
262.872	75.06
263.105	88.06
263.337	103.06
263.57	81.06
263.802	78.06
264.035	82.06
264.267	79.06
264.499	83.06
264.732	104.06
264.964	75.06
265.197	90.06
265.429	91.06
265.661	93.06
265.894	83.06
266.126	77.06
266.358	88.06
266.591	87.06
266.823	84.06
267.055	87.06
267.287	95.06
267.52	72.06
267.752	83.06
267.984	93.06
268.216	75.06
268.448	88.06
268.681	83.06
268.913	98.06
269.145	80.06
269.377	99.06
269.609	82.06
269.841	80.06
270.073	95.06
270.306	99.06
270.538	83.06
270.77	85.06
271.002	87.06
271.234	83.06
271.466	77.06
271.698	87.06
271.93	87.06
272.162	98.06
272.394	94.06
272.626	77.06
272.858	83.06
273.09	82.06
273.322	76.06
273.553	80.06
273.785	87.06
274.017	95.06
274.249	85.06
274.481	90.06
274.713	86.06
274.945	90.06
275.176	88.06
275.408	80.06
275.64	81.06
275.872	92.06
276.104	94.06
276.335	98.06
276.567	78.06
276.799	109.06
277.031	94.06
277.262	99.06
277.494	85.06
277.726	81.06
277.957	84.06
278.189	88.06
278.421	75.06
278.652	80.06
278.884	93.06
279.115	95.06
279.347	72.06
279.579	99.06
279.81	88.06
280.042	97.06
280.273	91.06
280.505	102.06
280.736	79.06
280.968	90.06
281.199	95.06
281.431	94.06
281.662	91.06
281.894	85.06
282.125	101.06
282.356	94.06
282.588	136.06
282.819	115.06
283.051	91.06
283.282	88.06
283.513	77.06
283.745	85.06
283.976	77.06
284.207	87.06
284.439	92.06
284.67	86.06
284.901	89.06
285.132	80.06
285.364	96.06
285.595	87.06
285.826	91.06
286.057	91.06
286.288	90.06
286.52	90.06
286.751	72.06
286.982	101.06
287.213	91.06
287.444	98.06
287.675	103.06
287.906	91.06
288.138	90.06
288.369	98.06
288.6	83.06
288.831	101.06
289.062	82.06
289.293	92.06
289.524	87.06
289.755	86.06
289.986	83.06
290.217	94.06
290.448	93.06
290.679	82.06
290.91	96.06
291.141	96.06
291.371	89.06
291.602	102.06
291.833	84.06
292.064	91.06
292.295	84.06
292.526	92.06
292.757	84.06
292.987	99.06
293.218	89.06
293.449	87.06
293.68	66.06
293.91	86.06
294.141	83.06
294.372	87.06
294.603	99.06
294.833	84.06
295.064	103.06
295.295	103.06
295.525	95.06
295.756	102.06
295.987	112.06
296.217	120.06
296.448	123.06
296.679	98.06
296.909	91.06
297.14	84.06
297.37	76.06
297.601	77.06
297.831	85.06
298.062	89.06
298.292	87.06
298.523	91.06
298.753	79.06
298.984	87.06
299.214	100.06
299.445	79.06
299.675	96.06
299.905	97.06
300.136	89.06
300.366	106.06
300.597	88.06
300.827	95.06
301.057	90.06
301.288	86.06
301.518	95.06
301.748	94.06
301.979	101.06
302.209	86.06
302.439	90.06
302.669	87.06
302.9	88.06
303.13	96.06
303.36	80.06
303.59	97.06
303.82	104.06
304.051	94.06
304.281	97.06
304.511	97.06
304.741	79.06
304.971	88.06
305.201	95.06
305.431	93.06
305.661	88.06
305.891	90.06
306.121	92.06
306.352	87.06
306.582	104.06
306.812	94.06
307.042	90.06
307.272	106.06
307.502	95.06
307.731	94.06
307.961	96.06
308.191	88.06
308.421	98.06
308.651	94.06
308.881	80.06
309.111	99.06
309.341	101.06
309.571	88.06
309.8	110.06
310.03	93.06
310.26	87.06
310.49	96.06
310.72	104.06
310.949	127.06
311.179	105.06
311.409	95.06
311.639	95.06
311.868	92.06
312.098	98.06
312.328	94.06
312.557	101.06
312.787	111.06
313.017	108.06
313.246	92.06
313.476	99.06
313.706	99.06
313.935	86.06
314.165	109.06
314.394	109.06
314.624	104.06
314.853	96.06
315.083	92.06
315.312	100.06
315.542	80.06
315.771	108.06
316.001	76.06
316.23	94.06
316.46	85.06
316.689	101.06
316.919	92.06
317.148	94.06
317.377	111.06
317.607	88.06
317.836	89.06
318.065	96.06
318.295	115.06
318.524	92.06
318.753	99.06
318.983	84.06
319.212	109.06
319.441	95.06
319.67	107.06
319.9	95.06
320.129	91.06
320.358	96.06
320.587	103.06
320.816	95.06
321.046	101.06
321.275	95.06
321.504	92.06
321.733	108.06
321.962	94.06
322.191	113.06
322.42	109.06
322.649	109.06
322.878	105.06
323.108	137.06
323.337	126.06
323.566	140.06
323.795	159.06
324.024	215.06
324.253	395.06
324.482	847.06
324.71	1768.06
324.939	2255.06
325.168	809.06
325.397	235.06
325.626	133.06
325.855	130.06
326.084	127.06
326.313	147.06
326.542	156.06
326.77	243.06
326.999	487.06
327.228	997.06
327.457	1768.06
327.686	1410.06
327.914	391.06
328.143	186.06
328.372	132.06
328.6	125.06
328.829	117.06
329.058	122.06
329.287	121.06
329.515	99.06
329.744	98.06
329.972	103.06
330.201	105.06
330.43	108.06
330.658	133.06
330.887	123.06
331.115	119.06
331.344	114.06
331.572	112.06
331.801	110.06
332.03	97.06
332.258	112.06
332.486	96.06
332.715	98.06
332.943	94.06
333.172	104.06
333.4	112.06
333.629	99.06
333.857	116.06
334.085	108.06
334.314	106.06
334.542	103.06
334.771	98.06
334.999	85.06
335.227	101.06
335.455	91.06
335.684	103.06
335.912	115.06
336.14	96.06
336.369	100.06
336.597	87.06
336.825	99.06
337.053	100.06
337.281	95.06
337.51	81.06
337.738	88.06
337.966	85.06
338.194	105.06
338.422	95.06
338.65	105.06
338.878	101.06
339.106	95.06
339.334	88.06
339.562	83.06
339.79	99.06
340.018	96.06
340.246	83.06
340.474	89.06
340.702	92.06
340.93	90.06
341.158	90.06
341.386	98.06
341.614	86.06
341.842	103.06
342.07	86.06
342.298	100.06
342.526	99.06
342.754	101.06
342.981	88.06
343.209	89.06
343.437	118.06
343.665	90.06
343.893	93.06
344.12	118.06
344.348	108.06
344.576	92.06
344.804	105.06
345.031	93.06
345.259	93.06
345.487	105.06
345.714	90.06
345.942	103.06
346.17	93.06
346.397	96.06
346.625	98.06
346.853	95.06
347.08	93.06
347.308	114.06
347.535	97.06
347.763	103.06
347.99	99.06
348.218	97.06
348.445	92.06
348.673	103.06
348.9	88.06
349.128	105.06
349.355	91.06
349.583	110.06
349.81	103.06
350.037	105.06
350.265	93.06
350.492	90.06
350.72	101.06
350.947	115.06
351.174	99.06
351.402	110.06
351.629	114.06
351.856	93.06
352.083	98.06
352.311	115.06
352.538	104.06
352.765	100.06
352.992	121.06
353.22	119.06
353.447	101.06
353.674	107.06
353.901	108.06
354.128	103.06
354.355	106.06
354.583	102.06
354.81	93.06
355.037	93.06
355.264	107.06
355.491	90.06
355.718	96.06
355.945	97.06
356.172	90.06
356.399	93.06
356.626	103.06
356.853	89.06
357.08	101.06
357.307	104.06
357.534	100.06
357.761	97.06
357.988	101.06
358.215	104.06
358.441	103.06
358.668	100.06
358.895	91.06
359.122	90.06
359.349	91.06
359.576	109.06
359.802	89.06
360.029	99.06
360.256	99.06
360.483	94.06
360.709	94.06
360.936	111.06
361.163	89.06
361.39	112.06
361.616	100.06
361.843	103.06
362.07	87.06
362.296	91.06
362.523	90.06
362.749	89.06
362.976	98.06
363.203	111.06
363.429	99.06
363.656	89.06
363.882	95.06
364.109	91.06
364.335	98.06
364.562	87.06
364.788	100.06
365.015	99.06
365.241	102.06
365.468	117.06
365.694	98.06
365.92	80.06
366.147	94.06
366.373	101.06
366.599	97.06
366.826	103.06
367.052	81.06
367.278	106.06
367.505	97.06
367.731	100.06
367.957	100.06
368.184	101.06
368.41	110.06
368.636	90.06
368.862	113.06
369.089	119.06
369.315	110.06
369.541	96.06
369.767	96.06
369.993	96.06
370.219	98.06
370.445	99.06
370.672	97.06
370.898	99.06
371.124	96.06
371.35	100.06
371.576	85.06
371.802	91.06
372.028	89.06
372.254	93.06
372.48	86.06
372.706	85.06
372.932	85.06
373.158	101.06
373.384	79.06
373.61	101.06
373.835	96.06
374.061	101.06
374.287	99.06
374.513	91.06
374.739	98.06
374.965	92.06
375.191	85.06
375.416	85.06
375.642	98.06
375.868	101.06
376.094	90.06
376.319	99.06
376.545	96.06
376.771	97.06
376.997	85.06
377.222	101.06
377.448	85.06
377.674	108.06
377.899	105.06
378.125	110.06
378.35	95.06
378.576	89.06
378.802	91.06
379.027	96.06
379.253	85.06
379.478	88.06
379.704	92.06
379.929	104.06
380.155	88.06
380.38	116.06
380.606	84.06
380.831	111.06
381.057	106.06
381.282	98.06
381.507	111.06
381.733	105.06
381.958	104.06
382.184	116.06
382.409	109.06
382.634	120.06
382.86	107.06
383.085	113.06
383.31	115.06
383.535	108.06
383.761	101.06
383.986	108.06
384.211	115.06
384.436	114.06
384.662	113.06
384.887	131.06
385.112	117.06
385.337	119.06
385.562	102.06
385.787	125.06
386.013	118.06
386.238	128.06
386.463	109.06
386.688	124.06
386.913	118.06
387.138	111.06
387.363	112.06
387.588	115.06
387.813	104.06
388.038	115.06
388.263	124.06
388.488	121.06
388.713	102.06
388.938	98.06
389.163	98.06
389.387	114.06
389.612	110.06
389.837	93.06
390.062	99.06
390.287	98.06
390.512	91.06
390.736	94.06
390.961	106.06
391.186	90.06
391.411	104.06
391.636	102.06
391.86	92.06
392.085	88.06
392.31	88.06
392.534	108.06
392.759	91.06
392.984	97.06
393.208	89.06
393.433	99.06
393.658	80.06
393.882	79.06
394.107	90.06
394.331	96.06
394.556	94.06
394.78	94.06
395.005	93.06
395.229	96.06
395.454	87.06
395.678	87.06
395.903	93.06
396.127	87.06
396.352	97.06
396.576	79.06
396.801	97.06
397.025	100.06
397.249	92.06
397.474	93.06
397.698	95.06
397.922	92.06
398.147	84.06
398.371	105.06
398.595	93.06
398.82	87.06
399.044	89.06
399.268	82.06
399.492	87.06
399.717	94.06
399.941	93.06
400.165	89.06
400.389	91.06
400.613	101.06
400.837	89.06
401.062	88.06
401.286	94.06
401.51	80.06
401.734	93.06
401.958	112.06
402.182	125.06
402.406	149.06
402.63	120.06
402.854	92.06
403.078	86.06
403.302	99.06
403.526	89.06
403.75	103.06
403.974	92.06
404.198	75.06
404.422	81.06
404.645	96.06
404.869	101.06
405.093	100.06
405.317	98.06
405.541	93.06
405.765	97.06
405.988	126.06
406.212	177.06
406.436	203.06
406.66	136.06
406.883	96.06
407.107	99.06
407.331	99.06
407.555	99.06
407.778	95.06
408.002	84.06
408.226	99.06
408.449	84.06
408.673	77.06
408.896	91.06
409.12	103.06
409.344	91.06
409.567	95.06
409.791	95.06
410.014	107.06
410.238	104.06
410.461	76.06
410.685	99.06
410.908	103.06
411.132	92.06
411.355	89.06
411.578	109.06
411.802	102.06
412.025	83.06
412.249	97.06
412.472	84.06
412.695	105.06
412.919	86.06
413.142	84.06
413.365	92.06
413.589	86.06
413.812	93.06
414.035	82.06
414.258	83.06
414.482	100.06
414.705	106.06
414.928	100.06
415.151	83.06
415.374	93.06
415.597	83.06
415.821	91.06
416.044	88.06
416.267	114.06
416.49	79.06
416.713	79.06
416.936	92.06
417.159	97.06
417.382	92.06
417.605	91.06
417.828	104.06
418.051	92.06
418.274	94.06
418.497	96.06
418.72	95.06
418.943	93.06
419.166	77.06
419.389	100.06
419.611	86.06
419.834	96.06
420.057	115.06
420.28	102.06
420.503	90.06
420.726	73.06
420.948	86.06
421.171	93.06
421.394	97.06
421.617	106.06
421.839	93.06
422.062	91.06
422.285	98.06
422.507	99.06
422.73	85.06
422.953	86.06
423.175	79.06
423.398	90.06
423.621	79.06
423.843	105.06
424.066	98.06
424.288	97.06
424.511	98.06
424.733	102.06
424.956	84.06
425.178	101.06
425.401	91.06
425.623	104.06
425.846	97.06
426.068	107.06
426.291	95.06
426.513	98.06
426.735	92.06
426.958	99.06
427.18	117.06
427.402	125.06
427.625	155.06
427.847	136.06
428.069	117.06
428.292	92.06
428.514	81.06
428.736	67.06
428.958	111.06
429.181	82.06
429.403	89.06
429.625	84.06
429.847	111.06
430.069	88.06
430.292	84.06
430.514	88.06
430.736	90.06
430.958	99.06
431.18	96.06
431.402	82.06
431.624	94.06
431.846	99.06
432.068	89.06
432.29	77.06
432.512	94.06
432.734	100.06
432.956	92.06
433.178	96.06
433.4	92.06
433.622	87.06
433.844	90.06
434.066	97.06
434.287	107.06
434.509	103.06
434.731	94.06
434.953	73.06
435.175	98.06
435.397	81.06
435.618	94.06
435.84	114.06
436.062	121.06
436.284	139.06
436.505	97.06
436.727	106.06
436.949	76.06
437.17	99.06
437.392	93.06
437.614	88.06
437.835	113.06
438.057	105.06
438.278	112.06
438.5	103.06
438.721	116.06
438.943	112.06
439.165	86.06
439.386	100.06
439.608	79.06
439.829	95.06
440.05	120.06
440.272	127.06
440.493	106.06
440.715	92.06
440.936	104.06
441.158	94.06
441.379	100.06
441.6	79.06
441.822	88.06
442.043	105.06
442.264	90.06
442.486	97.06
442.707	92.06
442.928	106.06
443.149	129.06
443.371	117.06
443.592	119.06
443.813	114.06
444.034	96.06
444.255	88.06
444.476	98.06
444.698	80.06
444.919	90.06
445.14	139.06
445.361	120.06
445.582	108.06
445.803	127.06
446.024	144.06
446.245	127.06
446.466	101.06
446.687	89.06
446.908	91.06
447.129	98.06
447.35	96.06
447.571	84.06
447.792	92.06
448.013	100.06
448.234	100.06
448.455	102.06
448.675	117.06
448.896	110.06
449.117	107.06
449.338	101.06
449.559	139.06
449.779	125.06
450	95.06
450.221	90.06
450.442	91.06
450.662	91.06
450.883	106.06
451.104	101.06
451.324	89.06
451.545	88.06
451.766	84.06
451.986	92.06
452.207	85.06
452.428	95.06
452.648	109.06
452.869	97.06
453.089	102.06
453.31	107.06
453.53	80.06
453.751	98.06
453.971	104.06
454.192	124.06
454.412	93.06
454.633	75.06
454.853	78.06
455.073	81.06
455.294	105.06
455.514	93.06
455.734	95.06
455.955	93.06
456.175	79.06
456.395	88.06
456.616	83.06
456.836	95.06
457.056	96.06
457.276	83.06
457.497	82.06
457.717	98.06
457.937	90.06
458.157	89.06
458.377	88.06
458.598	96.06
458.818	145.06
459.038	144.06
459.258	111.06
459.478	86.06
459.698	87.06
459.918	96.06
460.138	92.06
460.358	92.06
460.578	102.06
460.798	91.06
461.018	71.06
461.238	84.06
461.458	96.06
461.678	92.06
461.898	97.06
462.118	93.06
462.338	90.06
462.558	93.06
462.777	95.06
462.997	88.06
463.217	82.06
463.437	86.06
463.657	92.06
463.876	96.06
464.096	104.06
464.316	92.06
464.536	88.06
464.755	103.06
464.975	105.06
465.195	159.06
465.414	148.06
465.634	103.06
465.854	86.06
466.073	100.06
466.293	107.06
466.512	90.06
466.732	83.06
466.951	97.06
467.171	87.06
467.391	94.06
467.61	106.06
467.829	100.06
468.049	96.06
468.268	97.06
468.488	79.06
468.707	91.06
468.927	91.06
469.146	93.06
469.365	78.06
469.585	92.06
469.804	93.06
470.023	90.06
470.243	95.06
470.462	100.06
470.681	117.06
470.901	82.06
471.12	107.06
471.339	93.06
471.558	87.06
471.777	85.06
471.997	87.06
472.216	105.06
472.435	111.06
472.654	99.06
472.873	93.06
473.092	97.06
473.311	106.06
473.53	97.06
473.749	92.06
473.968	112.06
474.187	87.06
474.406	92.06
474.625	86.06
474.844	100.06
475.063	93.06
475.282	95.06
475.501	96.06
475.72	83.06
475.939	92.06
476.158	87.06
476.377	86.06
476.596	92.06
476.814	97.06
477.033	94.06
477.252	83.06
477.471	91.06
477.69	106.06
477.908	87.06
478.127	94.06
478.346	94.06
478.564	83.06
478.783	105.06
479.002	83.06
479.22	92.06
479.439	107.06
479.658	96.06
479.876	85.06
480.095	90.06
480.313	87.06
480.532	94.06
480.751	96.06
480.969	106.06
481.188	122.06
481.406	116.06
481.624	100.06
481.843	93.06
482.061	93.06
482.28	74.06
482.498	67.06
482.717	100.06
482.935	89.06
483.153	81.06
483.372	91.06
483.59	93.06
483.808	106.06
484.027	97.06
484.245	94.06
484.463	100.06
484.681	93.06
484.9	103.06
485.118	95.06
485.336	87.06
485.554	109.06
485.772	111.06
485.99	110.06
486.209	100.06
486.427	117.06
486.645	112.06
486.863	119.06
487.081	99.06
487.299	108.06
487.517	108.06
487.735	115.06
487.953	96.06
488.171	91.06
488.389	101.06
488.607	106.06
488.825	88.06
489.043	95.06
489.261	95.06
489.479	98.06
489.696	91.06
489.914	99.06
490.132	115.06
490.35	82.06
490.568	90.06
490.786	92.06
491.003	79.06
491.221	95.06
491.439	92.06
491.657	100.06
491.874	84.06
492.092	104.06
492.31	84.06
492.527	80.06
492.745	96.06
492.963	104.06
493.18	105.06
493.398	93.06
493.615	96.06
493.833	100.06
494.05	102.06
494.268	96.06
494.485	81.06
494.703	94.06
494.92	97.06
495.138	93.06
495.355	98.06
495.573	92.06
495.79	82.06
496.008	96.06
496.225	91.06
496.442	92.06
496.66	97.06
496.877	93.06
497.094	100.06
497.312	85.06
497.529	88.06
497.746	95.06
497.963	95.06
498.181	100.06
498.398	104.06
498.615	105.06
498.832	102.06
499.049	99.06
499.267	95.06
499.484	91.06
499.701	89.06
499.918	91.06
500.135	90.06
500.352	98.06
500.569	80.06
500.786	93.06
501.003	93.06
501.22	99.06
501.437	91.06
501.654	79.06
501.871	98.06
502.088	84.06
502.305	90.06
502.522	81.06
502.739	103.06
502.956	102.06
503.172	100.06
503.389	97.06
503.606	97.06
503.823	97.06
504.04	89.06
504.256	105.06
504.473	82.06
504.69	91.06
504.907	87.06
505.123	87.06
505.34	90.06
505.557	105.06
505.773	95.06
505.99	97.06
506.207	88.06
506.423	86.06
506.64	96.06
506.856	111.06
507.073	95.06
507.289	100.06
507.506	107.06
507.722	98.06
507.939	121.06
508.155	109.06
508.372	99.06
508.588	93.06
508.805	101.06
509.021	100.06
509.238	108.06
509.454	103.06
509.67	101.06
509.887	100.06
510.103	133.06
510.319	223.06
510.536	716.06
510.752	2253.06
510.968	615.06
511.184	159.06
511.401	109.06
511.617	95.06
511.833	108.06
512.049	98.06
512.265	89.06
512.481	92.06
512.698	91.06
512.914	93.06
513.13	83.06
513.346	102.06
513.562	86.06
513.778	95.06
513.994	99.06
514.21	94.06
514.426	112.06
