Data from Uncirc_1999_H10_HRD10591_00088.txt Node
Date: Wed Jan 03 11:22:22 EST 2024
User: Yrep
Spectrometer: HR+D1059
Trigger mode: 1
Integration Time (sec): 1.000000E-1
Scans to average: 1
Electric dark correction enabled: true
Nonlinearity correction enabled: false
Boxcar width: 0
XAxis mode: Wavelengths
Number of Pixels in Spectrum: 2048
>>>>>Begin Spectral Data<<<<<
223.165	-15
223.4	-15
223.635	-15
223.869	-16
224.104	-32
224.338	-6
224.573	-3
224.808	-20
225.042	-12
225.277	-13
225.511	-10
225.746	12
225.98	12
226.215	7
226.449	15
226.683	15
226.918	34
227.152	32
227.387	32
227.621	27
227.856	39
228.09	45
228.324	46
228.559	51
228.793	56
229.027	59
229.262	63
229.496	70
229.73	77
229.964	89
230.199	68
230.433	69
230.667	79
230.901	63
231.136	59
231.37	86
231.604	64
231.838	71
232.072	85
232.306	79
232.541	85
232.775	71
233.009	104
233.243	73
233.477	83
233.711	79
233.945	70
234.179	76
234.413	88
234.647	67
234.881	82
235.115	90
235.349	80
235.583	72
235.817	70
236.051	61
236.285	89
236.519	72
236.753	91
236.987	86
237.221	75
237.455	85
237.689	68
237.922	70
238.156	87
238.39	78
238.624	69
238.858	70
239.091	71
239.325	78
239.559	76
239.793	75
240.027	71
240.26	82
240.494	85
240.728	80
240.961	71
241.195	87
241.429	67
241.662	83
241.896	80
242.13	89
242.363	84
242.597	71
242.83	80
243.064	73
243.298	75
243.531	63
243.765	91
243.998	74
244.232	88
244.465	82
244.699	79
244.932	68
245.166	80
245.399	80
245.633	88
245.866	75
246.099	81
246.333	72
246.566	75
246.8	79
247.033	75
247.266	71
247.5	85
247.733	87
247.966	84
248.2	85
248.433	91
248.666	88
248.899	74
249.133	89
249.366	79
249.599	89
249.832	73
250.066	69
250.299	79
250.532	78
250.765	79
250.998	89
251.231	80
251.465	80
251.698	68
251.931	59
252.164	67
252.397	75
252.63	68
252.863	85
253.096	89
253.329	75
253.562	89
253.795	80
254.028	74
254.261	78
254.494	90
254.727	77
254.96	86
255.193	85
255.426	86
255.659	73
255.892	85
256.124	79
256.357	74
256.59	80
256.823	75
257.056	71
257.289	80
257.521	86
257.754	83
257.987	88
258.22	91
258.452	83
258.685	76
258.918	81
259.151	82
259.383	80
259.616	57
259.849	88
260.081	89
260.314	87
260.547	79
260.779	79
261.012	74
261.244	84
261.477	89
261.71	87
261.942	110
262.175	107
262.407	82
262.64	87
262.872	95
263.105	79
263.337	89
263.57	96
263.802	77
264.035	85
264.267	71
264.499	80
264.732	89
264.964	94
265.197	80
265.429	79
265.661	86
265.894	80
266.126	87
266.358	87
266.591	79
266.823	80
267.055	87
267.287	95
267.52	78
267.752	81
267.984	77
268.216	78
268.448	86
268.681	95
268.913	89
269.145	82
269.377	84
269.609	77
269.841	85
270.073	90
270.306	85
270.538	80
270.77	83
271.002	74
271.234	68
271.466	86
271.698	83
271.93	96
272.162	87
272.394	88
272.626	87
272.858	79
273.09	80
273.322	83
273.553	79
273.785	77
274.017	92
274.249	85
274.481	79
274.713	80
274.945	92
275.176	90
275.408	100
275.64	105
275.872	102
276.104	103
276.335	85
276.567	97
276.799	94
277.031	97
277.262	91
277.494	74
277.726	76
277.957	87
278.189	83
278.421	83
278.652	81
278.884	71
279.115	79
279.347	65
279.579	83
279.81	85
280.042	85
280.273	72
280.505	101
280.736	84
280.968	88
281.199	93
281.431	83
281.662	81
281.894	99
282.125	89
282.356	108
282.588	135
282.819	110
283.051	94
283.282	94
283.513	85
283.745	79
283.976	92
284.207	83
284.439	86
284.67	94
284.901	89
285.132	77
285.364	84
285.595	83
285.826	88
286.057	85
286.288	77
286.52	93
286.751	83
286.982	87
287.213	72
287.444	79
287.675	75
287.906	89
288.138	78
288.369	81
288.6	79
288.831	75
289.062	93
289.293	96
289.524	87
289.755	67
289.986	66
290.217	91
290.448	73
290.679	86
290.91	91
291.141	86
291.371	87
291.602	86
291.833	75
292.064	81
292.295	79
292.526	86
292.757	96
292.987	87
293.218	89
293.449	79
293.68	80
293.91	67
294.141	99
294.372	96
294.603	84
294.833	72
295.064	80
295.295	76
295.525	79
295.756	95
295.987	113
296.217	136
296.448	120
296.679	106
296.909	81
297.14	95
297.37	92
297.601	80
297.831	97
298.062	101
298.292	91
298.523	89
298.753	92
298.984	96
299.214	78
299.445	96
299.675	83
299.905	84
300.136	103
300.366	88
300.597	90
300.827	102
301.057	97
301.288	94
301.518	96
301.748	82
301.979	97
302.209	84
302.439	63
302.669	85
302.9	76
303.13	96
303.36	89
303.59	117
303.82	113
304.051	87
304.281	85
304.511	92
304.741	90
304.971	84
305.201	87
305.431	105
305.661	80
305.891	84
306.121	83
306.352	95
306.582	77
306.812	93
307.042	101
307.272	93
307.502	93
307.731	105
307.961	96
308.191	80
308.421	97
308.651	85
308.881	87
309.111	91
309.341	95
309.571	103
309.8	90
310.03	101
310.26	80
310.49	81
310.72	90
310.949	109
311.179	95
311.409	97
311.639	95
311.868	87
312.098	93
312.328	104
312.557	102
312.787	94
313.017	102
313.246	97
313.476	99
313.706	93
313.935	89
314.165	110
314.394	114
314.624	110
314.853	86
315.083	89
315.312	87
315.542	86
315.771	101
316.001	87
316.23	84
316.46	84
316.689	87
316.919	102
317.148	79
317.377	92
317.607	101
317.836	103
318.065	93
318.295	89
318.524	90
318.753	89
318.983	96
319.212	93
319.441	91
319.67	118
319.9	100
320.129	83
320.358	106
320.587	96
320.816	87
321.046	101
321.275	88
321.504	97
321.733	96
321.962	95
322.191	104
322.42	115
322.649	111
322.878	107
323.108	107
323.337	113
323.566	135
323.795	135
324.024	204
324.253	431
324.482	939
324.71	1910
324.939	2477
325.168	875
325.397	257
325.626	155
325.855	132
326.084	145
326.313	134
326.542	164
326.77	249
326.999	512
327.228	1073
327.457	1995
327.686	1531
327.914	392
328.143	189
328.372	139
328.6	118
328.829	104
329.058	120
329.287	121
329.515	103
329.744	102
329.972	98
330.201	102
330.43	122
330.658	115
330.887	122
331.115	122
331.344	107
331.572	101
331.801	105
332.03	91
332.258	99
332.486	88
332.715	101
332.943	110
333.172	81
333.4	102
333.629	110
333.857	103
334.085	112
334.314	104
334.542	101
334.771	95
334.999	94
335.227	104
335.455	94
335.684	85
335.912	110
336.14	84
336.369	101
336.597	77
336.825	88
337.053	92
337.281	96
337.51	97
337.738	101
337.966	91
338.194	88
338.422	99
338.65	101
338.878	95
339.106	102
339.334	88
339.562	105
339.79	88
340.018	79
340.246	86
340.474	76
340.702	84
340.93	107
341.158	101
341.386	98
341.614	96
341.842	90
342.07	104
342.298	97
342.526	86
342.754	93
342.981	83
343.209	95
343.437	106
343.665	84
343.893	92
344.12	85
344.348	96
344.576	90
344.804	80
345.031	105
345.259	81
345.487	86
345.714	102
345.942	97
346.17	89
346.397	87
346.625	88
346.853	112
347.08	95
347.308	88
347.535	80
347.763	91
347.99	83
348.218	100
348.445	93
348.673	85
348.9	94
349.128	109
349.355	91
349.583	83
349.81	90
350.037	88
350.265	98
350.492	97
350.72	90
350.947	107
351.174	102
351.402	89
351.629	96
351.856	101
352.083	93
352.311	96
352.538	91
352.765	108
352.992	105
353.22	101
353.447	96
353.674	105
353.901	100
354.128	107
354.355	89
354.583	93
354.81	94
355.037	83
355.264	101
355.491	107
355.718	94
355.945	112
356.172	93
356.399	103
356.626	91
356.853	108
357.08	97
357.307	96
357.534	97
357.761	95
357.988	90
358.215	92
358.441	88
358.668	82
358.895	101
359.122	86
359.349	103
359.576	105
359.802	94
360.029	100
360.256	103
360.483	111
360.709	84
360.936	89
361.163	94
361.39	86
361.616	101
361.843	69
362.07	91
362.296	81
362.523	84
362.749	86
362.976	85
363.203	89
363.429	93
363.656	90
363.882	101
364.109	93
364.335	89
364.562	88
364.788	88
365.015	86
365.241	94
365.468	103
365.694	89
365.92	79
366.147	88
366.373	79
366.599	75
366.826	78
367.052	97
367.278	86
367.505	92
367.731	84
367.957	103
368.184	90
368.41	97
368.636	101
368.862	100
369.089	92
369.315	93
369.541	109
369.767	96
369.993	84
370.219	85
370.445	82
370.672	85
370.898	73
371.124	73
371.35	93
371.576	105
371.802	102
372.028	85
372.254	91
372.48	89
372.706	101
372.932	75
373.158	95
373.384	94
373.61	93
373.835	92
374.061	87
374.287	81
374.513	99
374.739	95
374.965	86
375.191	94
375.416	88
375.642	77
375.868	88
376.094	87
376.319	93
376.545	80
376.771	90
376.997	92
377.222	91
377.448	92
377.674	71
377.899	95
378.125	87
378.35	94
378.576	104
378.802	88
379.027	89
379.253	101
379.478	101
379.704	90
379.929	93
380.155	89
380.38	87
380.606	93
380.831	81
381.057	94
381.282	96
381.507	97
381.733	101
381.958	91
382.184	95
382.409	113
382.634	103
382.86	102
383.085	108
383.31	99
383.535	108
383.761	91
383.986	83
384.211	81
384.436	100
384.662	88
384.887	114
385.112	111
385.337	93
385.562	115
385.787	110
386.013	115
386.238	107
386.463	106
386.688	107
386.913	110
387.138	118
387.363	96
387.588	92
387.813	92
388.038	96
388.263	123
388.488	108
388.713	104
388.938	113
389.163	91
389.387	84
389.612	98
389.837	89
390.062	81
390.287	89
390.512	99
390.736	90
390.961	88
391.186	101
391.411	97
391.636	98
391.86	96
392.085	82
392.31	86
392.534	84
392.759	89
392.984	85
393.208	90
393.433	81
393.658	87
393.882	84
394.107	89
394.331	101
394.556	82
394.78	93
395.005	88
395.229	89
395.454	80
395.678	100
395.903	94
396.127	78
396.352	76
396.576	92
396.801	91
397.025	95
397.249	87
397.474	98
397.698	94
397.922	95
398.147	93
398.371	87
398.595	103
398.82	86
399.044	79
399.268	97
399.492	83
399.717	87
399.941	88
400.165	96
400.389	99
400.613	90
400.837	90
401.062	93
401.286	90
401.51	83
401.734	96
401.958	116
402.182	114
402.406	152
402.63	111
402.854	100
403.078	79
403.302	80
403.526	99
403.75	90
403.974	84
404.198	99
404.422	83
404.645	104
404.869	94
405.093	97
405.317	92
405.541	104
405.765	89
405.988	110
406.212	168
406.436	217
406.66	137
406.883	99
407.107	86
407.331	96
407.555	87
407.778	93
408.002	79
408.226	90
408.449	88
408.673	93
408.896	102
409.12	89
409.344	93
409.567	99
409.791	78
410.014	94
410.238	93
410.461	94
410.685	90
410.908	100
411.132	108
411.355	95
411.578	89
411.802	99
412.025	96
412.249	80
412.472	96
412.695	70
412.919	92
413.142	84
413.365	86
413.589	78
413.812	83
414.035	99
414.258	102
414.482	92
414.705	85
414.928	91
415.151	109
415.374	101
415.597	99
415.821	85
416.044	104
416.267	97
416.49	82
416.713	89
416.936	91
417.159	96
417.382	86
417.605	93
417.828	94
418.051	85
418.274	97
418.497	83
418.72	92
418.943	87
419.166	103
419.389	84
419.611	89
419.834	102
420.057	99
420.28	85
420.503	78
420.726	75
420.948	92
421.171	94
421.394	94
421.617	83
421.839	85
422.062	103
422.285	99
422.507	96
422.73	110
422.953	84
423.175	90
423.398	86
423.621	86
423.843	91
424.066	91
424.288	80
424.511	97
424.733	89
424.956	97
425.178	101
425.401	107
425.623	97
425.846	93
426.068	88
426.291	79
426.513	81
426.735	82
426.958	91
427.18	112
427.402	139
427.625	151
427.847	127
428.069	104
428.292	85
428.514	85
428.736	80
428.958	75
429.181	83
429.403	87
429.625	87
429.847	88
430.069	78
430.292	86
430.514	83
430.736	75
430.958	81
431.18	80
431.402	78
431.624	71
431.846	94
432.068	94
432.29	84
432.512	76
432.734	75
432.956	84
433.178	106
433.4	105
433.622	88
433.844	86
434.066	79
434.287	89
434.509	102
434.731	89
434.953	90
435.175	75
435.397	96
435.618	101
435.84	99
436.062	104
436.284	104
436.505	111
436.727	83
436.949	87
437.17	99
437.392	100
437.614	89
437.835	116
438.057	92
438.278	111
438.5	99
438.721	116
438.943	100
439.165	94
439.386	97
439.608	90
439.829	97
440.05	114
440.272	125
440.493	103
440.715	86
440.936	84
441.158	86
441.379	92
441.6	94
441.822	108
442.043	101
442.264	101
442.486	91
442.707	95
442.928	99
443.149	114
443.371	136
443.592	105
443.813	105
444.034	112
444.255	95
444.476	92
444.698	97
444.919	87
445.14	128
445.361	116
445.582	113
445.803	129
446.024	122
446.245	153
446.466	106
446.687	97
446.908	91
447.129	85
447.35	95
447.571	89
447.792	75
448.013	96
448.234	108
448.455	87
448.675	108
448.896	127
449.117	88
449.338	111
449.559	120
449.779	118
450	94
450.221	93
450.442	87
450.662	88
450.883	100
451.104	109
451.324	77
451.545	86
451.766	88
451.986	85
452.207	84
452.428	77
452.648	111
452.869	99
453.089	96
453.31	118
453.53	100
453.751	87
453.971	87
454.192	118
454.412	92
454.633	84
454.853	92
455.073	86
455.294	84
455.514	101
455.734	100
455.955	88
456.175	91
456.395	89
456.616	86
456.836	94
457.056	73
457.276	91
457.497	86
457.717	91
457.937	81
458.157	89
458.377	80
458.598	96
458.818	127
459.038	134
459.258	104
459.478	98
459.698	101
459.918	86
460.138	83
460.358	88
460.578	88
460.798	96
461.018	80
461.238	83
461.458	81
461.678	91
461.898	91
462.118	80
462.338	92
462.558	87
462.777	90
462.997	91
463.217	79
463.437	94
463.657	89
463.876	83
464.096	80
464.316	81
464.536	103
464.755	103
464.975	116
465.195	148
465.414	153
465.634	91
465.854	85
466.073	102
466.293	84
466.512	94
466.732	79
466.951	83
467.171	88
467.391	102
467.61	97
467.829	82
468.049	91
468.268	93
468.488	87
468.707	89
468.927	93
469.146	93
469.365	81
469.585	97
469.804	91
470.023	81
470.243	97
470.462	89
470.681	97
470.901	96
471.12	74
471.339	87
471.558	90
471.777	70
471.997	101
472.216	90
472.435	104
472.654	82
472.873	87
473.092	86
473.311	75
473.53	105
473.749	96
473.968	102
474.187	102
474.406	98
474.625	95
474.844	92
475.063	84
475.282	96
475.501	86
475.72	114
475.939	88
476.158	91
476.377	92
476.596	76
476.814	97
477.033	98
477.252	98
477.471	76
477.69	91
477.908	83
478.127	84
478.346	94
478.564	88
478.783	101
479.002	99
479.22	87
479.439	100
479.658	104
479.876	91
480.095	76
480.313	83
480.532	87
480.751	86
480.969	90
481.188	120
481.406	104
481.624	89
481.843	81
482.061	83
482.28	104
482.498	97
482.717	84
482.935	86
483.153	107
483.372	104
483.59	99
483.808	77
484.027	88
484.245	97
484.463	94
484.681	107
484.9	92
485.118	93
485.336	95
485.554	96
485.772	81
485.99	95
486.209	101
486.427	99
486.645	103
486.863	111
487.081	121
487.299	102
487.517	84
487.735	92
487.953	88
488.171	91
488.389	101
488.607	101
488.825	96
489.043	103
489.261	88
489.479	98
489.696	92
489.914	102
490.132	100
490.35	102
490.568	84
490.786	87
491.003	80
491.221	87
491.439	89
491.657	92
491.874	87
492.092	90
492.31	96
492.527	89
492.745	101
492.963	99
493.18	94
493.398	99
493.615	106
493.833	94
494.05	89
494.268	84
494.485	90
494.703	88
494.92	95
495.138	94
495.355	78
495.573	96
495.79	87
496.008	80
496.225	84
496.442	97
496.66	95
496.877	99
497.094	101
497.312	96
497.529	89
497.746	99
497.963	117
498.181	95
498.398	95
498.615	109
498.832	103
499.049	81
499.267	103
499.484	82
499.701	90
499.918	93
500.135	88
500.352	81
500.569	95
500.786	90
501.003	77
501.22	107
501.437	91
501.654	99
501.871	107
502.088	104
502.305	103
502.522	83
502.739	95
502.956	95
503.172	88
503.389	95
503.606	94
503.823	88
504.04	90
504.256	94
504.473	93
504.69	78
504.907	93
505.123	79
505.34	101
505.557	94
505.773	97
505.99	94
506.207	92
506.423	75
506.64	95
506.856	104
507.073	94
507.289	90
507.506	102
507.722	107
507.939	104
508.155	96
508.372	95
508.588	87
508.805	100
509.021	109
509.238	104
509.454	92
509.67	101
509.887	112
510.103	117
510.319	229
510.536	757
510.752	2297
510.968	606
511.184	153
511.401	94
511.617	101
511.833	90
512.049	90
512.265	93
512.481	91
512.698	89
512.914	110
513.13	95
513.346	104
513.562	98
513.778	93
513.994	97
514.21	91
514.426	107
514.642	124
514.858	110
515.074	151
515.29	416
515.506	1326
515.721	493
515.937	151
516.153	123
516.369	95
516.585	92
516.801	86
517.016	77
517.232	97
517.448	97
517.664	91
517.879	81
518.095	95
518.311	85
518.527	79
518.742	98
518.958	102
519.173	94
519.389	92
519.605	95
519.82	104
520.036	105
520.251	132
520.467	97
520.682	107
520.898	91
521.113	118
521.329	135
521.544	207
521.76	523
521.975	2173
522.19	1305
522.406	291
522.621	108
522.836	105
523.052	110
523.267	110
523.482	101
523.698	95
523.913	117
524.128	95
524.343	95
524.559	91
524.774	81
524.989	102
525.204	101
525.419	88
525.634	87
525.849	93
526.064	89
526.28	93
526.495	78
526.71	89
526.925	82
527.14	97
527.355	89
527.57	89
527.785	91
527.999	76
528.214	101
528.429	91
528.644	80
528.859	97
529.074	87
529.289	112
529.503	161
529.718	112
529.933	87
530.148	78
530.363	96
530.577	94
530.792	89
531.007	96
531.221	92
531.436	81
531.651	96
531.865	84
532.08	97
532.295	89
532.509	92
532.724	99
532.938	96
533.153	97
533.367	105
533.582	110
533.796	88
534.011	93
534.225	100
534.44	97
534.654	92
534.868	92
535.083	98
535.297	95
535.511	100
535.726	92
535.94	94
536.154	100
536.369	96
536.583	84
536.797	103
537.011	101
537.225	79
537.44	103
537.654	73
537.868	98
538.082	89
538.296	94
538.51	95
538.724	92
538.938	85
539.153	96
539.367	105
539.581	94
539.795	89
540.009	90
540.222	100
540.436	87
540.65	85
540.864	84
541.078	83
541.292	82
541.506	103
541.72	92
541.934	87
542.147	84
542.361	104
542.575	87
542.789	92
543.002	93
543.216	89
543.43	111
543.644	81
543.857	100
544.071	91
544.285	95
544.498	76
544.712	82
544.925	97
545.139	81
545.352	97
545.566	94
545.779	84
545.993	79
546.206	91
546.42	74
546.633	93
546.847	84
547.06	101
547.274	71
547.487	89
547.7	93
547.914	93
548.127	93
548.34	92
548.554	87
548.767	99
548.98	91
549.193	104
549.407	92
549.62	107
549.833	109
550.046	86
550.259	95
550.473	90
550.686	80
550.899	93
551.112	77
551.325	97
551.538	92
551.751	85
551.964	99
552.177	87
552.39	84
552.603	100
552.816	84
553.029	83
553.242	90
553.455	100
553.667	103
553.88	92
554.093	88
554.306	89
554.519	97
554.732	97
554.944	81
555.157	86
555.37	94
555.583	99
555.795	94
556.008	92
556.221	76
556.433	112
556.646	93
556.859	89
557.071	101
557.284	96
557.496	85
557.709	81
557.921	90
558.134	92
558.346	83
558.559	97
558.771	73
558.984	94
559.196	88
559.409	94
559.621	97
559.833	83
560.046	89
560.258	94
560.47	104
560.683	92
560.895	91
561.107	83
561.32	93
561.532	92
561.744	87
561.956	88
562.168	84
562.381	84
562.593	90
562.805	105
563.017	99
563.229	95
563.441	86
563.653	107
563.865	87
564.077	77
564.289	93
564.501	90
564.713	88
564.925	94
565.137	96
565.349	100
565.561	94
565.773	100
565.985	84
566.197	103
566.408	91
566.62	89
566.832	91
567.044	96
567.255	92
567.467	85
567.679	94
567.891	94
568.102	83
568.314	86
568.526	89
568.737	84
568.949	103
569.161	81
569.372	99
569.584	72
569.795	98
570.007	120
570.218	241
570.43	120
570.641	91
570.853	85
571.064	87
571.276	92
571.487	89
571.698	78
571.91	84
572.121	97
572.333	95
572.544	88
572.755	77
572.966	79
573.178	78
573.389	93
573.6	91
573.811	88
574.023	89
574.234	82
574.445	83
574.656	85
574.867	83
575.078	89
575.289	105
575.501	80
575.712	76
575.923	84
576.134	90
576.345	82
576.556	93
576.767	90
576.978	88
577.188	89
577.399	95
577.61	92
577.821	102
578.032	117
578.243	260
578.454	745
578.665	219
578.875	101
579.086	107
579.297	102
579.508	96
579.718	93
579.929	83
580.14	104
580.35	109
580.561	83
580.772	96
580.982	89
581.193	99
581.403	85
581.614	86
581.825	87
582.035	86
582.246	94
582.456	103
582.667	103
582.877	83
583.087	86
583.298	79
583.508	73
583.719	98
583.929	77
