Data from Uncirc_1999_H10_HRD10591_00039.txt Node
Date: Wed Jan 03 11:22:13 EST 2024
User: Yrep
Spectrometer: HR+D1059
Trigger mode: 1
Integration Time (sec): 1.000000E-1
Scans to average: 1
Electric dark correction enabled: true
Nonlinearity correction enabled: false
Boxcar width: 0
XAxis mode: Wavelengths
Number of Pixels in Spectrum: 2048
>>>>>Begin Spectral Data<<<<<
223.165	-10.75
223.4	-10.75
223.635	-10.75
223.869	-22.75
224.104	-11.75
224.338	-10.75
224.573	-21.75
224.808	-29.75
225.042	-9.75
225.277	-7.75
225.511	-0.75
225.746	-0.75
225.98	9.25
226.215	13.25
226.449	11.25
226.683	26.25
226.918	26.25
227.152	40.25
227.387	28.25
227.621	38.25
227.856	50.25
228.09	39.25
228.324	40.25
228.559	42.25
228.793	58.25
229.027	74.25
229.262	59.25
229.496	79.25
229.73	87.25
229.964	73.25
230.199	82.25
230.433	74.25
230.667	68.25
230.901	73.25
231.136	75.25
231.37	71.25
231.604	80.25
231.838	75.25
232.072	81.25
232.306	82.25
232.541	77.25
232.775	78.25
233.009	68.25
233.243	83.25
233.477	68.25
233.711	74.25
233.945	87.25
234.179	83.25
234.413	82.25
234.647	74.25
234.881	81.25
235.115	63.25
235.349	97.25
235.583	73.25
235.817	83.25
236.051	63.25
236.285	92.25
236.519	52.25
236.753	87.25
236.987	90.25
237.221	82.25
237.455	74.25
237.689	81.25
237.922	70.25
238.156	73.25
238.39	70.25
238.624	75.25
238.858	62.25
239.091	89.25
239.325	83.25
239.559	93.25
239.793	75.25
240.027	72.25
240.26	79.25
240.494	79.25
240.728	62.25
240.961	67.25
241.195	74.25
241.429	86.25
241.662	74.25
241.896	58.25
242.13	74.25
242.363	66.25
242.597	69.25
242.83	73.25
243.064	76.25
243.298	77.25
243.531	71.25
243.765	69.25
243.998	84.25
244.232	71.25
244.465	81.25
244.699	74.25
244.932	90.25
245.166	81.25
245.399	75.25
245.633	78.25
245.866	70.25
246.099	85.25
246.333	65.25
246.566	72.25
246.8	78.25
247.033	84.25
247.266	76.25
247.5	68.25
247.733	68.25
247.966	70.25
248.2	76.25
248.433	73.25
248.666	73.25
248.899	87.25
249.133	106.25
249.366	107.25
249.599	84.25
249.832	80.25
250.066	72.25
250.299	64.25
250.532	71.25
250.765	71.25
250.998	69.25
251.231	83.25
251.465	70.25
251.698	67.25
251.931	61.25
252.164	77.25
252.397	73.25
252.63	86.25
252.863	81.25
253.096	80.25
253.329	98.25
253.562	78.25
253.795	71.25
254.028	68.25
254.261	78.25
254.494	75.25
254.727	89.25
254.96	81.25
255.193	78.25
255.426	89.25
255.659	90.25
255.892	82.25
256.124	80.25
256.357	81.25
256.59	89.25
256.823	87.25
257.056	79.25
257.289	73.25
257.521	78.25
257.754	81.25
257.987	65.25
258.22	73.25
258.452	77.25
258.685	84.25
258.918	73.25
259.151	84.25
259.383	87.25
259.616	85.25
259.849	93.25
260.081	75.25
260.314	77.25
260.547	100.25
260.779	85.25
261.012	83.25
261.244	67.25
261.477	86.25
261.71	89.25
261.942	109.25
262.175	106.25
262.407	94.25
262.64	89.25
262.872	74.25
263.105	89.25
263.337	72.25
263.57	81.25
263.802	95.25
264.035	82.25
264.267	78.25
264.499	86.25
264.732	78.25
264.964	72.25
265.197	74.25
265.429	87.25
265.661	72.25
265.894	70.25
266.126	76.25
266.358	84.25
266.591	92.25
266.823	92.25
267.055	83.25
267.287	74.25
267.52	67.25
267.752	79.25
267.984	74.25
268.216	76.25
268.448	70.25
268.681	80.25
268.913	81.25
269.145	81.25
269.377	81.25
269.609	70.25
269.841	73.25
270.073	76.25
270.306	82.25
270.538	96.25
270.77	77.25
271.002	74.25
271.234	75.25
271.466	83.25
271.698	72.25
271.93	87.25
272.162	77.25
272.394	80.25
272.626	89.25
272.858	85.25
273.09	86.25
273.322	85.25
273.553	72.25
273.785	71.25
274.017	85.25
274.249	82.25
274.481	90.25
274.713	89.25
274.945	77.25
275.176	79.25
275.408	87.25
275.64	85.25
275.872	76.25
276.104	81.25
276.335	90.25
276.567	90.25
276.799	109.25
277.031	95.25
277.262	93.25
277.494	89.25
277.726	79.25
277.957	79.25
278.189	93.25
278.421	85.25
278.652	75.25
278.884	94.25
279.115	93.25
279.347	87.25
279.579	74.25
279.81	70.25
280.042	65.25
280.273	86.25
280.505	76.25
280.736	76.25
280.968	85.25
281.199	80.25
281.431	98.25
281.662	77.25
281.894	86.25
282.125	85.25
282.356	112.25
282.588	137.25
282.819	95.25
283.051	86.25
283.282	83.25
283.513	99.25
283.745	91.25
283.976	77.25
284.207	78.25
284.439	93.25
284.67	84.25
284.901	78.25
285.132	78.25
285.364	72.25
285.595	76.25
285.826	81.25
286.057	71.25
286.288	77.25
286.52	89.25
286.751	90.25
286.982	86.25
287.213	82.25
287.444	94.25
287.675	80.25
287.906	89.25
288.138	74.25
288.369	85.25
288.6	100.25
288.831	83.25
289.062	77.25
289.293	85.25
289.524	88.25
289.755	89.25
289.986	69.25
290.217	92.25
290.448	91.25
290.679	86.25
290.91	87.25
291.141	89.25
291.371	65.25
291.602	71.25
291.833	83.25
292.064	81.25
292.295	78.25
292.526	85.25
292.757	75.25
292.987	77.25
293.218	81.25
293.449	76.25
293.68	84.25
293.91	84.25
294.141	86.25
294.372	75.25
294.603	76.25
294.833	90.25
295.064	89.25
295.295	81.25
295.525	77.25
295.756	84.25
295.987	98.25
296.217	131.25
296.448	124.25
296.679	92.25
296.909	87.25
297.14	84.25
297.37	94.25
297.601	79.25
297.831	93.25
298.062	76.25
298.292	82.25
298.523	91.25
298.753	97.25
298.984	71.25
299.214	89.25
299.445	79.25
299.675	79.25
299.905	106.25
300.136	78.25
300.366	78.25
300.597	88.25
300.827	97.25
301.057	81.25
301.288	95.25
301.518	83.25
301.748	90.25
301.979	81.25
302.209	85.25
302.439	85.25
302.669	86.25
302.9	95.25
303.13	73.25
303.36	95.25
303.59	67.25
303.82	87.25
304.051	95.25
304.281	90.25
304.511	95.25
304.741	87.25
304.971	89.25
305.201	81.25
305.431	95.25
305.661	87.25
305.891	90.25
306.121	89.25
306.352	100.25
306.582	90.25
306.812	95.25
307.042	89.25
307.272	75.25
307.502	87.25
307.731	93.25
307.961	72.25
308.191	85.25
308.421	73.25
308.651	92.25
308.881	86.25
309.111	81.25
309.341	93.25
309.571	84.25
309.8	92.25
310.03	108.25
310.26	87.25
310.49	87.25
310.72	100.25
310.949	90.25
311.179	87.25
311.409	95.25
311.639	86.25
311.868	93.25
312.098	82.25
312.328	99.25
312.557	95.25
312.787	95.25
313.017	98.25
313.246	93.25
313.476	93.25
313.706	83.25
313.935	85.25
314.165	100.25
314.394	97.25
314.624	87.25
314.853	85.25
315.083	85.25
315.312	97.25
315.542	91.25
315.771	78.25
316.001	70.25
316.23	80.25
316.46	80.25
316.689	87.25
316.919	82.25
317.148	91.25
317.377	94.25
317.607	76.25
317.836	83.25
318.065	92.25
318.295	86.25
318.524	90.25
318.753	87.25
318.983	90.25
319.212	81.25
319.441	108.25
319.67	101.25
319.9	92.25
320.129	95.25
320.358	100.25
320.587	76.25
320.816	108.25
321.046	91.25
321.275	103.25
321.504	91.25
321.733	89.25
321.962	90.25
322.191	104.25
322.42	98.25
322.649	103.25
322.878	92.25
323.108	114.25
323.337	126.25
323.566	138.25
323.795	146.25
324.024	206.25
324.253	421.25
324.482	878.25
324.71	1843.25
324.939	2471.25
325.168	867.25
325.397	235.25
325.626	145.25
325.855	137.25
326.084	115.25
326.313	133.25
326.542	149.25
326.77	232.25
326.999	486.25
327.228	1042.25
327.457	1886.25
327.686	1476.25
327.914	379.25
328.143	201.25
328.372	120.25
328.6	111.25
328.829	112.25
329.058	113.25
329.287	132.25
329.515	117.25
329.744	92.25
329.972	95.25
330.201	94.25
330.43	110.25
330.658	111.25
330.887	126.25
331.115	131.25
331.344	99.25
331.572	90.25
331.801	96.25
332.03	101.25
332.258	88.25
332.486	69.25
332.715	91.25
332.943	99.25
333.172	93.25
333.4	77.25
333.629	104.25
333.857	102.25
334.085	99.25
334.314	103.25
334.542	110.25
334.771	93.25
334.999	101.25
335.227	81.25
335.455	99.25
335.684	90.25
335.912	98.25
336.14	87.25
336.369	91.25
336.597	107.25
336.825	98.25
337.053	89.25
337.281	66.25
337.51	95.25
337.738	79.25
337.966	97.25
338.194	89.25
338.422	86.25
338.65	87.25
338.878	89.25
339.106	93.25
339.334	84.25
339.562	85.25
339.79	95.25
340.018	82.25
340.246	79.25
340.474	92.25
340.702	98.25
340.93	78.25
341.158	81.25
341.386	90.25
341.614	87.25
341.842	91.25
342.07	90.25
342.298	101.25
342.526	100.25
342.754	100.25
342.981	93.25
343.209	86.25
343.437	82.25
343.665	92.25
343.893	80.25
344.12	70.25
344.348	84.25
344.576	88.25
344.804	87.25
345.031	90.25
345.259	87.25
345.487	93.25
345.714	92.25
345.942	105.25
346.17	97.25
346.397	90.25
346.625	89.25
346.853	88.25
347.08	84.25
347.308	84.25
347.535	99.25
347.763	97.25
347.99	84.25
348.218	86.25
348.445	74.25
348.673	82.25
348.9	99.25
349.128	110.25
349.355	91.25
349.583	107.25
349.81	95.25
350.037	95.25
350.265	101.25
350.492	84.25
350.72	89.25
350.947	100.25
351.174	95.25
351.402	99.25
351.629	100.25
351.856	81.25
352.083	92.25
352.311	107.25
352.538	101.25
352.765	107.25
352.992	98.25
353.22	110.25
353.447	109.25
353.674	103.25
353.901	91.25
354.128	109.25
354.355	101.25
354.583	102.25
354.81	99.25
355.037	104.25
355.264	101.25
355.491	87.25
355.718	95.25
355.945	86.25
356.172	94.25
356.399	93.25
356.626	94.25
356.853	92.25
357.08	79.25
357.307	87.25
357.534	90.25
357.761	86.25
357.988	86.25
358.215	84.25
358.441	74.25
358.668	94.25
358.895	105.25
359.122	94.25
359.349	90.25
359.576	86.25
359.802	96.25
360.029	97.25
360.256	105.25
360.483	104.25
360.709	93.25
360.936	83.25
361.163	91.25
361.39	78.25
361.616	93.25
361.843	73.25
362.07	83.25
362.296	91.25
362.523	77.25
362.749	90.25
362.976	97.25
363.203	113.25
363.429	77.25
363.656	78.25
363.882	92.25
364.109	87.25
364.335	95.25
364.562	95.25
364.788	84.25
365.015	82.25
365.241	104.25
365.468	114.25
365.694	102.25
365.92	96.25
366.147	95.25
366.373	83.25
366.599	94.25
366.826	82.25
367.052	100.25
367.278	75.25
367.505	74.25
367.731	99.25
367.957	89.25
368.184	92.25
368.41	98.25
368.636	107.25
368.862	102.25
369.089	95.25
369.315	68.25
369.541	79.25
369.767	88.25
369.993	105.25
370.219	93.25
370.445	86.25
370.672	86.25
370.898	81.25
371.124	91.25
371.35	94.25
371.576	89.25
371.802	73.25
372.028	80.25
372.254	82.25
372.48	81.25
372.706	106.25
372.932	84.25
373.158	86.25
373.384	89.25
373.61	90.25
373.835	100.25
374.061	79.25
374.287	84.25
374.513	94.25
374.739	79.25
374.965	72.25
375.191	78.25
375.416	84.25
375.642	84.25
375.868	103.25
376.094	83.25
376.319	89.25
376.545	96.25
376.771	90.25
376.997	88.25
377.222	87.25
377.448	85.25
377.674	90.25
377.899	78.25
378.125	85.25
378.35	89.25
378.576	92.25
378.802	92.25
379.027	96.25
379.253	85.25
379.478	84.25
379.704	85.25
379.929	88.25
380.155	85.25
380.38	93.25
380.606	88.25
380.831	105.25
381.057	106.25
381.282	82.25
381.507	98.25
381.733	91.25
381.958	83.25
382.184	95.25
382.409	92.25
382.634	113.25
382.86	101.25
383.085	113.25
383.31	104.25
383.535	103.25
383.761	96.25
383.986	103.25
384.211	100.25
384.436	110.25
384.662	103.25
384.887	109.25
385.112	99.25
385.337	97.25
385.562	95.25
385.787	112.25
386.013	94.25
386.238	121.25
386.463	116.25
386.688	106.25
386.913	106.25
387.138	101.25
387.363	114.25
387.588	85.25
387.813	94.25
388.038	109.25
388.263	120.25
388.488	103.25
388.713	95.25
388.938	109.25
389.163	98.25
389.387	88.25
389.612	92.25
389.837	83.25
390.062	97.25
390.287	93.25
390.512	86.25
390.736	90.25
390.961	91.25
391.186	95.25
391.411	89.25
391.636	85.25
391.86	87.25
392.085	86.25
392.31	85.25
392.534	92.25
392.759	83.25
392.984	86.25
393.208	105.25
393.433	69.25
393.658	86.25
393.882	87.25
394.107	79.25
394.331	91.25
394.556	76.25
394.78	97.25
395.005	93.25
395.229	83.25
395.454	96.25
395.678	89.25
395.903	99.25
396.127	98.25
396.352	90.25
396.576	85.25
396.801	83.25
397.025	84.25
397.249	82.25
397.474	86.25
397.698	91.25
397.922	57.25
398.147	85.25
398.371	70.25
398.595	70.25
398.82	90.25
399.044	59.25
399.268	75.25
399.492	89.25
399.717	90.25
399.941	81.25
400.165	99.25
400.389	84.25
400.613	77.25
400.837	77.25
401.062	91.25
401.286	89.25
401.51	82.25
401.734	92.25
401.958	100.25
402.182	120.25
402.406	141.25
402.63	109.25
402.854	93.25
403.078	75.25
403.302	80.25
403.526	78.25
403.75	89.25
403.974	87.25
404.198	91.25
404.422	89.25
404.645	87.25
404.869	76.25
405.093	93.25
405.317	78.25
405.541	97.25
405.765	75.25
405.988	120.25
406.212	142.25
406.436	217.25
406.66	133.25
406.883	98.25
407.107	82.25
407.331	89.25
407.555	93.25
407.778	101.25
408.002	94.25
408.226	89.25
408.449	93.25
408.673	91.25
408.896	84.25
409.12	83.25
409.344	81.25
409.567	88.25
409.791	82.25
410.014	94.25
410.238	100.25
410.461	87.25
410.685	93.25
410.908	91.25
411.132	89.25
411.355	92.25
411.578	95.25
411.802	101.25
412.025	81.25
412.249	100.25
412.472	84.25
412.695	93.25
412.919	81.25
413.142	80.25
413.365	83.25
413.589	81.25
413.812	86.25
414.035	94.25
414.258	90.25
414.482	81.25
414.705	81.25
414.928	86.25
415.151	98.25
415.374	87.25
415.597	94.25
415.821	76.25
416.044	86.25
416.267	84.25
416.49	83.25
416.713	83.25
416.936	90.25
417.159	86.25
417.382	99.25
417.605	92.25
417.828	95.25
418.051	88.25
418.274	89.25
418.497	84.25
418.72	92.25
418.943	84.25
419.166	76.25
419.389	79.25
419.611	86.25
419.834	85.25
420.057	88.25
420.28	92.25
420.503	87.25
420.726	90.25
420.948	93.25
421.171	86.25
421.394	78.25
421.617	88.25
421.839	91.25
422.062	94.25
422.285	77.25
422.507	86.25
422.73	87.25
422.953	83.25
423.175	98.25
423.398	91.25
423.621	90.25
423.843	91.25
424.066	84.25
424.288	81.25
424.511	82.25
424.733	92.25
424.956	102.25
425.178	88.25
425.401	105.25
425.623	86.25
425.846	77.25
426.068	79.25
426.291	83.25
426.513	81.25
426.735	97.25
426.958	83.25
427.18	108.25
427.402	133.25
427.625	160.25
427.847	113.25
428.069	103.25
428.292	82.25
428.514	88.25
428.736	90.25
428.958	73.25
429.181	75.25
429.403	76.25
429.625	78.25
429.847	98.25
430.069	77.25
430.292	86.25
430.514	84.25
430.736	82.25
430.958	83.25
431.18	76.25
431.402	104.25
431.624	72.25
431.846	80.25
432.068	90.25
432.29	76.25
432.512	85.25
432.734	70.25
432.956	72.25
433.178	86.25
433.4	103.25
433.622	87.25
433.844	92.25
434.066	90.25
434.287	95.25
434.509	84.25
434.731	94.25
434.953	86.25
435.175	95.25
435.397	88.25
435.618	86.25
435.84	89.25
436.062	117.25
436.284	110.25
436.505	85.25
436.727	87.25
436.949	78.25
437.17	79.25
437.392	94.25
437.614	81.25
437.835	98.25
438.057	112.25
438.278	97.25
438.5	94.25
438.721	105.25
438.943	90.25
439.165	79.25
439.386	92.25
439.608	88.25
439.829	89.25
440.05	111.25
440.272	128.25
440.493	87.25
440.715	81.25
440.936	86.25
441.158	86.25
441.379	95.25
441.6	87.25
441.822	91.25
442.043	99.25
442.264	106.25
442.486	93.25
442.707	96.25
442.928	106.25
443.149	111.25
443.371	129.25
443.592	107.25
443.813	108.25
444.034	94.25
444.255	97.25
444.476	97.25
444.698	85.25
444.919	92.25
445.14	122.25
445.361	130.25
445.582	114.25
445.803	135.25
446.024	115.25
446.245	119.25
446.466	91.25
446.687	85.25
446.908	72.25
447.129	95.25
447.35	83.25
447.571	87.25
447.792	102.25
448.013	90.25
448.234	108.25
448.455	89.25
448.675	111.25
448.896	113.25
449.117	98.25
449.338	96.25
449.559	128.25
449.779	131.25
450	88.25
450.221	69.25
450.442	86.25
450.662	98.25
450.883	92.25
451.104	99.25
451.324	90.25
451.545	81.25
451.766	97.25
451.986	75.25
452.207	77.25
452.428	81.25
452.648	106.25
452.869	116.25
453.089	101.25
453.31	113.25
453.53	95.25
453.751	90.25
453.971	95.25
454.192	105.25
454.412	107.25
454.633	94.25
454.853	86.25
455.073	78.25
455.294	86.25
455.514	103.25
455.734	91.25
455.955	69.25
456.175	78.25
456.395	85.25
456.616	77.25
456.836	92.25
457.056	92.25
457.276	93.25
457.497	81.25
457.717	97.25
457.937	100.25
458.157	78.25
458.377	89.25
458.598	98.25
458.818	126.25
459.038	130.25
459.258	83.25
459.478	74.25
459.698	78.25
459.918	89.25
460.138	59.25
460.358	66.25
460.578	83.25
460.798	86.25
461.018	77.25
461.238	86.25
461.458	76.25
461.678	84.25
461.898	77.25
462.118	97.25
462.338	84.25
462.558	91.25
462.777	89.25
462.997	74.25
463.217	84.25
463.437	74.25
463.657	81.25
463.876	99.25
464.096	90.25
464.316	82.25
464.536	77.25
464.755	84.25
464.975	104.25
465.195	150.25
465.414	157.25
465.634	91.25
465.854	83.25
466.073	86.25
466.293	84.25
466.512	85.25
466.732	99.25
466.951	98.25
467.171	92.25
467.391	77.25
467.61	101.25
467.829	96.25
468.049	94.25
468.268	89.25
468.488	92.25
468.707	89.25
468.927	77.25
469.146	83.25
469.365	73.25
469.585	78.25
469.804	106.25
470.023	88.25
470.243	80.25
470.462	94.25
470.681	95.25
470.901	94.25
471.12	95.25
471.339	94.25
471.558	92.25
471.777	95.25
471.997	89.25
472.216	86.25
472.435	82.25
472.654	103.25
472.873	85.25
473.092	94.25
473.311	83.25
473.53	90.25
473.749	77.25
473.968	91.25
474.187	107.25
474.406	114.25
474.625	84.25
474.844	68.25
475.063	81.25
475.282	90.25
475.501	80.25
475.72	89.25
475.939	94.25
476.158	84.25
476.377	90.25
476.596	88.25
476.814	99.25
477.033	83.25
477.252	78.25
477.471	76.25
477.69	84.25
477.908	94.25
478.127	93.25
478.346	93.25
478.564	85.25
478.783	92.25
479.002	83.25
479.22	101.25
479.439	93.25
479.658	105.25
479.876	89.25
480.095	97.25
480.313	94.25
480.532	101.25
480.751	92.25
480.969	95.25
481.188	133.25
481.406	106.25
481.624	92.25
481.843	87.25
482.061	73.25
482.28	74.25
482.498	102.25
482.717	82.25
482.935	92.25
483.153	89.25
483.372	84.25
483.59	87.25
483.808	92.25
484.027	95.25
484.245	95.25
484.463	95.25
484.681	96.25
484.9	90.25
485.118	89.25
485.336	85.25
485.554	113.25
485.772	93.25
485.99	114.25
486.209	102.25
486.427	94.25
486.645	117.25
486.863	98.25
487.081	97.25
487.299	91.25
487.517	94.25
487.735	93.25
487.953	98.25
488.171	110.25
488.389	88.25
488.607	86.25
488.825	85.25
489.043	92.25
489.261	86.25
489.479	88.25
489.696	89.25
489.914	100.25
490.132	95.25
490.35	85.25
490.568	91.25
490.786	83.25
491.003	92.25
491.221	99.25
491.439	90.25
491.657	92.25
491.874	88.25
492.092	83.25
492.31	75.25
492.527	85.25
492.745	92.25
492.963	92.25
493.18	85.25
493.398	78.25
493.615	92.25
493.833	72.25
494.05	81.25
494.268	105.25
494.485	84.25
494.703	81.25
494.92	88.25
495.138	85.25
495.355	95.25
495.573	87.25
495.79	92.25
496.008	93.25
496.225	91.25
496.442	94.25
496.66	83.25
496.877	95.25
497.094	100.25
497.312	86.25
497.529	97.25
497.746	82.25
497.963	78.25
498.181	91.25
498.398	92.25
498.615	87.25
498.832	84.25
499.049	103.25
499.267	82.25
499.484	83.25
499.701	87.25
499.918	88.25
500.135	98.25
500.352	100.25
500.569	94.25
500.786	89.25
501.003	97.25
501.22	89.25
501.437	79.25
501.654	87.25
501.871	117.25
502.088	90.25
502.305	92.25
502.522	89.25
502.739	101.25
502.956	91.25
503.172	89.25
503.389	91.25
503.606	109.25
503.823	103.25
504.04	81.25
504.256	90.25
504.473	89.25
504.69	88.25
504.907	88.25
505.123	83.25
505.34	92.25
505.557	97.25
505.773	87.25
505.99	88.25
506.207	72.25
506.423	79.25
506.64	78.25
506.856	98.25
507.073	85.25
507.289	89.25
507.506	103.25
507.722	102.25
507.939	107.25
508.155	95.25
508.372	107.25
508.588	88.25
508.805	110.25
509.021	88.25
509.238	87.25
509.454	83.25
509.67	105.25
509.887	124.25
510.103	126.25
510.319	209.25
510.536	731.25
510.752	2231.25
510.968	634.25
511.184	161.25
511.401	104.25
511.617	106.25
511.833	94.25
512.049	99.25
512.265	87.25
512.481	74.25
512.698	84.25
512.914	88.25
513.13	106.25
513.346	85.25
513.562	88.25
513.778	97.25
513.994	97.25
514.21	107.25
514.426	111.25
514.642	121.25
514.858	114.25
515.074	157.25
515.29	416.25
515.506	1289.25
515.721	483.25
515.937	145.25
516.153	104.25
516.369	107.25
516.585	91.25
516.801	68.25
