Data from Uncirc_1999_H10_HRD10591_00017.txt Node
Date: Wed Jan 03 11:22:08 EST 2024
User: Yrep
Spectrometer: HR+D1059
Trigger mode: 1
Integration Time (sec): 1.000000E-1
Scans to average: 1
Electric dark correction enabled: true
Nonlinearity correction enabled: false
Boxcar width: 0
XAxis mode: Wavelengths
Number of Pixels in Spectrum: 2048
>>>>>Begin Spectral Data<<<<<
223.165	-20.56
223.4	-20.56
223.635	-20.56
223.869	-15.56
224.104	0.44
224.338	-2.56
224.573	-22.56
224.808	-15.56
225.042	-7.56
225.277	4.44
225.511	-8.56
225.746	-10.56
225.98	6.44
226.215	8.44
226.449	5.44
226.683	23.44
226.918	27.44
227.152	27.44
227.387	35.44
227.621	30.44
227.856	42.44
228.09	41.44
228.324	52.44
228.559	61.44
228.793	64.44
229.027	59.44
229.262	75.44
229.496	75.44
229.73	89.44
229.964	64.44
230.199	65.44
230.433	84.44
230.667	88.44
230.901	91.44
231.136	75.44
231.37	87.44
231.604	92.44
231.838	69.44
232.072	76.44
232.306	79.44
232.541	92.44
232.775	85.44
233.009	84.44
233.243	73.44
233.477	92.44
233.711	75.44
233.945	75.44
234.179	85.44
234.413	81.44
234.647	88.44
234.881	93.44
235.115	82.44
235.349	92.44
235.583	89.44
235.817	67.44
236.051	64.44
236.285	75.44
236.519	73.44
236.753	76.44
236.987	73.44
237.221	67.44
237.455	73.44
237.689	73.44
237.922	93.44
238.156	65.44
238.39	79.44
238.624	84.44
238.858	85.44
239.091	83.44
239.325	82.44
239.559	67.44
239.793	81.44
240.027	79.44
240.26	77.44
240.494	72.44
240.728	76.44
240.961	68.44
241.195	85.44
241.429	83.44
241.662	87.44
241.896	87.44
242.13	68.44
242.363	65.44
242.597	78.44
242.83	87.44
243.064	59.44
243.298	89.44
243.531	83.44
243.765	80.44
243.998	80.44
244.232	76.44
244.465	77.44
244.699	81.44
244.932	81.44
245.166	90.44
245.399	86.44
245.633	101.44
245.866	81.44
246.099	69.44
246.333	71.44
246.566	81.44
246.8	70.44
247.033	83.44
247.266	75.44
247.5	95.44
247.733	76.44
247.966	84.44
248.2	83.44
248.433	82.44
248.666	74.44
248.899	79.44
249.133	83.44
249.366	106.44
249.599	98.44
249.832	86.44
250.066	76.44
250.299	80.44
250.532	78.44
250.765	75.44
250.998	82.44
251.231	90.44
251.465	85.44
251.698	82.44
251.931	84.44
252.164	95.44
252.397	71.44
252.63	93.44
252.863	87.44
253.096	98.44
253.329	101.44
253.562	77.44
253.795	81.44
254.028	87.44
254.261	73.44
254.494	81.44
254.727	97.44
254.96	77.44
255.193	82.44
255.426	73.44
255.659	64.44
255.892	73.44
256.124	91.44
256.357	73.44
256.59	81.44
256.823	79.44
257.056	72.44
257.289	83.44
257.521	82.44
257.754	79.44
257.987	73.44
258.22	88.44
258.452	91.44
258.685	89.44
258.918	82.44
259.151	79.44
259.383	83.44
259.616	91.44
259.849	72.44
260.081	88.44
260.314	82.44
260.547	83.44
260.779	79.44
261.012	85.44
261.244	81.44
261.477	99.44
261.71	99.44
261.942	114.44
262.175	111.44
262.407	97.44
262.64	80.44
262.872	85.44
263.105	77.44
263.337	83.44
263.57	75.44
263.802	97.44
264.035	75.44
264.267	88.44
264.499	91.44
264.732	93.44
264.964	72.44
265.197	97.44
265.429	95.44
265.661	83.44
265.894	96.44
266.126	84.44
266.358	97.44
266.591	84.44
266.823	85.44
267.055	91.44
267.287	87.44
267.52	100.44
267.752	93.44
267.984	88.44
268.216	84.44
268.448	76.44
268.681	84.44
268.913	83.44
269.145	80.44
269.377	106.44
269.609	91.44
269.841	75.44
270.073	95.44
270.306	91.44
270.538	76.44
270.77	81.44
271.002	84.44
271.234	76.44
271.466	90.44
271.698	81.44
271.93	91.44
272.162	94.44
272.394	93.44
272.626	78.44
272.858	73.44
273.09	104.44
273.322	76.44
273.553	87.44
273.785	89.44
274.017	92.44
274.249	93.44
274.481	82.44
274.713	94.44
274.945	99.44
275.176	96.44
275.408	75.44
275.64	76.44
275.872	77.44
276.104	96.44
276.335	87.44
276.567	100.44
276.799	107.44
277.031	111.44
277.262	85.44
277.494	76.44
277.726	92.44
277.957	78.44
278.189	97.44
278.421	82.44
278.652	88.44
278.884	85.44
279.115	87.44
279.347	92.44
279.579	96.44
279.81	87.44
280.042	92.44
280.273	88.44
280.505	85.44
280.736	95.44
280.968	88.44
281.199	103.44
281.431	83.44
281.662	97.44
281.894	97.44
282.125	95.44
282.356	100.44
282.588	119.44
282.819	107.44
283.051	97.44
283.282	94.44
283.513	95.44
283.745	100.44
283.976	98.44
284.207	88.44
284.439	84.44
284.67	90.44
284.901	101.44
285.132	95.44
285.364	93.44
285.595	79.44
285.826	88.44
286.057	86.44
286.288	84.44
286.52	92.44
286.751	99.44
286.982	93.44
287.213	83.44
287.444	96.44
287.675	86.44
287.906	103.44
288.138	88.44
288.369	96.44
288.6	101.44
288.831	94.44
289.062	78.44
289.293	99.44
289.524	82.44
289.755	91.44
289.986	85.44
290.217	87.44
290.448	89.44
290.679	87.44
290.91	82.44
291.141	95.44
291.371	93.44
291.602	92.44
291.833	93.44
292.064	85.44
292.295	92.44
292.526	86.44
292.757	77.44
292.987	86.44
293.218	86.44
293.449	92.44
293.68	83.44
293.91	97.44
294.141	95.44
294.372	76.44
294.603	85.44
294.833	98.44
295.064	99.44
295.295	91.44
295.525	94.44
295.756	103.44
295.987	110.44
296.217	135.44
296.448	112.44
296.679	80.44
296.909	85.44
297.14	103.44
297.37	95.44
297.601	98.44
297.831	92.44
298.062	76.44
298.292	95.44
298.523	103.44
298.753	100.44
298.984	87.44
299.214	92.44
299.445	89.44
299.675	88.44
299.905	95.44
300.136	98.44
300.366	84.44
300.597	89.44
300.827	84.44
301.057	92.44
301.288	104.44
301.518	96.44
301.748	79.44
301.979	100.44
302.209	88.44
302.439	110.44
302.669	99.44
302.9	100.44
303.13	92.44
303.36	79.44
303.59	100.44
303.82	108.44
304.051	102.44
304.281	82.44
304.511	96.44
304.741	104.44
304.971	113.44
305.201	79.44
305.431	98.44
305.661	85.44
305.891	111.44
306.121	93.44
306.352	94.44
306.582	107.44
306.812	82.44
307.042	92.44
307.272	92.44
307.502	94.44
307.731	93.44
307.961	87.44
308.191	90.44
308.421	104.44
308.651	88.44
308.881	90.44
309.111	79.44
309.341	91.44
309.571	98.44
309.8	103.44
310.03	84.44
310.26	105.44
310.49	114.44
310.72	83.44
310.949	96.44
311.179	99.44
311.409	102.44
311.639	92.44
311.868	90.44
312.098	95.44
312.328	104.44
312.557	100.44
312.787	104.44
313.017	89.44
313.246	98.44
313.476	90.44
313.706	108.44
313.935	113.44
314.165	102.44
314.394	98.44
314.624	110.44
314.853	100.44
315.083	89.44
315.312	96.44
315.542	91.44
315.771	97.44
316.001	99.44
316.23	93.44
316.46	104.44
316.689	100.44
316.919	90.44
317.148	85.44
317.377	94.44
317.607	100.44
317.836	100.44
318.065	97.44
318.295	100.44
318.524	101.44
318.753	89.44
318.983	92.44
319.212	106.44
319.441	100.44
319.67	101.44
319.9	100.44
320.129	88.44
320.358	86.44
320.587	90.44
320.816	94.44
321.046	93.44
321.275	101.44
321.504	92.44
321.733	100.44
321.962	103.44
322.191	114.44
322.42	102.44
322.649	109.44
322.878	127.44
323.108	121.44
323.337	120.44
323.566	127.44
323.795	156.44
324.024	207.44
324.253	396.44
324.482	811.44
324.71	1655.44
324.939	2197.44
325.168	801.44
325.397	229.44
325.626	160.44
325.855	133.44
326.084	131.44
326.313	130.44
326.542	158.44
326.77	236.44
326.999	437.44
327.228	956.44
327.457	1721.44
327.686	1323.44
327.914	347.44
328.143	199.44
328.372	145.44
328.6	109.44
328.829	95.44
329.058	109.44
329.287	127.44
329.515	108.44
329.744	106.44
329.972	100.44
330.201	115.44
330.43	115.44
330.658	96.44
330.887	118.44
331.115	114.44
331.344	116.44
331.572	115.44
331.801	111.44
332.03	93.44
332.258	99.44
332.486	108.44
332.715	94.44
332.943	90.44
333.172	92.44
333.4	96.44
333.629	108.44
333.857	102.44
334.085	101.44
334.314	97.44
334.542	103.44
334.771	106.44
334.999	93.44
335.227	98.44
335.455	93.44
335.684	100.44
335.912	98.44
336.14	91.44
336.369	93.44
336.597	97.44
336.825	92.44
337.053	98.44
337.281	92.44
337.51	85.44
337.738	95.44
337.966	87.44
338.194	83.44
338.422	98.44
338.65	83.44
338.878	94.44
339.106	87.44
339.334	83.44
339.562	116.44
339.79	78.44
340.018	77.44
340.246	96.44
340.474	83.44
340.702	92.44
340.93	89.44
341.158	89.44
341.386	88.44
341.614	91.44
341.842	105.44
342.07	97.44
342.298	87.44
342.526	95.44
342.754	75.44
342.981	87.44
343.209	104.44
343.437	122.44
343.665	98.44
343.893	104.44
344.12	103.44
344.348	94.44
344.576	89.44
344.804	90.44
345.031	94.44
345.259	100.44
345.487	94.44
345.714	95.44
345.942	104.44
346.17	83.44
346.397	89.44
346.625	99.44
346.853	87.44
347.08	100.44
347.308	97.44
347.535	93.44
347.763	100.44
347.99	95.44
348.218	103.44
348.445	96.44
348.673	105.44
348.9	85.44
349.128	101.44
349.355	105.44
349.583	91.44
349.81	88.44
350.037	106.44
350.265	96.44
350.492	105.44
350.72	93.44
350.947	97.44
351.174	109.44
351.402	117.44
351.629	113.44
351.856	111.44
352.083	119.44
352.311	107.44
352.538	102.44
352.765	106.44
352.992	113.44
353.22	113.44
353.447	97.44
353.674	96.44
353.901	106.44
354.128	117.44
354.355	100.44
354.583	104.44
354.81	98.44
355.037	97.44
355.264	99.44
355.491	98.44
355.718	95.44
355.945	102.44
356.172	109.44
356.399	92.44
356.626	99.44
356.853	97.44
357.08	97.44
357.307	90.44
357.534	94.44
357.761	108.44
357.988	102.44
358.215	97.44
358.441	112.44
358.668	101.44
358.895	114.44
359.122	100.44
359.349	88.44
359.576	97.44
359.802	120.44
360.029	113.44
360.256	111.44
360.483	93.44
360.709	101.44
360.936	101.44
361.163	85.44
361.39	87.44
361.616	103.44
361.843	106.44
362.07	94.44
362.296	96.44
362.523	103.44
362.749	99.44
362.976	102.44
363.203	113.44
363.429	84.44
363.656	84.44
363.882	90.44
364.109	85.44
364.335	85.44
364.562	100.44
364.788	87.44
365.015	103.44
365.241	102.44
365.468	95.44
365.694	119.44
365.92	90.44
366.147	79.44
366.373	88.44
366.599	94.44
366.826	79.44
367.052	96.44
367.278	95.44
367.505	91.44
367.731	94.44
367.957	96.44
368.184	101.44
368.41	98.44
368.636	116.44
368.862	126.44
369.089	98.44
369.315	111.44
369.541	98.44
369.767	99.44
369.993	91.44
370.219	87.44
370.445	88.44
370.672	81.44
370.898	95.44
371.124	91.44
371.35	90.44
371.576	87.44
371.802	79.44
372.028	97.44
372.254	95.44
372.48	97.44
372.706	89.44
372.932	101.44
373.158	107.44
373.384	74.44
373.61	102.44
373.835	97.44
374.061	99.44
374.287	98.44
374.513	95.44
374.739	101.44
374.965	94.44
375.191	91.44
375.416	95.44
375.642	95.44
375.868	97.44
376.094	89.44
376.319	91.44
376.545	101.44
376.771	92.44
376.997	102.44
377.222	98.44
377.448	91.44
377.674	103.44
377.899	114.44
378.125	100.44
378.35	112.44
378.576	81.44
378.802	94.44
379.027	91.44
379.253	105.44
379.478	95.44
379.704	85.44
379.929	104.44
380.155	105.44
380.38	101.44
380.606	92.44
380.831	104.44
381.057	93.44
381.282	113.44
381.507	95.44
381.733	113.44
381.958	100.44
382.184	124.44
382.409	120.44
382.634	120.44
382.86	96.44
383.085	121.44
383.31	120.44
383.535	120.44
383.761	128.44
383.986	114.44
384.211	100.44
384.436	119.44
384.662	119.44
384.887	109.44
385.112	127.44
385.337	126.44
385.562	139.44
385.787	126.44
386.013	131.44
386.238	157.44
386.463	126.44
386.688	128.44
386.913	119.44
387.138	122.44
387.363	133.44
387.588	116.44
387.813	110.44
388.038	117.44
388.263	146.44
388.488	132.44
388.713	124.44
388.938	107.44
389.163	101.44
389.387	107.44
389.612	99.44
389.837	99.44
390.062	98.44
390.287	99.44
390.512	89.44
390.736	100.44
390.961	92.44
391.186	106.44
391.411	98.44
391.636	94.44
391.86	97.44
392.085	104.44
392.31	87.44
392.534	89.44
392.759	91.44
392.984	88.44
393.208	89.44
393.433	96.44
393.658	88.44
393.882	81.44
394.107	94.44
394.331	84.44
394.556	91.44
394.78	90.44
395.005	95.44
395.229	95.44
395.454	104.44
395.678	103.44
395.903	74.44
396.127	98.44
396.352	91.44
396.576	88.44
396.801	80.44
397.025	99.44
397.249	92.44
397.474	86.44
397.698	101.44
397.922	75.44
398.147	81.44
398.371	105.44
398.595	91.44
398.82	87.44
399.044	81.44
399.268	91.44
399.492	99.44
399.717	83.44
399.941	108.44
400.165	100.44
400.389	93.44
400.613	95.44
400.837	72.44
401.062	89.44
401.286	98.44
401.51	100.44
401.734	85.44
401.958	91.44
402.182	118.44
402.406	157.44
402.63	121.44
402.854	100.44
403.078	91.44
403.302	93.44
403.526	89.44
403.75	84.44
403.974	96.44
404.198	79.44
404.422	82.44
404.645	92.44
404.869	87.44
405.093	97.44
405.317	108.44
405.541	96.44
405.765	99.44
405.988	100.44
406.212	133.44
406.436	189.44
406.66	126.44
406.883	93.44
407.107	90.44
407.331	103.44
407.555	98.44
407.778	96.44
408.002	97.44
408.226	84.44
408.449	99.44
408.673	113.44
408.896	89.44
409.12	91.44
409.344	95.44
409.567	96.44
409.791	96.44
410.014	104.44
410.238	109.44
410.461	100.44
410.685	96.44
410.908	105.44
411.132	113.44
411.355	97.44
411.578	93.44
411.802	105.44
412.025	100.44
412.249	91.44
412.472	99.44
412.695	85.44
412.919	83.44
413.142	91.44
413.365	98.44
413.589	95.44
413.812	112.44
414.035	112.44
414.258	110.44
414.482	97.44
414.705	110.44
414.928	100.44
415.151	96.44
415.374	101.44
415.597	85.44
415.821	96.44
416.044	101.44
416.267	90.44
416.49	89.44
416.713	82.44
416.936	77.44
417.159	91.44
417.382	89.44
417.605	94.44
417.828	91.44
418.051	96.44
418.274	83.44
418.497	91.44
418.72	101.44
418.943	84.44
419.166	89.44
419.389	96.44
419.611	80.44
419.834	83.44
420.057	93.44
420.28	89.44
420.503	96.44
420.726	88.44
420.948	95.44
421.171	96.44
421.394	102.44
421.617	91.44
421.839	89.44
422.062	81.44
422.285	92.44
422.507	108.44
422.73	119.44
422.953	90.44
423.175	100.44
423.398	92.44
423.621	85.44
423.843	92.44
424.066	105.44
424.288	92.44
424.511	83.44
424.733	103.44
424.956	106.44
425.178	116.44
425.401	103.44
425.623	100.44
425.846	96.44
426.068	94.44
426.291	95.44
426.513	93.44
426.735	95.44
426.958	84.44
427.18	95.44
427.402	120.44
427.625	163.44
427.847	113.44
428.069	97.44
428.292	88.44
428.514	88.44
428.736	92.44
428.958	88.44
429.181	83.44
429.403	90.44
429.625	93.44
429.847	92.44
430.069	108.44
430.292	96.44
430.514	87.44
430.736	83.44
430.958	88.44
431.18	94.44
431.402	100.44
431.624	106.44
431.846	95.44
432.068	83.44
432.29	76.44
432.512	95.44
432.734	81.44
432.956	86.44
433.178	101.44
433.4	110.44
433.622	94.44
433.844	88.44
434.066	89.44
434.287	106.44
434.509	85.44
434.731	81.44
434.953	83.44
435.175	83.44
435.397	82.44
435.618	107.44
435.84	128.44
436.062	121.44
436.284	114.44
436.505	94.44
436.727	100.44
436.949	99.44
437.17	101.44
437.392	90.44
437.614	100.44
437.835	107.44
438.057	110.44
438.278	104.44
438.5	104.44
438.721	114.44
438.943	108.44
439.165	91.44
439.386	97.44
439.608	94.44
439.829	104.44
440.05	122.44
440.272	136.44
440.493	100.44
440.715	96.44
440.936	91.44
441.158	93.44
441.379	94.44
441.6	96.44
441.822	95.44
442.043	83.44
442.264	90.44
442.486	88.44
442.707	98.44
442.928	95.44
443.149	110.44
443.371	111.44
443.592	93.44
443.813	110.44
444.034	120.44
444.255	89.44
444.476	94.44
444.698	82.44
444.919	104.44
445.14	136.44
445.361	126.44
445.582	119.44
445.803	118.44
446.024	131.44
446.245	141.44
446.466	123.44
446.687	98.44
446.908	80.44
447.129	94.44
447.35	87.44
447.571	88.44
447.792	94.44
448.013	100.44
448.234	101.44
448.455	102.44
448.675	116.44
448.896	117.44
449.117	96.44
449.338	114.44
449.559	130.44
449.779	129.44
450	94.44
450.221	87.44
450.442	84.44
450.662	100.44
450.883	99.44
451.104	101.44
451.324	98.44
451.545	104.44
451.766	92.44
451.986	88.44
452.207	96.44
452.428	82.44
452.648	85.44
452.869	104.44
453.089	119.44
453.31	108.44
453.53	99.44
453.751	101.44
453.971	93.44
454.192	112.44
454.412	90.44
454.633	83.44
454.853	90.44
455.073	71.44
455.294	92.44
455.514	95.44
455.734	90.44
455.955	97.44
456.175	89.44
456.395	90.44
456.616	78.44
456.836	82.44
457.056	93.44
457.276	86.44
457.497	89.44
457.717	89.44
457.937	88.44
458.157	76.44
458.377	92.44
458.598	112.44
458.818	135.44
459.038	132.44
459.258	102.44
459.478	90.44
459.698	94.44
459.918	84.44
460.138	94.44
460.358	73.44
460.578	91.44
460.798	92.44
461.018	93.44
461.238	90.44
461.458	87.44
461.678	96.44
461.898	106.44
462.118	84.44
462.338	77.44
462.558	87.44
462.777	92.44
462.997	88.44
463.217	82.44
463.437	76.44
463.657	93.44
463.876	89.44
464.096	94.44
464.316	87.44
464.536	96.44
464.755	89.44
464.975	104.44
465.195	149.44
465.414	137.44
465.634	92.44
465.854	90.44
466.073	80.44
466.293	87.44
466.512	98.44
466.732	90.44
466.951	87.44
467.171	96.44
467.391	95.44
467.61	91.44
467.829	100.44
468.049	96.44
468.268	93.44
468.488	74.44
468.707	90.44
468.927	101.44
469.146	100.44
469.365	82.44
469.585	96.44
469.804	105.44
470.023	101.44
470.243	100.44
470.462	101.44
470.681	113.44
470.901	91.44
471.12	90.44
471.339	84.44
471.558	95.44
471.777	88.44
471.997	90.44
472.216	96.44
472.435	96.44
472.654	96.44
472.873	97.44
473.092	79.44
473.311	96.44
473.53	86.44
473.749	85.44
473.968	93.44
474.187	98.44
474.406	91.44
474.625	80.44
474.844	92.44
475.063	81.44
475.282	88.44
475.501	77.44
475.72	80.44
475.939	85.44
476.158	87.44
476.377	94.44
476.596	103.44
476.814	100.44
477.033	90.44
477.252	93.44
477.471	98.44
477.69	93.44
477.908	94.44
478.127	103.44
478.346	98.44
478.564	84.44
478.783	92.44
479.002	78.44
479.22	93.44
479.439	104.44
479.658	107.44
479.876	96.44
480.095	100.44
480.313	106.44
480.532	109.44
480.751	104.44
480.969	99.44
481.188	121.44
481.406	115.44
481.624	93.44
481.843	79.44
482.061	95.44
482.28	99.44
482.498	93.44
482.717	92.44
482.935	80.44
483.153	71.44
483.372	95.44
483.59	94.44
483.808	91.44
484.027	93.44
484.245	90.44
484.463	84.44
484.681	100.44
484.9	104.44
485.118	93.44
485.336	103.44
485.554	97.44
485.772	111.44
485.99	115.44
486.209	111.44
486.427	111.44
486.645	98.44
486.863	119.44
487.081	99.44
487.299	85.44
487.517	86.44
487.735	84.44
487.953	84.44
488.171	99.44
488.389	79.44
488.607	106.44
488.825	96.44
489.043	87.44
489.261	88.44
489.479	101.44
489.696	89.44
489.914	85.44
490.132	90.44
490.35	92.44
490.568	91.44
490.786	98.44
491.003	83.44
491.221	97.44
491.439	96.44
491.657	93.44
491.874	98.44
492.092	79.44
492.31	97.44
492.527	100.44
492.745	99.44
492.963	92.44
493.18	90.44
493.398	103.44
493.615	100.44
493.833	106.44
494.05	85.44
494.268	106.44
494.485	95.44
494.703	85.44
494.92	89.44
495.138	70.44
495.355	99.44
495.573	90.44
495.79	94.44
496.008	87.44
496.225	89.44
496.442	97.44
496.66	83.44
496.877	99.44
497.094	97.44
497.312	95.44
497.529	88.44
497.746	98.44
497.963	85.44
498.181	105.44
498.398	94.44
498.615	102.44
498.832	102.44
499.049	97.44
499.267	106.44
499.484	79.44
499.701	89.44
499.918	96.44
500.135	85.44
500.352	78.44
500.569	101.44
500.786	100.44
501.003	93.44
501.22	105.44
501.437	85.44
501.654	89.44
501.871	104.44
502.088	94.44
502.305	87.44
502.522	83.44
502.739	101.44
502.956	93.44
503.172	99.44
503.389	96.44
503.606	113.44
503.823	91.44
504.04	97.44
504.256	90.44
504.473	102.44
504.69	93.44
504.907	90.44
505.123	80.44
505.34	92.44
505.557	103.44
505.773	94.44
505.99	81.44
506.207	78.44
506.423	90.44
506.64	97.44
506.856	95.44
507.073	97.44
507.289	99.44
507.506	97.44
507.722	108.44
507.939	100.44
508.155	83.44
508.372	97.44
508.588	100.44
508.805	93.44
509.021	100.44
509.238	89.44
509.454	82.44
509.67	109.44
509.887	108.44
510.103	118.44
510.319	204.44
510.536	641.44
510.752	1867.44
510.968	536.44
511.184	137.44
511.401	116.44
511.617	91.44
511.833	88.44
512.049	94.44
512.265	100.44
512.481	91.44
512.698	79.44
512.914	90.44
513.13	98.44
513.346	93.44
513.562	98.44
513.778	96.44
513.994	107.44
514.21	99.44
514.426	112.44
514.642	111.44
