Data from Uncirc_1999_H10_HRD10591_00042.txt Node
Date: Wed Jan 03 11:22:13 EST 2024
User: Yrep
Spectrometer: HR+D1059
Trigger mode: 1
Integration Time (sec): 1.000000E-1
Scans to average: 1
Electric dark correction enabled: true
Nonlinearity correction enabled: false
Boxcar width: 0
XAxis mode: Wavelengths
Number of Pixels in Spectrum: 2048
>>>>>Begin Spectral Data<<<<<
223.165	-18
223.4	-18
223.635	-18
223.869	-23
224.104	-27
224.338	-13
224.573	-3
224.808	-11
225.042	-11
225.277	2
225.511	-2
225.746	3
225.98	15
226.215	14
226.449	20
226.683	11
226.918	14
227.152	29
227.387	41
227.621	48
227.856	36
228.09	56
228.324	60
228.559	62
228.793	51
229.027	52
229.262	53
229.496	55
229.73	74
229.964	78
230.199	71
230.433	69
230.667	71
230.901	80
231.136	74
231.37	83
231.604	78
231.838	87
232.072	84
232.306	78
232.541	79
232.775	76
233.009	71
233.243	73
233.477	83
233.711	73
233.945	75
234.179	79
234.413	82
234.647	76
234.881	70
235.115	77
235.349	83
235.583	76
235.817	83
236.051	69
236.285	85
236.519	76
236.753	97
236.987	93
237.221	87
237.455	85
237.689	83
237.922	76
238.156	71
238.39	72
238.624	68
238.858	86
239.091	76
239.325	72
239.559	80
239.793	79
240.027	76
240.26	72
240.494	80
240.728	70
240.961	83
241.195	73
241.429	83
241.662	71
241.896	64
242.13	71
242.363	74
242.597	73
242.83	68
243.064	89
243.298	75
243.531	70
243.765	88
243.998	89
244.232	79
244.465	76
244.699	89
244.932	77
245.166	79
245.399	98
245.633	85
245.866	77
246.099	83
246.333	79
246.566	77
246.8	79
247.033	75
247.266	70
247.5	60
247.733	86
247.966	91
248.2	71
248.433	90
248.666	71
248.899	67
249.133	85
249.366	87
249.599	88
249.832	79
250.066	90
250.299	76
250.532	78
250.765	90
250.998	84
251.231	83
251.465	72
251.698	82
251.931	73
252.164	81
252.397	72
252.63	80
252.863	72
253.096	91
253.329	81
253.562	78
253.795	73
254.028	86
254.261	74
254.494	71
254.727	81
254.96	85
255.193	80
255.426	84
255.659	80
255.892	84
256.124	87
256.357	69
256.59	95
256.823	78
257.056	81
257.289	79
257.521	72
257.754	95
257.987	87
258.22	79
258.452	87
258.685	80
258.918	78
259.151	84
259.383	91
259.616	85
259.849	80
260.081	74
260.314	84
260.547	83
260.779	91
261.012	89
261.244	71
261.477	90
261.71	81
261.942	112
262.175	112
262.407	78
262.64	91
262.872	76
263.105	80
263.337	75
263.57	93
263.802	97
264.035	87
264.267	80
264.499	82
264.732	75
264.964	89
265.197	70
265.429	77
265.661	93
265.894	87
266.126	85
266.358	89
266.591	88
266.823	84
267.055	85
267.287	76
267.52	82
267.752	86
267.984	99
268.216	83
268.448	81
268.681	75
268.913	75
269.145	88
269.377	87
269.609	75
269.841	94
270.073	75
270.306	87
270.538	81
270.77	76
271.002	87
271.234	85
271.466	90
271.698	78
271.93	80
272.162	80
272.394	77
272.626	97
272.858	78
273.09	75
273.322	85
273.553	87
273.785	88
274.017	81
274.249	86
274.481	87
274.713	89
274.945	77
275.176	89
275.408	97
275.64	84
275.872	76
276.104	91
276.335	94
276.567	95
276.799	108
277.031	99
277.262	96
277.494	97
277.726	93
277.957	88
278.189	87
278.421	87
278.652	94
278.884	103
279.115	89
279.347	86
279.579	90
279.81	86
280.042	79
280.273	81
280.505	84
280.736	91
280.968	91
281.199	87
281.431	93
281.662	97
281.894	87
282.125	113
282.356	119
282.588	123
282.819	112
283.051	83
283.282	93
283.513	81
283.745	73
283.976	84
284.207	90
284.439	89
284.67	96
284.901	71
285.132	97
285.364	88
285.595	92
285.826	89
286.057	98
286.288	104
286.52	95
286.751	66
286.982	62
287.213	96
287.444	85
287.675	77
287.906	84
288.138	97
288.369	85
288.6	100
288.831	87
289.062	81
289.293	87
289.524	85
289.755	88
289.986	93
290.217	85
290.448	85
290.679	90
290.91	77
291.141	81
291.371	83
291.602	98
291.833	88
292.064	88
292.295	100
292.526	81
292.757	93
292.987	86
293.218	91
293.449	85
293.68	82
293.91	84
294.141	76
294.372	85
294.603	80
294.833	84
295.064	92
295.295	84
295.525	90
295.756	97
295.987	119
296.217	124
296.448	129
296.679	91
296.909	98
297.14	89
297.37	99
297.601	79
297.831	91
298.062	99
298.292	88
298.523	86
298.753	86
298.984	88
299.214	91
299.445	95
299.675	85
299.905	94
300.136	89
300.366	77
300.597	101
300.827	90
301.057	85
301.288	100
301.518	90
301.748	90
301.979	106
302.209	96
302.439	87
302.669	88
302.9	96
303.13	87
303.36	91
303.59	97
303.82	100
304.051	92
304.281	77
304.511	93
304.741	94
304.971	69
305.201	76
305.431	89
305.661	76
305.891	92
306.121	93
306.352	116
306.582	92
306.812	96
307.042	99
307.272	98
307.502	92
307.731	85
307.961	95
308.191	91
308.421	93
308.651	85
308.881	97
309.111	97
309.341	88
309.571	102
309.8	106
310.03	96
310.26	83
310.49	109
310.72	89
310.949	83
311.179	96
311.409	88
311.639	90
311.868	83
312.098	93
312.328	91
312.557	101
312.787	90
313.017	95
313.246	99
313.476	112
313.706	87
313.935	107
314.165	103
314.394	108
314.624	84
314.853	103
315.083	83
315.312	80
315.542	80
315.771	97
316.001	84
316.23	94
316.46	66
316.689	99
316.919	107
317.148	92
317.377	91
317.607	88
317.836	99
318.065	97
318.295	93
318.524	89
318.753	85
318.983	95
319.212	86
319.441	101
319.67	96
319.9	92
320.129	89
320.358	91
320.587	87
320.816	84
321.046	91
321.275	100
321.504	98
321.733	96
321.962	99
322.191	99
322.42	108
322.649	98
322.878	114
323.108	110
323.337	123
323.566	128
323.795	157
324.024	222
324.253	411
324.482	915
324.71	1876
324.939	2464
325.168	891
325.397	243
325.626	147
325.855	147
326.084	134
326.313	133
326.542	158
326.77	248
326.999	517
327.228	1046
327.457	1882
327.686	1461
327.914	385
328.143	190
328.372	145
328.6	135
328.829	111
329.058	109
329.287	134
329.515	104
329.744	113
329.972	98
330.201	92
330.43	107
330.658	123
330.887	120
331.115	106
331.344	113
331.572	94
331.801	97
332.03	104
332.258	113
332.486	100
332.715	98
332.943	90
333.172	91
333.4	88
333.629	101
333.857	102
334.085	110
334.314	115
334.542	96
334.771	105
334.999	92
335.227	86
335.455	99
335.684	89
335.912	89
336.14	99
336.369	100
336.597	108
336.825	97
337.053	83
337.281	95
337.51	80
337.738	105
337.966	101
338.194	90
338.422	103
338.65	100
338.878	90
339.106	95
339.334	92
339.562	83
339.79	77
340.018	89
340.246	91
340.474	95
340.702	101
340.93	85
341.158	91
341.386	100
341.614	108
341.842	101
342.07	87
342.298	100
342.526	88
342.754	85
342.981	86
343.209	109
343.437	94
343.665	94
343.893	95
344.12	93
344.348	80
344.576	83
344.804	95
345.031	97
345.259	87
345.487	99
345.714	97
345.942	97
346.17	109
346.397	93
346.625	100
346.853	82
347.08	77
347.308	81
347.535	109
347.763	99
347.99	104
348.218	92
348.445	103
348.673	94
348.9	89
349.128	91
349.355	87
349.583	81
349.81	85
350.037	92
350.265	88
350.492	99
350.72	92
350.947	96
351.174	101
351.402	96
351.629	113
351.856	96
352.083	108
352.311	91
352.538	118
352.765	106
352.992	104
353.22	113
353.447	103
353.674	103
353.901	101
354.128	102
354.355	89
354.583	92
354.81	89
355.037	96
355.264	92
355.491	92
355.718	89
355.945	84
356.172	99
356.399	87
356.626	79
356.853	90
357.08	102
357.307	95
357.534	103
357.761	92
357.988	83
358.215	97
358.441	103
358.668	97
358.895	97
359.122	82
359.349	93
359.576	78
359.802	97
360.029	101
360.256	102
360.483	107
360.709	99
360.936	88
361.163	87
361.39	95
361.616	87
361.843	82
362.07	100
362.296	107
362.523	85
362.749	93
362.976	96
363.203	92
363.429	93
363.656	84
363.882	88
364.109	93
364.335	81
364.562	85
364.788	92
365.015	97
365.241	88
365.468	92
365.694	107
365.92	107
366.147	81
366.373	82
366.599	93
366.826	89
367.052	86
367.278	80
367.505	79
367.731	85
367.957	84
368.184	92
368.41	94
368.636	97
368.862	106
369.089	104
369.315	108
369.541	100
369.767	102
369.993	89
370.219	84
370.445	100
370.672	83
370.898	88
371.124	104
371.35	79
371.576	86
371.802	81
372.028	89
372.254	82
372.48	79
372.706	90
372.932	85
373.158	75
373.384	84
373.61	101
373.835	109
374.061	105
374.287	96
374.513	95
374.739	96
374.965	86
375.191	103
375.416	104
375.642	95
375.868	88
376.094	93
376.319	89
376.545	90
376.771	95
376.997	93
377.222	81
377.448	84
377.674	105
377.899	89
378.125	87
378.35	102
378.576	88
378.802	91
379.027	89
379.253	88
379.478	110
379.704	92
379.929	110
380.155	82
380.38	99
380.606	92
380.831	87
381.057	89
381.282	91
381.507	112
381.733	96
381.958	90
382.184	87
382.409	94
382.634	106
382.86	104
383.085	105
383.31	88
383.535	104
383.761	101
383.986	107
384.211	104
384.436	98
384.662	103
384.887	98
385.112	110
385.337	106
385.562	103
385.787	114
386.013	105
386.238	110
386.463	99
386.688	106
386.913	101
387.138	101
387.363	115
387.588	93
387.813	87
388.038	99
388.263	125
388.488	105
388.713	84
388.938	92
389.163	91
389.387	97
389.612	89
389.837	95
390.062	88
390.287	95
390.512	90
390.736	93
390.961	86
391.186	103
391.411	92
391.636	103
391.86	88
392.085	91
392.31	76
392.534	82
392.759	87
392.984	89
393.208	97
393.433	103
393.658	77
393.882	91
394.107	84
394.331	88
394.556	86
394.78	86
395.005	79
395.229	69
395.454	92
395.678	86
395.903	92
396.127	87
396.352	86
396.576	77
396.801	79
397.025	83
397.249	93
397.474	87
397.698	85
397.922	89
398.147	76
398.371	99
398.595	85
398.82	84
399.044	94
399.268	91
399.492	96
399.717	110
399.941	99
400.165	91
400.389	84
400.613	95
400.837	86
401.062	93
401.286	82
401.51	96
401.734	92
401.958	96
402.182	110
402.406	145
402.63	113
402.854	84
403.078	95
403.302	88
403.526	95
403.75	96
403.974	84
404.198	82
404.422	85
404.645	94
404.869	87
405.093	95
405.317	99
405.541	85
405.765	104
405.988	114
406.212	143
406.436	205
406.66	132
406.883	83
407.107	78
407.331	93
407.555	92
407.778	96
408.002	101
408.226	78
408.449	75
408.673	86
408.896	83
409.12	96
409.344	87
409.567	103
409.791	83
410.014	82
410.238	95
410.461	94
410.685	92
410.908	90
411.132	105
411.355	91
411.578	101
411.802	76
412.025	72
412.249	89
412.472	90
412.695	87
412.919	93
413.142	88
413.365	87
413.589	82
413.812	84
414.035	83
414.258	86
414.482	95
414.705	90
414.928	79
415.151	88
415.374	92
415.597	82
415.821	87
416.044	82
416.267	88
416.49	81
416.713	75
416.936	94
417.159	75
417.382	86
417.605	89
417.828	77
418.051	91
418.274	90
418.497	91
418.72	91
418.943	84
419.166	86
419.389	93
419.611	79
419.834	93
420.057	90
420.28	86
420.503	76
420.726	78
420.948	75
421.171	103
421.394	95
421.617	97
421.839	84
422.062	99
422.285	84
422.507	107
422.73	85
422.953	97
423.175	87
423.398	91
423.621	105
423.843	63
424.066	77
424.288	80
424.511	84
424.733	88
424.956	111
425.178	94
425.401	108
425.623	103
425.846	92
426.068	99
426.291	87
426.513	94
426.735	88
426.958	77
427.18	98
427.402	130
427.625	157
427.847	118
428.069	100
428.292	91
428.514	73
428.736	92
428.958	86
429.181	94
429.403	79
429.625	77
429.847	90
430.069	93
430.292	79
430.514	79
430.736	77
430.958	87
431.18	103
431.402	80
431.624	77
431.846	84
432.068	78
432.29	96
432.512	82
432.734	88
432.956	100
433.178	99
433.4	108
433.622	94
433.844	75
434.066	75
434.287	92
434.509	89
434.731	76
434.953	81
435.175	81
435.397	92
435.618	84
435.84	105
436.062	113
436.284	117
436.505	100
436.727	110
436.949	97
437.17	87
437.392	81
437.614	78
437.835	101
438.057	100
438.278	104
438.5	115
438.721	133
438.943	93
439.165	86
439.386	99
439.608	80
439.829	95
440.05	118
440.272	132
440.493	110
440.715	86
440.936	93
441.158	93
441.379	79
441.6	88
441.822	74
442.043	90
442.264	97
442.486	100
442.707	87
442.928	100
443.149	105
443.371	112
443.592	91
443.813	111
444.034	97
444.255	93
444.476	90
444.698	82
444.919	83
445.14	129
445.361	108
445.582	112
445.803	141
446.024	133
446.245	143
446.466	124
446.687	88
446.908	77
447.129	88
447.35	86
447.571	84
447.792	88
448.013	99
448.234	90
448.455	110
448.675	113
448.896	102
449.117	78
449.338	105
449.559	125
449.779	120
450	101
450.221	90
450.442	95
450.662	96
450.883	91
451.104	116
451.324	94
451.545	85
451.766	83
451.986	83
452.207	82
452.428	88
452.648	87
452.869	103
453.089	93
453.31	105
453.53	97
453.751	84
453.971	87
454.192	115
454.412	93
454.633	78
454.853	76
455.073	83
455.294	94
455.514	92
455.734	83
455.955	71
456.175	83
456.395	78
456.616	75
456.836	72
457.056	89
457.276	82
457.497	76
457.717	96
457.937	88
458.157	91
458.377	90
458.598	94
458.818	137
459.038	147
459.258	111
459.478	87
459.698	72
459.918	88
460.138	85
460.358	70
460.578	87
460.798	88
461.018	84
461.238	80
461.458	80
461.678	78
461.898	72
462.118	72
462.338	88
462.558	83
462.777	91
462.997	80
463.217	86
463.437	83
463.657	86
463.876	88
464.096	87
464.316	69
464.536	88
464.755	69
464.975	107
465.195	136
465.414	136
465.634	87
465.854	99
466.073	91
466.293	88
466.512	75
466.732	97
466.951	101
467.171	88
467.391	90
467.61	93
467.829	92
468.049	93
468.268	77
468.488	99
468.707	80
468.927	64
469.146	82
469.365	85
469.585	91
469.804	91
470.023	97
470.243	76
470.462	78
470.681	93
470.901	73
471.12	72
471.339	84
471.558	88
471.777	85
471.997	89
472.216	98
472.435	112
472.654	94
472.873	89
473.092	90
473.311	84
473.53	84
473.749	72
473.968	90
474.187	96
474.406	95
474.625	102
474.844	81
475.063	74
475.282	79
475.501	81
475.72	90
475.939	91
476.158	93
476.377	83
476.596	80
476.814	89
477.033	84
477.252	92
477.471	87
477.69	67
477.908	95
478.127	84
478.346	68
478.564	91
478.783	93
479.002	97
479.22	86
479.439	94
479.658	90
479.876	83
480.095	86
480.313	80
480.532	87
480.751	76
480.969	87
481.188	127
481.406	114
481.624	91
481.843	77
482.061	75
482.28	80
482.498	82
482.717	95
482.935	80
483.153	91
483.372	80
483.59	93
483.808	97
484.027	82
484.245	104
484.463	83
484.681	102
484.9	69
485.118	94
485.336	101
485.554	107
485.772	90
485.99	107
486.209	97
486.427	105
486.645	99
486.863	105
487.081	104
487.299	91
487.517	96
487.735	94
487.953	106
488.171	85
488.389	83
488.607	105
488.825	85
489.043	79
489.261	93
489.479	100
489.696	82
489.914	95
490.132	95
490.35	101
490.568	78
490.786	96
491.003	74
491.221	86
491.439	90
491.657	108
491.874	95
492.092	112
492.31	94
492.527	92
492.745	81
492.963	105
493.18	106
493.398	94
493.615	88
493.833	89
494.05	79
494.268	86
494.485	102
494.703	77
494.92	85
495.138	84
495.355	94
495.573	93
495.79	92
496.008	97
496.225	103
496.442	93
496.66	97
496.877	83
497.094	84
497.312	86
497.529	88
497.746	104
497.963	88
498.181	107
498.398	83
498.615	91
498.832	93
499.049	117
499.267	95
499.484	78
499.701	100
499.918	81
500.135	82
500.352	89
500.569	87
500.786	90
501.003	93
501.22	90
501.437	81
501.654	82
501.871	110
502.088	88
502.305	103
502.522	97
502.739	97
502.956	100
503.172	90
503.389	92
503.606	108
503.823	92
504.04	84
504.256	85
504.473	94
504.69	85
504.907	93
505.123	85
505.34	94
505.557	88
505.773	101
505.99	85
506.207	88
506.423	74
506.64	90
506.856	80
507.073	92
507.289	88
507.506	104
507.722	96
507.939	95
508.155	99
508.372	85
508.588	95
508.805	93
509.021	87
509.238	97
509.454	96
509.67	96
509.887	111
510.103	126
510.319	213
510.536	742
510.752	2263
510.968	619
511.184	158
511.401	112
511.617	94
511.833	99
512.049	95
512.265	98
512.481	89
512.698	92
512.914	91
513.13	82
513.346	93
513.562	94
513.778	108
513.994	95
514.21	103
514.426	105
514.642	119
514.858	113
515.074	172
515.29	410
515.506	1290
515.721	479
515.937	156
516.153	114
516.369	116
516.585	94
516.801	92
517.016	90
517.232	108
517.448	97
517.664	99
517.879	87
518.095	94
518.311	96
518.527	96
518.742	107
518.958	93
519.173	88
519.389	95
519.605	94
519.82	91
520.036	100
520.251	111
520.467	102
520.682	91
520.898	103
521.113	115
521.329	116
521.544	187
521.76	506
521.975	2199
522.19	1293
522.406	279
522.621	116
522.836	97
523.052	88
523.267	101
523.482	82
523.698	99
523.913	118
524.128	96
524.343	88
524.559	100
524.774	87
524.989	87
525.204	110
525.419	102
525.634	107
525.849	95
526.064	92
526.28	83
526.495	101
526.71	83
526.925	96
527.14	86
527.355	82
527.57	84
527.785	104
527.999	86
528.214	89
528.429	83
528.644	91
528.859	84
529.074	88
529.289	114
529.503	174
529.718	105
529.933	102
530.148	92
530.363	81
530.577	92
530.792	88
531.007	78
531.221	75
531.436	95
531.651	108
531.865	99
532.08	80
532.295	90
532.509	89
532.724	96
532.938	84
533.153	91
533.367	97
533.582	97
533.796	90
534.011	92
534.225	82
534.44	89
534.654	85
534.868	98
535.083	90
535.297	101
535.511	104
535.726	103
535.94	91
536.154	101
536.369	97
536.583	90
536.797	95
537.011	89
537.225	90
537.44	94
537.654	93
537.868	101
538.082	95
538.296	102
538.51	86
538.724	91
538.938	81
539.153	93
539.367	103
539.581	100
539.795	90
540.009	96
540.222	92
540.436	101
540.65	87
540.864	87
541.078	92
541.292	81
541.506	75
541.72	93
541.934	97
542.147	84
542.361	95
542.575	96
542.789	68
543.002	83
543.216	97
543.43	92
543.644	98
543.857	95
544.071	78
544.285	97
544.498	99
544.712	93
544.925	83
545.139	85
545.352	95
545.566	105
545.779	103
545.993	79
546.206	77
546.42	83
546.633	79
546.847	101
547.06	97
547.274	87
547.487	81
547.7	87
547.914	94
548.127	73
548.34	86
548.554	100
548.767	95
548.98	96
549.193	90
549.407	81
549.62	96
549.833	92
550.046	82
550.259	80
550.473	102
550.686	92
550.899	88
551.112	94
551.325	87
551.538	91
551.751	91
551.964	92
552.177	91
552.39	95
552.603	94
552.816	94
553.029	73
553.242	95
553.455	100
553.667	108
553.88	104
554.093	79
554.306	97
554.519	107
554.732	95
554.944	93
555.157	96
555.37	86
555.583	91
555.795	94
556.008	100
556.221	88
556.433	96
556.646	75
556.859	90
557.071	92
557.284	91
557.496	97
557.709	84
557.921	75
558.134	99
558.346	81
558.559	103
558.771	81
558.984	93
559.196	102
559.409	105
559.621	93
559.833	82
560.046	81
560.258	83
560.47	75
560.683	86
560.895	91
561.107	93
561.32	81
561.532	87
561.744	77
561.956	95
562.168	92
562.381	83
562.593	95
562.805	78
563.017	85
563.229	92
563.441	94
563.653	86
563.865	74
564.077	87
564.289	88
564.501	81
564.713	92
564.925	96
565.137	91
565.349	101
565.561	78
565.773	94
565.985	96
566.197	79
566.408	85
566.62	102
566.832	77
567.044	80
567.255	94
567.467	89
567.679	81
567.891	84
568.102	91
568.314	94
568.526	99
568.737	86
568.949	101
569.161	88
569.372	89
569.584	81
569.795	101
570.007	113
570.218	246
570.43	128
570.641	92
570.853	83
571.064	79
571.276	69
571.487	83
571.698	88
571.91	106
572.121	91
572.333	90
572.544	80
572.755	99
572.966	94
573.178	89
573.389	87
573.6	91
573.811	83
574.023	80
574.234	86
574.445	81
574.656	85
574.867	85
575.078	84
575.289	81
575.501	104
575.712	71
575.923	85
576.134	91
576.345	90
576.556	100
576.767	82
576.978	89
577.188	89
577.399	92
577.61	90
577.821	87
578.032	126
578.243	264
578.454	744
578.665	205
578.875	111
579.086	88
579.297	84
579.508	90
579.718	96
579.929	81
580.14	86
580.35	95
580.561	111
580.772	77
580.982	90
581.193	75
581.403	86
581.614	85
581.825	84
582.035	84
582.246	76
582.456	80
582.667	84
582.877	92
583.087	87
583.298	83
583.508	93
583.719	90
583.929	85
584.139	92
584.35	89
584.56	83
584.77	90
