Data from Uncirc_1999_H10_HRD10591_00031.txt Node
Date: Wed Jan 03 11:22:11 EST 2024
User: Yrep
Spectrometer: HR+D1059
Trigger mode: 1
Integration Time (sec): 1.000000E-1
Scans to average: 1
Electric dark correction enabled: true
Nonlinearity correction enabled: false
Boxcar width: 0
XAxis mode: Wavelengths
Number of Pixels in Spectrum: 2048
>>>>>Begin Spectral Data<<<<<
223.165	-20.06
223.4	-20.06
223.635	-20.06
223.869	-23.06
224.104	-13.06
224.338	-5.06
224.573	-15.06
224.808	-19.06
225.042	-16.06
225.277	-5.06
225.511	-13.06
225.746	5.94
225.98	7.94
226.215	24.94
226.449	16.94
226.683	24.94
226.918	30.94
227.152	17.94
227.387	40.94
227.621	41.94
227.856	42.94
228.09	49.94
228.324	52.94
228.559	58.94
228.793	58.94
229.027	54.94
229.262	81.94
229.496	69.94
229.73	82.94
229.964	85.94
230.199	66.94
230.433	84.94
230.667	85.94
230.901	93.94
231.136	88.94
231.37	89.94
231.604	80.94
231.838	82.94
232.072	73.94
232.306	88.94
232.541	81.94
232.775	84.94
233.009	85.94
233.243	94.94
233.477	84.94
233.711	83.94
233.945	83.94
234.179	83.94
234.413	79.94
234.647	82.94
234.881	81.94
235.115	82.94
235.349	81.94
235.583	96.94
235.817	71.94
236.051	77.94
236.285	80.94
236.519	74.94
236.753	75.94
236.987	89.94
237.221	79.94
237.455	85.94
237.689	67.94
237.922	50.94
238.156	76.94
238.39	73.94
238.624	78.94
238.858	72.94
239.091	79.94
239.325	87.94
239.559	74.94
239.793	80.94
240.027	73.94
240.26	88.94
240.494	71.94
240.728	75.94
240.961	92.94
241.195	82.94
241.429	77.94
241.662	80.94
241.896	85.94
242.13	72.94
242.363	74.94
242.597	75.94
242.83	88.94
243.064	70.94
243.298	82.94
243.531	72.94
243.765	70.94
243.998	75.94
244.232	75.94
244.465	96.94
244.699	86.94
244.932	74.94
245.166	79.94
245.399	89.94
245.633	97.94
245.866	77.94
246.099	86.94
246.333	73.94
246.566	82.94
246.8	79.94
247.033	82.94
247.266	76.94
247.5	83.94
247.733	66.94
247.966	77.94
248.2	73.94
248.433	72.94
248.666	92.94
248.899	90.94
249.133	85.94
249.366	109.94
249.599	102.94
249.832	77.94
250.066	77.94
250.299	82.94
250.532	72.94
250.765	80.94
250.998	82.94
251.231	66.94
251.465	66.94
251.698	89.94
251.931	73.94
252.164	80.94
252.397	79.94
252.63	86.94
252.863	86.94
253.096	94.94
253.329	67.94
253.562	77.94
253.795	72.94
254.028	75.94
254.261	85.94
254.494	69.94
254.727	74.94
254.96	73.94
255.193	93.94
255.426	94.94
255.659	88.94
255.892	87.94
256.124	90.94
256.357	95.94
256.59	70.94
256.823	83.94
257.056	95.94
257.289	79.94
257.521	87.94
257.754	86.94
257.987	85.94
258.22	82.94
258.452	89.94
258.685	82.94
258.918	77.94
259.151	99.94
259.383	80.94
259.616	91.94
259.849	83.94
260.081	85.94
260.314	70.94
260.547	72.94
260.779	78.94
261.012	81.94
261.244	94.94
261.477	93.94
261.71	105.94
261.942	117.94
262.175	119.94
262.407	79.94
262.64	77.94
262.872	92.94
263.105	84.94
263.337	93.94
263.57	74.94
263.802	92.94
264.035	83.94
264.267	81.94
264.499	79.94
264.732	96.94
264.964	89.94
265.197	88.94
265.429	88.94
265.661	85.94
265.894	85.94
266.126	94.94
266.358	84.94
266.591	73.94
266.823	89.94
267.055	67.94
267.287	89.94
267.52	95.94
267.752	85.94
267.984	92.94
268.216	90.94
268.448	81.94
268.681	74.94
268.913	93.94
269.145	73.94
269.377	73.94
269.609	104.94
269.841	90.94
270.073	84.94
270.306	83.94
270.538	83.94
270.77	86.94
271.002	79.94
271.234	89.94
271.466	82.94
271.698	92.94
271.93	82.94
272.162	81.94
272.394	82.94
272.626	83.94
272.858	82.94
273.09	85.94
273.322	93.94
273.553	81.94
273.785	75.94
274.017	95.94
274.249	88.94
274.481	78.94
274.713	78.94
274.945	94.94
275.176	75.94
275.408	89.94
275.64	94.94
275.872	86.94
276.104	77.94
276.335	95.94
276.567	84.94
276.799	99.94
277.031	98.94
277.262	95.94
277.494	103.94
277.726	90.94
277.957	89.94
278.189	94.94
278.421	93.94
278.652	92.94
278.884	86.94
279.115	78.94
279.347	84.94
279.579	97.94
279.81	86.94
280.042	75.94
280.273	78.94
280.505	77.94
280.736	81.94
280.968	81.94
281.199	98.94
281.431	90.94
281.662	81.94
281.894	91.94
282.125	99.94
282.356	108.94
282.588	123.94
282.819	112.94
283.051	79.94
283.282	91.94
283.513	92.94
283.745	101.94
283.976	97.94
284.207	86.94
284.439	83.94
284.67	97.94
284.901	99.94
285.132	85.94
285.364	103.94
285.595	98.94
285.826	96.94
286.057	79.94
286.288	90.94
286.52	80.94
286.751	95.94
286.982	87.94
287.213	86.94
287.444	88.94
287.675	98.94
287.906	81.94
288.138	90.94
288.369	104.94
288.6	111.94
288.831	85.94
289.062	94.94
289.293	88.94
289.524	95.94
289.755	91.94
289.986	88.94
290.217	96.94
290.448	85.94
290.679	88.94
290.91	108.94
291.141	81.94
291.371	89.94
291.602	88.94
291.833	91.94
292.064	94.94
292.295	97.94
292.526	93.94
292.757	86.94
292.987	92.94
293.218	94.94
293.449	95.94
293.68	86.94
293.91	85.94
294.141	92.94
294.372	91.94
294.603	87.94
294.833	85.94
295.064	84.94
295.295	83.94
295.525	87.94
295.756	107.94
295.987	125.94
296.217	131.94
296.448	124.94
296.679	107.94
296.909	87.94
297.14	93.94
297.37	86.94
297.601	88.94
297.831	74.94
298.062	91.94
298.292	90.94
298.523	92.94
298.753	92.94
298.984	93.94
299.214	77.94
299.445	89.94
299.675	96.94
299.905	99.94
300.136	94.94
300.366	98.94
300.597	99.94
300.827	84.94
301.057	100.94
301.288	100.94
301.518	106.94
301.748	97.94
301.979	95.94
302.209	99.94
302.439	89.94
302.669	85.94
302.9	95.94
303.13	97.94
303.36	88.94
303.59	90.94
303.82	81.94
304.051	93.94
304.281	78.94
304.511	89.94
304.741	86.94
304.971	91.94
305.201	88.94
305.431	94.94
305.661	94.94
305.891	84.94
306.121	106.94
306.352	111.94
306.582	104.94
306.812	96.94
307.042	87.94
307.272	93.94
307.502	111.94
307.731	78.94
307.961	82.94
308.191	89.94
308.421	83.94
308.651	86.94
308.881	79.94
309.111	83.94
309.341	118.94
309.571	86.94
309.8	102.94
310.03	90.94
310.26	92.94
310.49	100.94
310.72	98.94
310.949	107.94
311.179	99.94
311.409	99.94
311.639	83.94
311.868	89.94
312.098	100.94
312.328	120.94
312.557	105.94
312.787	103.94
313.017	104.94
313.246	91.94
313.476	98.94
313.706	88.94
313.935	92.94
314.165	93.94
314.394	99.94
314.624	96.94
314.853	98.94
315.083	99.94
315.312	84.94
315.542	84.94
315.771	97.94
316.001	95.94
316.23	99.94
316.46	94.94
316.689	75.94
316.919	76.94
317.148	87.94
317.377	97.94
317.607	91.94
317.836	107.94
318.065	90.94
318.295	81.94
318.524	105.94
318.753	92.94
318.983	99.94
319.212	100.94
319.441	115.94
319.67	105.94
319.9	96.94
320.129	96.94
320.358	88.94
320.587	96.94
320.816	100.94
321.046	89.94
321.275	80.94
321.504	104.94
321.733	96.94
321.962	117.94
322.191	117.94
322.42	110.94
322.649	106.94
322.878	129.94
323.108	124.94
323.337	123.94
323.566	129.94
323.795	155.94
324.024	225.94
324.253	426.94
324.482	961.94
324.71	1999.94
324.939	2639.94
325.168	904.94
325.397	254.94
325.626	157.94
325.855	137.94
326.084	126.94
326.313	137.94
326.542	153.94
326.77	255.94
326.999	524.94
327.228	1066.94
327.457	1998.94
327.686	1583.94
327.914	418.94
328.143	210.94
328.372	155.94
328.6	135.94
328.829	137.94
329.058	117.94
329.287	127.94
329.515	115.94
329.744	117.94
329.972	104.94
330.201	107.94
330.43	118.94
330.658	122.94
330.887	112.94
331.115	109.94
331.344	89.94
331.572	111.94
331.801	103.94
332.03	83.94
332.258	95.94
332.486	99.94
332.715	101.94
332.943	85.94
333.172	89.94
333.4	87.94
333.629	98.94
333.857	113.94
334.085	105.94
334.314	106.94
334.542	116.94
334.771	119.94
334.999	83.94
335.227	87.94
335.455	95.94
335.684	97.94
335.912	94.94
336.14	97.94
336.369	96.94
336.597	105.94
336.825	101.94
337.053	76.94
337.281	96.94
337.51	95.94
337.738	81.94
337.966	92.94
338.194	98.94
338.422	113.94
338.65	94.94
338.878	97.94
339.106	94.94
339.334	72.94
339.562	86.94
339.79	89.94
340.018	92.94
340.246	98.94
340.474	95.94
340.702	97.94
340.93	91.94
341.158	81.94
341.386	104.94
341.614	97.94
341.842	77.94
342.07	87.94
342.298	104.94
342.526	89.94
342.754	89.94
342.981	105.94
343.209	80.94
343.437	107.94
343.665	95.94
343.893	97.94
344.12	89.94
344.348	89.94
344.576	85.94
344.804	65.94
345.031	96.94
345.259	103.94
345.487	104.94
345.714	115.94
345.942	99.94
346.17	107.94
346.397	92.94
346.625	100.94
346.853	98.94
347.08	91.94
347.308	103.94
347.535	81.94
347.763	96.94
347.99	100.94
348.218	101.94
348.445	88.94
348.673	91.94
348.9	81.94
349.128	86.94
349.355	87.94
349.583	109.94
349.81	82.94
350.037	92.94
350.265	95.94
350.492	104.94
350.72	103.94
350.947	115.94
351.174	113.94
351.402	112.94
351.629	112.94
351.856	99.94
352.083	103.94
352.311	113.94
352.538	105.94
352.765	112.94
352.992	106.94
353.22	105.94
353.447	110.94
353.674	113.94
353.901	107.94
354.128	100.94
354.355	87.94
354.583	101.94
354.81	94.94
355.037	83.94
355.264	97.94
355.491	91.94
355.718	91.94
355.945	83.94
356.172	105.94
356.399	107.94
356.626	109.94
356.853	105.94
357.08	94.94
357.307	88.94
357.534	89.94
357.761	92.94
357.988	101.94
358.215	91.94
358.441	93.94
358.668	94.94
358.895	93.94
359.122	93.94
359.349	92.94
359.576	95.94
359.802	107.94
360.029	96.94
360.256	103.94
360.483	106.94
360.709	85.94
360.936	103.94
361.163	81.94
361.39	93.94
361.616	87.94
361.843	88.94
362.07	91.94
362.296	97.94
362.523	92.94
362.749	82.94
362.976	100.94
363.203	97.94
363.429	97.94
363.656	100.94
363.882	96.94
364.109	86.94
364.335	84.94
364.562	102.94
364.788	82.94
365.015	82.94
365.241	100.94
365.468	108.94
365.694	117.94
365.92	82.94
366.147	98.94
366.373	90.94
366.599	87.94
366.826	94.94
367.052	97.94
367.278	73.94
367.505	84.94
367.731	106.94
367.957	94.94
368.184	81.94
368.41	91.94
368.636	107.94
368.862	117.94
369.089	93.94
369.315	88.94
369.541	86.94
369.767	90.94
369.993	103.94
370.219	87.94
370.445	82.94
370.672	89.94
370.898	92.94
371.124	82.94
371.35	102.94
371.576	94.94
371.802	93.94
372.028	106.94
372.254	75.94
372.48	86.94
372.706	87.94
372.932	98.94
373.158	101.94
373.384	90.94
373.61	91.94
373.835	94.94
374.061	89.94
374.287	103.94
374.513	87.94
374.739	86.94
374.965	90.94
375.191	66.94
375.416	93.94
375.642	100.94
375.868	96.94
376.094	84.94
376.319	104.94
376.545	83.94
376.771	94.94
376.997	90.94
377.222	94.94
377.448	84.94
377.674	89.94
377.899	95.94
378.125	96.94
378.35	89.94
378.576	86.94
378.802	81.94
379.027	90.94
379.253	106.94
379.478	95.94
379.704	90.94
379.929	107.94
380.155	105.94
380.38	109.94
380.606	99.94
380.831	98.94
381.057	108.94
381.282	90.94
381.507	112.94
381.733	116.94
381.958	108.94
382.184	108.94
382.409	103.94
382.634	117.94
382.86	111.94
383.085	106.94
383.31	106.94
383.535	113.94
383.761	104.94
383.986	110.94
384.211	109.94
384.436	109.94
384.662	85.94
384.887	97.94
385.112	110.94
385.337	121.94
385.562	110.94
385.787	120.94
386.013	107.94
386.238	123.94
386.463	125.94
386.688	106.94
386.913	113.94
387.138	105.94
387.363	98.94
387.588	93.94
387.813	101.94
388.038	109.94
388.263	138.94
388.488	127.94
388.713	117.94
388.938	106.94
389.163	104.94
389.387	103.94
389.612	93.94
389.837	105.94
390.062	99.94
390.287	78.94
390.512	88.94
390.736	93.94
390.961	92.94
391.186	103.94
391.411	91.94
391.636	95.94
391.86	88.94
392.085	95.94
392.31	82.94
392.534	92.94
392.759	93.94
392.984	86.94
393.208	83.94
393.433	104.94
393.658	96.94
393.882	94.94
394.107	104.94
394.331	73.94
394.556	89.94
394.78	94.94
395.005	75.94
395.229	88.94
395.454	91.94
395.678	95.94
395.903	83.94
396.127	91.94
396.352	81.94
396.576	89.94
396.801	82.94
397.025	91.94
397.249	96.94
397.474	101.94
397.698	87.94
397.922	85.94
398.147	95.94
398.371	92.94
398.595	95.94
398.82	89.94
399.044	90.94
399.268	82.94
399.492	93.94
399.717	80.94
399.941	105.94
400.165	85.94
400.389	94.94
400.613	93.94
400.837	88.94
401.062	75.94
401.286	89.94
401.51	97.94
401.734	103.94
401.958	103.94
402.182	117.94
402.406	148.94
402.63	106.94
402.854	97.94
403.078	76.94
403.302	90.94
403.526	85.94
403.75	92.94
403.974	89.94
404.198	90.94
404.422	82.94
404.645	78.94
404.869	99.94
405.093	97.94
405.317	97.94
405.541	89.94
405.765	94.94
405.988	103.94
406.212	161.94
406.436	215.94
406.66	151.94
406.883	105.94
407.107	97.94
407.331	99.94
407.555	106.94
407.778	88.94
408.002	99.94
408.226	94.94
408.449	96.94
408.673	86.94
408.896	103.94
409.12	98.94
409.344	81.94
409.567	81.94
409.791	100.94
410.014	88.94
410.238	78.94
410.461	101.94
410.685	96.94
410.908	85.94
411.132	111.94
411.355	95.94
411.578	98.94
411.802	90.94
412.025	89.94
412.249	91.94
412.472	86.94
412.695	97.94
412.919	85.94
413.142	93.94
413.365	80.94
413.589	79.94
413.812	102.94
414.035	100.94
414.258	87.94
414.482	93.94
414.705	87.94
414.928	89.94
415.151	106.94
415.374	105.94
415.597	97.94
415.821	98.94
416.044	90.94
416.267	94.94
416.49	87.94
416.713	86.94
416.936	88.94
417.159	83.94
417.382	87.94
417.605	95.94
417.828	100.94
418.051	97.94
418.274	89.94
418.497	91.94
418.72	85.94
418.943	94.94
419.166	82.94
419.389	97.94
419.611	77.94
419.834	79.94
420.057	82.94
420.28	88.94
420.503	96.94
420.726	94.94
420.948	85.94
421.171	95.94
421.394	86.94
421.617	95.94
421.839	84.94
422.062	89.94
422.285	95.94
422.507	107.94
422.73	96.94
422.953	104.94
423.175	75.94
423.398	89.94
423.621	73.94
423.843	82.94
424.066	89.94
424.288	98.94
424.511	76.94
424.733	104.94
424.956	112.94
425.178	101.94
425.401	105.94
425.623	93.94
425.846	93.94
426.068	91.94
426.291	70.94
426.513	92.94
426.735	98.94
426.958	77.94
427.18	109.94
427.402	138.94
427.625	149.94
427.847	134.94
428.069	108.94
428.292	93.94
428.514	103.94
428.736	93.94
428.958	88.94
429.181	90.94
429.403	102.94
429.625	86.94
429.847	98.94
430.069	90.94
430.292	75.94
430.514	91.94
430.736	83.94
430.958	77.94
431.18	93.94
431.402	76.94
431.624	85.94
431.846	86.94
432.068	95.94
432.29	95.94
432.512	82.94
432.734	75.94
432.956	90.94
433.178	97.94
433.4	100.94
433.622	97.94
433.844	110.94
434.066	95.94
434.287	103.94
434.509	83.94
434.731	99.94
434.953	89.94
435.175	81.94
435.397	88.94
435.618	81.94
435.84	102.94
436.062	115.94
436.284	95.94
436.505	98.94
436.727	116.94
436.949	89.94
437.17	100.94
437.392	85.94
437.614	98.94
437.835	98.94
438.057	127.94
438.278	123.94
438.5	105.94
438.721	118.94
438.943	122.94
439.165	82.94
439.386	85.94
439.608	96.94
439.829	101.94
440.05	113.94
440.272	137.94
440.493	87.94
440.715	92.94
440.936	93.94
441.158	90.94
441.379	91.94
441.6	93.94
441.822	94.94
442.043	89.94
442.264	110.94
442.486	93.94
442.707	91.94
442.928	95.94
443.149	119.94
443.371	138.94
443.592	98.94
443.813	117.94
444.034	113.94
444.255	98.94
444.476	83.94
444.698	85.94
444.919	84.94
445.14	136.94
445.361	122.94
445.582	117.94
445.803	142.94
446.024	149.94
446.245	142.94
446.466	100.94
446.687	102.94
446.908	90.94
447.129	87.94
447.35	75.94
447.571	99.94
447.792	94.94
448.013	118.94
448.234	107.94
448.455	94.94
448.675	91.94
448.896	117.94
449.117	105.94
449.338	104.94
449.559	137.94
449.779	134.94
450	92.94
450.221	107.94
450.442	87.94
450.662	99.94
450.883	101.94
451.104	118.94
451.324	94.94
451.545	93.94
451.766	96.94
451.986	84.94
452.207	72.94
452.428	89.94
452.648	94.94
452.869	119.94
453.089	101.94
453.31	120.94
453.53	91.94
453.751	92.94
453.971	79.94
454.192	94.94
454.412	87.94
454.633	90.94
454.853	87.94
455.073	96.94
455.294	93.94
455.514	92.94
455.734	90.94
455.955	84.94
456.175	90.94
456.395	73.94
456.616	75.94
456.836	66.94
457.056	73.94
457.276	85.94
457.497	85.94
457.717	83.94
457.937	81.94
458.157	94.94
458.377	92.94
458.598	93.94
458.818	142.94
459.038	159.94
459.258	114.94
459.478	89.94
459.698	95.94
459.918	93.94
460.138	96.94
460.358	93.94
460.578	96.94
460.798	85.94
461.018	91.94
461.238	91.94
461.458	96.94
461.678	86.94
461.898	93.94
462.118	77.94
462.338	81.94
462.558	87.94
462.777	85.94
462.997	80.94
463.217	82.94
463.437	106.94
463.657	96.94
463.876	84.94
464.096	86.94
464.316	95.94
464.536	81.94
464.755	95.94
464.975	101.94
465.195	161.94
465.414	155.94
465.634	84.94
465.854	90.94
466.073	87.94
466.293	95.94
466.512	82.94
466.732	89.94
466.951	97.94
467.171	94.94
467.391	91.94
467.61	103.94
467.829	98.94
468.049	84.94
468.268	93.94
468.488	88.94
468.707	95.94
468.927	90.94
469.146	77.94
469.365	86.94
469.585	91.94
469.804	93.94
470.023	98.94
470.243	96.94
470.462	90.94
470.681	111.94
470.901	101.94
471.12	88.94
471.339	93.94
471.558	66.94
471.777	83.94
471.997	85.94
472.216	89.94
472.435	90.94
472.654	94.94
472.873	79.94
473.092	78.94
473.311	73.94
473.53	84.94
473.749	91.94
473.968	106.94
474.187	114.94
474.406	85.94
474.625	99.94
474.844	79.94
475.063	84.94
475.282	89.94
475.501	74.94
475.72	89.94
475.939	94.94
476.158	95.94
476.377	84.94
476.596	82.94
476.814	79.94
477.033	94.94
477.252	89.94
477.471	77.94
477.69	86.94
477.908	86.94
478.127	94.94
478.346	83.94
478.564	92.94
478.783	91.94
479.002	95.94
479.22	83.94
479.439	110.94
479.658	93.94
479.876	82.94
480.095	92.94
480.313	98.94
480.532	99.94
480.751	92.94
480.969	106.94
481.188	124.94
481.406	116.94
481.624	87.94
481.843	91.94
482.061	86.94
482.28	83.94
482.498	89.94
482.717	91.94
482.935	93.94
483.153	83.94
483.372	80.94
483.59	96.94
483.808	86.94
484.027	103.94
484.245	88.94
484.463	103.94
484.681	87.94
484.9	96.94
485.118	89.94
485.336	95.94
485.554	95.94
485.772	99.94
485.99	103.94
486.209	102.94
486.427	116.94
486.645	114.94
486.863	117.94
487.081	105.94
487.299	96.94
487.517	92.94
487.735	114.94
487.953	86.94
488.171	93.94
488.389	98.94
488.607	94.94
488.825	90.94
489.043	88.94
489.261	89.94
489.479	90.94
489.696	93.94
489.914	92.94
490.132	85.94
490.35	94.94
490.568	87.94
490.786	82.94
491.003	98.94
491.221	94.94
491.439	94.94
491.657	91.94
491.874	96.94
492.092	110.94
492.31	82.94
492.527	85.94
492.745	87.94
492.963	81.94
493.18	94.94
493.398	86.94
493.615	92.94
493.833	90.94
494.05	103.94
494.268	94.94
494.485	91.94
494.703	91.94
494.92	72.94
495.138	88.94
495.355	96.94
495.573	94.94
495.79	99.94
496.008	84.94
496.225	93.94
496.442	98.94
496.66	89.94
496.877	86.94
497.094	88.94
497.312	79.94
497.529	91.94
497.746	76.94
497.963	91.94
498.181	85.94
498.398	92.94
498.615	105.94
498.832	83.94
499.049	89.94
499.267	93.94
499.484	71.94
499.701	86.94
499.918	89.94
500.135	102.94
500.352	93.94
500.569	92.94
500.786	86.94
501.003	97.94
501.22	94.94
501.437	94.94
501.654	106.94
501.871	90.94
502.088	79.94
502.305	87.94
502.522	89.94
502.739	81.94
502.956	98.94
503.172	88.94
503.389	89.94
503.606	97.94
503.823	87.94
504.04	89.94
504.256	85.94
504.473	105.94
504.69	76.94
504.907	98.94
505.123	93.94
505.34	98.94
505.557	102.94
505.773	105.94
505.99	66.94
506.207	99.94
506.423	96.94
506.64	104.94
506.856	88.94
507.073	82.94
507.289	96.94
507.506	81.94
507.722	104.94
507.939	99.94
508.155	117.94
508.372	83.94
508.588	88.94
508.805	98.94
509.021	97.94
509.238	102.94
509.454	109.94
509.67	96.94
509.887	118.94
510.103	139.94
510.319	235.94
510.536	786.94
510.752	2541.94
510.968	701.94
511.184	172.94
511.401	108.94
511.617	110.94
511.833	91.94
512.049	87.94
512.265	87.94
512.481	95.94
512.698	84.94
512.914	103.94
513.13	102.94
513.346	80.94
513.562	95.94
513.778	85.94
513.994	107.94
514.21	97.94
514.426	133.94
514.642	130.94
514.858	121.94
515.074	168.94
515.29	473.94
515.506	1477.94
