Data from Uncirc_1999_H10_HRD10591_00040.txt Node
Date: Wed Jan 03 11:22:13 EST 2024
User: Yrep
Spectrometer: HR+D1059
Trigger mode: 1
Integration Time (sec): 1.000000E-1
Scans to average: 1
Electric dark correction enabled: true
Nonlinearity correction enabled: false
Boxcar width: 0
XAxis mode: Wavelengths
Number of Pixels in Spectrum: 2048
>>>>>Begin Spectral Data<<<<<
223.165	-17.31
223.4	-17.31
223.635	-17.31
223.869	-20.31
224.104	-11.31
224.338	-16.31
224.573	-14.31
224.808	-18.31
225.042	-10.31
225.277	-6.31
225.511	-20.31
225.746	7.69
225.98	13.69
226.215	12.69
226.449	29.69
226.683	20.69
226.918	18.69
227.152	31.69
227.387	43.69
227.621	42.69
227.856	56.69
228.09	36.69
228.324	65.69
228.559	61.69
228.793	65.69
229.027	81.69
229.262	66.69
229.496	77.69
229.73	79.69
229.964	90.69
230.199	80.69
230.433	77.69
230.667	66.69
230.901	88.69
231.136	80.69
231.37	71.69
231.604	84.69
231.838	76.69
232.072	95.69
232.306	79.69
232.541	79.69
232.775	81.69
233.009	78.69
233.243	77.69
233.477	71.69
233.711	92.69
233.945	84.69
234.179	79.69
234.413	85.69
234.647	84.69
234.881	82.69
235.115	84.69
235.349	76.69
235.583	77.69
235.817	97.69
236.051	76.69
236.285	79.69
236.519	87.69
236.753	78.69
236.987	75.69
237.221	74.69
237.455	82.69
237.689	82.69
237.922	69.69
238.156	79.69
238.39	83.69
238.624	67.69
238.858	89.69
239.091	83.69
239.325	87.69
239.559	88.69
239.793	71.69
240.027	80.69
240.26	68.69
240.494	89.69
240.728	76.69
240.961	73.69
241.195	91.69
241.429	94.69
241.662	80.69
241.896	81.69
242.13	71.69
242.363	72.69
242.597	73.69
242.83	96.69
243.064	72.69
243.298	80.69
243.531	79.69
243.765	83.69
243.998	72.69
244.232	80.69
244.465	81.69
244.699	80.69
244.932	82.69
245.166	84.69
245.399	69.69
245.633	89.69
245.866	93.69
246.099	80.69
246.333	95.69
246.566	100.69
246.8	80.69
247.033	69.69
247.266	81.69
247.5	75.69
247.733	79.69
247.966	85.69
248.2	81.69
248.433	79.69
248.666	72.69
248.899	82.69
249.133	79.69
249.366	95.69
249.599	92.69
249.832	85.69
250.066	93.69
250.299	81.69
250.532	84.69
250.765	80.69
250.998	93.69
251.231	95.69
251.465	83.69
251.698	83.69
251.931	89.69
252.164	85.69
252.397	88.69
252.63	83.69
252.863	87.69
253.096	59.69
253.329	91.69
253.562	86.69
253.795	93.69
254.028	88.69
254.261	87.69
254.494	80.69
254.727	88.69
254.96	78.69
255.193	89.69
255.426	76.69
255.659	77.69
255.892	84.69
256.124	78.69
256.357	87.69
256.59	93.69
256.823	96.69
257.056	80.69
257.289	95.69
257.521	78.69
257.754	86.69
257.987	83.69
258.22	87.69
258.452	90.69
258.685	76.69
258.918	88.69
259.151	86.69
259.383	93.69
259.616	79.69
259.849	94.69
260.081	83.69
260.314	89.69
260.547	83.69
260.779	95.69
261.012	91.69
261.244	90.69
261.477	104.69
261.71	96.69
261.942	101.69
262.175	114.69
262.407	90.69
262.64	84.69
262.872	82.69
263.105	85.69
263.337	77.69
263.57	97.69
263.802	79.69
264.035	84.69
264.267	91.69
264.499	96.69
264.732	92.69
264.964	82.69
265.197	84.69
265.429	93.69
265.661	93.69
265.894	89.69
266.126	91.69
266.358	83.69
266.591	94.69
266.823	85.69
267.055	76.69
267.287	83.69
267.52	80.69
267.752	72.69
267.984	87.69
268.216	77.69
268.448	106.69
268.681	82.69
268.913	83.69
269.145	77.69
269.377	71.69
269.609	90.69
269.841	88.69
270.073	86.69
270.306	83.69
270.538	87.69
270.77	89.69
271.002	85.69
271.234	75.69
271.466	87.69
271.698	91.69
271.93	90.69
272.162	94.69
272.394	73.69
272.626	78.69
272.858	91.69
273.09	97.69
273.322	83.69
273.553	92.69
273.785	76.69
274.017	74.69
274.249	81.69
274.481	73.69
274.713	92.69
274.945	91.69
275.176	74.69
275.408	83.69
275.64	77.69
275.872	82.69
276.104	80.69
276.335	77.69
276.567	90.69
276.799	112.69
277.031	114.69
277.262	73.69
277.494	86.69
277.726	77.69
277.957	96.69
278.189	80.69
278.421	84.69
278.652	88.69
278.884	85.69
279.115	90.69
279.347	69.69
279.579	90.69
279.81	91.69
280.042	86.69
280.273	89.69
280.505	87.69
280.736	83.69
280.968	88.69
281.199	76.69
281.431	97.69
281.662	109.69
281.894	74.69
282.125	91.69
282.356	118.69
282.588	141.69
282.819	121.69
283.051	89.69
283.282	82.69
283.513	101.69
283.745	99.69
283.976	92.69
284.207	102.69
284.439	81.69
284.67	95.69
284.901	83.69
285.132	88.69
285.364	93.69
285.595	94.69
285.826	91.69
286.057	105.69
286.288	74.69
286.52	100.69
286.751	84.69
286.982	99.69
287.213	92.69
287.444	88.69
287.675	86.69
287.906	98.69
288.138	81.69
288.369	105.69
288.6	87.69
288.831	92.69
289.062	109.69
289.293	92.69
289.524	91.69
289.755	81.69
289.986	90.69
290.217	97.69
290.448	91.69
290.679	81.69
290.91	95.69
291.141	89.69
291.371	87.69
291.602	89.69
291.833	90.69
292.064	88.69
292.295	83.69
292.526	88.69
292.757	96.69
292.987	96.69
293.218	87.69
293.449	79.69
293.68	76.69
293.91	82.69
294.141	98.69
294.372	102.69
294.603	107.69
294.833	88.69
295.064	87.69
295.295	85.69
295.525	78.69
295.756	93.69
295.987	117.69
296.217	132.69
296.448	113.69
296.679	83.69
296.909	103.69
297.14	85.69
297.37	85.69
297.601	102.69
297.831	97.69
298.062	94.69
298.292	85.69
298.523	87.69
298.753	90.69
298.984	101.69
299.214	80.69
299.445	97.69
299.675	95.69
299.905	71.69
300.136	90.69
300.366	83.69
300.597	89.69
300.827	92.69
301.057	85.69
301.288	98.69
301.518	89.69
301.748	89.69
301.979	95.69
302.209	91.69
302.439	105.69
302.669	94.69
302.9	80.69
303.13	94.69
303.36	97.69
303.59	111.69
303.82	104.69
304.051	99.69
304.281	97.69
304.511	84.69
304.741	79.69
304.971	105.69
305.201	95.69
305.431	99.69
305.661	102.69
305.891	99.69
306.121	103.69
306.352	96.69
306.582	113.69
306.812	93.69
307.042	93.69
307.272	95.69
307.502	96.69
307.731	91.69
307.961	92.69
308.191	105.69
308.421	108.69
308.651	95.69
308.881	90.69
309.111	104.69
309.341	100.69
309.571	101.69
309.8	97.69
310.03	102.69
310.26	94.69
310.49	100.69
310.72	105.69
310.949	92.69
311.179	89.69
311.409	93.69
311.639	92.69
311.868	80.69
312.098	97.69
312.328	100.69
312.557	91.69
312.787	98.69
313.017	119.69
313.246	96.69
313.476	103.69
313.706	100.69
313.935	91.69
314.165	108.69
314.394	104.69
314.624	88.69
314.853	103.69
315.083	94.69
315.312	88.69
315.542	90.69
315.771	95.69
316.001	97.69
316.23	87.69
316.46	110.69
316.689	100.69
316.919	92.69
317.148	97.69
317.377	79.69
317.607	87.69
317.836	98.69
318.065	84.69
318.295	97.69
318.524	105.69
318.753	73.69
318.983	90.69
319.212	95.69
319.441	111.69
319.67	122.69
319.9	90.69
320.129	105.69
320.358	89.69
320.587	102.69
320.816	86.69
321.046	105.69
321.275	101.69
321.504	85.69
321.733	106.69
321.962	91.69
322.191	93.69
322.42	100.69
322.649	113.69
322.878	107.69
323.108	113.69
323.337	125.69
323.566	130.69
323.795	153.69
324.024	195.69
324.253	398.69
324.482	811.69
324.71	1664.69
324.939	2165.69
325.168	815.69
325.397	256.69
325.626	147.69
325.855	122.69
326.084	129.69
326.313	130.69
326.542	171.69
326.77	222.69
326.999	458.69
327.228	955.69
327.457	1695.69
327.686	1362.69
327.914	357.69
328.143	189.69
328.372	151.69
328.6	122.69
328.829	115.69
329.058	111.69
329.287	129.69
329.515	104.69
329.744	108.69
329.972	102.69
330.201	109.69
330.43	110.69
330.658	116.69
330.887	125.69
331.115	115.69
331.344	104.69
331.572	102.69
331.801	103.69
332.03	104.69
332.258	109.69
332.486	104.69
332.715	96.69
332.943	98.69
333.172	93.69
333.4	102.69
333.629	125.69
333.857	111.69
334.085	120.69
334.314	109.69
334.542	113.69
334.771	97.69
334.999	99.69
335.227	91.69
335.455	95.69
335.684	90.69
335.912	87.69
336.14	95.69
336.369	113.69
336.597	103.69
336.825	99.69
337.053	92.69
337.281	95.69
337.51	84.69
337.738	79.69
337.966	83.69
338.194	106.69
338.422	105.69
338.65	98.69
338.878	107.69
339.106	110.69
339.334	106.69
339.562	84.69
339.79	92.69
340.018	91.69
340.246	92.69
340.474	83.69
340.702	88.69
340.93	100.69
341.158	89.69
341.386	94.69
341.614	101.69
341.842	91.69
342.07	98.69
342.298	86.69
342.526	85.69
342.754	93.69
342.981	89.69
343.209	82.69
343.437	99.69
343.665	87.69
343.893	85.69
344.12	96.69
344.348	99.69
344.576	93.69
344.804	104.69
345.031	89.69
345.259	75.69
345.487	99.69
345.714	82.69
345.942	88.69
346.17	98.69
346.397	81.69
346.625	94.69
346.853	95.69
347.08	109.69
347.308	75.69
347.535	91.69
347.763	108.69
347.99	106.69
348.218	96.69
348.445	114.69
348.673	92.69
348.9	99.69
349.128	106.69
349.355	100.69
349.583	108.69
349.81	93.69
350.037	99.69
350.265	104.69
350.492	103.69
350.72	100.69
350.947	101.69
351.174	110.69
351.402	119.69
351.629	102.69
351.856	95.69
352.083	109.69
352.311	108.69
352.538	97.69
352.765	108.69
352.992	106.69
353.22	113.69
353.447	97.69
353.674	117.69
353.901	91.69
354.128	98.69
354.355	106.69
354.583	101.69
354.81	98.69
355.037	109.69
355.264	89.69
355.491	88.69
355.718	105.69
355.945	109.69
356.172	108.69
356.399	107.69
356.626	106.69
356.853	88.69
357.08	94.69
357.307	101.69
357.534	89.69
357.761	92.69
357.988	112.69
358.215	106.69
358.441	99.69
358.668	89.69
358.895	84.69
359.122	90.69
359.349	91.69
359.576	85.69
359.802	109.69
360.029	88.69
360.256	101.69
360.483	96.69
360.709	95.69
360.936	93.69
361.163	88.69
361.39	85.69
361.616	89.69
361.843	83.69
362.07	100.69
362.296	96.69
362.523	84.69
362.749	104.69
362.976	84.69
363.203	90.69
363.429	82.69
363.656	87.69
363.882	82.69
364.109	97.69
364.335	84.69
364.562	89.69
364.788	95.69
365.015	93.69
365.241	105.69
365.468	100.69
365.694	84.69
365.92	92.69
366.147	91.69
366.373	100.69
366.599	86.69
366.826	79.69
367.052	91.69
367.278	96.69
367.505	96.69
367.731	84.69
367.957	96.69
368.184	99.69
368.41	100.69
368.636	106.69
368.862	109.69
369.089	127.69
369.315	87.69
369.541	93.69
369.767	88.69
369.993	91.69
370.219	83.69
370.445	91.69
370.672	82.69
370.898	87.69
371.124	89.69
371.35	99.69
371.576	93.69
371.802	90.69
372.028	96.69
372.254	84.69
372.48	99.69
372.706	93.69
372.932	79.69
373.158	103.69
373.384	91.69
373.61	89.69
373.835	103.69
374.061	99.69
374.287	101.69
374.513	94.69
374.739	89.69
374.965	97.69
375.191	100.69
375.416	101.69
375.642	104.69
375.868	103.69
376.094	103.69
376.319	94.69
376.545	111.69
376.771	97.69
376.997	82.69
377.222	87.69
377.448	104.69
377.674	90.69
377.899	89.69
378.125	104.69
378.35	90.69
378.576	99.69
378.802	103.69
379.027	104.69
379.253	99.69
379.478	96.69
379.704	111.69
379.929	97.69
380.155	100.69
380.38	97.69
380.606	110.69
380.831	100.69
381.057	95.69
381.282	104.69
381.507	94.69
381.733	114.69
381.958	113.69
382.184	112.69
382.409	101.69
382.634	112.69
382.86	115.69
383.085	102.69
383.31	104.69
383.535	109.69
383.761	108.69
383.986	95.69
384.211	105.69
384.436	106.69
384.662	110.69
384.887	113.69
385.112	111.69
385.337	108.69
385.562	111.69
385.787	102.69
386.013	122.69
386.238	117.69
386.463	102.69
386.688	107.69
386.913	101.69
387.138	120.69
387.363	114.69
387.588	114.69
387.813	120.69
388.038	113.69
388.263	136.69
388.488	127.69
388.713	101.69
388.938	112.69
389.163	97.69
389.387	95.69
389.612	114.69
389.837	105.69
390.062	85.69
390.287	100.69
390.512	86.69
390.736	86.69
390.961	94.69
391.186	87.69
391.411	88.69
391.636	103.69
391.86	84.69
392.085	82.69
392.31	87.69
392.534	95.69
392.759	95.69
392.984	79.69
393.208	95.69
393.433	84.69
393.658	88.69
393.882	91.69
394.107	94.69
394.331	87.69
394.556	84.69
394.78	81.69
395.005	104.69
395.229	94.69
395.454	83.69
395.678	92.69
395.903	97.69
396.127	94.69
396.352	87.69
396.576	95.69
396.801	83.69
397.025	86.69
397.249	91.69
397.474	98.69
397.698	84.69
397.922	86.69
398.147	77.69
398.371	94.69
398.595	109.69
398.82	83.69
399.044	88.69
399.268	107.69
399.492	87.69
399.717	97.69
399.941	90.69
400.165	98.69
400.389	92.69
400.613	89.69
400.837	68.69
401.062	90.69
401.286	96.69
401.51	100.69
401.734	92.69
401.958	94.69
402.182	114.69
402.406	158.69
402.63	110.69
402.854	100.69
403.078	97.69
403.302	93.69
403.526	92.69
403.75	85.69
403.974	87.69
404.198	97.69
404.422	78.69
404.645	101.69
404.869	92.69
405.093	93.69
405.317	95.69
405.541	103.69
405.765	107.69
405.988	117.69
406.212	139.69
406.436	220.69
406.66	131.69
406.883	93.69
407.107	90.69
407.331	89.69
407.555	101.69
407.778	98.69
408.002	100.69
408.226	93.69
408.449	91.69
408.673	86.69
408.896	105.69
409.12	106.69
409.344	100.69
409.567	106.69
409.791	98.69
410.014	105.69
410.238	91.69
410.461	96.69
410.685	93.69
410.908	111.69
411.132	116.69
411.355	103.69
411.578	97.69
411.802	95.69
412.025	89.69
412.249	100.69
412.472	96.69
412.695	88.69
412.919	102.69
413.142	85.69
413.365	91.69
413.589	87.69
413.812	82.69
414.035	87.69
414.258	80.69
414.482	84.69
414.705	78.69
414.928	92.69
415.151	94.69
415.374	108.69
415.597	104.69
415.821	96.69
416.044	90.69
416.267	88.69
416.49	105.69
416.713	86.69
416.936	83.69
417.159	93.69
417.382	86.69
417.605	90.69
417.828	95.69
418.051	74.69
418.274	98.69
418.497	95.69
418.72	88.69
418.943	99.69
419.166	84.69
419.389	93.69
419.611	85.69
419.834	96.69
420.057	89.69
420.28	94.69
420.503	86.69
420.726	93.69
420.948	84.69
421.171	81.69
421.394	103.69
421.617	107.69
421.839	87.69
422.062	99.69
422.285	104.69
422.507	94.69
422.73	106.69
422.953	87.69
423.175	101.69
423.398	92.69
423.621	93.69
423.843	101.69
424.066	108.69
424.288	103.69
424.511	83.69
424.733	88.69
424.956	97.69
425.178	94.69
425.401	91.69
425.623	106.69
425.846	101.69
426.068	84.69
426.291	92.69
426.513	95.69
426.735	92.69
426.958	107.69
427.18	106.69
427.402	131.69
427.625	142.69
427.847	116.69
428.069	113.69
428.292	97.69
428.514	97.69
428.736	101.69
428.958	84.69
429.181	93.69
429.403	83.69
429.625	89.69
429.847	99.69
430.069	97.69
430.292	83.69
430.514	85.69
430.736	91.69
430.958	97.69
431.18	105.69
431.402	96.69
431.624	90.69
431.846	102.69
432.068	85.69
432.29	94.69
432.512	92.69
432.734	88.69
432.956	97.69
433.178	98.69
433.4	98.69
433.622	86.69
433.844	94.69
434.066	93.69
434.287	96.69
434.509	88.69
434.731	93.69
434.953	81.69
435.175	82.69
435.397	88.69
435.618	90.69
435.84	88.69
436.062	125.69
436.284	115.69
436.505	104.69
436.727	101.69
436.949	97.69
437.17	87.69
437.392	86.69
437.614	88.69
437.835	113.69
438.057	117.69
438.278	109.69
438.5	94.69
438.721	112.69
438.943	97.69
439.165	109.69
439.386	107.69
439.608	98.69
439.829	91.69
440.05	120.69
440.272	123.69
440.493	106.69
440.715	89.69
440.936	99.69
441.158	90.69
441.379	98.69
441.6	82.69
441.822	98.69
442.043	92.69
442.264	100.69
442.486	100.69
442.707	99.69
442.928	103.69
443.149	125.69
443.371	98.69
443.592	104.69
443.813	110.69
444.034	93.69
444.255	83.69
444.476	98.69
444.698	91.69
444.919	95.69
445.14	129.69
445.361	131.69
445.582	118.69
445.803	116.69
446.024	117.69
446.245	127.69
446.466	117.69
446.687	104.69
446.908	97.69
447.129	87.69
447.35	106.69
447.571	107.69
447.792	104.69
448.013	109.69
448.234	103.69
448.455	99.69
448.675	116.69
448.896	113.69
449.117	84.69
449.338	100.69
449.559	123.69
449.779	130.69
450	89.69
450.221	87.69
450.442	93.69
450.662	96.69
450.883	108.69
451.104	105.69
451.324	89.69
451.545	98.69
451.766	96.69
451.986	85.69
452.207	96.69
452.428	99.69
452.648	99.69
452.869	109.69
453.089	109.69
453.31	116.69
453.53	94.69
453.751	106.69
453.971	108.69
454.192	116.69
454.412	93.69
454.633	94.69
454.853	89.69
455.073	102.69
455.294	99.69
455.514	98.69
455.734	88.69
455.955	79.69
456.175	87.69
456.395	96.69
456.616	94.69
456.836	85.69
457.056	83.69
457.276	89.69
457.497	83.69
457.717	93.69
457.937	84.69
458.157	86.69
458.377	88.69
458.598	96.69
458.818	134.69
459.038	141.69
459.258	114.69
459.478	84.69
459.698	94.69
459.918	108.69
460.138	88.69
460.358	96.69
460.578	92.69
460.798	101.69
461.018	94.69
461.238	97.69
461.458	77.69
461.678	95.69
461.898	101.69
462.118	87.69
462.338	93.69
462.558	84.69
462.777	78.69
462.997	95.69
463.217	90.69
463.437	94.69
463.657	102.69
463.876	85.69
464.096	108.69
464.316	93.69
464.536	103.69
464.755	82.69
464.975	106.69
465.195	149.69
465.414	144.69
465.634	94.69
465.854	88.69
466.073	100.69
466.293	96.69
466.512	97.69
466.732	81.69
466.951	94.69
467.171	103.69
467.391	90.69
467.61	116.69
467.829	106.69
468.049	90.69
468.268	82.69
468.488	89.69
468.707	84.69
468.927	89.69
469.146	85.69
469.365	95.69
469.585	81.69
469.804	98.69
470.023	103.69
470.243	92.69
470.462	105.69
470.681	101.69
470.901	84.69
471.12	103.69
471.339	96.69
471.558	95.69
471.777	96.69
471.997	96.69
472.216	97.69
472.435	113.69
472.654	98.69
472.873	96.69
473.092	92.69
473.311	91.69
473.53	85.69
473.749	105.69
473.968	102.69
474.187	93.69
474.406	97.69
474.625	97.69
474.844	103.69
475.063	94.69
475.282	90.69
475.501	90.69
475.72	90.69
475.939	91.69
476.158	80.69
476.377	94.69
476.596	91.69
476.814	103.69
477.033	89.69
477.252	96.69
477.471	102.69
477.69	103.69
477.908	96.69
478.127	84.69
478.346	82.69
478.564	92.69
478.783	109.69
479.002	96.69
479.22	101.69
479.439	101.69
479.658	104.69
479.876	99.69
480.095	81.69
480.313	85.69
480.532	88.69
480.751	84.69
480.969	113.69
481.188	131.69
481.406	97.69
481.624	88.69
481.843	84.69
482.061	82.69
482.28	101.69
482.498	87.69
482.717	115.69
482.935	124.69
483.153	99.69
483.372	94.69
483.59	94.69
483.808	95.69
484.027	94.69
484.245	104.69
484.463	98.69
484.681	104.69
484.9	114.69
485.118	111.69
485.336	113.69
485.554	92.69
485.772	89.69
485.99	108.69
486.209	118.69
486.427	97.69
486.645	102.69
486.863	99.69
487.081	89.69
487.299	114.69
487.517	96.69
487.735	98.69
487.953	101.69
488.171	97.69
488.389	105.69
488.607	95.69
488.825	97.69
489.043	79.69
489.261	91.69
489.479	98.69
489.696	93.69
489.914	92.69
490.132	104.69
490.35	92.69
490.568	101.69
490.786	98.69
491.003	91.69
491.221	88.69
491.439	97.69
491.657	101.69
491.874	118.69
492.092	105.69
492.31	91.69
492.527	96.69
492.745	97.69
492.963	87.69
493.18	100.69
493.398	106.69
493.615	90.69
493.833	98.69
494.05	104.69
494.268	100.69
494.485	95.69
494.703	92.69
494.92	94.69
495.138	107.69
495.355	94.69
495.573	88.69
495.79	92.69
496.008	113.69
496.225	91.69
496.442	110.69
496.66	100.69
496.877	83.69
497.094	104.69
497.312	106.69
497.529	99.69
497.746	101.69
497.963	101.69
498.181	100.69
498.398	101.69
498.615	116.69
498.832	97.69
499.049	94.69
499.267	90.69
499.484	95.69
499.701	97.69
499.918	101.69
500.135	88.69
500.352	102.69
500.569	108.69
500.786	94.69
501.003	95.69
501.22	98.69
501.437	83.69
501.654	101.69
501.871	112.69
502.088	91.69
502.305	90.69
502.522	88.69
502.739	91.69
502.956	98.69
503.172	92.69
503.389	92.69
503.606	102.69
503.823	110.69
504.04	97.69
504.256	91.69
504.473	93.69
504.69	98.69
504.907	101.69
505.123	91.69
505.34	107.69
505.557	93.69
505.773	83.69
505.99	82.69
506.207	81.69
506.423	82.69
506.64	93.69
506.856	96.69
507.073	89.69
507.289	89.69
507.506	108.69
507.722	114.69
507.939	106.69
508.155	99.69
508.372	97.69
508.588	93.69
508.805	96.69
509.021	89.69
509.238	103.69
509.454	98.69
509.67	109.69
509.887	98.69
510.103	125.69
510.319	221.69
510.536	724.69
510.752	2179.69
510.968	612.69
511.184	176.69
511.401	101.69
511.617	93.69
511.833	99.69
512.049	88.69
512.265	100.69
512.481	102.69
512.698	103.69
512.914	96.69
513.13	101.69
513.346	97.69
513.562	87.69
513.778	97.69
513.994	101.69
514.21	111.69
