Data from Uncirc_1999_H10_HRD10591_00066.txt Node
Date: Wed Jan 03 11:22:18 EST 2024
User: Yrep
Spectrometer: HR+D1059
Trigger mode: 1
Integration Time (sec): 1.000000E-1
Scans to average: 1
Electric dark correction enabled: true
Nonlinearity correction enabled: false
Boxcar width: 0
XAxis mode: Wavelengths
Number of Pixels in Spectrum: 2048
>>>>>Begin Spectral Data<<<<<
223.165	-22
223.4	-22
223.635	-22
223.869	-11
224.104	-6
224.338	-24
224.573	-13
224.808	-15
225.042	-20
225.277	-13
225.511	-5
225.746	18
225.98	4
226.215	15
226.449	14
226.683	16
226.918	33
227.152	29
227.387	45
227.621	40
227.856	48
228.09	46
228.324	50
228.559	54
228.793	62
229.027	69
229.262	57
229.496	64
229.73	70
229.964	87
230.199	79
230.433	80
230.667	77
230.901	70
231.136	85
231.37	84
231.604	86
231.838	75
232.072	87
232.306	81
232.541	90
232.775	65
233.009	71
233.243	79
233.477	87
233.711	96
233.945	68
234.179	78
234.413	79
234.647	77
234.881	64
235.115	84
235.349	87
235.583	84
235.817	66
236.051	89
236.285	65
236.519	85
236.753	57
236.987	80
237.221	72
237.455	96
237.689	93
237.922	69
238.156	77
238.39	79
238.624	67
238.858	92
239.091	72
239.325	69
239.559	73
239.793	74
240.027	55
240.26	74
240.494	69
240.728	97
240.961	73
241.195	74
241.429	80
241.662	81
241.896	65
242.13	75
242.363	79
242.597	78
242.83	78
243.064	87
243.298	75
243.531	65
243.765	82
243.998	90
244.232	87
244.465	74
244.699	85
244.932	71
245.166	87
245.399	92
245.633	73
245.866	81
246.099	88
246.333	76
246.566	87
246.8	86
247.033	69
247.266	71
247.5	86
247.733	81
247.966	87
248.2	67
248.433	84
248.666	67
248.899	83
249.133	94
249.366	90
249.599	106
249.832	69
250.066	78
250.299	73
250.532	82
250.765	82
250.998	70
251.231	84
251.465	75
251.698	66
251.931	73
252.164	88
252.397	85
252.63	90
252.863	66
253.096	75
253.329	78
253.562	76
253.795	87
254.028	86
254.261	88
254.494	76
254.727	94
254.96	74
255.193	72
255.426	84
255.659	80
255.892	92
256.124	74
256.357	79
256.59	77
256.823	72
257.056	89
257.289	75
257.521	76
257.754	81
257.987	102
258.22	79
258.452	79
258.685	83
258.918	81
259.151	71
259.383	89
259.616	93
259.849	82
260.081	87
260.314	94
260.547	84
260.779	82
261.012	85
261.244	79
261.477	90
261.71	99
261.942	98
262.175	99
262.407	87
262.64	80
262.872	102
263.105	73
263.337	73
263.57	84
263.802	86
264.035	83
264.267	93
264.499	93
264.732	71
264.964	69
265.197	91
265.429	78
265.661	69
265.894	76
266.126	74
266.358	84
266.591	86
266.823	85
267.055	77
267.287	91
267.52	79
267.752	88
267.984	81
268.216	82
268.448	86
268.681	87
268.913	80
269.145	86
269.377	95
269.609	103
269.841	79
270.073	92
270.306	74
270.538	94
270.77	91
271.002	92
271.234	93
271.466	84
271.698	95
271.93	80
272.162	79
272.394	89
272.626	87
272.858	82
273.09	89
273.322	102
273.553	80
273.785	83
274.017	82
274.249	76
274.481	78
274.713	93
274.945	87
275.176	105
275.408	78
275.64	82
275.872	87
276.104	72
276.335	79
276.567	95
276.799	84
277.031	90
277.262	78
277.494	99
277.726	78
277.957	85
278.189	93
278.421	87
278.652	99
278.884	85
279.115	76
279.347	91
279.579	87
279.81	95
280.042	84
280.273	88
280.505	82
280.736	82
280.968	91
281.199	86
281.431	90
281.662	85
281.894	111
282.125	104
282.356	122
282.588	114
282.819	105
283.051	83
283.282	87
283.513	77
283.745	97
283.976	93
284.207	92
284.439	91
284.67	102
284.901	90
285.132	96
285.364	85
285.595	87
285.826	78
286.057	88
286.288	80
286.52	69
286.751	87
286.982	81
287.213	75
287.444	76
287.675	96
287.906	96
288.138	85
288.369	80
288.6	80
288.831	99
289.062	87
289.293	93
289.524	92
289.755	83
289.986	94
290.217	95
290.448	81
290.679	84
290.91	87
291.141	84
291.371	95
291.602	94
291.833	82
292.064	85
292.295	81
292.526	99
292.757	83
292.987	90
293.218	91
293.449	94
293.68	90
293.91	88
294.141	105
294.372	90
294.603	93
294.833	72
295.064	85
295.295	74
295.525	88
295.756	95
295.987	97
296.217	120
296.448	133
296.679	90
296.909	97
297.14	107
297.37	85
297.601	85
297.831	72
298.062	90
298.292	79
298.523	85
298.753	90
298.984	85
299.214	101
299.445	100
299.675	96
299.905	89
300.136	82
300.366	94
300.597	110
300.827	84
301.057	106
301.288	101
301.518	78
301.748	86
301.979	104
302.209	91
302.439	86
302.669	107
302.9	108
303.13	82
303.36	102
303.59	99
303.82	106
304.051	98
304.281	83
304.511	89
304.741	93
304.971	91
305.201	87
305.431	97
305.661	101
305.891	88
306.121	99
306.352	121
306.582	97
306.812	105
307.042	81
307.272	92
307.502	99
307.731	88
307.961	87
308.191	98
308.421	99
308.651	92
308.881	103
309.111	86
309.341	105
309.571	90
309.8	111
310.03	97
310.26	110
310.49	85
310.72	118
310.949	90
311.179	96
311.409	98
311.639	98
311.868	107
312.098	87
312.328	90
312.557	98
312.787	99
313.017	87
313.246	85
313.476	101
313.706	92
313.935	89
314.165	79
314.394	95
314.624	91
314.853	99
315.083	101
315.312	93
315.542	100
315.771	107
316.001	102
316.23	90
316.46	92
316.689	79
316.919	85
317.148	95
317.377	103
317.607	89
317.836	98
318.065	86
318.295	90
318.524	104
318.753	96
318.983	77
319.212	96
319.441	100
319.67	104
319.9	100
320.129	110
320.358	106
320.587	103
320.816	106
321.046	90
321.275	91
321.504	119
321.733	97
321.962	73
322.191	105
322.42	101
322.649	105
322.878	99
323.108	106
323.337	109
323.566	122
323.795	141
324.024	216
324.253	396
324.482	827
324.71	1715
324.939	2245
325.168	789
325.397	237
325.626	158
325.855	118
326.084	118
326.313	134
326.542	157
326.77	225
326.999	474
327.228	947
327.457	1771
327.686	1361
327.914	357
328.143	181
328.372	133
328.6	122
328.829	118
329.058	114
329.287	126
329.515	104
329.744	96
329.972	104
330.201	92
330.43	124
330.658	117
330.887	126
331.115	119
331.344	111
331.572	103
331.801	112
332.03	112
332.258	92
332.486	92
332.715	88
332.943	85
333.172	91
333.4	86
333.629	90
333.857	107
334.085	115
334.314	87
334.542	87
334.771	101
334.999	88
335.227	97
335.455	112
335.684	110
335.912	95
336.14	97
336.369	99
336.597	91
336.825	111
337.053	101
337.281	87
337.51	90
337.738	102
337.966	94
338.194	89
338.422	87
338.65	84
338.878	87
339.106	105
339.334	102
339.562	83
339.79	78
340.018	90
340.246	87
340.474	102
340.702	94
340.93	103
341.158	98
341.386	96
341.614	92
341.842	95
342.07	94
342.298	103
342.526	94
342.754	85
342.981	92
343.209	90
343.437	103
343.665	94
343.893	97
344.12	106
344.348	91
344.576	87
344.804	101
345.031	96
345.259	87
345.487	105
345.714	96
345.942	92
346.17	85
346.397	91
346.625	84
346.853	90
347.08	91
347.308	96
347.535	86
347.763	94
347.99	105
348.218	106
348.445	79
348.673	98
348.9	104
349.128	93
349.355	105
349.583	90
349.81	79
350.037	99
350.265	90
350.492	83
350.72	88
350.947	103
351.174	97
351.402	111
351.629	105
351.856	92
352.083	97
352.311	113
352.538	107
352.765	113
352.992	114
353.22	108
353.447	87
353.674	96
353.901	96
354.128	94
354.355	97
354.583	104
354.81	93
355.037	93
355.264	93
355.491	86
355.718	93
355.945	91
356.172	96
356.399	112
356.626	102
356.853	97
357.08	103
357.307	97
357.534	111
357.761	78
357.988	94
358.215	108
358.441	90
358.668	99
358.895	105
359.122	89
359.349	82
359.576	97
359.802	88
360.029	102
360.256	101
360.483	96
360.709	97
360.936	83
361.163	97
361.39	92
361.616	90
361.843	95
362.07	100
362.296	108
362.523	99
362.749	97
362.976	91
363.203	97
363.429	96
363.656	78
363.882	89
364.109	104
364.335	118
364.562	98
364.788	95
365.015	78
365.241	94
365.468	94
365.694	110
365.92	93
366.147	95
366.373	80
366.599	97
366.826	94
367.052	97
367.278	103
367.505	90
367.731	75
367.957	91
368.184	100
368.41	93
368.636	98
368.862	120
369.089	101
369.315	98
369.541	98
369.767	86
369.993	92
370.219	106
370.445	80
370.672	85
370.898	78
371.124	89
371.35	94
371.576	98
371.802	91
372.028	85
372.254	85
372.48	83
372.706	91
372.932	73
373.158	81
373.384	99
373.61	110
373.835	95
374.061	86
374.287	101
374.513	81
374.739	103
374.965	100
375.191	71
375.416	103
375.642	94
375.868	93
376.094	86
376.319	97
376.545	91
376.771	100
376.997	98
377.222	87
377.448	85
377.674	107
377.899	76
378.125	92
378.35	97
378.576	92
378.802	95
379.027	111
379.253	104
379.478	93
379.704	89
379.929	90
380.155	95
380.38	95
380.606	98
380.831	93
381.057	99
381.282	96
381.507	77
381.733	101
381.958	82
382.184	106
382.409	104
382.634	99
382.86	107
383.085	105
383.31	94
383.535	105
383.761	106
383.986	98
384.211	100
384.436	102
384.662	97
384.887	101
385.112	93
385.337	104
385.562	104
385.787	113
386.013	117
386.238	114
386.463	95
386.688	111
386.913	100
387.138	115
387.363	106
387.588	85
387.813	108
388.038	100
388.263	106
388.488	124
388.713	97
388.938	98
389.163	99
389.387	84
389.612	91
389.837	89
390.062	93
390.287	99
390.512	102
390.736	95
390.961	90
391.186	95
391.411	77
391.636	94
391.86	95
392.085	83
392.31	97
392.534	79
392.759	100
392.984	101
393.208	77
393.433	83
393.658	80
393.882	97
394.107	88
394.331	88
394.556	79
394.78	93
395.005	100
395.229	71
395.454	78
395.678	83
395.903	88
396.127	89
396.352	93
396.576	73
396.801	90
397.025	90
397.249	87
397.474	93
397.698	101
397.922	85
398.147	79
398.371	88
398.595	79
398.82	85
399.044	90
399.268	94
399.492	82
399.717	98
399.941	93
400.165	99
400.389	89
400.613	86
400.837	90
401.062	98
401.286	102
401.51	98
401.734	97
401.958	84
402.182	106
402.406	148
402.63	122
402.854	93
403.078	75
403.302	92
403.526	82
403.75	88
403.974	89
404.198	83
404.422	98
404.645	84
404.869	87
405.093	86
405.317	87
405.541	106
405.765	91
405.988	116
406.212	166
406.436	205
406.66	118
406.883	103
407.107	85
407.331	91
407.555	96
407.778	97
408.002	99
408.226	83
408.449	92
408.673	96
408.896	85
409.12	94
409.344	101
409.567	93
409.791	103
410.014	90
410.238	87
410.461	89
410.685	110
410.908	91
411.132	126
411.355	98
411.578	95
411.802	85
412.025	96
412.249	89
412.472	82
412.695	87
412.919	78
413.142	94
413.365	74
413.589	95
413.812	76
414.035	89
414.258	77
414.482	87
414.705	92
414.928	91
415.151	88
415.374	101
415.597	89
415.821	80
416.044	95
416.267	95
416.49	87
416.713	89
416.936	81
417.159	104
417.382	91
417.605	85
417.828	81
418.051	98
418.274	75
418.497	78
418.72	102
418.943	98
419.166	94
419.389	94
419.611	109
419.834	85
420.057	98
420.28	97
420.503	81
420.726	79
420.948	94
421.171	87
421.394	86
421.617	85
421.839	91
422.062	90
422.285	87
422.507	98
422.73	74
422.953	91
423.175	97
423.398	96
423.621	93
423.843	91
424.066	78
424.288	98
424.511	94
424.733	102
424.956	104
425.178	94
425.401	98
425.623	103
425.846	89
426.068	95
426.291	98
426.513	90
426.735	81
426.958	100
427.18	96
427.402	122
427.625	152
427.847	122
428.069	114
428.292	90
428.514	89
428.736	87
428.958	98
429.181	87
429.403	73
429.625	94
429.847	73
430.069	95
430.292	97
430.514	83
430.736	90
430.958	85
431.18	88
431.402	76
431.624	85
431.846	87
432.068	93
432.29	84
432.512	96
432.734	81
432.956	90
433.178	93
433.4	90
433.622	80
433.844	91
434.066	95
434.287	74
434.509	91
434.731	104
434.953	85
435.175	80
435.397	87
435.618	82
435.84	86
436.062	89
436.284	103
436.505	96
436.727	89
436.949	94
437.17	91
437.392	86
437.614	80
437.835	98
438.057	108
438.278	89
438.5	95
438.721	126
438.943	89
439.165	97
439.386	84
439.608	96
439.829	119
440.05	122
440.272	126
440.493	87
440.715	79
440.936	93
441.158	93
441.379	85
441.6	73
441.822	97
442.043	84
442.264	106
442.486	102
442.707	88
442.928	96
443.149	123
443.371	119
443.592	103
443.813	109
444.034	98
444.255	89
444.476	92
444.698	82
444.919	95
445.14	136
445.361	104
445.582	104
445.803	124
446.024	120
446.245	129
446.466	105
446.687	97
446.908	99
447.129	90
447.35	101
447.571	91
447.792	84
448.013	98
448.234	109
448.455	98
448.675	107
448.896	115
449.117	117
449.338	107
449.559	122
449.779	130
450	92
450.221	89
450.442	91
450.662	90
450.883	88
451.104	98
451.324	83
451.545	91
451.766	89
451.986	83
452.207	81
452.428	88
452.648	103
452.869	109
453.089	97
453.31	117
453.53	73
453.751	93
453.971	102
454.192	93
454.412	85
454.633	85
454.853	83
455.073	97
455.294	85
455.514	99
455.734	88
455.955	77
456.175	91
456.395	72
456.616	95
456.836	83
457.056	63
457.276	87
457.497	87
457.717	87
457.937	90
458.157	87
458.377	90
458.598	103
458.818	131
459.038	114
459.258	92
459.478	90
459.698	83
459.918	80
460.138	90
460.358	86
460.578	96
460.798	94
461.018	88
461.238	88
461.458	95
461.678	74
461.898	81
462.118	90
462.338	89
462.558	88
462.777	82
462.997	86
463.217	96
463.437	70
463.657	84
463.876	80
464.096	85
464.316	83
464.536	100
464.755	98
464.975	91
465.195	141
465.414	126
465.634	105
465.854	88
466.073	90
466.293	96
466.512	90
466.732	109
466.951	88
467.171	95
467.391	109
467.61	96
467.829	86
468.049	88
468.268	102
468.488	94
468.707	90
468.927	82
469.146	96
469.365	94
469.585	87
469.804	88
470.023	90
470.243	83
470.462	98
470.681	114
470.901	95
471.12	86
471.339	83
471.558	81
471.777	103
471.997	82
472.216	84
472.435	101
472.654	78
472.873	101
473.092	109
473.311	84
473.53	94
473.749	71
473.968	98
474.187	97
474.406	98
474.625	97
474.844	89
475.063	91
475.282	88
475.501	105
475.72	92
475.939	93
476.158	89
476.377	87
476.596	85
476.814	90
477.033	90
477.252	89
477.471	94
477.69	94
477.908	92
478.127	88
478.346	90
478.564	93
478.783	90
479.002	94
479.22	86
479.439	108
479.658	104
479.876	93
480.095	81
480.313	79
480.532	83
480.751	88
480.969	90
481.188	103
481.406	109
481.624	93
481.843	111
482.061	86
482.28	95
482.498	78
482.717	87
482.935	87
483.153	76
483.372	85
483.59	83
483.808	105
484.027	105
484.245	103
484.463	92
484.681	96
484.9	94
485.118	103
485.336	97
485.554	97
485.772	105
485.99	103
486.209	95
486.427	93
486.645	108
486.863	105
487.081	104
487.299	103
487.517	98
487.735	107
487.953	98
488.171	97
488.389	89
488.607	91
488.825	95
489.043	95
489.261	93
489.479	93
489.696	99
489.914	93
490.132	85
490.35	97
490.568	85
490.786	96
491.003	93
491.221	77
491.439	97
491.657	98
491.874	101
492.092	86
492.31	97
492.527	83
492.745	100
492.963	106
493.18	91
493.398	88
493.615	107
493.833	100
494.05	106
494.268	94
494.485	105
494.703	94
494.92	82
495.138	96
495.355	95
495.573	93
495.79	99
496.008	99
496.225	83
496.442	96
496.66	97
496.877	95
497.094	98
497.312	105
497.529	91
497.746	71
497.963	93
498.181	80
498.398	109
498.615	106
498.832	106
499.049	97
499.267	98
499.484	89
499.701	88
499.918	88
500.135	78
500.352	77
500.569	87
500.786	93
501.003	82
501.22	98
501.437	93
501.654	90
501.871	105
502.088	103
502.305	88
502.522	88
502.739	95
502.956	94
503.172	99
503.389	92
503.606	94
503.823	106
504.04	89
504.256	84
504.473	87
504.69	93
504.907	94
505.123	92
505.34	92
505.557	87
505.773	98
505.99	88
506.207	93
506.423	96
506.64	93
506.856	70
507.073	94
507.289	90
507.506	117
507.722	111
507.939	92
508.155	84
508.372	94
508.588	84
508.805	94
509.021	100
509.238	92
509.454	101
509.67	90
509.887	113
510.103	134
510.319	202
510.536	730
510.752	2219
510.968	607
511.184	149
511.401	109
511.617	85
511.833	95
512.049	96
512.265	105
512.481	89
512.698	98
512.914	93
513.13	96
513.346	95
513.562	108
513.778	104
513.994	99
514.21	97
514.426	118
514.642	122
514.858	125
515.074	157
515.29	410
515.506	1223
515.721	496
515.937	142
516.153	112
516.369	89
516.585	83
516.801	85
517.016	89
517.232	96
517.448	82
517.664	90
517.879	95
518.095	98
518.311	96
518.527	97
518.742	82
518.958	93
519.173	89
519.389	82
519.605	94
519.82	100
520.036	104
520.251	115
520.467	91
520.682	103
520.898	97
521.113	113
521.329	136
521.544	190
521.76	484
521.975	2021
522.19	1247
522.406	281
522.621	113
522.836	85
523.052	98
523.267	98
523.482	97
523.698	106
523.913	125
524.128	103
524.343	86
524.559	97
524.774	105
524.989	91
525.204	101
525.419	89
525.634	99
525.849	91
526.064	92
526.28	85
526.495	86
526.71	103
526.925	112
527.14	94
527.355	94
527.57	97
527.785	96
527.999	82
528.214	96
528.429	109
528.644	91
528.859	95
529.074	100
529.289	124
529.503	162
529.718	104
529.933	106
530.148	90
530.363	88
530.577	96
530.792	90
531.007	96
531.221	88
531.436	90
531.651	91
531.865	92
532.08	105
532.295	97
532.509	93
532.724	79
532.938	108
533.153	83
533.367	101
533.582	94
533.796	93
534.011	86
534.225	89
534.44	94
534.654	88
534.868	98
535.083	103
535.297	98
535.511	119
535.726	109
535.94	87
536.154	96
536.369	82
536.583	94
536.797	91
537.011	87
537.225	83
537.44	93
537.654	83
537.868	93
538.082	93
538.296	95
538.51	87
538.724	88
538.938	75
539.153	97
539.367	99
539.581	94
539.795	91
540.009	85
540.222	78
540.436	91
540.65	105
540.864	94
541.078	102
541.292	97
541.506	94
541.72	79
541.934	93
542.147	92
542.361	69
542.575	82
542.789	91
543.002	91
543.216	105
543.43	96
543.644	87
543.857	92
544.071	89
544.285	85
544.498	96
544.712	107
544.925	91
545.139	99
545.352	89
545.566	95
545.779	84
545.993	91
546.206	86
546.42	90
546.633	105
546.847	94
547.06	94
547.274	96
547.487	93
547.7	87
547.914	76
548.127	88
548.34	74
548.554	82
548.767	77
548.98	79
549.193	104
549.407	87
549.62	89
549.833	98
550.046	98
550.259	94
550.473	85
550.686	98
550.899	90
551.112	92
551.325	79
551.538	90
551.751	106
551.964	88
552.177	112
552.39	86
552.603	78
552.816	87
553.029	83
553.242	96
553.455	94
553.667	94
553.88	96
554.093	102
554.306	96
554.519	98
554.732	104
554.944	104
555.157	103
555.37	92
555.583	98
555.795	82
556.008	101
556.221	99
556.433	85
556.646	99
556.859	101
557.071	99
557.284	83
557.496	97
557.709	89
557.921	102
558.134	93
558.346	89
558.559	83
558.771	107
558.984	81
559.196	96
559.409	92
559.621	94
559.833	84
560.046	95
560.258	94
560.47	90
560.683	92
560.895	82
561.107	110
561.32	87
561.532	92
561.744	87
561.956	90
562.168	86
562.381	92
562.593	92
562.805	114
563.017	89
563.229	89
563.441	85
563.653	92
563.865	101
564.077	94
564.289	79
564.501	82
564.713	80
564.925	94
565.137	104
565.349	75
565.561	88
565.773	81
565.985	91
566.197	89
566.408	81
566.62	87
566.832	85
567.044	90
567.255	85
567.467	87
567.679	88
567.891	107
568.102	82
568.314	96
568.526	83
568.737	86
568.949	88
569.161	97
569.372	78
569.584	84
569.795	94
570.007	119
570.218	235
570.43	136
570.641	86
570.853	80
571.064	93
571.276	87
571.487	83
571.698	89
571.91	83
572.121	90
572.333	99
572.544	83
572.755	85
572.966	85
573.178	91
573.389	91
573.6	93
573.811	87
574.023	98
574.234	90
574.445	85
574.656	102
574.867	82
575.078	95
575.289	81
575.501	88
575.712	91
575.923	80
576.134	91
576.345	98
576.556	98
576.767	97
576.978	104
577.188	88
577.399	95
577.61	89
577.821	107
578.032	117
578.243	254
578.454	737
578.665	217
578.875	98
579.086	101
579.297	85
579.508	98
579.718	77
579.929	94
580.14	91
580.35	80
580.561	93
580.772	97
580.982	84
581.193	87
581.403	78
581.614	94
581.825	95
582.035	88
582.246	79
582.456	85
582.667	104
582.877	77
583.087	79
583.298	79
583.508	91
583.719	81
583.929	79
584.139	82
584.35	69
