Data from Uncirc_1999_H10_HRD10591_00002.txt Node
Date: Wed Jan 03 11:22:05 EST 2024
User: Yrep
Spectrometer: HR+D1059
Trigger mode: 1
Integration Time (sec): 1.000000E-1
Scans to average: 1
Electric dark correction enabled: true
Nonlinearity correction enabled: false
Boxcar width: 0
XAxis mode: Wavelengths
Number of Pixels in Spectrum: 2048
>>>>>Begin Spectral Data<<<<<
223.165	-6.62
223.4	-6.62
223.635	-6.62
223.869	-37.62
224.104	-17.62
224.338	-12.62
224.573	-19.62
224.808	-8.62
225.042	7.38
225.277	-5.62
225.511	-11.62
225.746	-2.62
225.98	8.38
226.215	9.38
226.449	18.38
226.683	12.38
226.918	27.38
227.152	39.38
227.387	41.38
227.621	44.38
227.856	42.38
228.09	35.38
228.324	52.38
228.559	58.38
228.793	51.38
229.027	52.38
229.262	57.38
229.496	71.38
229.73	84.38
229.964	68.38
230.199	75.38
230.433	73.38
230.667	80.38
230.901	77.38
231.136	80.38
231.37	73.38
231.604	75.38
231.838	69.38
232.072	87.38
232.306	89.38
232.541	94.38
232.775	93.38
233.009	68.38
233.243	78.38
233.477	81.38
233.711	80.38
233.945	82.38
234.179	78.38
234.413	79.38
234.647	77.38
234.881	67.38
235.115	76.38
235.349	76.38
235.583	92.38
235.817	69.38
236.051	77.38
236.285	69.38
236.519	70.38
236.753	78.38
236.987	81.38
237.221	70.38
237.455	58.38
237.689	61.38
237.922	66.38
238.156	60.38
238.39	62.38
238.624	69.38
238.858	81.38
239.091	73.38
239.325	77.38
239.559	73.38
239.793	66.38
240.027	66.38
240.26	78.38
240.494	73.38
240.728	79.38
240.961	62.38
241.195	67.38
241.429	68.38
241.662	67.38
241.896	83.38
242.13	67.38
242.363	69.38
242.597	77.38
242.83	76.38
243.064	67.38
243.298	79.38
243.531	77.38
243.765	89.38
243.998	70.38
244.232	79.38
244.465	69.38
244.699	75.38
244.932	67.38
245.166	83.38
245.399	66.38
245.633	75.38
245.866	71.38
246.099	69.38
246.333	73.38
246.566	74.38
246.8	78.38
247.033	75.38
247.266	80.38
247.5	71.38
247.733	69.38
247.966	72.38
248.2	89.38
248.433	74.38
248.666	63.38
248.899	77.38
249.133	91.38
249.366	78.38
249.599	77.38
249.832	73.38
250.066	84.38
250.299	90.38
250.532	57.38
250.765	77.38
250.998	86.38
251.231	74.38
251.465	74.38
251.698	76.38
251.931	83.38
252.164	87.38
252.397	77.38
252.63	72.38
252.863	66.38
253.096	66.38
253.329	87.38
253.562	89.38
253.795	65.38
254.028	75.38
254.261	79.38
254.494	61.38
254.727	86.38
254.96	68.38
255.193	99.38
255.426	72.38
255.659	75.38
255.892	83.38
256.124	105.38
256.357	87.38
256.59	81.38
256.823	83.38
257.056	93.38
257.289	75.38
257.521	81.38
257.754	80.38
257.987	78.38
258.22	78.38
258.452	67.38
258.685	77.38
258.918	90.38
259.151	75.38
259.383	84.38
259.616	89.38
259.849	76.38
260.081	73.38
260.314	85.38
260.547	80.38
260.779	79.38
261.012	87.38
261.244	75.38
261.477	79.38
261.71	69.38
261.942	95.38
262.175	100.38
262.407	88.38
262.64	72.38
262.872	62.38
263.105	86.38
263.337	91.38
263.57	83.38
263.802	68.38
264.035	86.38
264.267	69.38
264.499	81.38
264.732	73.38
264.964	86.38
265.197	89.38
265.429	80.38
265.661	96.38
265.894	77.38
266.126	78.38
266.358	83.38
266.591	85.38
266.823	78.38
267.055	72.38
267.287	63.38
267.52	74.38
267.752	81.38
267.984	86.38
268.216	81.38
268.448	72.38
268.681	81.38
268.913	81.38
269.145	82.38
269.377	78.38
269.609	70.38
269.841	73.38
270.073	79.38
270.306	67.38
270.538	74.38
270.77	77.38
271.002	81.38
271.234	89.38
271.466	71.38
271.698	78.38
271.93	89.38
272.162	66.38
272.394	77.38
272.626	86.38
272.858	82.38
273.09	83.38
273.322	76.38
273.553	93.38
273.785	82.38
274.017	70.38
274.249	70.38
274.481	69.38
274.713	76.38
274.945	95.38
275.176	93.38
275.408	83.38
275.64	81.38
275.872	89.38
276.104	78.38
276.335	83.38
276.567	77.38
276.799	91.38
277.031	82.38
277.262	85.38
277.494	89.38
277.726	86.38
277.957	91.38
278.189	87.38
278.421	81.38
278.652	83.38
278.884	83.38
279.115	86.38
279.347	78.38
279.579	74.38
279.81	88.38
280.042	84.38
280.273	87.38
280.505	82.38
280.736	94.38
280.968	85.38
281.199	83.38
281.431	88.38
281.662	76.38
281.894	86.38
282.125	74.38
282.356	96.38
282.588	97.38
282.819	99.38
283.051	78.38
283.282	80.38
283.513	58.38
283.745	79.38
283.976	77.38
284.207	73.38
284.439	86.38
284.67	84.38
284.901	76.38
285.132	89.38
285.364	84.38
285.595	82.38
285.826	89.38
286.057	69.38
286.288	76.38
286.52	75.38
286.751	73.38
286.982	79.38
287.213	80.38
287.444	86.38
287.675	89.38
287.906	78.38
288.138	77.38
288.369	76.38
288.6	93.38
288.831	74.38
289.062	97.38
289.293	96.38
289.524	84.38
289.755	89.38
289.986	84.38
290.217	77.38
290.448	83.38
290.679	79.38
290.91	100.38
291.141	73.38
291.371	84.38
291.602	76.38
291.833	74.38
292.064	81.38
292.295	89.38
292.526	86.38
292.757	90.38
292.987	104.38
293.218	97.38
293.449	77.38
293.68	98.38
293.91	87.38
294.141	95.38
294.372	94.38
294.603	83.38
294.833	83.38
295.064	96.38
295.295	90.38
295.525	85.38
295.756	92.38
295.987	94.38
296.217	117.38
296.448	102.38
296.679	67.38
296.909	84.38
297.14	87.38
297.37	86.38
297.601	78.38
297.831	80.38
298.062	93.38
298.292	90.38
298.523	97.38
298.753	82.38
298.984	81.38
299.214	101.38
299.445	83.38
299.675	94.38
299.905	92.38
300.136	83.38
300.366	77.38
300.597	85.38
300.827	76.38
301.057	79.38
301.288	90.38
301.518	89.38
301.748	85.38
301.979	89.38
302.209	85.38
302.439	83.38
302.669	82.38
302.9	90.38
303.13	97.38
303.36	94.38
303.59	89.38
303.82	94.38
304.051	105.38
304.281	93.38
304.511	84.38
304.741	89.38
304.971	79.38
305.201	72.38
305.431	85.38
305.661	77.38
305.891	86.38
306.121	92.38
306.352	89.38
306.582	82.38
306.812	99.38
307.042	92.38
307.272	85.38
307.502	73.38
307.731	84.38
307.961	85.38
308.191	76.38
308.421	89.38
308.651	88.38
308.881	70.38
309.111	76.38
309.341	82.38
309.571	83.38
309.8	99.38
310.03	88.38
310.26	98.38
310.49	94.38
310.72	98.38
310.949	113.38
311.179	79.38
311.409	92.38
311.639	95.38
311.868	103.38
312.098	83.38
312.328	80.38
312.557	96.38
312.787	100.38
313.017	93.38
313.246	93.38
313.476	88.38
313.706	92.38
313.935	88.38
314.165	79.38
314.394	103.38
314.624	89.38
314.853	89.38
315.083	88.38
315.312	97.38
315.542	87.38
315.771	88.38
316.001	91.38
316.23	75.38
316.46	93.38
316.689	90.38
316.919	84.38
317.148	85.38
317.377	83.38
317.607	101.38
317.836	84.38
318.065	89.38
318.295	95.38
318.524	98.38
318.753	86.38
318.983	93.38
319.212	92.38
319.441	95.38
319.67	93.38
319.9	81.38
320.129	87.38
320.358	89.38
320.587	93.38
320.816	94.38
321.046	101.38
321.275	93.38
321.504	97.38
321.733	84.38
321.962	98.38
322.191	94.38
322.42	89.38
322.649	104.38
322.878	107.38
323.108	104.38
323.337	106.38
323.566	106.38
323.795	144.38
324.024	181.38
324.253	341.38
324.482	668.38
324.71	1362.38
324.939	1818.38
325.168	671.38
325.397	209.38
325.626	108.38
325.855	118.38
326.084	131.38
326.313	114.38
326.542	136.38
326.77	192.38
326.999	391.38
327.228	799.38
327.457	1444.38
327.686	1187.38
327.914	313.38
328.143	155.38
328.372	129.38
328.6	110.38
328.829	101.38
329.058	109.38
329.287	112.38
329.515	94.38
329.744	88.38
329.972	101.38
330.201	101.38
330.43	110.38
330.658	113.38
330.887	108.38
331.115	113.38
331.344	91.38
331.572	101.38
331.801	97.38
332.03	94.38
332.258	105.38
332.486	89.38
332.715	87.38
332.943	89.38
333.172	87.38
333.4	99.38
333.629	98.38
333.857	110.38
334.085	110.38
334.314	83.38
334.542	98.38
334.771	95.38
334.999	85.38
335.227	87.38
335.455	83.38
335.684	99.38
335.912	98.38
336.14	99.38
336.369	102.38
336.597	95.38
336.825	87.38
337.053	91.38
337.281	77.38
337.51	92.38
337.738	80.38
337.966	86.38
338.194	97.38
338.422	82.38
338.65	95.38
338.878	81.38
339.106	87.38
339.334	98.38
339.562	87.38
339.79	91.38
340.018	86.38
340.246	78.38
340.474	109.38
340.702	89.38
340.93	79.38
341.158	87.38
341.386	78.38
341.614	95.38
341.842	91.38
342.07	87.38
342.298	74.38
342.526	89.38
342.754	79.38
342.981	80.38
343.209	90.38
343.437	98.38
343.665	85.38
343.893	99.38
344.12	94.38
344.348	81.38
344.576	77.38
344.804	85.38
345.031	93.38
345.259	92.38
345.487	91.38
345.714	79.38
345.942	104.38
346.17	92.38
346.397	91.38
346.625	88.38
346.853	84.38
347.08	89.38
347.308	79.38
347.535	88.38
347.763	83.38
347.99	103.38
348.218	89.38
348.445	97.38
348.673	93.38
348.9	88.38
349.128	90.38
349.355	95.38
349.583	92.38
349.81	89.38
350.037	90.38
350.265	92.38
350.492	92.38
350.72	85.38
350.947	94.38
351.174	93.38
351.402	104.38
351.629	100.38
351.856	104.38
352.083	95.38
352.311	100.38
352.538	89.38
352.765	99.38
352.992	110.38
353.22	94.38
353.447	97.38
353.674	122.38
353.901	92.38
354.128	90.38
354.355	96.38
354.583	98.38
354.81	104.38
355.037	105.38
355.264	91.38
355.491	95.38
355.718	92.38
355.945	93.38
356.172	94.38
356.399	91.38
356.626	88.38
356.853	96.38
357.08	92.38
357.307	99.38
357.534	87.38
357.761	110.38
357.988	88.38
358.215	104.38
358.441	120.38
358.668	132.38
358.895	92.38
359.122	101.38
359.349	93.38
359.576	85.38
359.802	96.38
360.029	103.38
360.256	103.38
360.483	86.38
360.709	93.38
360.936	89.38
361.163	105.38
361.39	99.38
361.616	85.38
361.843	101.38
362.07	86.38
362.296	94.38
362.523	91.38
362.749	72.38
362.976	80.38
363.203	86.38
363.429	71.38
363.656	86.38
363.882	87.38
364.109	86.38
364.335	91.38
364.562	76.38
364.788	92.38
365.015	76.38
365.241	85.38
365.468	83.38
365.694	83.38
365.92	81.38
366.147	91.38
366.373	79.38
366.599	89.38
366.826	77.38
367.052	89.38
367.278	80.38
367.505	90.38
367.731	89.38
367.957	79.38
368.184	99.38
368.41	89.38
368.636	77.38
368.862	89.38
369.089	95.38
369.315	82.38
369.541	98.38
369.767	103.38
369.993	101.38
370.219	92.38
370.445	85.38
370.672	81.38
370.898	91.38
371.124	77.38
371.35	92.38
371.576	83.38
371.802	94.38
372.028	101.38
372.254	88.38
372.48	86.38
372.706	90.38
372.932	81.38
373.158	92.38
373.384	94.38
373.61	97.38
373.835	93.38
374.061	91.38
374.287	94.38
374.513	98.38
374.739	86.38
374.965	99.38
375.191	96.38
375.416	85.38
375.642	89.38
375.868	100.38
376.094	88.38
376.319	84.38
376.545	95.38
376.771	102.38
376.997	99.38
377.222	98.38
377.448	75.38
377.674	93.38
377.899	94.38
378.125	109.38
378.35	92.38
378.576	104.38
378.802	102.38
379.027	113.38
379.253	114.38
379.478	117.38
379.704	117.38
379.929	113.38
380.155	103.38
380.38	108.38
380.606	113.38
380.831	117.38
381.057	115.38
381.282	106.38
381.507	129.38
381.733	130.38
381.958	124.38
382.184	131.38
382.409	133.38
382.634	142.38
382.86	120.38
383.085	131.38
383.31	126.38
383.535	144.38
383.761	139.38
383.986	135.38
384.211	135.38
384.436	148.38
384.662	142.38
384.887	166.38
385.112	168.38
385.337	163.38
385.562	175.38
385.787	157.38
386.013	182.38
386.238	176.38
386.463	151.38
386.688	165.38
386.913	161.38
387.138	177.38
387.363	159.38
387.588	133.38
387.813	157.38
388.038	175.38
388.263	206.38
388.488	184.38
388.713	117.38
388.938	106.38
389.163	105.38
389.387	89.38
389.612	95.38
389.837	101.38
390.062	101.38
390.287	110.38
390.512	102.38
390.736	93.38
390.961	79.38
391.186	85.38
391.411	92.38
391.636	89.38
391.86	90.38
392.085	89.38
392.31	89.38
392.534	70.38
392.759	82.38
392.984	88.38
393.208	97.38
393.433	93.38
393.658	81.38
393.882	70.38
394.107	79.38
394.331	84.38
394.556	89.38
394.78	100.38
395.005	86.38
395.229	100.38
395.454	88.38
395.678	88.38
395.903	70.38
396.127	85.38
396.352	84.38
396.576	77.38
396.801	87.38
397.025	90.38
397.249	86.38
397.474	79.38
397.698	76.38
397.922	91.38
398.147	79.38
398.371	69.38
398.595	85.38
398.82	92.38
399.044	81.38
399.268	89.38
399.492	81.38
399.717	93.38
399.941	90.38
400.165	97.38
400.389	75.38
400.613	73.38
400.837	91.38
401.062	89.38
401.286	99.38
401.51	91.38
401.734	102.38
401.958	88.38
402.182	101.38
402.406	108.38
402.63	100.38
402.854	82.38
403.078	87.38
403.302	88.38
403.526	95.38
403.75	92.38
403.974	91.38
404.198	96.38
404.422	97.38
404.645	84.38
404.869	88.38
405.093	88.38
405.317	102.38
405.541	90.38
405.765	99.38
405.988	107.38
406.212	137.38
406.436	169.38
406.66	109.38
406.883	90.38
407.107	98.38
407.331	84.38
407.555	94.38
407.778	94.38
408.002	88.38
408.226	90.38
408.449	94.38
408.673	94.38
408.896	94.38
409.12	80.38
409.344	91.38
409.567	101.38
409.791	87.38
410.014	94.38
410.238	88.38
410.461	90.38
410.685	90.38
410.908	110.38
411.132	96.38
411.355	100.38
411.578	105.38
411.802	89.38
412.025	93.38
412.249	80.38
412.472	103.38
412.695	93.38
412.919	83.38
413.142	92.38
413.365	107.38
413.589	91.38
413.812	89.38
414.035	89.38
414.258	92.38
414.482	104.38
414.705	93.38
414.928	92.38
415.151	107.38
415.374	107.38
415.597	99.38
415.821	97.38
416.044	89.38
416.267	88.38
416.49	88.38
416.713	86.38
416.936	98.38
417.159	79.38
417.382	89.38
417.605	84.38
417.828	99.38
418.051	94.38
418.274	97.38
418.497	102.38
418.72	106.38
418.943	112.38
419.166	105.38
419.389	93.38
419.611	87.38
419.834	97.38
420.057	99.38
420.28	91.38
420.503	89.38
420.726	89.38
420.948	98.38
421.171	89.38
421.394	81.38
421.617	90.38
421.839	95.38
422.062	83.38
422.285	91.38
422.507	85.38
422.73	104.38
422.953	85.38
423.175	91.38
423.398	97.38
423.621	78.38
423.843	93.38
424.066	83.38
424.288	76.38
424.511	90.38
424.733	91.38
424.956	89.38
425.178	100.38
425.401	87.38
425.623	95.38
425.846	90.38
426.068	94.38
426.291	99.38
426.513	81.38
426.735	73.38
426.958	87.38
427.18	104.38
427.402	107.38
427.625	135.38
427.847	111.38
428.069	119.38
428.292	89.38
428.514	79.38
428.736	91.38
428.958	93.38
429.181	78.38
429.403	80.38
429.625	82.38
429.847	81.38
430.069	92.38
430.292	86.38
430.514	79.38
430.736	99.38
430.958	71.38
431.18	82.38
431.402	83.38
431.624	93.38
431.846	94.38
432.068	84.38
432.29	75.38
432.512	97.38
432.734	90.38
432.956	97.38
433.178	82.38
433.4	86.38
433.622	95.38
433.844	92.38
434.066	73.38
434.287	82.38
434.509	90.38
434.731	84.38
434.953	102.38
435.175	92.38
435.397	82.38
435.618	96.38
435.84	107.38
436.062	116.38
436.284	103.38
436.505	108.38
436.727	97.38
436.949	89.38
437.17	92.38
437.392	70.38
437.614	91.38
437.835	89.38
438.057	101.38
438.278	90.38
438.5	93.38
438.721	113.38
438.943	78.38
439.165	83.38
439.386	88.38
439.608	89.38
439.829	90.38
440.05	99.38
440.272	133.38
440.493	80.38
440.715	104.38
440.936	90.38
441.158	94.38
441.379	83.38
441.6	97.38
441.822	96.38
442.043	80.38
442.264	102.38
442.486	91.38
442.707	88.38
442.928	71.38
443.149	107.38
443.371	105.38
443.592	95.38
443.813	98.38
444.034	98.38
444.255	79.38
444.476	89.38
444.698	79.38
444.919	83.38
445.14	121.38
445.361	114.38
445.582	102.38
445.803	126.38
446.024	110.38
446.245	131.38
446.466	107.38
446.687	91.38
446.908	81.38
447.129	93.38
447.35	86.38
447.571	87.38
447.792	92.38
448.013	86.38
448.234	90.38
448.455	108.38
448.675	107.38
448.896	107.38
449.117	88.38
449.338	97.38
449.559	116.38
449.779	124.38
450	92.38
450.221	90.38
450.442	87.38
450.662	70.38
450.883	80.38
451.104	97.38
451.324	97.38
451.545	78.38
451.766	86.38
451.986	66.38
452.207	72.38
452.428	88.38
452.648	100.38
452.869	101.38
453.089	94.38
453.31	91.38
453.53	83.38
453.751	84.38
453.971	91.38
454.192	102.38
454.412	90.38
454.633	60.38
454.853	75.38
455.073	89.38
455.294	81.38
455.514	91.38
455.734	81.38
455.955	84.38
456.175	83.38
456.395	90.38
456.616	86.38
456.836	83.38
457.056	89.38
457.276	73.38
457.497	91.38
457.717	90.38
457.937	88.38
458.157	81.38
458.377	68.38
458.598	95.38
458.818	103.38
459.038	121.38
459.258	109.38
459.478	73.38
459.698	71.38
459.918	84.38
460.138	74.38
460.358	80.38
460.578	89.38
460.798	85.38
461.018	96.38
461.238	84.38
461.458	82.38
461.678	85.38
461.898	79.38
462.118	94.38
462.338	71.38
462.558	79.38
462.777	87.38
462.997	94.38
463.217	93.38
463.437	80.38
463.657	94.38
463.876	102.38
464.096	78.38
464.316	73.38
464.536	85.38
464.755	87.38
464.975	90.38
465.195	126.38
465.414	123.38
465.634	89.38
465.854	84.38
466.073	79.38
466.293	78.38
466.512	82.38
466.732	78.38
466.951	83.38
467.171	102.38
467.391	90.38
467.61	81.38
467.829	76.38
468.049	94.38
468.268	81.38
468.488	85.38
468.707	81.38
468.927	89.38
469.146	92.38
469.365	82.38
469.585	77.38
469.804	88.38
470.023	80.38
470.243	67.38
470.462	94.38
470.681	95.38
470.901	87.38
471.12	77.38
471.339	89.38
471.558	77.38
471.777	93.38
471.997	87.38
472.216	85.38
472.435	98.38
472.654	90.38
472.873	73.38
473.092	76.38
473.311	88.38
473.53	82.38
473.749	74.38
473.968	86.38
474.187	86.38
474.406	91.38
474.625	80.38
474.844	78.38
475.063	77.38
475.282	76.38
475.501	88.38
475.72	89.38
475.939	67.38
476.158	83.38
476.377	74.38
476.596	95.38
476.814	88.38
477.033	83.38
477.252	71.38
477.471	82.38
477.69	90.38
477.908	82.38
478.127	80.38
478.346	100.38
478.564	83.38
478.783	84.38
479.002	95.38
479.22	77.38
479.439	95.38
479.658	90.38
479.876	82.38
480.095	90.38
480.313	91.38
480.532	93.38
480.751	99.38
480.969	101.38
481.188	118.38
481.406	96.38
481.624	78.38
481.843	77.38
482.061	90.38
482.28	89.38
482.498	83.38
482.717	95.38
482.935	79.38
483.153	87.38
483.372	76.38
483.59	90.38
483.808	88.38
484.027	92.38
484.245	95.38
484.463	88.38
484.681	93.38
484.9	98.38
485.118	101.38
485.336	101.38
485.554	99.38
485.772	105.38
485.99	94.38
486.209	105.38
486.427	118.38
486.645	107.38
486.863	110.38
487.081	103.38
487.299	103.38
487.517	81.38
487.735	98.38
487.953	86.38
488.171	93.38
488.389	92.38
488.607	97.38
488.825	95.38
489.043	99.38
489.261	86.38
489.479	92.38
489.696	79.38
489.914	85.38
490.132	89.38
490.35	87.38
490.568	98.38
490.786	89.38
491.003	94.38
491.221	81.38
491.439	90.38
491.657	89.38
491.874	94.38
492.092	103.38
492.31	95.38
492.527	91.38
492.745	91.38
492.963	83.38
493.18	88.38
493.398	96.38
493.615	91.38
493.833	91.38
494.05	108.38
494.268	96.38
494.485	94.38
494.703	76.38
494.92	83.38
495.138	82.38
495.355	88.38
495.573	78.38
495.79	106.38
496.008	96.38
496.225	77.38
496.442	82.38
496.66	87.38
496.877	87.38
497.094	94.38
497.312	90.38
497.529	98.38
497.746	95.38
497.963	101.38
498.181	87.38
498.398	103.38
498.615	104.38
498.832	95.38
499.049	75.38
499.267	91.38
499.484	91.38
499.701	84.38
499.918	104.38
500.135	88.38
500.352	93.38
500.569	99.38
500.786	76.38
501.003	75.38
501.22	101.38
501.437	77.38
501.654	98.38
501.871	82.38
502.088	84.38
502.305	83.38
502.522	88.38
502.739	89.38
502.956	91.38
503.172	96.38
503.389	99.38
503.606	89.38
503.823	86.38
504.04	90.38
504.256	90.38
504.473	96.38
504.69	86.38
504.907	97.38
505.123	78.38
505.34	100.38
505.557	79.38
505.773	70.38
505.99	81.38
506.207	80.38
506.423	91.38
506.64	93.38
506.856	70.38
507.073	107.38
507.289	88.38
507.506	93.38
507.722	91.38
507.939	87.38
508.155	96.38
508.372	86.38
508.588	88.38
508.805	91.38
509.021	96.38
509.238	93.38
509.454	94.38
509.67	116.38
509.887	122.38
510.103	118.38
510.319	177.38
510.536	483.38
510.752	1395.38
510.968	413.38
511.184	134.38
511.401	103.38
511.617	93.38
511.833	95.38
512.049	90.38
512.265	81.38
512.481	87.38
512.698	98.38
512.914	94.38
513.13	85.38
513.346	87.38
513.562	74.38
513.778	89.38
513.994	78.38
514.21	87.38
514.426	96.38
514.642	110.38
514.858	102.38
515.074	137.38
515.29	279.38
515.506	819.38
515.721	318.38
515.937	133.38
516.153	89.38
516.369	99.38
516.585	92.38
516.801	100.38
