Data from Uncirc_1999_H10_HRD10591_00048.txt Node
Date: Wed Jan 03 11:22:14 EST 2024
User: Yrep
Spectrometer: HR+D1059
Trigger mode: 1
Integration Time (sec): 1.000000E-1
Scans to average: 1
Electric dark correction enabled: true
Nonlinearity correction enabled: false
Boxcar width: 0
XAxis mode: Wavelengths
Number of Pixels in Spectrum: 2048
>>>>>Begin Spectral Data<<<<<
223.165	-23.25
223.4	-23.25
223.635	-23.25
223.869	-21.25
224.104	-1.25
224.338	-9.25
224.573	-5.25
224.808	-20.25
225.042	-5.25
225.277	-8.25
225.511	6.75
225.746	-13.25
225.98	4.75
226.215	5.75
226.449	11.75
226.683	17.75
226.918	22.75
227.152	37.75
227.387	43.75
227.621	43.75
227.856	45.75
228.09	51.75
228.324	48.75
228.559	37.75
228.793	53.75
229.027	52.75
229.262	60.75
229.496	69.75
229.73	75.75
229.964	88.75
230.199	76.75
230.433	70.75
230.667	76.75
230.901	85.75
231.136	78.75
231.37	74.75
231.604	82.75
231.838	77.75
232.072	84.75
232.306	79.75
232.541	89.75
232.775	82.75
233.009	82.75
233.243	88.75
233.477	67.75
233.711	72.75
233.945	80.75
234.179	86.75
234.413	65.75
234.647	77.75
234.881	75.75
235.115	92.75
235.349	87.75
235.583	79.75
235.817	83.75
236.051	72.75
236.285	83.75
236.519	67.75
236.753	85.75
236.987	77.75
237.221	79.75
237.455	97.75
237.689	85.75
237.922	88.75
238.156	67.75
238.39	75.75
238.624	75.75
238.858	66.75
239.091	79.75
239.325	78.75
239.559	91.75
239.793	69.75
240.027	86.75
240.26	86.75
240.494	82.75
240.728	77.75
240.961	81.75
241.195	50.75
241.429	69.75
241.662	82.75
241.896	73.75
242.13	71.75
242.363	81.75
242.597	71.75
242.83	82.75
243.064	79.75
243.298	81.75
243.531	70.75
243.765	88.75
243.998	73.75
244.232	80.75
244.465	80.75
244.699	95.75
244.932	67.75
245.166	63.75
245.399	89.75
245.633	76.75
245.866	75.75
246.099	79.75
246.333	71.75
246.566	78.75
246.8	78.75
247.033	83.75
247.266	80.75
247.5	75.75
247.733	84.75
247.966	87.75
248.2	74.75
248.433	80.75
248.666	69.75
248.899	77.75
249.133	92.75
249.366	83.75
249.599	89.75
249.832	83.75
250.066	78.75
250.299	72.75
250.532	89.75
250.765	94.75
250.998	79.75
251.231	84.75
251.465	85.75
251.698	83.75
251.931	104.75
252.164	68.75
252.397	85.75
252.63	75.75
252.863	74.75
253.096	81.75
253.329	87.75
253.562	74.75
253.795	89.75
254.028	89.75
254.261	87.75
254.494	86.75
254.727	88.75
254.96	84.75
255.193	74.75
255.426	82.75
255.659	77.75
255.892	78.75
256.124	80.75
256.357	79.75
256.59	75.75
256.823	78.75
257.056	84.75
257.289	74.75
257.521	77.75
257.754	69.75
257.987	85.75
258.22	80.75
258.452	90.75
258.685	88.75
258.918	71.75
259.151	73.75
259.383	100.75
259.616	79.75
259.849	89.75
260.081	79.75
260.314	87.75
260.547	74.75
260.779	77.75
261.012	61.75
261.244	64.75
261.477	93.75
261.71	88.75
261.942	112.75
262.175	99.75
262.407	94.75
262.64	84.75
262.872	97.75
263.105	87.75
263.337	94.75
263.57	72.75
263.802	61.75
264.035	82.75
264.267	86.75
264.499	96.75
264.732	84.75
264.964	84.75
265.197	84.75
265.429	88.75
265.661	79.75
265.894	78.75
266.126	85.75
266.358	69.75
266.591	83.75
266.823	90.75
267.055	81.75
267.287	93.75
267.52	76.75
267.752	83.75
267.984	85.75
268.216	77.75
268.448	87.75
268.681	93.75
268.913	81.75
269.145	86.75
269.377	94.75
269.609	85.75
269.841	93.75
270.073	91.75
270.306	88.75
270.538	84.75
270.77	78.75
271.002	93.75
271.234	81.75
271.466	82.75
271.698	85.75
271.93	78.75
272.162	90.75
272.394	95.75
272.626	94.75
272.858	94.75
273.09	86.75
273.322	79.75
273.553	95.75
273.785	78.75
274.017	89.75
274.249	86.75
274.481	82.75
274.713	97.75
274.945	90.75
275.176	90.75
275.408	91.75
275.64	88.75
275.872	83.75
276.104	86.75
276.335	81.75
276.567	94.75
276.799	100.75
277.031	89.75
277.262	90.75
277.494	80.75
277.726	81.75
277.957	74.75
278.189	72.75
278.421	89.75
278.652	92.75
278.884	81.75
279.115	81.75
279.347	80.75
279.579	103.75
279.81	85.75
280.042	86.75
280.273	86.75
280.505	99.75
280.736	77.75
280.968	91.75
281.199	83.75
281.431	89.75
281.662	75.75
281.894	91.75
282.125	96.75
282.356	112.75
282.588	120.75
282.819	110.75
283.051	89.75
283.282	90.75
283.513	90.75
283.745	100.75
283.976	91.75
284.207	93.75
284.439	85.75
284.67	85.75
284.901	78.75
285.132	85.75
285.364	88.75
285.595	105.75
285.826	97.75
286.057	91.75
286.288	78.75
286.52	85.75
286.751	107.75
286.982	88.75
287.213	79.75
287.444	77.75
287.675	85.75
287.906	96.75
288.138	96.75
288.369	90.75
288.6	96.75
288.831	82.75
289.062	87.75
289.293	89.75
289.524	82.75
289.755	86.75
289.986	66.75
290.217	80.75
290.448	97.75
290.679	87.75
290.91	92.75
291.141	83.75
291.371	102.75
291.602	71.75
291.833	97.75
292.064	97.75
292.295	91.75
292.526	90.75
292.757	96.75
292.987	83.75
293.218	84.75
293.449	87.75
293.68	98.75
293.91	94.75
294.141	83.75
294.372	93.75
294.603	82.75
294.833	80.75
295.064	80.75
295.295	70.75
295.525	82.75
295.756	94.75
295.987	105.75
296.217	127.75
296.448	113.75
296.679	99.75
296.909	92.75
297.14	88.75
297.37	89.75
297.601	99.75
297.831	90.75
298.062	88.75
298.292	98.75
298.523	89.75
298.753	82.75
298.984	105.75
299.214	90.75
299.445	99.75
299.675	79.75
299.905	82.75
300.136	85.75
300.366	90.75
300.597	93.75
300.827	109.75
301.057	97.75
301.288	115.75
301.518	91.75
301.748	89.75
301.979	100.75
302.209	88.75
302.439	91.75
302.669	107.75
302.9	94.75
303.13	97.75
303.36	85.75
303.59	105.75
303.82	109.75
304.051	93.75
304.281	90.75
304.511	87.75
304.741	88.75
304.971	99.75
305.201	87.75
305.431	94.75
305.661	89.75
305.891	89.75
306.121	86.75
306.352	106.75
306.582	88.75
306.812	85.75
307.042	104.75
307.272	85.75
307.502	86.75
307.731	85.75
307.961	109.75
308.191	98.75
308.421	87.75
308.651	94.75
308.881	94.75
309.111	91.75
309.341	84.75
309.571	101.75
309.8	88.75
310.03	93.75
310.26	106.75
310.49	91.75
310.72	85.75
310.949	94.75
311.179	86.75
311.409	84.75
311.639	92.75
311.868	94.75
312.098	94.75
312.328	97.75
312.557	109.75
312.787	104.75
313.017	101.75
313.246	94.75
313.476	97.75
313.706	89.75
313.935	102.75
314.165	93.75
314.394	105.75
314.624	82.75
314.853	98.75
315.083	103.75
315.312	92.75
315.542	77.75
315.771	97.75
316.001	94.75
316.23	91.75
316.46	106.75
316.689	90.75
316.919	88.75
317.148	92.75
317.377	88.75
317.607	81.75
317.836	94.75
318.065	95.75
318.295	107.75
318.524	76.75
318.753	91.75
318.983	95.75
319.212	107.75
319.441	112.75
319.67	92.75
319.9	106.75
320.129	79.75
320.358	90.75
320.587	102.75
320.816	104.75
321.046	100.75
321.275	88.75
321.504	104.75
321.733	93.75
321.962	90.75
322.191	98.75
322.42	102.75
322.649	107.75
322.878	121.75
323.108	114.75
323.337	122.75
323.566	140.75
323.795	163.75
324.024	222.75
324.253	401.75
324.482	889.75
324.71	1846.75
324.939	2379.75
325.168	864.75
325.397	250.75
325.626	149.75
325.855	121.75
326.084	126.75
326.313	122.75
326.542	157.75
326.77	246.75
326.999	505.75
327.228	1015.75
327.457	1869.75
327.686	1451.75
327.914	411.75
328.143	190.75
328.372	132.75
328.6	115.75
328.829	118.75
329.058	112.75
329.287	110.75
329.515	105.75
329.744	103.75
329.972	91.75
330.201	108.75
330.43	114.75
330.658	127.75
330.887	125.75
331.115	112.75
331.344	90.75
331.572	95.75
331.801	98.75
332.03	106.75
332.258	97.75
332.486	99.75
332.715	104.75
332.943	98.75
333.172	87.75
333.4	105.75
333.629	103.75
333.857	108.75
334.085	104.75
334.314	91.75
334.542	92.75
334.771	110.75
334.999	100.75
335.227	95.75
335.455	97.75
335.684	77.75
335.912	93.75
336.14	103.75
336.369	99.75
336.597	94.75
336.825	95.75
337.053	91.75
337.281	95.75
337.51	80.75
337.738	114.75
337.966	100.75
338.194	106.75
338.422	80.75
338.65	85.75
338.878	94.75
339.106	84.75
339.334	76.75
339.562	95.75
339.79	94.75
340.018	103.75
340.246	98.75
340.474	77.75
340.702	82.75
340.93	93.75
341.158	104.75
341.386	103.75
341.614	99.75
341.842	94.75
342.07	98.75
342.298	88.75
342.526	95.75
342.754	83.75
342.981	95.75
343.209	93.75
343.437	98.75
343.665	97.75
343.893	102.75
344.12	86.75
344.348	91.75
344.576	107.75
344.804	96.75
345.031	87.75
345.259	96.75
345.487	85.75
345.714	95.75
345.942	101.75
346.17	92.75
346.397	81.75
346.625	92.75
346.853	90.75
347.08	97.75
347.308	102.75
347.535	95.75
347.763	94.75
347.99	84.75
348.218	108.75
348.445	101.75
348.673	102.75
348.9	85.75
349.128	98.75
349.355	102.75
349.583	101.75
349.81	93.75
350.037	96.75
350.265	96.75
350.492	86.75
350.72	90.75
350.947	106.75
351.174	97.75
351.402	107.75
351.629	106.75
351.856	105.75
352.083	113.75
352.311	112.75
352.538	106.75
352.765	111.75
352.992	113.75
353.22	117.75
353.447	99.75
353.674	114.75
353.901	103.75
354.128	103.75
354.355	105.75
354.583	106.75
354.81	99.75
355.037	90.75
355.264	103.75
355.491	81.75
355.718	91.75
355.945	82.75
356.172	97.75
356.399	97.75
356.626	95.75
356.853	97.75
357.08	113.75
357.307	76.75
357.534	90.75
357.761	101.75
357.988	83.75
358.215	101.75
358.441	78.75
358.668	81.75
358.895	91.75
359.122	95.75
359.349	82.75
359.576	95.75
359.802	99.75
360.029	103.75
360.256	88.75
360.483	103.75
360.709	92.75
360.936	105.75
361.163	94.75
361.39	99.75
361.616	82.75
361.843	83.75
362.07	93.75
362.296	98.75
362.523	86.75
362.749	98.75
362.976	97.75
363.203	81.75
363.429	77.75
363.656	104.75
363.882	91.75
364.109	90.75
364.335	97.75
364.562	106.75
364.788	82.75
365.015	95.75
365.241	107.75
365.468	93.75
365.694	92.75
365.92	91.75
366.147	98.75
366.373	95.75
366.599	91.75
366.826	78.75
367.052	77.75
367.278	91.75
367.505	97.75
367.731	99.75
367.957	104.75
368.184	96.75
368.41	95.75
368.636	120.75
368.862	115.75
369.089	106.75
369.315	93.75
369.541	85.75
369.767	97.75
369.993	91.75
370.219	92.75
370.445	99.75
370.672	101.75
370.898	90.75
371.124	85.75
371.35	96.75
371.576	85.75
371.802	84.75
372.028	89.75
372.254	90.75
372.48	98.75
372.706	95.75
372.932	99.75
373.158	96.75
373.384	102.75
373.61	102.75
373.835	102.75
374.061	88.75
374.287	93.75
374.513	106.75
374.739	87.75
374.965	106.75
375.191	86.75
375.416	91.75
375.642	87.75
375.868	85.75
376.094	93.75
376.319	94.75
376.545	96.75
376.771	81.75
376.997	88.75
377.222	90.75
377.448	98.75
377.674	101.75
377.899	90.75
378.125	91.75
378.35	91.75
378.576	104.75
378.802	89.75
379.027	86.75
379.253	100.75
379.478	103.75
379.704	103.75
379.929	91.75
380.155	93.75
380.38	93.75
380.606	70.75
380.831	79.75
381.057	99.75
381.282	92.75
381.507	93.75
381.733	104.75
381.958	91.75
382.184	101.75
382.409	107.75
382.634	114.75
382.86	98.75
383.085	110.75
383.31	93.75
383.535	119.75
383.761	110.75
383.986	104.75
384.211	104.75
384.436	97.75
384.662	109.75
384.887	102.75
385.112	105.75
385.337	125.75
385.562	104.75
385.787	106.75
386.013	111.75
386.238	111.75
386.463	122.75
386.688	115.75
386.913	110.75
387.138	99.75
387.363	114.75
387.588	105.75
387.813	101.75
388.038	100.75
388.263	102.75
388.488	116.75
388.713	95.75
388.938	105.75
389.163	110.75
389.387	99.75
389.612	85.75
389.837	93.75
390.062	91.75
390.287	98.75
390.512	94.75
390.736	88.75
390.961	100.75
391.186	107.75
391.411	94.75
391.636	96.75
391.86	82.75
392.085	74.75
392.31	80.75
392.534	78.75
392.759	85.75
392.984	104.75
393.208	74.75
393.433	86.75
393.658	80.75
393.882	88.75
394.107	95.75
394.331	79.75
394.556	97.75
394.78	104.75
395.005	95.75
395.229	89.75
395.454	95.75
395.678	94.75
395.903	83.75
396.127	97.75
396.352	73.75
396.576	87.75
396.801	85.75
397.025	74.75
397.249	92.75
397.474	89.75
397.698	104.75
397.922	91.75
398.147	110.75
398.371	85.75
398.595	95.75
398.82	86.75
399.044	89.75
399.268	95.75
399.492	71.75
399.717	84.75
399.941	88.75
400.165	83.75
400.389	100.75
400.613	91.75
400.837	77.75
401.062	102.75
401.286	93.75
401.51	99.75
401.734	107.75
401.958	96.75
402.182	118.75
402.406	149.75
402.63	101.75
402.854	97.75
403.078	87.75
403.302	79.75
403.526	97.75
403.75	79.75
403.974	83.75
404.198	103.75
404.422	88.75
404.645	94.75
404.869	103.75
405.093	98.75
405.317	95.75
405.541	85.75
405.765	105.75
405.988	106.75
406.212	171.75
406.436	191.75
406.66	126.75
406.883	97.75
407.107	79.75
407.331	104.75
407.555	97.75
407.778	99.75
408.002	94.75
408.226	87.75
408.449	96.75
408.673	83.75
408.896	93.75
409.12	101.75
409.344	91.75
409.567	85.75
409.791	95.75
410.014	81.75
410.238	82.75
410.461	90.75
410.685	105.75
410.908	103.75
411.132	110.75
411.355	99.75
411.578	97.75
411.802	97.75
412.025	101.75
412.249	96.75
412.472	93.75
412.695	101.75
412.919	86.75
413.142	95.75
413.365	93.75
413.589	81.75
413.812	95.75
414.035	93.75
414.258	99.75
414.482	85.75
414.705	92.75
414.928	109.75
415.151	98.75
415.374	81.75
415.597	88.75
415.821	87.75
416.044	82.75
416.267	83.75
416.49	96.75
416.713	96.75
416.936	84.75
417.159	89.75
417.382	74.75
417.605	91.75
417.828	95.75
418.051	91.75
418.274	86.75
418.497	73.75
418.72	82.75
418.943	89.75
419.166	85.75
419.389	87.75
419.611	100.75
419.834	87.75
420.057	91.75
420.28	100.75
420.503	81.75
420.726	79.75
420.948	101.75
421.171	104.75
421.394	90.75
421.617	92.75
421.839	90.75
422.062	100.75
422.285	91.75
422.507	97.75
422.73	88.75
422.953	96.75
423.175	85.75
423.398	82.75
423.621	89.75
423.843	85.75
424.066	108.75
424.288	87.75
424.511	88.75
424.733	104.75
424.956	95.75
425.178	104.75
425.401	98.75
425.623	96.75
425.846	94.75
426.068	93.75
426.291	97.75
426.513	99.75
426.735	93.75
426.958	93.75
427.18	96.75
427.402	136.75
427.625	153.75
427.847	117.75
428.069	97.75
428.292	83.75
428.514	95.75
428.736	90.75
428.958	84.75
429.181	99.75
429.403	81.75
429.625	98.75
429.847	81.75
430.069	92.75
430.292	80.75
430.514	76.75
430.736	93.75
430.958	94.75
431.18	88.75
431.402	90.75
431.624	78.75
431.846	87.75
432.068	92.75
432.29	105.75
432.512	75.75
432.734	79.75
432.956	102.75
433.178	99.75
433.4	94.75
433.622	94.75
433.844	98.75
434.066	95.75
434.287	97.75
434.509	90.75
434.731	98.75
434.953	101.75
435.175	99.75
435.397	89.75
435.618	105.75
435.84	93.75
436.062	118.75
436.284	108.75
436.505	102.75
436.727	93.75
436.949	101.75
437.17	98.75
437.392	90.75
437.614	87.75
437.835	107.75
438.057	114.75
438.278	110.75
438.5	102.75
438.721	123.75
438.943	95.75
439.165	85.75
439.386	92.75
439.608	87.75
439.829	91.75
440.05	114.75
440.272	127.75
440.493	87.75
440.715	90.75
440.936	85.75
441.158	90.75
441.379	96.75
441.6	82.75
441.822	97.75
442.043	91.75
442.264	103.75
442.486	95.75
442.707	93.75
442.928	97.75
443.149	117.75
443.371	112.75
443.592	93.75
443.813	98.75
444.034	108.75
444.255	101.75
444.476	87.75
444.698	87.75
444.919	86.75
445.14	122.75
445.361	118.75
445.582	102.75
445.803	139.75
446.024	127.75
446.245	131.75
446.466	110.75
446.687	85.75
446.908	87.75
447.129	95.75
447.35	90.75
447.571	93.75
447.792	89.75
448.013	106.75
448.234	103.75
448.455	96.75
448.675	114.75
448.896	128.75
449.117	76.75
449.338	109.75
449.559	128.75
449.779	138.75
450	95.75
450.221	90.75
450.442	89.75
450.662	95.75
450.883	100.75
451.104	123.75
451.324	97.75
451.545	88.75
451.766	81.75
451.986	81.75
452.207	89.75
452.428	91.75
452.648	81.75
452.869	112.75
453.089	99.75
453.31	107.75
453.53	85.75
453.751	93.75
453.971	101.75
454.192	112.75
454.412	85.75
454.633	77.75
454.853	84.75
455.073	80.75
455.294	101.75
455.514	96.75
455.734	93.75
455.955	81.75
456.175	82.75
456.395	105.75
456.616	78.75
456.836	91.75
457.056	84.75
457.276	90.75
457.497	90.75
457.717	91.75
457.937	80.75
458.157	80.75
458.377	87.75
458.598	99.75
458.818	146.75
459.038	138.75
459.258	110.75
459.478	97.75
459.698	92.75
459.918	99.75
460.138	83.75
460.358	86.75
460.578	103.75
460.798	82.75
461.018	90.75
461.238	91.75
461.458	87.75
461.678	74.75
461.898	94.75
462.118	86.75
462.338	105.75
462.558	91.75
462.777	77.75
462.997	83.75
463.217	83.75
463.437	99.75
463.657	92.75
463.876	83.75
464.096	79.75
464.316	92.75
464.536	94.75
464.755	95.75
464.975	90.75
465.195	132.75
465.414	137.75
465.634	104.75
465.854	103.75
466.073	107.75
466.293	86.75
466.512	78.75
466.732	84.75
466.951	85.75
467.171	106.75
467.391	95.75
467.61	85.75
467.829	85.75
468.049	101.75
468.268	93.75
468.488	92.75
468.707	83.75
468.927	87.75
469.146	86.75
469.365	104.75
469.585	98.75
469.804	91.75
470.023	95.75
470.243	90.75
470.462	85.75
470.681	111.75
470.901	85.75
471.12	74.75
471.339	101.75
471.558	89.75
471.777	91.75
471.997	90.75
472.216	87.75
472.435	103.75
472.654	93.75
472.873	83.75
473.092	95.75
473.311	78.75
473.53	99.75
473.749	93.75
473.968	88.75
474.187	103.75
474.406	97.75
474.625	93.75
474.844	70.75
475.063	95.75
475.282	91.75
475.501	81.75
475.72	85.75
475.939	99.75
476.158	92.75
476.377	91.75
476.596	89.75
476.814	94.75
477.033	81.75
477.252	82.75
477.471	97.75
477.69	86.75
477.908	93.75
478.127	99.75
478.346	86.75
478.564	81.75
478.783	104.75
479.002	95.75
479.22	87.75
479.439	115.75
479.658	94.75
479.876	90.75
480.095	83.75
480.313	82.75
480.532	87.75
480.751	101.75
480.969	102.75
481.188	109.75
481.406	115.75
481.624	91.75
481.843	97.75
482.061	81.75
482.28	99.75
482.498	86.75
482.717	89.75
482.935	90.75
483.153	74.75
483.372	78.75
483.59	81.75
483.808	83.75
484.027	95.75
484.245	93.75
484.463	90.75
484.681	84.75
484.9	101.75
485.118	103.75
485.336	97.75
485.554	104.75
485.772	103.75
485.99	105.75
486.209	93.75
486.427	102.75
486.645	103.75
486.863	90.75
487.081	110.75
487.299	92.75
487.517	95.75
487.735	100.75
487.953	95.75
488.171	94.75
488.389	86.75
488.607	94.75
488.825	82.75
489.043	90.75
489.261	85.75
489.479	85.75
489.696	92.75
489.914	81.75
490.132	103.75
490.35	105.75
490.568	105.75
490.786	89.75
491.003	74.75
491.221	93.75
491.439	83.75
491.657	93.75
491.874	96.75
492.092	101.75
492.31	96.75
492.527	82.75
492.745	83.75
492.963	90.75
493.18	94.75
493.398	82.75
493.615	90.75
493.833	103.75
494.05	87.75
494.268	80.75
494.485	85.75
494.703	93.75
494.92	91.75
495.138	105.75
495.355	91.75
495.573	95.75
495.79	90.75
496.008	92.75
496.225	80.75
496.442	99.75
496.66	90.75
496.877	82.75
497.094	81.75
497.312	81.75
497.529	101.75
497.746	93.75
497.963	81.75
498.181	85.75
498.398	109.75
498.615	105.75
498.832	98.75
499.049	80.75
499.267	102.75
499.484	89.75
499.701	88.75
499.918	98.75
500.135	92.75
500.352	87.75
500.569	83.75
500.786	95.75
501.003	87.75
501.22	89.75
501.437	97.75
501.654	78.75
501.871	108.75
502.088	103.75
502.305	104.75
502.522	96.75
502.739	91.75
502.956	105.75
503.172	109.75
503.389	96.75
503.606	103.75
503.823	87.75
504.04	99.75
504.256	104.75
504.473	98.75
504.69	82.75
504.907	76.75
505.123	75.75
505.34	88.75
505.557	80.75
505.773	87.75
505.99	107.75
506.207	105.75
506.423	93.75
506.64	91.75
506.856	89.75
507.073	86.75
507.289	94.75
507.506	99.75
507.722	100.75
507.939	100.75
508.155	89.75
508.372	82.75
508.588	99.75
508.805	107.75
509.021	107.75
509.238	106.75
509.454	94.75
509.67	98.75
509.887	98.75
510.103	119.75
510.319	193.75
510.536	734.75
510.752	2201.75
510.968	638.75
511.184	165.75
511.401	105.75
511.617	106.75
511.833	99.75
512.049	99.75
512.265	90.75
512.481	83.75
512.698	104.75
512.914	76.75
513.13	101.75
513.346	92.75
513.562	91.75
513.778	99.75
513.994	90.75
514.21	106.75
514.426	99.75
514.642	119.75
514.858	135.75
515.074	156.75
515.29	405.75
515.506	1305.75
