Data from Uncirc_1999_H10_HRD10591_00034.txt Node
Date: Wed Jan 03 11:22:12 EST 2024
User: Yrep
Spectrometer: HR+D1059
Trigger mode: 1
Integration Time (sec): 1.000000E-1
Scans to average: 1
Electric dark correction enabled: true
Nonlinearity correction enabled: false
Boxcar width: 0
XAxis mode: Wavelengths
Number of Pixels in Spectrum: 2048
>>>>>Begin Spectral Data<<<<<
223.165	-28.06
223.4	-28.06
223.635	-28.06
223.869	-16.06
224.104	-23.06
224.338	-3.06
224.573	-12.06
224.808	-25.06
225.042	-5.06
225.277	13.94
225.511	-15.06
225.746	-8.06
225.98	6.94
226.215	14.94
226.449	26.94
226.683	28.94
226.918	6.94
227.152	36.94
227.387	30.94
227.621	36.94
227.856	48.94
228.09	38.94
228.324	42.94
228.559	57.94
228.793	62.94
229.027	62.94
229.262	77.94
229.496	73.94
229.73	87.94
229.964	86.94
230.199	55.94
230.433	76.94
230.667	62.94
230.901	81.94
231.136	89.94
231.37	89.94
231.604	102.94
231.838	81.94
232.072	76.94
232.306	69.94
232.541	66.94
232.775	80.94
233.009	87.94
233.243	76.94
233.477	93.94
233.711	76.94
233.945	73.94
234.179	77.94
234.413	70.94
234.647	90.94
234.881	81.94
235.115	71.94
235.349	97.94
235.583	86.94
235.817	84.94
236.051	75.94
236.285	89.94
236.519	74.94
236.753	74.94
236.987	77.94
237.221	83.94
237.455	82.94
237.689	70.94
237.922	98.94
238.156	86.94
238.39	73.94
238.624	75.94
238.858	80.94
239.091	71.94
239.325	80.94
239.559	77.94
239.793	65.94
240.027	66.94
240.26	77.94
240.494	82.94
240.728	73.94
240.961	86.94
241.195	63.94
241.429	98.94
241.662	70.94
241.896	76.94
242.13	70.94
242.363	65.94
242.597	82.94
242.83	82.94
243.064	73.94
243.298	82.94
243.531	75.94
243.765	78.94
243.998	76.94
244.232	74.94
244.465	82.94
244.699	73.94
244.932	77.94
245.166	73.94
245.399	88.94
245.633	77.94
245.866	59.94
246.099	65.94
246.333	87.94
246.566	72.94
246.8	84.94
247.033	76.94
247.266	76.94
247.5	75.94
247.733	79.94
247.966	71.94
248.2	85.94
248.433	78.94
248.666	88.94
248.899	97.94
249.133	82.94
249.366	88.94
249.599	97.94
249.832	86.94
250.066	89.94
250.299	80.94
250.532	81.94
250.765	72.94
250.998	90.94
251.231	80.94
251.465	98.94
251.698	72.94
251.931	71.94
252.164	81.94
252.397	82.94
252.63	93.94
252.863	79.94
253.096	91.94
253.329	69.94
253.562	89.94
253.795	77.94
254.028	91.94
254.261	76.94
254.494	63.94
254.727	78.94
254.96	81.94
255.193	85.94
255.426	68.94
255.659	94.94
255.892	75.94
256.124	88.94
256.357	81.94
256.59	89.94
256.823	78.94
257.056	80.94
257.289	81.94
257.521	85.94
257.754	76.94
257.987	84.94
258.22	78.94
258.452	92.94
258.685	85.94
258.918	77.94
259.151	79.94
259.383	92.94
259.616	71.94
259.849	76.94
260.081	85.94
260.314	81.94
260.547	95.94
260.779	89.94
261.012	86.94
261.244	75.94
261.477	85.94
261.71	78.94
261.942	125.94
262.175	100.94
262.407	86.94
262.64	81.94
262.872	81.94
263.105	73.94
263.337	77.94
263.57	86.94
263.802	84.94
264.035	78.94
264.267	76.94
264.499	81.94
264.732	91.94
264.964	85.94
265.197	87.94
265.429	86.94
265.661	82.94
265.894	84.94
266.126	78.94
266.358	76.94
266.591	70.94
266.823	82.94
267.055	73.94
267.287	80.94
267.52	80.94
267.752	85.94
267.984	81.94
268.216	70.94
268.448	100.94
268.681	79.94
268.913	97.94
269.145	80.94
269.377	81.94
269.609	66.94
269.841	80.94
270.073	91.94
270.306	87.94
270.538	76.94
270.77	89.94
271.002	80.94
271.234	93.94
271.466	81.94
271.698	75.94
271.93	80.94
272.162	89.94
272.394	94.94
272.626	91.94
272.858	80.94
273.09	78.94
273.322	83.94
273.553	90.94
273.785	75.94
274.017	92.94
274.249	84.94
274.481	80.94
274.713	78.94
274.945	78.94
275.176	86.94
275.408	78.94
275.64	89.94
275.872	85.94
276.104	72.94
276.335	88.94
276.567	85.94
276.799	91.94
277.031	112.94
277.262	84.94
277.494	93.94
277.726	81.94
277.957	85.94
278.189	82.94
278.421	79.94
278.652	78.94
278.884	87.94
279.115	89.94
279.347	80.94
279.579	78.94
279.81	76.94
280.042	79.94
280.273	90.94
280.505	79.94
280.736	84.94
280.968	78.94
281.199	86.94
281.431	85.94
281.662	81.94
281.894	89.94
282.125	93.94
282.356	102.94
282.588	126.94
282.819	116.94
283.051	89.94
283.282	76.94
283.513	96.94
283.745	77.94
283.976	92.94
284.207	81.94
284.439	96.94
284.67	84.94
284.901	90.94
285.132	86.94
285.364	90.94
285.595	78.94
285.826	89.94
286.057	89.94
286.288	72.94
286.52	79.94
286.751	79.94
286.982	91.94
287.213	87.94
287.444	95.94
287.675	98.94
287.906	93.94
288.138	85.94
288.369	88.94
288.6	92.94
288.831	85.94
289.062	86.94
289.293	91.94
289.524	77.94
289.755	94.94
289.986	92.94
290.217	81.94
290.448	108.94
290.679	80.94
290.91	91.94
291.141	85.94
291.371	94.94
291.602	86.94
291.833	71.94
292.064	94.94
292.295	85.94
292.526	79.94
292.757	92.94
292.987	79.94
293.218	81.94
293.449	80.94
293.68	82.94
293.91	88.94
294.141	91.94
294.372	86.94
294.603	93.94
294.833	81.94
295.064	87.94
295.295	93.94
295.525	101.94
295.756	90.94
295.987	111.94
296.217	119.94
296.448	120.94
296.679	101.94
296.909	85.94
297.14	93.94
297.37	93.94
297.601	84.94
297.831	87.94
298.062	96.94
298.292	79.94
298.523	77.94
298.753	85.94
298.984	96.94
299.214	86.94
299.445	72.94
299.675	86.94
299.905	96.94
300.136	84.94
300.366	76.94
300.597	76.94
300.827	105.94
301.057	99.94
301.288	106.94
301.518	92.94
301.748	90.94
301.979	86.94
302.209	84.94
302.439	88.94
302.669	95.94
302.9	80.94
303.13	95.94
303.36	87.94
303.59	94.94
303.82	92.94
304.051	92.94
304.281	97.94
304.511	98.94
304.741	84.94
304.971	89.94
305.201	97.94
305.431	90.94
305.661	85.94
305.891	81.94
306.121	80.94
306.352	112.94
306.582	100.94
306.812	89.94
307.042	98.94
307.272	88.94
307.502	95.94
307.731	76.94
307.961	84.94
308.191	91.94
308.421	86.94
308.651	82.94
308.881	92.94
309.111	99.94
309.341	98.94
309.571	92.94
309.8	84.94
310.03	93.94
310.26	100.94
310.49	84.94
310.72	98.94
310.949	108.94
311.179	92.94
311.409	86.94
311.639	92.94
311.868	85.94
312.098	104.94
312.328	93.94
312.557	97.94
312.787	102.94
313.017	95.94
313.246	88.94
313.476	93.94
313.706	86.94
313.935	92.94
314.165	103.94
314.394	96.94
314.624	80.94
314.853	89.94
315.083	98.94
315.312	97.94
315.542	93.94
315.771	88.94
316.001	92.94
316.23	113.94
316.46	98.94
316.689	83.94
316.919	109.94
317.148	99.94
317.377	106.94
317.607	86.94
317.836	92.94
318.065	84.94
318.295	98.94
318.524	88.94
318.753	81.94
318.983	102.94
319.212	99.94
319.441	120.94
319.67	100.94
319.9	103.94
320.129	98.94
320.358	100.94
320.587	97.94
320.816	95.94
321.046	110.94
321.275	99.94
321.504	98.94
321.733	98.94
321.962	93.94
322.191	89.94
322.42	106.94
322.649	109.94
322.878	115.94
323.108	112.94
323.337	119.94
323.566	142.94
323.795	144.94
324.024	200.94
324.253	414.94
324.482	859.94
324.71	1808.94
324.939	2367.94
325.168	843.94
325.397	248.94
325.626	149.94
325.855	138.94
326.084	136.94
326.313	126.94
326.542	152.94
326.77	229.94
326.999	494.94
327.228	1030.94
327.457	1875.94
327.686	1404.94
327.914	363.94
328.143	182.94
328.372	140.94
328.6	125.94
328.829	116.94
329.058	117.94
329.287	121.94
329.515	106.94
329.744	104.94
329.972	91.94
330.201	97.94
330.43	107.94
330.658	109.94
330.887	129.94
331.115	113.94
331.344	103.94
331.572	87.94
331.801	110.94
332.03	93.94
332.258	82.94
332.486	104.94
332.715	84.94
332.943	89.94
333.172	106.94
333.4	95.94
333.629	97.94
333.857	98.94
334.085	105.94
334.314	91.94
334.542	93.94
334.771	118.94
334.999	95.94
335.227	92.94
335.455	90.94
335.684	92.94
335.912	101.94
336.14	96.94
336.369	115.94
336.597	112.94
336.825	95.94
337.053	97.94
337.281	97.94
337.51	95.94
337.738	82.94
337.966	89.94
338.194	80.94
338.422	111.94
338.65	85.94
338.878	84.94
339.106	82.94
339.334	105.94
339.562	100.94
339.79	84.94
340.018	97.94
340.246	99.94
340.474	98.94
340.702	107.94
340.93	88.94
341.158	86.94
341.386	92.94
341.614	101.94
341.842	93.94
342.07	109.94
342.298	87.94
342.526	100.94
342.754	86.94
342.981	99.94
343.209	85.94
343.437	96.94
343.665	97.94
343.893	93.94
344.12	90.94
344.348	83.94
344.576	94.94
344.804	86.94
345.031	98.94
345.259	92.94
345.487	95.94
345.714	93.94
345.942	90.94
346.17	92.94
346.397	92.94
346.625	91.94
346.853	103.94
347.08	86.94
347.308	78.94
347.535	95.94
347.763	104.94
347.99	106.94
348.218	97.94
348.445	101.94
348.673	89.94
348.9	101.94
349.128	103.94
349.355	97.94
349.583	93.94
349.81	104.94
350.037	94.94
350.265	99.94
350.492	96.94
350.72	78.94
350.947	101.94
351.174	81.94
351.402	95.94
351.629	110.94
351.856	97.94
352.083	100.94
352.311	97.94
352.538	104.94
352.765	93.94
352.992	105.94
353.22	120.94
353.447	113.94
353.674	102.94
353.901	87.94
354.128	82.94
354.355	94.94
354.583	99.94
354.81	102.94
355.037	89.94
355.264	90.94
355.491	98.94
355.718	88.94
355.945	90.94
356.172	100.94
356.399	98.94
356.626	93.94
356.853	93.94
357.08	98.94
357.307	104.94
357.534	88.94
357.761	96.94
357.988	80.94
358.215	102.94
358.441	109.94
358.668	100.94
358.895	92.94
359.122	82.94
359.349	91.94
359.576	89.94
359.802	98.94
360.029	115.94
360.256	111.94
360.483	100.94
360.709	86.94
360.936	86.94
361.163	86.94
361.39	106.94
361.616	96.94
361.843	86.94
362.07	70.94
362.296	86.94
362.523	98.94
362.749	104.94
362.976	89.94
363.203	97.94
363.429	74.94
363.656	99.94
363.882	88.94
364.109	84.94
364.335	89.94
364.562	88.94
364.788	90.94
365.015	101.94
365.241	100.94
365.468	108.94
365.694	95.94
365.92	91.94
366.147	86.94
366.373	79.94
366.599	86.94
366.826	91.94
367.052	97.94
367.278	105.94
367.505	79.94
367.731	89.94
367.957	89.94
368.184	103.94
368.41	102.94
368.636	95.94
368.862	121.94
369.089	110.94
369.315	88.94
369.541	79.94
369.767	85.94
369.993	82.94
370.219	94.94
370.445	99.94
370.672	86.94
370.898	94.94
371.124	78.94
371.35	105.94
371.576	71.94
371.802	77.94
372.028	86.94
372.254	94.94
372.48	92.94
372.706	89.94
372.932	88.94
373.158	94.94
373.384	80.94
373.61	100.94
373.835	100.94
374.061	94.94
374.287	88.94
374.513	85.94
374.739	98.94
374.965	86.94
375.191	93.94
375.416	89.94
375.642	96.94
375.868	88.94
376.094	85.94
376.319	91.94
376.545	97.94
376.771	105.94
376.997	110.94
377.222	104.94
377.448	93.94
377.674	95.94
377.899	94.94
378.125	95.94
378.35	85.94
378.576	89.94
378.802	97.94
379.027	90.94
379.253	95.94
379.478	102.94
379.704	90.94
379.929	91.94
380.155	96.94
380.38	94.94
380.606	105.94
380.831	98.94
381.057	97.94
381.282	79.94
381.507	101.94
381.733	95.94
381.958	102.94
382.184	111.94
382.409	103.94
382.634	94.94
382.86	98.94
383.085	105.94
383.31	97.94
383.535	97.94
383.761	104.94
383.986	109.94
384.211	96.94
384.436	106.94
384.662	114.94
384.887	115.94
385.112	103.94
385.337	113.94
385.562	123.94
385.787	102.94
386.013	128.94
386.238	105.94
386.463	112.94
386.688	108.94
386.913	108.94
387.138	103.94
387.363	110.94
387.588	96.94
387.813	114.94
388.038	133.94
388.263	119.94
388.488	110.94
388.713	112.94
388.938	98.94
389.163	104.94
389.387	106.94
389.612	94.94
389.837	84.94
390.062	88.94
390.287	101.94
390.512	103.94
390.736	94.94
390.961	103.94
391.186	99.94
391.411	94.94
391.636	84.94
391.86	87.94
392.085	86.94
392.31	87.94
392.534	97.94
392.759	83.94
392.984	88.94
393.208	91.94
393.433	82.94
393.658	81.94
393.882	92.94
394.107	88.94
394.331	91.94
394.556	86.94
394.78	81.94
395.005	89.94
395.229	93.94
395.454	103.94
395.678	97.94
395.903	80.94
396.127	97.94
396.352	101.94
396.576	85.94
396.801	87.94
397.025	95.94
397.249	90.94
397.474	88.94
397.698	82.94
397.922	82.94
398.147	74.94
398.371	97.94
398.595	89.94
398.82	87.94
399.044	104.94
399.268	82.94
399.492	86.94
399.717	94.94
399.941	91.94
400.165	103.94
400.389	88.94
400.613	98.94
400.837	78.94
401.062	91.94
401.286	86.94
401.51	87.94
401.734	81.94
401.958	107.94
402.182	120.94
402.406	148.94
402.63	117.94
402.854	86.94
403.078	89.94
403.302	98.94
403.526	90.94
403.75	97.94
403.974	85.94
404.198	96.94
404.422	87.94
404.645	84.94
404.869	86.94
405.093	83.94
405.317	86.94
405.541	96.94
405.765	88.94
405.988	104.94
406.212	162.94
406.436	192.94
406.66	133.94
406.883	105.94
407.107	87.94
407.331	103.94
407.555	90.94
407.778	97.94
408.002	99.94
408.226	97.94
408.449	90.94
408.673	96.94
408.896	93.94
409.12	96.94
409.344	88.94
409.567	98.94
409.791	92.94
410.014	106.94
410.238	100.94
410.461	87.94
410.685	94.94
410.908	104.94
411.132	102.94
411.355	109.94
411.578	93.94
411.802	101.94
412.025	90.94
412.249	95.94
412.472	94.94
412.695	94.94
412.919	98.94
413.142	88.94
413.365	77.94
413.589	92.94
413.812	85.94
414.035	102.94
414.258	97.94
414.482	91.94
414.705	88.94
414.928	105.94
415.151	107.94
415.374	110.94
415.597	93.94
415.821	81.94
416.044	100.94
416.267	92.94
416.49	103.94
416.713	101.94
416.936	95.94
417.159	85.94
417.382	85.94
417.605	77.94
417.828	95.94
418.051	91.94
418.274	84.94
418.497	79.94
418.72	89.94
418.943	87.94
419.166	84.94
419.389	84.94
419.611	72.94
419.834	92.94
420.057	105.94
420.28	83.94
420.503	91.94
420.726	85.94
420.948	90.94
421.171	87.94
421.394	101.94
421.617	112.94
421.839	92.94
422.062	106.94
422.285	97.94
422.507	97.94
422.73	84.94
422.953	90.94
423.175	92.94
423.398	88.94
423.621	85.94
423.843	88.94
424.066	82.94
424.288	78.94
424.511	88.94
424.733	101.94
424.956	106.94
425.178	94.94
425.401	91.94
425.623	97.94
425.846	91.94
426.068	90.94
426.291	93.94
426.513	97.94
426.735	92.94
426.958	97.94
427.18	110.94
427.402	148.94
427.625	137.94
427.847	108.94
428.069	94.94
428.292	98.94
428.514	93.94
428.736	79.94
428.958	81.94
429.181	89.94
429.403	91.94
429.625	106.94
429.847	95.94
430.069	100.94
430.292	103.94
430.514	84.94
430.736	91.94
430.958	81.94
431.18	105.94
431.402	93.94
431.624	95.94
431.846	96.94
432.068	97.94
432.29	83.94
432.512	84.94
432.734	87.94
432.956	86.94
433.178	103.94
433.4	103.94
433.622	98.94
433.844	92.94
434.066	95.94
434.287	82.94
434.509	93.94
434.731	89.94
434.953	89.94
435.175	95.94
435.397	93.94
435.618	85.94
435.84	111.94
436.062	117.94
436.284	116.94
436.505	95.94
436.727	101.94
436.949	92.94
437.17	88.94
437.392	92.94
437.614	100.94
437.835	109.94
438.057	93.94
438.278	117.94
438.5	100.94
438.721	120.94
438.943	111.94
439.165	90.94
439.386	92.94
439.608	98.94
439.829	101.94
440.05	127.94
440.272	142.94
440.493	89.94
440.715	84.94
440.936	98.94
441.158	78.94
441.379	95.94
441.6	85.94
441.822	88.94
442.043	92.94
442.264	109.94
442.486	94.94
442.707	89.94
442.928	112.94
443.149	123.94
443.371	119.94
443.592	104.94
443.813	99.94
444.034	114.94
444.255	86.94
444.476	101.94
444.698	90.94
444.919	90.94
445.14	137.94
445.361	119.94
445.582	118.94
445.803	137.94
446.024	126.94
446.245	121.94
446.466	112.94
446.687	90.94
446.908	93.94
447.129	95.94
447.35	100.94
447.571	103.94
447.792	79.94
448.013	90.94
448.234	109.94
448.455	92.94
448.675	115.94
448.896	109.94
449.117	113.94
449.338	87.94
449.559	126.94
449.779	123.94
450	85.94
450.221	86.94
450.442	92.94
450.662	89.94
450.883	90.94
451.104	106.94
451.324	104.94
451.545	100.94
451.766	90.94
451.986	70.94
452.207	98.94
452.428	92.94
452.648	97.94
452.869	108.94
453.089	112.94
453.31	116.94
453.53	88.94
453.751	93.94
453.971	112.94
454.192	109.94
454.412	101.94
454.633	97.94
454.853	89.94
455.073	70.94
455.294	86.94
455.514	81.94
455.734	96.94
455.955	81.94
456.175	101.94
456.395	91.94
456.616	94.94
456.836	82.94
457.056	79.94
457.276	89.94
457.497	84.94
457.717	75.94
457.937	87.94
458.157	93.94
458.377	94.94
458.598	110.94
458.818	129.94
459.038	134.94
459.258	109.94
459.478	95.94
459.698	96.94
459.918	89.94
460.138	94.94
460.358	85.94
460.578	98.94
460.798	89.94
461.018	95.94
461.238	101.94
461.458	93.94
461.678	71.94
461.898	82.94
462.118	93.94
462.338	92.94
462.558	93.94
462.777	84.94
462.997	88.94
463.217	85.94
463.437	97.94
463.657	99.94
463.876	86.94
464.096	78.94
464.316	86.94
464.536	96.94
464.755	85.94
464.975	92.94
465.195	139.94
465.414	134.94
465.634	110.94
465.854	90.94
466.073	94.94
466.293	104.94
466.512	88.94
466.732	95.94
466.951	98.94
467.171	96.94
467.391	91.94
467.61	95.94
467.829	91.94
468.049	82.94
468.268	98.94
468.488	93.94
468.707	94.94
468.927	93.94
469.146	90.94
469.365	87.94
469.585	95.94
469.804	94.94
470.023	85.94
470.243	100.94
470.462	114.94
470.681	103.94
470.901	95.94
471.12	88.94
471.339	88.94
471.558	80.94
471.777	74.94
471.997	79.94
472.216	85.94
472.435	103.94
472.654	86.94
472.873	84.94
473.092	85.94
473.311	85.94
473.53	87.94
473.749	93.94
473.968	100.94
474.187	105.94
474.406	96.94
474.625	83.94
474.844	90.94
475.063	81.94
475.282	84.94
475.501	101.94
475.72	106.94
475.939	85.94
476.158	93.94
476.377	97.94
476.596	81.94
476.814	93.94
477.033	82.94
477.252	98.94
477.471	85.94
477.69	87.94
477.908	91.94
478.127	91.94
478.346	77.94
478.564	96.94
478.783	99.94
479.002	91.94
479.22	92.94
479.439	86.94
479.658	98.94
479.876	97.94
480.095	93.94
480.313	90.94
480.532	89.94
480.751	100.94
480.969	110.94
481.188	133.94
481.406	114.94
481.624	94.94
481.843	98.94
482.061	87.94
482.28	94.94
482.498	75.94
482.717	89.94
482.935	102.94
483.153	81.94
483.372	93.94
483.59	96.94
483.808	80.94
484.027	99.94
484.245	103.94
484.463	76.94
484.681	103.94
484.9	99.94
485.118	97.94
485.336	96.94
485.554	105.94
485.772	97.94
485.99	106.94
486.209	97.94
486.427	104.94
486.645	112.94
486.863	125.94
487.081	111.94
487.299	101.94
487.517	88.94
487.735	86.94
487.953	89.94
488.171	101.94
488.389	90.94
488.607	97.94
488.825	89.94
489.043	89.94
489.261	89.94
489.479	82.94
489.696	91.94
489.914	88.94
490.132	83.94
490.35	103.94
490.568	88.94
490.786	71.94
491.003	96.94
491.221	97.94
491.439	90.94
491.657	93.94
491.874	89.94
492.092	91.94
492.31	81.94
492.527	96.94
492.745	94.94
492.963	106.94
493.18	97.94
493.398	89.94
493.615	95.94
493.833	107.94
494.05	88.94
494.268	95.94
494.485	101.94
494.703	82.94
494.92	104.94
495.138	95.94
495.355	95.94
495.573	98.94
495.79	96.94
496.008	96.94
496.225	101.94
496.442	94.94
496.66	101.94
496.877	98.94
497.094	96.94
497.312	91.94
497.529	94.94
497.746	93.94
497.963	87.94
498.181	85.94
498.398	98.94
498.615	116.94
498.832	97.94
499.049	94.94
499.267	72.94
499.484	103.94
499.701	102.94
499.918	86.94
500.135	95.94
500.352	92.94
500.569	91.94
500.786	102.94
501.003	94.94
501.22	85.94
501.437	88.94
501.654	76.94
501.871	121.94
502.088	112.94
502.305	105.94
502.522	98.94
502.739	91.94
502.956	104.94
503.172	97.94
503.389	94.94
503.606	100.94
503.823	106.94
504.04	98.94
504.256	96.94
504.473	97.94
504.69	96.94
504.907	95.94
505.123	87.94
505.34	99.94
505.557	90.94
505.773	97.94
505.99	99.94
506.207	89.94
506.423	91.94
506.64	80.94
506.856	95.94
507.073	87.94
507.289	97.94
507.506	100.94
507.722	105.94
507.939	97.94
508.155	106.94
508.372	96.94
508.588	99.94
508.805	103.94
509.021	102.94
509.238	98.94
509.454	91.94
509.67	88.94
509.887	121.94
510.103	135.94
510.319	204.94
510.536	731.94
510.752	2191.94
510.968	616.94
511.184	161.94
511.401	118.94
511.617	102.94
511.833	99.94
512.049	96.94
512.265	92.94
512.481	95.94
512.698	102.94
512.914	91.94
513.13	95.94
513.346	82.94
513.562	100.94
513.778	101.94
513.994	100.94
514.21	103.94
514.426	118.94
514.642	138.94
514.858	125.94
515.074	151.94
515.29	392.94
515.506	1240.94
