Data from Uncirc_1999_H10_HRD10591_00058.txt Node
Date: Wed Jan 03 11:22:16 EST 2024
User: Yrep
Spectrometer: HR+D1059
Trigger mode: 1
Integration Time (sec): 1.000000E-1
Scans to average: 1
Electric dark correction enabled: true
Nonlinearity correction enabled: false
Boxcar width: 0
XAxis mode: Wavelengths
Number of Pixels in Spectrum: 2048
>>>>>Begin Spectral Data<<<<<
223.165	-28.25
223.4	-28.25
223.635	-28.25
223.869	-14.25
224.104	-6.25
224.338	-21.25
224.573	-30.25
224.808	-16.25
225.042	-3.25
225.277	-1.25
225.511	-3.25
225.746	-6.25
225.98	5.75
226.215	10.75
226.449	19.75
226.683	32.75
226.918	42.75
227.152	18.75
227.387	36.75
227.621	35.75
227.856	43.75
228.09	41.75
228.324	65.75
228.559	58.75
228.793	57.75
229.027	61.75
229.262	73.75
229.496	76.75
229.73	85.75
229.964	70.75
230.199	60.75
230.433	80.75
230.667	76.75
230.901	80.75
231.136	77.75
231.37	77.75
231.604	81.75
231.838	74.75
232.072	79.75
232.306	80.75
232.541	92.75
232.775	77.75
233.009	81.75
233.243	82.75
233.477	85.75
233.711	80.75
233.945	83.75
234.179	79.75
234.413	92.75
234.647	71.75
234.881	74.75
235.115	81.75
235.349	83.75
235.583	81.75
235.817	80.75
236.051	67.75
236.285	69.75
236.519	85.75
236.753	87.75
236.987	91.75
237.221	84.75
237.455	84.75
237.689	73.75
237.922	76.75
238.156	80.75
238.39	93.75
238.624	94.75
238.858	81.75
239.091	72.75
239.325	81.75
239.559	88.75
239.793	83.75
240.027	81.75
240.26	75.75
240.494	91.75
240.728	89.75
240.961	70.75
241.195	85.75
241.429	76.75
241.662	75.75
241.896	93.75
242.13	83.75
242.363	71.75
242.597	70.75
242.83	62.75
243.064	81.75
243.298	73.75
243.531	67.75
243.765	78.75
243.998	73.75
244.232	95.75
244.465	66.75
244.699	75.75
244.932	81.75
245.166	77.75
245.399	82.75
245.633	77.75
245.866	72.75
246.099	74.75
246.333	74.75
246.566	86.75
246.8	74.75
247.033	79.75
247.266	87.75
247.5	77.75
247.733	69.75
247.966	66.75
248.2	71.75
248.433	72.75
248.666	80.75
248.899	83.75
249.133	99.75
249.366	92.75
249.599	90.75
249.832	72.75
250.066	86.75
250.299	79.75
250.532	75.75
250.765	83.75
250.998	100.75
251.231	87.75
251.465	92.75
251.698	94.75
251.931	75.75
252.164	73.75
252.397	81.75
252.63	80.75
252.863	82.75
253.096	83.75
253.329	81.75
253.562	88.75
253.795	67.75
254.028	73.75
254.261	82.75
254.494	67.75
254.727	83.75
254.96	87.75
255.193	83.75
255.426	85.75
255.659	75.75
255.892	82.75
256.124	77.75
256.357	77.75
256.59	71.75
256.823	78.75
257.056	81.75
257.289	85.75
257.521	78.75
257.754	71.75
257.987	81.75
258.22	92.75
258.452	85.75
258.685	81.75
258.918	86.75
259.151	88.75
259.383	91.75
259.616	82.75
259.849	85.75
260.081	69.75
260.314	78.75
260.547	82.75
260.779	82.75
261.012	77.75
261.244	91.75
261.477	94.75
261.71	83.75
261.942	105.75
262.175	96.75
262.407	76.75
262.64	85.75
262.872	82.75
263.105	77.75
263.337	84.75
263.57	74.75
263.802	80.75
264.035	76.75
264.267	82.75
264.499	94.75
264.732	70.75
264.964	86.75
265.197	79.75
265.429	78.75
265.661	97.75
265.894	85.75
266.126	73.75
266.358	81.75
266.591	87.75
266.823	97.75
267.055	81.75
267.287	81.75
267.52	75.75
267.752	96.75
267.984	95.75
268.216	79.75
268.448	87.75
268.681	93.75
268.913	70.75
269.145	80.75
269.377	94.75
269.609	88.75
269.841	78.75
270.073	104.75
270.306	83.75
270.538	86.75
270.77	81.75
271.002	99.75
271.234	93.75
271.466	81.75
271.698	75.75
271.93	94.75
272.162	75.75
272.394	88.75
272.626	93.75
272.858	91.75
273.09	90.75
273.322	86.75
273.553	89.75
273.785	97.75
274.017	94.75
274.249	76.75
274.481	72.75
274.713	88.75
274.945	83.75
275.176	81.75
275.408	94.75
275.64	89.75
275.872	88.75
276.104	86.75
276.335	91.75
276.567	94.75
276.799	93.75
277.031	114.75
277.262	87.75
277.494	83.75
277.726	84.75
277.957	83.75
278.189	84.75
278.421	93.75
278.652	83.75
278.884	89.75
279.115	84.75
279.347	91.75
279.579	86.75
279.81	84.75
280.042	91.75
280.273	80.75
280.505	93.75
280.736	93.75
280.968	85.75
281.199	93.75
281.431	86.75
281.662	93.75
281.894	102.75
282.125	113.75
282.356	111.75
282.588	120.75
282.819	93.75
283.051	79.75
283.282	93.75
283.513	87.75
283.745	79.75
283.976	104.75
284.207	85.75
284.439	102.75
284.67	80.75
284.901	76.75
285.132	79.75
285.364	73.75
285.595	93.75
285.826	81.75
286.057	102.75
286.288	83.75
286.52	89.75
286.751	93.75
286.982	81.75
287.213	97.75
287.444	99.75
287.675	78.75
287.906	88.75
288.138	93.75
288.369	95.75
288.6	86.75
288.831	82.75
289.062	72.75
289.293	94.75
289.524	98.75
289.755	83.75
289.986	97.75
290.217	81.75
290.448	83.75
290.679	77.75
290.91	92.75
291.141	78.75
291.371	77.75
291.602	92.75
291.833	93.75
292.064	89.75
292.295	88.75
292.526	112.75
292.757	90.75
292.987	95.75
293.218	97.75
293.449	89.75
293.68	92.75
293.91	88.75
294.141	95.75
294.372	108.75
294.603	98.75
294.833	95.75
295.064	88.75
295.295	89.75
295.525	99.75
295.756	94.75
295.987	104.75
296.217	128.75
296.448	124.75
296.679	90.75
296.909	82.75
297.14	100.75
297.37	113.75
297.601	93.75
297.831	96.75
298.062	92.75
298.292	88.75
298.523	91.75
298.753	70.75
298.984	83.75
299.214	89.75
299.445	95.75
299.675	97.75
299.905	94.75
300.136	99.75
300.366	98.75
300.597	105.75
300.827	98.75
301.057	100.75
301.288	97.75
301.518	106.75
301.748	96.75
301.979	110.75
302.209	104.75
302.439	88.75
302.669	79.75
302.9	93.75
303.13	98.75
303.36	96.75
303.59	106.75
303.82	85.75
304.051	102.75
304.281	92.75
304.511	91.75
304.741	99.75
304.971	78.75
305.201	84.75
305.431	100.75
305.661	90.75
305.891	91.75
306.121	84.75
306.352	110.75
306.582	99.75
306.812	93.75
307.042	81.75
307.272	86.75
307.502	91.75
307.731	99.75
307.961	89.75
308.191	89.75
308.421	94.75
308.651	86.75
308.881	88.75
309.111	94.75
309.341	98.75
309.571	88.75
309.8	101.75
310.03	91.75
310.26	92.75
310.49	90.75
310.72	84.75
310.949	82.75
311.179	110.75
311.409	98.75
311.639	91.75
311.868	93.75
312.098	107.75
312.328	88.75
312.557	77.75
312.787	111.75
313.017	95.75
313.246	106.75
313.476	96.75
313.706	93.75
313.935	78.75
314.165	92.75
314.394	116.75
314.624	98.75
314.853	85.75
315.083	94.75
315.312	92.75
315.542	96.75
315.771	82.75
316.001	102.75
316.23	98.75
316.46	94.75
316.689	101.75
316.919	96.75
317.148	89.75
317.377	95.75
317.607	87.75
317.836	91.75
318.065	98.75
318.295	97.75
318.524	83.75
318.753	74.75
318.983	97.75
319.212	90.75
319.441	111.75
319.67	110.75
319.9	112.75
320.129	102.75
320.358	105.75
320.587	93.75
320.816	94.75
321.046	94.75
321.275	104.75
321.504	99.75
321.733	89.75
321.962	88.75
322.191	96.75
322.42	118.75
322.649	113.75
322.878	99.75
323.108	114.75
323.337	137.75
323.566	123.75
323.795	142.75
324.024	206.75
324.253	391.75
324.482	823.75
324.71	1764.75
324.939	2278.75
325.168	828.75
325.397	240.75
325.626	137.75
325.855	133.75
326.084	120.75
326.313	136.75
326.542	150.75
326.77	235.75
326.999	459.75
327.228	961.75
327.457	1788.75
327.686	1391.75
327.914	376.75
328.143	177.75
328.372	155.75
328.6	112.75
328.829	115.75
329.058	125.75
329.287	133.75
329.515	107.75
329.744	102.75
329.972	102.75
330.201	118.75
330.43	113.75
330.658	107.75
330.887	120.75
331.115	117.75
331.344	103.75
331.572	113.75
331.801	92.75
332.03	107.75
332.258	102.75
332.486	83.75
332.715	101.75
332.943	94.75
333.172	103.75
333.4	95.75
333.629	107.75
333.857	99.75
334.085	110.75
334.314	89.75
334.542	105.75
334.771	107.75
334.999	83.75
335.227	89.75
335.455	87.75
335.684	96.75
335.912	103.75
336.14	91.75
336.369	90.75
336.597	102.75
336.825	90.75
337.053	97.75
337.281	96.75
337.51	95.75
337.738	105.75
337.966	94.75
338.194	94.75
338.422	93.75
338.65	101.75
338.878	95.75
339.106	102.75
339.334	95.75
339.562	104.75
339.79	96.75
340.018	75.75
340.246	85.75
340.474	98.75
340.702	77.75
340.93	102.75
341.158	87.75
341.386	97.75
341.614	88.75
341.842	92.75
342.07	99.75
342.298	87.75
342.526	89.75
342.754	93.75
342.981	86.75
343.209	87.75
343.437	80.75
343.665	105.75
343.893	94.75
344.12	119.75
344.348	93.75
344.576	94.75
344.804	111.75
345.031	108.75
345.259	94.75
345.487	97.75
345.714	89.75
345.942	84.75
346.17	96.75
346.397	90.75
346.625	87.75
346.853	85.75
347.08	86.75
347.308	84.75
347.535	97.75
347.763	101.75
347.99	93.75
348.218	118.75
348.445	88.75
348.673	79.75
348.9	99.75
349.128	119.75
349.355	94.75
349.583	87.75
349.81	104.75
350.037	99.75
350.265	98.75
350.492	96.75
350.72	94.75
350.947	108.75
351.174	102.75
351.402	99.75
351.629	94.75
351.856	91.75
352.083	108.75
352.311	119.75
352.538	94.75
352.765	110.75
352.992	93.75
353.22	96.75
353.447	97.75
353.674	97.75
353.901	110.75
354.128	103.75
354.355	98.75
354.583	107.75
354.81	99.75
355.037	91.75
355.264	103.75
355.491	101.75
355.718	93.75
355.945	91.75
356.172	91.75
356.399	96.75
356.626	100.75
356.853	96.75
357.08	98.75
357.307	88.75
357.534	98.75
357.761	95.75
357.988	97.75
358.215	104.75
358.441	89.75
358.668	107.75
358.895	98.75
359.122	98.75
359.349	103.75
359.576	87.75
359.802	83.75
360.029	93.75
360.256	101.75
360.483	87.75
360.709	96.75
360.936	103.75
361.163	87.75
361.39	99.75
361.616	104.75
361.843	103.75
362.07	89.75
362.296	108.75
362.523	97.75
362.749	83.75
362.976	84.75
363.203	94.75
363.429	89.75
363.656	101.75
363.882	94.75
364.109	94.75
364.335	91.75
364.562	85.75
364.788	80.75
365.015	97.75
365.241	99.75
365.468	97.75
365.694	103.75
365.92	107.75
366.147	94.75
366.373	94.75
366.599	89.75
366.826	85.75
367.052	83.75
367.278	99.75
367.505	95.75
367.731	99.75
367.957	92.75
368.184	91.75
368.41	104.75
368.636	106.75
368.862	119.75
369.089	99.75
369.315	99.75
369.541	91.75
369.767	89.75
369.993	89.75
370.219	95.75
370.445	93.75
370.672	79.75
370.898	82.75
371.124	96.75
371.35	77.75
371.576	90.75
371.802	89.75
372.028	93.75
372.254	91.75
372.48	78.75
372.706	81.75
372.932	88.75
373.158	81.75
373.384	93.75
373.61	106.75
373.835	101.75
374.061	89.75
374.287	101.75
374.513	93.75
374.739	86.75
374.965	97.75
375.191	89.75
375.416	92.75
375.642	106.75
375.868	110.75
376.094	85.75
376.319	89.75
376.545	75.75
376.771	91.75
376.997	89.75
377.222	102.75
377.448	92.75
377.674	99.75
377.899	84.75
378.125	83.75
378.35	98.75
378.576	108.75
378.802	94.75
379.027	89.75
379.253	79.75
379.478	94.75
379.704	86.75
379.929	96.75
380.155	83.75
380.38	99.75
380.606	103.75
380.831	95.75
381.057	115.75
381.282	99.75
381.507	95.75
381.733	93.75
381.958	90.75
382.184	102.75
382.409	101.75
382.634	102.75
382.86	99.75
383.085	87.75
383.31	106.75
383.535	99.75
383.761	82.75
383.986	105.75
384.211	99.75
384.436	103.75
384.662	113.75
384.887	96.75
385.112	110.75
385.337	119.75
385.562	103.75
385.787	105.75
386.013	110.75
386.238	105.75
386.463	103.75
386.688	114.75
386.913	103.75
387.138	95.75
387.363	109.75
387.588	110.75
387.813	102.75
388.038	110.75
388.263	111.75
388.488	122.75
388.713	107.75
388.938	106.75
389.163	95.75
389.387	104.75
389.612	96.75
389.837	99.75
390.062	103.75
390.287	103.75
390.512	103.75
390.736	90.75
390.961	91.75
391.186	104.75
391.411	85.75
391.636	80.75
391.86	82.75
392.085	71.75
392.31	83.75
392.534	81.75
392.759	88.75
392.984	94.75
393.208	95.75
393.433	91.75
393.658	87.75
393.882	89.75
394.107	87.75
394.331	91.75
394.556	89.75
394.78	90.75
395.005	97.75
395.229	99.75
395.454	86.75
395.678	85.75
395.903	91.75
396.127	88.75
396.352	78.75
396.576	83.75
396.801	94.75
397.025	86.75
397.249	90.75
397.474	96.75
397.698	98.75
397.922	74.75
398.147	89.75
398.371	78.75
398.595	87.75
398.82	81.75
399.044	82.75
399.268	78.75
399.492	86.75
399.717	92.75
399.941	77.75
400.165	76.75
400.389	78.75
400.613	95.75
400.837	84.75
401.062	79.75
401.286	97.75
401.51	96.75
401.734	81.75
401.958	99.75
402.182	108.75
402.406	133.75
402.63	113.75
402.854	94.75
403.078	87.75
403.302	97.75
403.526	96.75
403.75	88.75
403.974	85.75
404.198	70.75
404.422	80.75
404.645	86.75
404.869	96.75
405.093	93.75
405.317	97.75
405.541	95.75
405.765	87.75
405.988	106.75
406.212	147.75
406.436	187.75
406.66	129.75
406.883	109.75
407.107	97.75
407.331	100.75
407.555	101.75
407.778	95.75
408.002	105.75
408.226	76.75
408.449	86.75
408.673	87.75
408.896	98.75
409.12	97.75
409.344	81.75
409.567	88.75
409.791	88.75
410.014	91.75
410.238	92.75
410.461	78.75
410.685	91.75
410.908	93.75
411.132	104.75
411.355	102.75
411.578	82.75
411.802	96.75
412.025	83.75
412.249	85.75
412.472	93.75
412.695	67.75
412.919	86.75
413.142	88.75
413.365	79.75
413.589	93.75
413.812	87.75
414.035	103.75
414.258	93.75
414.482	94.75
414.705	90.75
414.928	103.75
415.151	93.75
415.374	87.75
415.597	100.75
415.821	85.75
416.044	99.75
416.267	97.75
416.49	89.75
416.713	97.75
416.936	91.75
417.159	97.75
417.382	92.75
417.605	82.75
417.828	105.75
418.051	94.75
418.274	93.75
418.497	79.75
418.72	96.75
418.943	74.75
419.166	91.75
419.389	89.75
419.611	88.75
419.834	95.75
420.057	85.75
420.28	88.75
420.503	92.75
420.726	85.75
420.948	96.75
421.171	95.75
421.394	86.75
421.617	75.75
421.839	91.75
422.062	93.75
422.285	92.75
422.507	101.75
422.73	102.75
422.953	91.75
423.175	91.75
423.398	91.75
423.621	88.75
423.843	88.75
424.066	88.75
424.288	93.75
424.511	88.75
424.733	97.75
424.956	102.75
425.178	105.75
425.401	90.75
425.623	91.75
425.846	85.75
426.068	103.75
426.291	90.75
426.513	85.75
426.735	83.75
426.958	89.75
427.18	109.75
427.402	135.75
427.625	146.75
427.847	117.75
428.069	94.75
428.292	82.75
428.514	87.75
428.736	86.75
428.958	86.75
429.181	89.75
429.403	89.75
429.625	95.75
429.847	71.75
430.069	97.75
430.292	108.75
430.514	77.75
430.736	72.75
430.958	77.75
431.18	79.75
431.402	83.75
431.624	84.75
431.846	96.75
432.068	87.75
432.29	96.75
432.512	96.75
432.734	82.75
432.956	83.75
433.178	105.75
433.4	102.75
433.622	98.75
433.844	96.75
434.066	98.75
434.287	95.75
434.509	81.75
434.731	87.75
434.953	93.75
435.175	89.75
435.397	95.75
435.618	91.75
435.84	102.75
436.062	113.75
436.284	117.75
436.505	101.75
436.727	80.75
436.949	92.75
437.17	98.75
437.392	88.75
437.614	88.75
437.835	104.75
438.057	80.75
438.278	104.75
438.5	101.75
438.721	122.75
438.943	107.75
439.165	95.75
439.386	80.75
439.608	87.75
439.829	102.75
440.05	129.75
440.272	136.75
440.493	91.75
440.715	79.75
440.936	89.75
441.158	95.75
441.379	90.75
441.6	96.75
441.822	82.75
442.043	93.75
442.264	95.75
442.486	90.75
442.707	102.75
442.928	95.75
443.149	117.75
443.371	126.75
443.592	103.75
443.813	106.75
444.034	101.75
444.255	88.75
444.476	91.75
444.698	98.75
444.919	90.75
445.14	129.75
445.361	117.75
445.582	121.75
445.803	124.75
446.024	113.75
446.245	130.75
446.466	90.75
446.687	86.75
446.908	91.75
447.129	102.75
447.35	86.75
447.571	95.75
447.792	98.75
448.013	99.75
448.234	103.75
448.455	102.75
448.675	103.75
448.896	109.75
449.117	95.75
449.338	94.75
449.559	122.75
449.779	115.75
450	101.75
450.221	99.75
450.442	82.75
450.662	94.75
450.883	111.75
451.104	110.75
451.324	80.75
451.545	73.75
451.766	79.75
451.986	82.75
452.207	82.75
452.428	80.75
452.648	84.75
452.869	100.75
453.089	115.75
453.31	116.75
453.53	107.75
453.751	96.75
453.971	104.75
454.192	106.75
454.412	89.75
454.633	93.75
454.853	87.75
455.073	85.75
455.294	88.75
455.514	96.75
455.734	74.75
455.955	90.75
456.175	87.75
456.395	67.75
456.616	82.75
456.836	82.75
457.056	89.75
457.276	89.75
457.497	92.75
457.717	92.75
457.937	72.75
458.157	87.75
458.377	95.75
458.598	102.75
458.818	121.75
459.038	135.75
459.258	107.75
459.478	96.75
459.698	71.75
459.918	77.75
460.138	86.75
460.358	85.75
460.578	90.75
460.798	90.75
461.018	81.75
461.238	77.75
461.458	103.75
461.678	81.75
461.898	81.75
462.118	80.75
462.338	103.75
462.558	84.75
462.777	82.75
462.997	87.75
463.217	97.75
463.437	80.75
463.657	103.75
463.876	88.75
464.096	89.75
464.316	91.75
464.536	82.75
464.755	87.75
464.975	109.75
465.195	135.75
465.414	147.75
465.634	92.75
465.854	75.75
466.073	83.75
466.293	98.75
466.512	69.75
466.732	76.75
466.951	86.75
467.171	80.75
467.391	87.75
467.61	95.75
467.829	95.75
468.049	87.75
468.268	93.75
468.488	75.75
468.707	79.75
468.927	93.75
469.146	79.75
469.365	98.75
469.585	97.75
469.804	98.75
470.023	103.75
470.243	88.75
470.462	95.75
470.681	106.75
470.901	91.75
471.12	93.75
471.339	88.75
471.558	94.75
471.777	93.75
471.997	95.75
472.216	100.75
472.435	109.75
472.654	88.75
472.873	92.75
473.092	87.75
473.311	94.75
473.53	83.75
473.749	76.75
473.968	93.75
474.187	95.75
474.406	100.75
474.625	90.75
474.844	100.75
475.063	83.75
475.282	86.75
475.501	84.75
475.72	90.75
475.939	89.75
476.158	91.75
476.377	90.75
476.596	89.75
476.814	100.75
477.033	95.75
477.252	83.75
477.471	94.75
477.69	93.75
477.908	99.75
478.127	94.75
478.346	81.75
478.564	91.75
478.783	95.75
479.002	84.75
479.22	74.75
479.439	108.75
479.658	85.75
479.876	95.75
480.095	78.75
480.313	91.75
480.532	85.75
480.751	93.75
480.969	96.75
481.188	117.75
481.406	116.75
481.624	104.75
481.843	96.75
482.061	83.75
482.28	82.75
482.498	79.75
482.717	100.75
482.935	97.75
483.153	83.75
483.372	102.75
483.59	76.75
483.808	87.75
484.027	93.75
484.245	87.75
484.463	80.75
484.681	96.75
484.9	103.75
485.118	88.75
485.336	92.75
485.554	113.75
485.772	105.75
485.99	95.75
486.209	108.75
486.427	105.75
486.645	118.75
486.863	101.75
487.081	107.75
487.299	93.75
487.517	100.75
487.735	103.75
487.953	102.75
488.171	108.75
488.389	90.75
488.607	92.75
488.825	94.75
489.043	85.75
489.261	90.75
489.479	85.75
489.696	92.75
489.914	103.75
490.132	95.75
490.35	96.75
490.568	83.75
490.786	86.75
491.003	112.75
491.221	101.75
491.439	89.75
491.657	91.75
491.874	104.75
492.092	86.75
492.31	91.75
492.527	86.75
492.745	89.75
492.963	83.75
493.18	89.75
493.398	99.75
493.615	103.75
493.833	104.75
494.05	83.75
494.268	93.75
494.485	87.75
494.703	91.75
494.92	96.75
495.138	90.75
495.355	83.75
495.573	84.75
495.79	104.75
496.008	85.75
496.225	94.75
496.442	77.75
496.66	99.75
496.877	88.75
497.094	97.75
497.312	85.75
497.529	90.75
497.746	96.75
497.963	96.75
498.181	102.75
498.398	106.75
498.615	103.75
498.832	99.75
499.049	87.75
499.267	71.75
499.484	93.75
499.701	96.75
499.918	113.75
500.135	93.75
500.352	95.75
500.569	87.75
500.786	65.75
501.003	98.75
501.22	89.75
501.437	102.75
501.654	98.75
501.871	102.75
502.088	73.75
502.305	98.75
502.522	94.75
502.739	98.75
502.956	93.75
503.172	98.75
503.389	99.75
503.606	100.75
503.823	97.75
504.04	92.75
504.256	81.75
504.473	81.75
504.69	80.75
504.907	99.75
505.123	105.75
505.34	86.75
505.557	78.75
505.773	90.75
505.99	97.75
506.207	86.75
506.423	87.75
506.64	94.75
506.856	99.75
507.073	89.75
507.289	91.75
507.506	106.75
507.722	107.75
507.939	114.75
508.155	104.75
508.372	96.75
508.588	86.75
508.805	96.75
509.021	97.75
509.238	97.75
509.454	87.75
509.67	80.75
509.887	110.75
510.103	141.75
510.319	203.75
510.536	693.75
510.752	2151.75
510.968	596.75
511.184	149.75
511.401	104.75
511.617	97.75
511.833	106.75
512.049	79.75
512.265	97.75
512.481	91.75
512.698	85.75
512.914	96.75
513.13	86.75
513.346	89.75
513.562	96.75
513.778	104.75
513.994	102.75
514.21	103.75
514.426	120.75
514.642	129.75
514.858	108.75
515.074	150.75
515.29	382.75
515.506	1259.75
515.721	473.75
