Data from Uncirc_1999_H10_HRD10591_00093.txt Node
Date: Wed Jan 03 11:22:23 EST 2024
User: Yrep
Spectrometer: HR+D1059
Trigger mode: 1
Integration Time (sec): 1.000000E-1
Scans to average: 1
Electric dark correction enabled: true
Nonlinearity correction enabled: false
Boxcar width: 0
XAxis mode: Wavelengths
Number of Pixels in Spectrum: 2048
>>>>>Begin Spectral Data<<<<<
223.165	-23.19
223.4	-23.19
223.635	-23.19
223.869	-15.19
224.104	-20.19
224.338	-12.19
224.573	-26.19
224.808	-5.19
225.042	-9.19
225.277	-0.19
225.511	-4.19
225.746	4.81
225.98	6.81
226.215	6.81
226.449	16.81
226.683	22.81
226.918	23.81
227.152	33.81
227.387	38.81
227.621	45.81
227.856	29.81
228.09	46.81
228.324	41.81
228.559	39.81
228.793	57.81
229.027	57.81
229.262	60.81
229.496	57.81
229.73	73.81
229.964	81.81
230.199	82.81
230.433	73.81
230.667	71.81
230.901	85.81
231.136	74.81
231.37	75.81
231.604	84.81
231.838	75.81
232.072	67.81
232.306	77.81
232.541	93.81
232.775	85.81
233.009	78.81
233.243	76.81
233.477	82.81
233.711	82.81
233.945	62.81
234.179	65.81
234.413	74.81
234.647	79.81
234.881	77.81
235.115	84.81
235.349	80.81
235.583	75.81
235.817	86.81
236.051	64.81
236.285	69.81
236.519	63.81
236.753	79.81
236.987	86.81
237.221	83.81
237.455	75.81
237.689	72.81
237.922	83.81
238.156	77.81
238.39	77.81
238.624	68.81
238.858	72.81
239.091	91.81
239.325	85.81
239.559	84.81
239.793	70.81
240.027	66.81
240.26	75.81
240.494	80.81
240.728	78.81
240.961	58.81
241.195	65.81
241.429	81.81
241.662	85.81
241.896	65.81
242.13	80.81
242.363	83.81
242.597	66.81
242.83	79.81
243.064	92.81
243.298	78.81
243.531	78.81
243.765	75.81
243.998	91.81
244.232	81.81
244.465	84.81
244.699	73.81
244.932	75.81
245.166	88.81
245.399	84.81
245.633	77.81
245.866	72.81
246.099	58.81
246.333	71.81
246.566	74.81
246.8	73.81
247.033	75.81
247.266	71.81
247.5	73.81
247.733	84.81
247.966	82.81
248.2	77.81
248.433	72.81
248.666	79.81
248.899	83.81
249.133	76.81
249.366	91.81
249.599	73.81
249.832	76.81
250.066	93.81
250.299	75.81
250.532	80.81
250.765	80.81
250.998	92.81
251.231	92.81
251.465	81.81
251.698	77.81
251.931	70.81
252.164	62.81
252.397	74.81
252.63	85.81
252.863	79.81
253.096	79.81
253.329	83.81
253.562	83.81
253.795	73.81
254.028	85.81
254.261	80.81
254.494	86.81
254.727	81.81
254.96	75.81
255.193	73.81
255.426	99.81
255.659	77.81
255.892	79.81
256.124	67.81
256.357	73.81
256.59	102.81
256.823	69.81
257.056	73.81
257.289	75.81
257.521	56.81
257.754	75.81
257.987	90.81
258.22	73.81
258.452	76.81
258.685	82.81
258.918	87.81
259.151	70.81
259.383	71.81
259.616	82.81
259.849	76.81
260.081	73.81
260.314	69.81
260.547	86.81
260.779	84.81
261.012	90.81
261.244	80.81
261.477	78.81
261.71	87.81
261.942	115.81
262.175	116.81
262.407	83.81
262.64	82.81
262.872	84.81
263.105	83.81
263.337	85.81
263.57	90.81
263.802	94.81
264.035	82.81
264.267	70.81
264.499	86.81
264.732	68.81
264.964	84.81
265.197	96.81
265.429	75.81
265.661	83.81
265.894	77.81
266.126	73.81
266.358	85.81
266.591	75.81
266.823	78.81
267.055	88.81
267.287	84.81
267.52	88.81
267.752	77.81
267.984	69.81
268.216	74.81
268.448	85.81
268.681	76.81
268.913	92.81
269.145	83.81
269.377	92.81
269.609	72.81
269.841	79.81
270.073	81.81
270.306	84.81
270.538	88.81
270.77	89.81
271.002	80.81
271.234	75.81
271.466	85.81
271.698	80.81
271.93	67.81
272.162	79.81
272.394	61.81
272.626	88.81
272.858	66.81
273.09	85.81
273.322	84.81
273.553	74.81
273.785	81.81
274.017	83.81
274.249	83.81
274.481	87.81
274.713	95.81
274.945	76.81
275.176	71.81
275.408	96.81
275.64	89.81
275.872	94.81
276.104	89.81
276.335	85.81
276.567	86.81
276.799	102.81
277.031	93.81
277.262	84.81
277.494	89.81
277.726	89.81
277.957	90.81
278.189	80.81
278.421	82.81
278.652	67.81
278.884	79.81
279.115	76.81
279.347	88.81
279.579	94.81
279.81	90.81
280.042	92.81
280.273	102.81
280.505	87.81
280.736	71.81
280.968	85.81
281.199	96.81
281.431	85.81
281.662	83.81
281.894	95.81
282.125	87.81
282.356	111.81
282.588	136.81
282.819	102.81
283.051	82.81
283.282	88.81
283.513	88.81
283.745	82.81
283.976	87.81
284.207	96.81
284.439	85.81
284.67	81.81
284.901	83.81
285.132	85.81
285.364	78.81
285.595	89.81
285.826	73.81
286.057	92.81
286.288	97.81
286.52	92.81
286.751	92.81
286.982	88.81
287.213	83.81
287.444	92.81
287.675	94.81
287.906	90.81
288.138	80.81
288.369	79.81
288.6	82.81
288.831	92.81
289.062	88.81
289.293	82.81
289.524	96.81
289.755	96.81
289.986	79.81
290.217	80.81
290.448	85.81
290.679	88.81
290.91	93.81
291.141	95.81
291.371	76.81
291.602	98.81
291.833	88.81
292.064	79.81
292.295	80.81
292.526	73.81
292.757	77.81
292.987	86.81
293.218	81.81
293.449	90.81
293.68	90.81
293.91	102.81
294.141	94.81
294.372	95.81
294.603	91.81
294.833	86.81
295.064	87.81
295.295	105.81
295.525	94.81
295.756	107.81
295.987	99.81
296.217	127.81
296.448	120.81
296.679	100.81
296.909	103.81
297.14	87.81
297.37	94.81
297.601	92.81
297.831	83.81
298.062	121.81
298.292	96.81
298.523	100.81
298.753	90.81
298.984	78.81
299.214	90.81
299.445	82.81
299.675	97.81
299.905	87.81
300.136	89.81
300.366	97.81
300.597	87.81
300.827	86.81
301.057	89.81
301.288	103.81
301.518	97.81
301.748	91.81
301.979	95.81
302.209	91.81
302.439	92.81
302.669	92.81
302.9	88.81
303.13	85.81
303.36	110.81
303.59	107.81
303.82	94.81
304.051	81.81
304.281	95.81
304.511	93.81
304.741	86.81
304.971	80.81
305.201	96.81
305.431	92.81
305.661	76.81
305.891	88.81
306.121	98.81
306.352	105.81
306.582	96.81
306.812	77.81
307.042	94.81
307.272	86.81
307.502	100.81
307.731	102.81
307.961	71.81
308.191	91.81
308.421	77.81
308.651	93.81
308.881	96.81
309.111	101.81
309.341	83.81
309.571	96.81
309.8	98.81
310.03	111.81
310.26	87.81
310.49	95.81
310.72	97.81
310.949	98.81
311.179	102.81
311.409	84.81
311.639	100.81
311.868	92.81
312.098	89.81
312.328	93.81
312.557	95.81
312.787	105.81
313.017	93.81
313.246	88.81
313.476	100.81
313.706	94.81
313.935	77.81
314.165	107.81
314.394	101.81
314.624	95.81
314.853	103.81
315.083	103.81
315.312	103.81
315.542	96.81
315.771	91.81
316.001	92.81
316.23	76.81
316.46	87.81
316.689	80.81
316.919	89.81
317.148	91.81
317.377	107.81
317.607	95.81
317.836	94.81
318.065	83.81
318.295	99.81
318.524	97.81
318.753	92.81
318.983	80.81
319.212	107.81
319.441	102.81
319.67	103.81
319.9	110.81
320.129	90.81
320.358	90.81
320.587	92.81
320.816	99.81
321.046	92.81
321.275	87.81
321.504	101.81
321.733	108.81
321.962	106.81
322.191	96.81
322.42	103.81
322.649	108.81
322.878	107.81
323.108	102.81
323.337	139.81
323.566	131.81
323.795	158.81
324.024	221.81
324.253	417.81
324.482	881.81
324.71	1867.81
324.939	2429.81
325.168	859.81
325.397	261.81
325.626	149.81
325.855	124.81
326.084	135.81
326.313	127.81
326.542	163.81
326.77	226.81
326.999	481.81
327.228	1020.81
327.457	1863.81
327.686	1461.81
327.914	381.81
328.143	206.81
328.372	153.81
328.6	118.81
328.829	123.81
329.058	130.81
329.287	124.81
329.515	111.81
329.744	94.81
329.972	99.81
330.201	108.81
330.43	102.81
330.658	122.81
330.887	128.81
331.115	120.81
331.344	99.81
331.572	97.81
331.801	108.81
332.03	102.81
332.258	109.81
332.486	86.81
332.715	102.81
332.943	88.81
333.172	100.81
333.4	84.81
333.629	101.81
333.857	116.81
334.085	110.81
334.314	109.81
334.542	98.81
334.771	94.81
334.999	77.81
335.227	93.81
335.455	94.81
335.684	108.81
335.912	101.81
336.14	94.81
336.369	88.81
336.597	102.81
336.825	93.81
337.053	103.81
337.281	107.81
337.51	84.81
337.738	89.81
337.966	96.81
338.194	90.81
338.422	84.81
338.65	90.81
338.878	88.81
339.106	91.81
339.334	97.81
339.562	86.81
339.79	94.81
340.018	78.81
340.246	89.81
340.474	109.81
340.702	87.81
340.93	83.81
341.158	88.81
341.386	100.81
341.614	101.81
341.842	82.81
342.07	102.81
342.298	101.81
342.526	95.81
342.754	94.81
342.981	92.81
343.209	87.81
343.437	88.81
343.665	86.81
343.893	84.81
344.12	96.81
344.348	104.81
344.576	92.81
344.804	85.81
345.031	81.81
345.259	85.81
345.487	89.81
345.714	96.81
345.942	91.81
346.17	87.81
346.397	107.81
346.625	90.81
346.853	92.81
347.08	90.81
347.308	89.81
347.535	103.81
347.763	76.81
347.99	79.81
348.218	106.81
348.445	95.81
348.673	95.81
348.9	104.81
349.128	80.81
349.355	86.81
349.583	86.81
349.81	91.81
350.037	77.81
350.265	89.81
350.492	91.81
350.72	89.81
350.947	104.81
351.174	104.81
351.402	113.81
351.629	89.81
351.856	116.81
352.083	96.81
352.311	106.81
352.538	95.81
352.765	92.81
352.992	107.81
353.22	99.81
353.447	102.81
353.674	105.81
353.901	96.81
354.128	99.81
354.355	94.81
354.583	97.81
354.81	89.81
355.037	96.81
355.264	112.81
355.491	95.81
355.718	101.81
355.945	96.81
356.172	91.81
356.399	95.81
356.626	94.81
356.853	89.81
357.08	95.81
357.307	93.81
357.534	100.81
357.761	77.81
357.988	111.81
358.215	97.81
358.441	89.81
358.668	90.81
358.895	85.81
359.122	95.81
359.349	91.81
359.576	85.81
359.802	76.81
360.029	103.81
360.256	104.81
360.483	100.81
360.709	78.81
360.936	95.81
361.163	95.81
361.39	79.81
361.616	84.81
361.843	95.81
362.07	100.81
362.296	103.81
362.523	87.81
362.749	95.81
362.976	96.81
363.203	95.81
363.429	76.81
363.656	85.81
363.882	81.81
364.109	90.81
364.335	96.81
364.562	98.81
364.788	88.81
365.015	94.81
365.241	108.81
365.468	103.81
365.694	111.81
365.92	90.81
366.147	92.81
366.373	101.81
366.599	94.81
366.826	95.81
367.052	94.81
367.278	94.81
367.505	90.81
367.731	101.81
367.957	85.81
368.184	91.81
368.41	100.81
368.636	96.81
368.862	104.81
369.089	87.81
369.315	93.81
369.541	92.81
369.767	99.81
369.993	95.81
370.219	84.81
370.445	75.81
370.672	83.81
370.898	91.81
371.124	103.81
371.35	97.81
371.576	87.81
371.802	94.81
372.028	89.81
372.254	87.81
372.48	92.81
372.706	84.81
372.932	99.81
373.158	90.81
373.384	90.81
373.61	85.81
373.835	81.81
374.061	105.81
374.287	85.81
374.513	96.81
374.739	91.81
374.965	95.81
375.191	89.81
375.416	86.81
375.642	88.81
375.868	71.81
376.094	77.81
376.319	71.81
376.545	85.81
376.771	79.81
376.997	81.81
377.222	99.81
377.448	83.81
377.674	88.81
377.899	79.81
378.125	84.81
378.35	90.81
378.576	81.81
378.802	106.81
379.027	102.81
379.253	91.81
379.478	96.81
379.704	101.81
379.929	99.81
380.155	92.81
380.38	86.81
380.606	97.81
380.831	97.81
381.057	96.81
381.282	89.81
381.507	104.81
381.733	91.81
381.958	100.81
382.184	106.81
382.409	98.81
382.634	97.81
382.86	103.81
383.085	104.81
383.31	94.81
383.535	99.81
383.761	96.81
383.986	94.81
384.211	102.81
384.436	90.81
384.662	102.81
384.887	93.81
385.112	89.81
385.337	94.81
385.562	93.81
385.787	93.81
386.013	92.81
386.238	95.81
386.463	103.81
386.688	102.81
386.913	94.81
387.138	105.81
387.363	83.81
387.588	96.81
387.813	96.81
388.038	93.81
388.263	114.81
388.488	120.81
388.713	89.81
388.938	81.81
389.163	100.81
389.387	99.81
389.612	87.81
389.837	89.81
390.062	92.81
390.287	100.81
390.512	83.81
390.736	88.81
390.961	94.81
391.186	99.81
391.411	94.81
391.636	90.81
391.86	89.81
392.085	88.81
392.31	88.81
392.534	79.81
392.759	95.81
392.984	79.81
393.208	89.81
393.433	83.81
393.658	91.81
393.882	95.81
394.107	86.81
394.331	73.81
394.556	85.81
394.78	85.81
395.005	76.81
395.229	96.81
395.454	91.81
395.678	76.81
395.903	87.81
396.127	81.81
396.352	83.81
396.576	83.81
396.801	80.81
397.025	79.81
397.249	100.81
397.474	79.81
397.698	81.81
397.922	97.81
398.147	81.81
398.371	87.81
398.595	95.81
398.82	85.81
399.044	85.81
399.268	100.81
399.492	81.81
399.717	91.81
399.941	90.81
400.165	103.81
400.389	102.81
400.613	86.81
400.837	84.81
401.062	96.81
401.286	95.81
401.51	88.81
401.734	81.81
401.958	105.81
402.182	122.81
402.406	155.81
402.63	128.81
402.854	106.81
403.078	99.81
403.302	103.81
403.526	87.81
403.75	76.81
403.974	83.81
404.198	82.81
404.422	78.81
404.645	93.81
404.869	90.81
405.093	83.81
405.317	92.81
405.541	105.81
405.765	110.81
405.988	100.81
406.212	160.81
406.436	202.81
406.66	136.81
406.883	75.81
407.107	88.81
407.331	94.81
407.555	86.81
407.778	84.81
408.002	75.81
408.226	75.81
408.449	86.81
408.673	77.81
408.896	101.81
409.12	101.81
409.344	89.81
409.567	83.81
409.791	91.81
410.014	87.81
410.238	91.81
410.461	75.81
410.685	95.81
410.908	107.81
411.132	100.81
411.355	105.81
411.578	86.81
411.802	78.81
412.025	79.81
412.249	88.81
412.472	88.81
412.695	97.81
412.919	93.81
413.142	86.81
413.365	80.81
413.589	96.81
413.812	91.81
414.035	85.81
414.258	87.81
414.482	85.81
414.705	96.81
414.928	83.81
415.151	83.81
415.374	93.81
415.597	97.81
415.821	92.81
416.044	84.81
416.267	89.81
416.49	75.81
416.713	96.81
416.936	87.81
417.159	96.81
417.382	79.81
417.605	91.81
417.828	86.81
418.051	87.81
418.274	79.81
418.497	94.81
418.72	87.81
418.943	91.81
419.166	81.81
419.389	87.81
419.611	93.81
419.834	89.81
420.057	92.81
420.28	83.81
420.503	82.81
420.726	91.81
420.948	88.81
421.171	104.81
421.394	80.81
421.617	85.81
421.839	75.81
422.062	87.81
422.285	87.81
422.507	88.81
422.73	84.81
422.953	91.81
423.175	90.81
423.398	94.81
423.621	96.81
423.843	105.81
424.066	81.81
424.288	103.81
424.511	95.81
424.733	86.81
424.956	105.81
425.178	97.81
425.401	92.81
425.623	77.81
425.846	80.81
426.068	101.81
426.291	83.81
426.513	103.81
426.735	75.81
426.958	99.81
427.18	86.81
427.402	119.81
427.625	149.81
427.847	111.81
428.069	88.81
428.292	91.81
428.514	83.81
428.736	79.81
428.958	89.81
429.181	81.81
429.403	84.81
429.625	80.81
429.847	94.81
430.069	97.81
430.292	83.81
430.514	97.81
430.736	87.81
430.958	93.81
431.18	93.81
431.402	78.81
431.624	84.81
431.846	81.81
432.068	92.81
432.29	79.81
432.512	92.81
432.734	95.81
432.956	93.81
433.178	102.81
433.4	102.81
433.622	90.81
433.844	80.81
434.066	91.81
434.287	99.81
434.509	89.81
434.731	89.81
434.953	75.81
435.175	85.81
435.397	76.81
435.618	101.81
435.84	97.81
436.062	117.81
436.284	116.81
436.505	101.81
436.727	91.81
436.949	94.81
437.17	92.81
437.392	91.81
437.614	102.81
437.835	105.81
438.057	109.81
438.278	102.81
438.5	88.81
438.721	120.81
438.943	99.81
439.165	95.81
439.386	90.81
439.608	85.81
439.829	96.81
440.05	117.81
440.272	126.81
440.493	92.81
440.715	84.81
440.936	93.81
441.158	97.81
441.379	93.81
441.6	86.81
441.822	97.81
442.043	101.81
442.264	108.81
442.486	102.81
442.707	86.81
442.928	87.81
443.149	131.81
443.371	140.81
443.592	112.81
443.813	122.81
444.034	116.81
444.255	86.81
444.476	104.81
444.698	81.81
444.919	84.81
445.14	133.81
445.361	123.81
445.582	133.81
445.803	124.81
446.024	118.81
446.245	120.81
446.466	105.81
446.687	87.81
446.908	85.81
447.129	94.81
447.35	80.81
447.571	105.81
447.792	114.81
448.013	101.81
448.234	92.81
448.455	92.81
448.675	100.81
448.896	109.81
449.117	90.81
449.338	98.81
449.559	112.81
449.779	102.81
450	88.81
450.221	86.81
450.442	106.81
450.662	95.81
450.883	113.81
451.104	101.81
451.324	86.81
451.545	92.81
451.766	96.81
451.986	78.81
452.207	87.81
452.428	97.81
452.648	95.81
452.869	112.81
453.089	100.81
453.31	104.81
453.53	87.81
453.751	95.81
453.971	91.81
454.192	103.81
454.412	87.81
454.633	89.81
454.853	78.81
455.073	97.81
455.294	84.81
455.514	100.81
455.734	83.81
455.955	78.81
456.175	91.81
456.395	84.81
456.616	80.81
456.836	92.81
457.056	75.81
457.276	86.81
457.497	82.81
457.717	89.81
457.937	90.81
458.157	74.81
458.377	97.81
458.598	106.81
458.818	145.81
459.038	151.81
459.258	116.81
459.478	83.81
459.698	80.81
459.918	84.81
460.138	82.81
460.358	76.81
460.578	72.81
460.798	79.81
461.018	99.81
461.238	95.81
461.458	95.81
461.678	84.81
461.898	83.81
462.118	92.81
462.338	85.81
462.558	85.81
462.777	86.81
462.997	77.81
463.217	86.81
463.437	89.81
463.657	72.81
463.876	91.81
464.096	79.81
464.316	87.81
464.536	72.81
464.755	86.81
464.975	88.81
465.195	157.81
465.414	137.81
465.634	93.81
465.854	85.81
466.073	80.81
466.293	86.81
466.512	81.81
466.732	85.81
466.951	93.81
467.171	105.81
467.391	81.81
467.61	105.81
467.829	96.81
468.049	82.81
468.268	89.81
468.488	92.81
468.707	85.81
468.927	83.81
469.146	87.81
469.365	107.81
469.585	78.81
469.804	93.81
470.023	100.81
470.243	84.81
470.462	99.81
470.681	99.81
470.901	97.81
471.12	75.81
471.339	87.81
471.558	81.81
471.777	83.81
471.997	80.81
472.216	97.81
472.435	100.81
472.654	89.81
472.873	88.81
473.092	87.81
473.311	88.81
473.53	79.81
473.749	89.81
473.968	92.81
474.187	100.81
474.406	102.81
474.625	101.81
474.844	90.81
475.063	70.81
475.282	81.81
475.501	90.81
475.72	92.81
475.939	90.81
476.158	91.81
476.377	95.81
476.596	81.81
476.814	97.81
477.033	89.81
477.252	81.81
477.471	96.81
477.69	79.81
477.908	89.81
478.127	87.81
478.346	101.81
478.564	85.81
478.783	79.81
479.002	86.81
479.22	105.81
479.439	94.81
479.658	104.81
479.876	103.81
480.095	86.81
480.313	87.81
480.532	62.81
480.751	75.81
480.969	97.81
481.188	124.81
481.406	100.81
481.624	95.81
481.843	86.81
482.061	88.81
482.28	84.81
482.498	92.81
482.717	89.81
482.935	86.81
483.153	78.81
483.372	87.81
483.59	86.81
483.808	71.81
484.027	84.81
484.245	87.81
484.463	78.81
484.681	92.81
484.9	70.81
485.118	95.81
485.336	99.81
485.554	93.81
485.772	111.81
485.99	102.81
486.209	87.81
486.427	100.81
486.645	97.81
486.863	108.81
487.081	104.81
487.299	85.81
487.517	92.81
487.735	100.81
487.953	78.81
488.171	94.81
488.389	92.81
488.607	82.81
488.825	75.81
489.043	91.81
489.261	85.81
489.479	89.81
489.696	84.81
489.914	91.81
490.132	90.81
490.35	76.81
490.568	88.81
490.786	93.81
491.003	87.81
491.221	85.81
491.439	90.81
491.657	83.81
491.874	95.81
492.092	94.81
492.31	100.81
492.527	80.81
492.745	89.81
492.963	107.81
493.18	96.81
493.398	107.81
493.615	98.81
493.833	90.81
494.05	106.81
494.268	88.81
494.485	108.81
494.703	83.81
494.92	79.81
495.138	92.81
495.355	88.81
495.573	93.81
495.79	92.81
496.008	103.81
496.225	93.81
496.442	80.81
496.66	89.81
496.877	94.81
497.094	104.81
497.312	95.81
497.529	92.81
497.746	83.81
497.963	85.81
498.181	99.81
498.398	88.81
498.615	108.81
498.832	103.81
499.049	99.81
499.267	99.81
499.484	89.81
499.701	76.81
499.918	79.81
500.135	75.81
500.352	83.81
500.569	84.81
500.786	93.81
501.003	90.81
501.22	83.81
501.437	101.81
501.654	93.81
501.871	92.81
502.088	72.81
502.305	96.81
502.522	71.81
502.739	86.81
502.956	85.81
503.172	88.81
503.389	108.81
503.606	106.81
503.823	101.81
504.04	98.81
504.256	87.81
504.473	83.81
504.69	85.81
504.907	92.81
505.123	91.81
505.34	98.81
505.557	100.81
505.773	83.81
505.99	84.81
506.207	80.81
506.423	78.81
506.64	86.81
506.856	100.81
507.073	96.81
507.289	95.81
507.506	92.81
507.722	110.81
507.939	111.81
508.155	100.81
508.372	86.81
508.588	91.81
508.805	92.81
509.021	79.81
509.238	97.81
509.454	105.81
509.67	92.81
509.887	107.81
510.103	131.81
510.319	219.81
510.536	799.81
510.752	2411.81
510.968	650.81
511.184	164.81
511.401	106.81
511.617	95.81
511.833	105.81
512.049	87.81
512.265	76.81
512.481	85.81
512.698	85.81
512.914	82.81
513.13	85.81
513.346	94.81
513.562	98.81
513.778	96.81
513.994	110.81
514.21	100.81
514.426	113.81
514.642	121.81
514.858	107.81
515.074	160.81
515.29	434.81
515.506	1435.81
515.721	493.81
515.937	161.81
