Data from Uncirc_1999_H10_HRD10591_00009.txt Node
Date: Wed Jan 03 11:22:07 EST 2024
User: Yrep
Spectrometer: HR+D1059
Trigger mode: 1
Integration Time (sec): 1.000000E-1
Scans to average: 1
Electric dark correction enabled: true
Nonlinearity correction enabled: false
Boxcar width: 0
XAxis mode: Wavelengths
Number of Pixels in Spectrum: 2048
>>>>>Begin Spectral Data<<<<<
223.165	-0.06
223.4	-0.06
223.635	-0.06
223.869	-18.06
224.104	-34.06
224.338	-19.06
224.573	-19.06
224.808	-9.06
225.042	-11.06
225.277	-3.06
225.511	9.94
225.746	-1.06
225.98	4.94
226.215	16.94
226.449	4.94
226.683	29.94
226.918	17.94
227.152	29.94
227.387	46.94
227.621	24.94
227.856	37.94
228.09	47.94
228.324	48.94
228.559	53.94
228.793	70.94
229.027	57.94
229.262	72.94
229.496	64.94
229.73	86.94
229.964	84.94
230.199	74.94
230.433	91.94
230.667	80.94
230.901	87.94
231.136	74.94
231.37	72.94
231.604	67.94
231.838	80.94
232.072	86.94
232.306	98.94
232.541	71.94
232.775	77.94
233.009	78.94
233.243	88.94
233.477	75.94
233.711	97.94
233.945	81.94
234.179	87.94
234.413	73.94
234.647	77.94
234.881	66.94
235.115	74.94
235.349	65.94
235.583	84.94
235.817	82.94
236.051	78.94
236.285	62.94
236.519	69.94
236.753	76.94
236.987	90.94
237.221	69.94
237.455	86.94
237.689	60.94
237.922	69.94
238.156	76.94
238.39	71.94
238.624	74.94
238.858	86.94
239.091	72.94
239.325	82.94
239.559	87.94
239.793	81.94
240.027	86.94
240.26	80.94
240.494	77.94
240.728	80.94
240.961	77.94
241.195	64.94
241.429	77.94
241.662	77.94
241.896	71.94
242.13	77.94
242.363	84.94
242.597	79.94
242.83	86.94
243.064	80.94
243.298	92.94
243.531	84.94
243.765	64.94
243.998	84.94
244.232	80.94
244.465	84.94
244.699	88.94
244.932	81.94
245.166	86.94
245.399	76.94
245.633	91.94
245.866	80.94
246.099	86.94
246.333	84.94
246.566	82.94
246.8	91.94
247.033	84.94
247.266	72.94
247.5	73.94
247.733	88.94
247.966	98.94
248.2	94.94
248.433	79.94
248.666	87.94
248.899	95.94
249.133	69.94
249.366	87.94
249.599	88.94
249.832	85.94
250.066	82.94
250.299	89.94
250.532	87.94
250.765	92.94
250.998	85.94
251.231	88.94
251.465	85.94
251.698	82.94
251.931	87.94
252.164	84.94
252.397	78.94
252.63	84.94
252.863	92.94
253.096	85.94
253.329	97.94
253.562	77.94
253.795	74.94
254.028	73.94
254.261	90.94
254.494	72.94
254.727	78.94
254.96	74.94
255.193	80.94
255.426	71.94
255.659	76.94
255.892	93.94
256.124	78.94
256.357	78.94
256.59	78.94
256.823	88.94
257.056	72.94
257.289	94.94
257.521	97.94
257.754	73.94
257.987	85.94
258.22	90.94
258.452	86.94
258.685	82.94
258.918	95.94
259.151	91.94
259.383	86.94
259.616	78.94
259.849	72.94
260.081	81.94
260.314	85.94
260.547	73.94
260.779	74.94
261.012	90.94
261.244	78.94
261.477	80.94
261.71	90.94
261.942	98.94
262.175	105.94
262.407	84.94
262.64	92.94
262.872	84.94
263.105	76.94
263.337	88.94
263.57	67.94
263.802	77.94
264.035	72.94
264.267	81.94
264.499	79.94
264.732	85.94
264.964	74.94
265.197	82.94
265.429	70.94
265.661	89.94
265.894	91.94
266.126	97.94
266.358	86.94
266.591	86.94
266.823	79.94
267.055	84.94
267.287	78.94
267.52	69.94
267.752	90.94
267.984	95.94
268.216	86.94
268.448	85.94
268.681	86.94
268.913	90.94
269.145	94.94
269.377	87.94
269.609	81.94
269.841	98.94
270.073	81.94
270.306	81.94
270.538	85.94
270.77	75.94
271.002	82.94
271.234	82.94
271.466	84.94
271.698	74.94
271.93	70.94
272.162	82.94
272.394	71.94
272.626	74.94
272.858	88.94
273.09	85.94
273.322	79.94
273.553	72.94
273.785	84.94
274.017	90.94
274.249	75.94
274.481	87.94
274.713	74.94
274.945	98.94
275.176	83.94
275.408	82.94
275.64	81.94
275.872	86.94
276.104	80.94
276.335	85.94
276.567	86.94
276.799	101.94
277.031	91.94
277.262	84.94
277.494	77.94
277.726	83.94
277.957	82.94
278.189	88.94
278.421	95.94
278.652	83.94
278.884	89.94
279.115	87.94
279.347	85.94
279.579	89.94
279.81	74.94
280.042	87.94
280.273	87.94
280.505	81.94
280.736	72.94
280.968	93.94
281.199	103.94
281.431	84.94
281.662	78.94
281.894	78.94
282.125	101.94
282.356	102.94
282.588	105.94
282.819	102.94
283.051	78.94
283.282	68.94
283.513	89.94
283.745	79.94
283.976	80.94
284.207	92.94
284.439	82.94
284.67	88.94
284.901	89.94
285.132	75.94
285.364	89.94
285.595	89.94
285.826	77.94
286.057	93.94
286.288	88.94
286.52	80.94
286.751	80.94
286.982	85.94
287.213	88.94
287.444	82.94
287.675	107.94
287.906	77.94
288.138	86.94
288.369	95.94
288.6	76.94
288.831	87.94
289.062	87.94
289.293	95.94
289.524	82.94
289.755	82.94
289.986	84.94
290.217	80.94
290.448	94.94
290.679	84.94
290.91	93.94
291.141	90.94
291.371	88.94
291.602	80.94
291.833	87.94
292.064	94.94
292.295	92.94
292.526	79.94
292.757	86.94
292.987	93.94
293.218	90.94
293.449	80.94
293.68	86.94
293.91	89.94
294.141	86.94
294.372	77.94
294.603	92.94
294.833	102.94
295.064	80.94
295.295	88.94
295.525	91.94
295.756	97.94
295.987	94.94
296.217	121.94
296.448	98.94
296.679	97.94
296.909	81.94
297.14	89.94
297.37	85.94
297.601	91.94
297.831	80.94
298.062	82.94
298.292	88.94
298.523	93.94
298.753	80.94
298.984	85.94
299.214	81.94
299.445	70.94
299.675	93.94
299.905	89.94
300.136	82.94
300.366	82.94
300.597	81.94
300.827	100.94
301.057	90.94
301.288	102.94
301.518	98.94
301.748	84.94
301.979	103.94
302.209	98.94
302.439	90.94
302.669	72.94
302.9	84.94
303.13	93.94
303.36	96.94
303.59	97.94
303.82	105.94
304.051	110.94
304.281	77.94
304.511	98.94
304.741	106.94
304.971	95.94
305.201	85.94
305.431	102.94
305.661	98.94
305.891	95.94
306.121	86.94
306.352	111.94
306.582	86.94
306.812	91.94
307.042	97.94
307.272	92.94
307.502	82.94
307.731	83.94
307.961	84.94
308.191	92.94
308.421	90.94
308.651	94.94
308.881	96.94
309.111	105.94
309.341	86.94
309.571	93.94
309.8	74.94
310.03	88.94
310.26	86.94
310.49	87.94
310.72	89.94
310.949	96.94
311.179	78.94
311.409	92.94
311.639	97.94
311.868	95.94
312.098	88.94
312.328	93.94
312.557	93.94
312.787	89.94
313.017	95.94
313.246	101.94
313.476	101.94
313.706	90.94
313.935	86.94
314.165	79.94
314.394	84.94
314.624	96.94
314.853	100.94
315.083	93.94
315.312	84.94
315.542	93.94
315.771	98.94
316.001	85.94
316.23	99.94
316.46	87.94
316.689	101.94
316.919	101.94
317.148	82.94
317.377	92.94
317.607	99.94
317.836	85.94
318.065	86.94
318.295	74.94
318.524	100.94
318.753	92.94
318.983	89.94
319.212	109.94
319.441	88.94
319.67	93.94
319.9	107.94
320.129	91.94
320.358	89.94
320.587	92.94
320.816	93.94
321.046	92.94
321.275	102.94
321.504	92.94
321.733	97.94
321.962	96.94
322.191	96.94
322.42	99.94
322.649	102.94
322.878	108.94
323.108	117.94
323.337	119.94
323.566	129.94
323.795	136.94
324.024	191.94
324.253	363.94
324.482	748.94
324.71	1503.94
324.939	2007.94
325.168	729.94
325.397	236.94
325.626	141.94
325.855	121.94
326.084	122.94
326.313	141.94
326.542	144.94
326.77	224.94
326.999	426.94
327.228	872.94
327.457	1565.94
327.686	1263.94
327.914	335.94
328.143	164.94
328.372	125.94
328.6	110.94
328.829	113.94
329.058	122.94
329.287	119.94
329.515	105.94
329.744	102.94
329.972	101.94
330.201	104.94
330.43	104.94
330.658	93.94
330.887	102.94
331.115	112.94
331.344	88.94
331.572	101.94
331.801	94.94
332.03	94.94
332.258	99.94
332.486	96.94
332.715	93.94
332.943	72.94
333.172	104.94
333.4	85.94
333.629	120.94
333.857	101.94
334.085	109.94
334.314	98.94
334.542	98.94
334.771	91.94
334.999	96.94
335.227	76.94
335.455	90.94
335.684	93.94
335.912	85.94
336.14	92.94
336.369	100.94
336.597	93.94
336.825	104.94
337.053	98.94
337.281	105.94
337.51	94.94
337.738	86.94
337.966	85.94
338.194	84.94
338.422	82.94
338.65	100.94
338.878	99.94
339.106	86.94
339.334	96.94
339.562	92.94
339.79	85.94
340.018	81.94
340.246	72.94
340.474	89.94
340.702	86.94
340.93	86.94
341.158	94.94
341.386	85.94
341.614	91.94
341.842	65.94
342.07	71.94
342.298	87.94
342.526	85.94
342.754	93.94
342.981	105.94
343.209	101.94
343.437	88.94
343.665	93.94
343.893	95.94
344.12	77.94
344.348	102.94
344.576	79.94
344.804	81.94
345.031	100.94
345.259	98.94
345.487	92.94
345.714	105.94
345.942	84.94
346.17	76.94
346.397	96.94
346.625	98.94
346.853	98.94
347.08	86.94
347.308	102.94
347.535	89.94
347.763	107.94
347.99	97.94
348.218	105.94
348.445	117.94
348.673	115.94
348.9	93.94
349.128	101.94
349.355	85.94
349.583	93.94
349.81	88.94
350.037	95.94
350.265	89.94
350.492	109.94
350.72	82.94
350.947	97.94
351.174	111.94
351.402	99.94
351.629	87.94
351.856	100.94
352.083	81.94
352.311	100.94
352.538	116.94
352.765	96.94
352.992	113.94
353.22	115.94
353.447	94.94
353.674	107.94
353.901	100.94
354.128	109.94
354.355	105.94
354.583	103.94
354.81	110.94
355.037	106.94
355.264	96.94
355.491	92.94
355.718	78.94
355.945	103.94
356.172	100.94
356.399	108.94
356.626	99.94
356.853	100.94
357.08	96.94
357.307	101.94
357.534	93.94
357.761	104.94
357.988	102.94
358.215	108.94
358.441	106.94
358.668	93.94
358.895	110.94
359.122	102.94
359.349	101.94
359.576	84.94
359.802	90.94
360.029	85.94
360.256	94.94
360.483	85.94
360.709	87.94
360.936	82.94
361.163	95.94
361.39	95.94
361.616	87.94
361.843	90.94
362.07	102.94
362.296	82.94
362.523	80.94
362.749	80.94
362.976	88.94
363.203	84.94
363.429	85.94
363.656	98.94
363.882	90.94
364.109	82.94
364.335	88.94
364.562	93.94
364.788	91.94
365.015	108.94
365.241	97.94
365.468	92.94
365.694	106.94
365.92	95.94
366.147	85.94
366.373	81.94
366.599	94.94
366.826	84.94
367.052	98.94
367.278	89.94
367.505	78.94
367.731	86.94
367.957	91.94
368.184	87.94
368.41	92.94
368.636	104.94
368.862	99.94
369.089	104.94
369.315	78.94
369.541	87.94
369.767	94.94
369.993	82.94
370.219	91.94
370.445	98.94
370.672	84.94
370.898	96.94
371.124	99.94
371.35	85.94
371.576	86.94
371.802	75.94
372.028	81.94
372.254	83.94
372.48	73.94
372.706	101.94
372.932	95.94
373.158	84.94
373.384	76.94
373.61	90.94
373.835	84.94
374.061	92.94
374.287	92.94
374.513	82.94
374.739	85.94
374.965	91.94
375.191	95.94
375.416	105.94
375.642	101.94
375.868	95.94
376.094	90.94
376.319	87.94
376.545	106.94
376.771	90.94
376.997	95.94
377.222	88.94
377.448	102.94
377.674	87.94
377.899	106.94
378.125	97.94
378.35	101.94
378.576	99.94
378.802	94.94
379.027	95.94
379.253	76.94
379.478	89.94
379.704	101.94
379.929	109.94
380.155	90.94
380.38	95.94
380.606	95.94
380.831	112.94
381.057	125.94
381.282	107.94
381.507	105.94
381.733	101.94
381.958	108.94
382.184	129.94
382.409	120.94
382.634	108.94
382.86	113.94
383.085	118.94
383.31	123.94
383.535	116.94
383.761	110.94
383.986	110.94
384.211	120.94
384.436	132.94
384.662	129.94
384.887	144.94
385.112	141.94
385.337	139.94
385.562	134.94
385.787	138.94
386.013	144.94
386.238	144.94
386.463	143.94
386.688	144.94
386.913	143.94
387.138	160.94
387.363	128.94
387.588	117.94
387.813	120.94
388.038	139.94
388.263	143.94
388.488	150.94
388.713	116.94
388.938	116.94
389.163	97.94
389.387	101.94
389.612	97.94
389.837	88.94
390.062	88.94
390.287	99.94
390.512	103.94
390.736	88.94
390.961	88.94
391.186	88.94
391.411	88.94
391.636	91.94
391.86	88.94
392.085	91.94
392.31	93.94
392.534	75.94
392.759	92.94
392.984	98.94
393.208	91.94
393.433	82.94
393.658	84.94
393.882	104.94
394.107	86.94
394.331	84.94
394.556	84.94
394.78	100.94
395.005	106.94
395.229	98.94
395.454	79.94
395.678	89.94
395.903	80.94
396.127	86.94
396.352	94.94
396.576	87.94
396.801	83.94
397.025	78.94
397.249	85.94
397.474	95.94
397.698	97.94
397.922	88.94
398.147	93.94
398.371	88.94
398.595	83.94
398.82	93.94
399.044	81.94
399.268	81.94
399.492	87.94
399.717	86.94
399.941	89.94
400.165	98.94
400.389	90.94
400.613	88.94
400.837	88.94
401.062	92.94
401.286	86.94
401.51	97.94
401.734	95.94
401.958	106.94
402.182	109.94
402.406	119.94
402.63	98.94
402.854	87.94
403.078	91.94
403.302	78.94
403.526	80.94
403.75	87.94
403.974	84.94
404.198	84.94
404.422	89.94
404.645	90.94
404.869	86.94
405.093	100.94
405.317	96.94
405.541	94.94
405.765	88.94
405.988	97.94
406.212	135.94
406.436	160.94
406.66	117.94
406.883	89.94
407.107	84.94
407.331	85.94
407.555	93.94
407.778	98.94
408.002	77.94
408.226	94.94
408.449	95.94
408.673	89.94
408.896	103.94
409.12	94.94
409.344	89.94
409.567	92.94
409.791	85.94
410.014	94.94
410.238	109.94
410.461	85.94
410.685	93.94
410.908	108.94
411.132	119.94
411.355	108.94
411.578	88.94
411.802	79.94
412.025	85.94
412.249	97.94
412.472	102.94
412.695	95.94
412.919	90.94
413.142	94.94
413.365	84.94
413.589	93.94
413.812	93.94
414.035	98.94
414.258	102.94
414.482	93.94
414.705	96.94
414.928	87.94
415.151	95.94
415.374	105.94
415.597	100.94
415.821	104.94
416.044	101.94
416.267	87.94
416.49	101.94
416.713	81.94
416.936	95.94
417.159	92.94
417.382	89.94
417.605	98.94
417.828	82.94
418.051	102.94
418.274	105.94
418.497	76.94
418.72	81.94
418.943	84.94
419.166	78.94
419.389	91.94
419.611	87.94
419.834	111.94
420.057	104.94
420.28	81.94
420.503	78.94
420.726	89.94
420.948	84.94
421.171	98.94
421.394	92.94
421.617	81.94
421.839	100.94
422.062	97.94
422.285	77.94
422.507	98.94
422.73	110.94
422.953	86.94
423.175	100.94
423.398	84.94
423.621	86.94
423.843	84.94
424.066	69.94
424.288	92.94
424.511	93.94
424.733	95.94
424.956	125.94
425.178	112.94
425.401	90.94
425.623	96.94
425.846	92.94
426.068	102.94
426.291	81.94
426.513	88.94
426.735	80.94
426.958	81.94
427.18	111.94
427.402	129.94
427.625	139.94
427.847	120.94
428.069	116.94
428.292	90.94
428.514	85.94
428.736	76.94
428.958	76.94
429.181	82.94
429.403	83.94
429.625	72.94
429.847	89.94
430.069	90.94
430.292	93.94
430.514	88.94
430.736	88.94
430.958	90.94
431.18	93.94
431.402	86.94
431.624	77.94
431.846	97.94
432.068	88.94
432.29	77.94
432.512	92.94
432.734	82.94
432.956	92.94
433.178	89.94
433.4	103.94
433.622	85.94
433.844	85.94
434.066	77.94
434.287	103.94
434.509	97.94
434.731	96.94
434.953	85.94
435.175	97.94
435.397	96.94
435.618	96.94
435.84	84.94
436.062	105.94
436.284	108.94
436.505	100.94
436.727	98.94
436.949	94.94
437.17	88.94
437.392	93.94
437.614	97.94
437.835	98.94
438.057	103.94
438.278	101.94
438.5	103.94
438.721	118.94
438.943	101.94
439.165	90.94
439.386	84.94
439.608	98.94
439.829	89.94
440.05	112.94
440.272	121.94
440.493	95.94
440.715	88.94
440.936	79.94
441.158	100.94
441.379	92.94
441.6	76.94
441.822	75.94
442.043	96.94
442.264	98.94
442.486	96.94
442.707	87.94
442.928	103.94
443.149	125.94
443.371	114.94
443.592	102.94
443.813	107.94
444.034	105.94
444.255	84.94
444.476	101.94
444.698	98.94
444.919	89.94
445.14	136.94
445.361	123.94
445.582	125.94
445.803	130.94
446.024	139.94
446.245	104.94
446.466	108.94
446.687	86.94
446.908	88.94
447.129	91.94
447.35	100.94
447.571	81.94
447.792	91.94
448.013	88.94
448.234	101.94
448.455	88.94
448.675	113.94
448.896	96.94
449.117	90.94
449.338	105.94
449.559	117.94
449.779	122.94
450	90.94
450.221	90.94
450.442	80.94
450.662	96.94
450.883	92.94
451.104	74.94
451.324	83.94
451.545	95.94
451.766	93.94
451.986	93.94
452.207	79.94
452.428	104.94
452.648	84.94
452.869	97.94
453.089	100.94
453.31	84.94
453.53	93.94
453.751	88.94
453.971	104.94
454.192	108.94
454.412	86.94
454.633	88.94
454.853	90.94
455.073	94.94
455.294	90.94
455.514	93.94
455.734	88.94
455.955	90.94
456.175	79.94
456.395	87.94
456.616	72.94
456.836	89.94
457.056	96.94
457.276	96.94
457.497	84.94
457.717	89.94
457.937	89.94
458.157	88.94
458.377	105.94
458.598	91.94
458.818	121.94
459.038	122.94
459.258	102.94
459.478	101.94
459.698	78.94
459.918	94.94
460.138	95.94
460.358	93.94
460.578	77.94
460.798	94.94
461.018	97.94
461.238	93.94
461.458	89.94
461.678	97.94
461.898	78.94
462.118	94.94
462.338	87.94
462.558	98.94
462.777	88.94
462.997	105.94
463.217	79.94
463.437	76.94
463.657	96.94
463.876	90.94
464.096	96.94
464.316	81.94
464.536	102.94
464.755	91.94
464.975	93.94
465.195	136.94
465.414	116.94
465.634	102.94
465.854	94.94
466.073	86.94
466.293	96.94
466.512	89.94
466.732	84.94
466.951	94.94
467.171	102.94
467.391	84.94
467.61	98.94
467.829	91.94
468.049	97.94
468.268	92.94
468.488	84.94
468.707	82.94
468.927	87.94
469.146	70.94
469.365	77.94
469.585	96.94
469.804	80.94
470.023	92.94
470.243	89.94
470.462	104.94
470.681	106.94
470.901	107.94
471.12	85.94
471.339	93.94
471.558	80.94
471.777	93.94
471.997	89.94
472.216	103.94
472.435	100.94
472.654	80.94
472.873	92.94
473.092	81.94
473.311	79.94
473.53	99.94
473.749	91.94
473.968	95.94
474.187	121.94
474.406	99.94
474.625	96.94
474.844	87.94
475.063	91.94
475.282	90.94
475.501	88.94
475.72	93.94
475.939	83.94
476.158	73.94
476.377	75.94
476.596	86.94
476.814	92.94
477.033	100.94
477.252	87.94
477.471	92.94
477.69	85.94
477.908	94.94
478.127	76.94
478.346	81.94
478.564	89.94
478.783	96.94
479.002	93.94
479.22	93.94
479.439	92.94
479.658	92.94
479.876	84.94
480.095	89.94
480.313	103.94
480.532	104.94
480.751	86.94
480.969	99.94
481.188	138.94
481.406	100.94
481.624	107.94
481.843	81.94
482.061	92.94
482.28	92.94
482.498	89.94
482.717	80.94
482.935	96.94
483.153	87.94
483.372	90.94
483.59	96.94
483.808	90.94
484.027	93.94
484.245	94.94
484.463	88.94
484.681	101.94
484.9	101.94
485.118	112.94
485.336	108.94
485.554	97.94
485.772	117.94
485.99	111.94
486.209	109.94
486.427	107.94
486.645	112.94
486.863	114.94
487.081	117.94
487.299	106.94
487.517	105.94
487.735	107.94
487.953	94.94
488.171	104.94
488.389	89.94
488.607	90.94
488.825	98.94
489.043	98.94
489.261	87.94
489.479	94.94
489.696	80.94
489.914	85.94
490.132	90.94
490.35	96.94
490.568	90.94
490.786	104.94
491.003	92.94
491.221	84.94
491.439	98.94
491.657	90.94
491.874	92.94
492.092	90.94
492.31	108.94
492.527	87.94
492.745	86.94
492.963	98.94
493.18	93.94
493.398	107.94
493.615	89.94
493.833	97.94
494.05	98.94
494.268	85.94
494.485	95.94
494.703	91.94
494.92	99.94
495.138	86.94
495.355	81.94
495.573	99.94
495.79	98.94
496.008	89.94
496.225	96.94
496.442	92.94
496.66	103.94
496.877	98.94
497.094	105.94
497.312	96.94
497.529	102.94
497.746	92.94
497.963	81.94
498.181	100.94
498.398	88.94
498.615	103.94
498.832	102.94
499.049	99.94
499.267	81.94
499.484	90.94
499.701	91.94
499.918	82.94
500.135	74.94
500.352	97.94
500.569	76.94
500.786	96.94
501.003	86.94
501.22	88.94
501.437	88.94
501.654	94.94
501.871	105.94
502.088	104.94
502.305	94.94
502.522	100.94
502.739	96.94
502.956	85.94
503.172	85.94
503.389	102.94
503.606	108.94
503.823	92.94
504.04	111.94
504.256	103.94
504.473	87.94
504.69	81.94
504.907	104.94
505.123	88.94
505.34	90.94
505.557	94.94
505.773	86.94
505.99	85.94
506.207	77.94
506.423	96.94
506.64	88.94
506.856	95.94
507.073	87.94
507.289	90.94
507.506	100.94
507.722	123.94
507.939	98.94
508.155	98.94
508.372	97.94
508.588	87.94
508.805	85.94
509.021	92.94
509.238	86.94
509.454	104.94
509.67	94.94
509.887	105.94
510.103	111.94
510.319	169.94
510.536	540.94
510.752	1551.94
510.968	440.94
511.184	129.94
511.401	126.94
511.617	88.94
511.833	91.94
512.049	106.94
512.265	86.94
512.481	80.94
512.698	100.94
512.914	88.94
513.13	78.94
513.346	90.94
513.562	95.94
513.778	85.94
513.994	105.94
514.21	95.94
514.426	97.94
514.642	102.94
514.858	110.94
515.074	141.94
515.29	318.94
515.506	936.94
515.721	370.94
