Data from Uncirc_1999_H10_HRD10591_00020.txt Node
Date: Wed Jan 03 11:22:09 EST 2024
User: Yrep
Spectrometer: HR+D1059
Trigger mode: 1
Integration Time (sec): 1.000000E-1
Scans to average: 1
Electric dark correction enabled: true
Nonlinearity correction enabled: false
Boxcar width: 0
XAxis mode: Wavelengths
Number of Pixels in Spectrum: 2048
>>>>>Begin Spectral Data<<<<<
223.165	-19.94
223.4	-19.94
223.635	-19.94
223.869	-17.94
224.104	-23.94
224.338	-16.94
224.573	-21.94
224.808	-12.94
225.042	-9.94
225.277	9.06
225.511	6.06
225.746	-12.94
225.98	-0.94
226.215	33.06
226.449	16.06
226.683	19.06
226.918	27.06
227.152	27.06
227.387	45.06
227.621	37.06
227.856	42.06
228.09	52.06
228.324	58.06
228.559	59.06
228.793	47.06
229.027	77.06
229.262	81.06
229.496	69.06
229.73	84.06
229.964	84.06
230.199	72.06
230.433	76.06
230.667	67.06
230.901	86.06
231.136	82.06
231.37	80.06
231.604	74.06
231.838	88.06
232.072	89.06
232.306	81.06
232.541	92.06
232.775	91.06
233.009	98.06
233.243	75.06
233.477	79.06
233.711	74.06
233.945	83.06
234.179	79.06
234.413	81.06
234.647	80.06
234.881	73.06
235.115	80.06
235.349	84.06
235.583	83.06
235.817	83.06
236.051	91.06
236.285	70.06
236.519	79.06
236.753	91.06
236.987	90.06
237.221	78.06
237.455	79.06
237.689	88.06
237.922	77.06
238.156	84.06
238.39	74.06
238.624	71.06
238.858	85.06
239.091	73.06
239.325	69.06
239.559	80.06
239.793	68.06
240.027	82.06
240.26	73.06
240.494	83.06
240.728	90.06
240.961	79.06
241.195	94.06
241.429	82.06
241.662	71.06
241.896	78.06
242.13	76.06
242.363	84.06
242.597	75.06
242.83	93.06
243.064	89.06
243.298	76.06
243.531	83.06
243.765	89.06
243.998	75.06
244.232	79.06
244.465	83.06
244.699	92.06
244.932	81.06
245.166	88.06
245.399	73.06
245.633	85.06
245.866	91.06
246.099	93.06
246.333	91.06
246.566	75.06
246.8	80.06
247.033	83.06
247.266	73.06
247.5	74.06
247.733	73.06
247.966	85.06
248.2	85.06
248.433	69.06
248.666	91.06
248.899	71.06
249.133	105.06
249.366	101.06
249.599	105.06
249.832	81.06
250.066	86.06
250.299	87.06
250.532	90.06
250.765	92.06
250.998	93.06
251.231	87.06
251.465	77.06
251.698	90.06
251.931	82.06
252.164	83.06
252.397	90.06
252.63	85.06
252.863	85.06
253.096	78.06
253.329	78.06
253.562	74.06
253.795	80.06
254.028	75.06
254.261	89.06
254.494	92.06
254.727	98.06
254.96	86.06
255.193	92.06
255.426	90.06
255.659	86.06
255.892	92.06
256.124	78.06
256.357	88.06
256.59	92.06
256.823	84.06
257.056	95.06
257.289	84.06
257.521	83.06
257.754	85.06
257.987	70.06
258.22	96.06
258.452	97.06
258.685	86.06
258.918	89.06
259.151	90.06
259.383	86.06
259.616	92.06
259.849	83.06
260.081	97.06
260.314	91.06
260.547	85.06
260.779	94.06
261.012	81.06
261.244	107.06
261.477	103.06
261.71	98.06
261.942	99.06
262.175	105.06
262.407	94.06
262.64	95.06
262.872	97.06
263.105	69.06
263.337	69.06
263.57	93.06
263.802	88.06
264.035	91.06
264.267	99.06
264.499	81.06
264.732	91.06
264.964	77.06
265.197	90.06
265.429	99.06
265.661	100.06
265.894	101.06
266.126	90.06
266.358	86.06
266.591	93.06
266.823	87.06
267.055	86.06
267.287	88.06
267.52	89.06
267.752	89.06
267.984	84.06
268.216	93.06
268.448	95.06
268.681	85.06
268.913	82.06
269.145	78.06
269.377	87.06
269.609	88.06
269.841	91.06
270.073	90.06
270.306	89.06
270.538	84.06
270.77	83.06
271.002	94.06
271.234	77.06
271.466	80.06
271.698	84.06
271.93	65.06
272.162	85.06
272.394	97.06
272.626	93.06
272.858	79.06
273.09	93.06
273.322	88.06
273.553	89.06
273.785	82.06
274.017	85.06
274.249	89.06
274.481	93.06
274.713	93.06
274.945	97.06
275.176	89.06
275.408	85.06
275.64	90.06
275.872	94.06
276.104	85.06
276.335	93.06
276.567	89.06
276.799	105.06
277.031	96.06
277.262	102.06
277.494	98.06
277.726	95.06
277.957	77.06
278.189	86.06
278.421	99.06
278.652	86.06
278.884	92.06
279.115	95.06
279.347	82.06
279.579	83.06
279.81	92.06
280.042	98.06
280.273	84.06
280.505	90.06
280.736	79.06
280.968	101.06
281.199	108.06
281.431	91.06
281.662	85.06
281.894	89.06
282.125	102.06
282.356	122.06
282.588	150.06
282.819	112.06
283.051	76.06
283.282	91.06
283.513	75.06
283.745	93.06
283.976	90.06
284.207	81.06
284.439	98.06
284.67	78.06
284.901	81.06
285.132	81.06
285.364	90.06
285.595	101.06
285.826	91.06
286.057	81.06
286.288	85.06
286.52	100.06
286.751	95.06
286.982	95.06
287.213	96.06
287.444	92.06
287.675	95.06
287.906	91.06
288.138	105.06
288.369	91.06
288.6	91.06
288.831	91.06
289.062	100.06
289.293	82.06
289.524	102.06
289.755	94.06
289.986	93.06
290.217	92.06
290.448	94.06
290.679	100.06
290.91	83.06
291.141	93.06
291.371	93.06
291.602	81.06
291.833	93.06
292.064	90.06
292.295	87.06
292.526	91.06
292.757	95.06
292.987	75.06
293.218	99.06
293.449	101.06
293.68	92.06
293.91	82.06
294.141	91.06
294.372	91.06
294.603	92.06
294.833	93.06
295.064	91.06
295.295	105.06
295.525	107.06
295.756	112.06
295.987	101.06
296.217	131.06
296.448	126.06
296.679	92.06
296.909	85.06
297.14	77.06
297.37	88.06
297.601	98.06
297.831	94.06
298.062	92.06
298.292	98.06
298.523	93.06
298.753	94.06
298.984	88.06
299.214	91.06
299.445	96.06
299.675	100.06
299.905	103.06
300.136	100.06
300.366	81.06
300.597	101.06
300.827	106.06
301.057	99.06
301.288	96.06
301.518	106.06
301.748	89.06
301.979	90.06
302.209	99.06
302.439	110.06
302.669	91.06
302.9	89.06
303.13	112.06
303.36	89.06
303.59	102.06
303.82	100.06
304.051	94.06
304.281	98.06
304.511	89.06
304.741	93.06
304.971	78.06
305.201	93.06
305.431	93.06
305.661	92.06
305.891	98.06
306.121	99.06
306.352	94.06
306.582	106.06
306.812	87.06
307.042	94.06
307.272	109.06
307.502	109.06
307.731	84.06
307.961	86.06
308.191	91.06
308.421	100.06
308.651	90.06
308.881	99.06
309.111	95.06
309.341	111.06
309.571	127.06
309.8	85.06
310.03	111.06
310.26	93.06
310.49	111.06
310.72	110.06
310.949	106.06
311.179	100.06
311.409	114.06
311.639	107.06
311.868	105.06
312.098	92.06
312.328	95.06
312.557	109.06
312.787	103.06
313.017	94.06
313.246	90.06
313.476	117.06
313.706	98.06
313.935	94.06
314.165	102.06
314.394	112.06
314.624	88.06
314.853	97.06
315.083	96.06
315.312	108.06
315.542	98.06
315.771	102.06
316.001	106.06
316.23	94.06
316.46	108.06
316.689	94.06
316.919	95.06
317.148	100.06
317.377	101.06
317.607	102.06
317.836	99.06
318.065	92.06
318.295	95.06
318.524	91.06
318.753	88.06
318.983	100.06
319.212	110.06
319.441	103.06
319.67	94.06
319.9	97.06
320.129	96.06
320.358	100.06
320.587	95.06
320.816	111.06
321.046	112.06
321.275	94.06
321.504	123.06
321.733	107.06
321.962	110.06
322.191	115.06
322.42	112.06
322.649	99.06
322.878	114.06
323.108	114.06
323.337	135.06
323.566	149.06
323.795	142.06
324.024	207.06
324.253	418.06
324.482	892.06
324.71	1844.06
324.939	2453.06
325.168	878.06
325.397	266.06
325.626	165.06
325.855	134.06
326.084	141.06
326.313	151.06
326.542	175.06
326.77	220.06
326.999	500.06
327.228	1051.06
327.457	1906.06
327.686	1505.06
327.914	408.06
328.143	190.06
328.372	157.06
328.6	120.06
328.829	134.06
329.058	130.06
329.287	149.06
329.515	119.06
329.744	103.06
329.972	111.06
330.201	100.06
330.43	118.06
330.658	117.06
330.887	130.06
331.115	132.06
331.344	109.06
331.572	123.06
331.801	106.06
332.03	113.06
332.258	96.06
332.486	94.06
332.715	85.06
332.943	111.06
333.172	103.06
333.4	101.06
333.629	106.06
333.857	117.06
334.085	109.06
334.314	108.06
334.542	118.06
334.771	110.06
334.999	89.06
335.227	93.06
335.455	85.06
335.684	97.06
335.912	97.06
336.14	96.06
336.369	98.06
336.597	103.06
336.825	95.06
337.053	90.06
337.281	97.06
337.51	105.06
337.738	106.06
337.966	95.06
338.194	102.06
338.422	94.06
338.65	81.06
338.878	80.06
339.106	94.06
339.334	89.06
339.562	94.06
339.79	93.06
340.018	92.06
340.246	83.06
340.474	96.06
340.702	90.06
340.93	108.06
341.158	94.06
341.386	104.06
341.614	93.06
341.842	106.06
342.07	112.06
342.298	91.06
342.526	94.06
342.754	93.06
342.981	98.06
343.209	97.06
343.437	105.06
343.665	108.06
343.893	117.06
344.12	94.06
344.348	89.06
344.576	108.06
344.804	95.06
345.031	115.06
345.259	105.06
345.487	111.06
345.714	103.06
345.942	95.06
346.17	90.06
346.397	105.06
346.625	102.06
346.853	99.06
347.08	96.06
347.308	98.06
347.535	102.06
347.763	105.06
347.99	107.06
348.218	100.06
348.445	98.06
348.673	113.06
348.9	100.06
349.128	90.06
349.355	100.06
349.583	101.06
349.81	86.06
350.037	100.06
350.265	113.06
350.492	108.06
350.72	97.06
350.947	99.06
351.174	111.06
351.402	109.06
351.629	105.06
351.856	110.06
352.083	103.06
352.311	113.06
352.538	117.06
352.765	107.06
352.992	111.06
353.22	118.06
353.447	110.06
353.674	108.06
353.901	123.06
354.128	106.06
354.355	108.06
354.583	98.06
354.81	86.06
355.037	102.06
355.264	120.06
355.491	109.06
355.718	108.06
355.945	93.06
356.172	110.06
356.399	107.06
356.626	92.06
356.853	104.06
357.08	98.06
357.307	102.06
357.534	108.06
357.761	87.06
357.988	111.06
358.215	100.06
358.441	99.06
358.668	109.06
358.895	101.06
359.122	111.06
359.349	105.06
359.576	102.06
359.802	100.06
360.029	113.06
360.256	118.06
360.483	93.06
360.709	97.06
360.936	97.06
361.163	93.06
361.39	98.06
361.616	98.06
361.843	102.06
362.07	92.06
362.296	92.06
362.523	97.06
362.749	102.06
362.976	102.06
363.203	110.06
363.429	87.06
363.656	77.06
363.882	93.06
364.109	105.06
364.335	94.06
364.562	105.06
364.788	101.06
365.015	92.06
365.241	90.06
365.468	110.06
365.694	102.06
365.92	99.06
366.147	98.06
366.373	92.06
366.599	94.06
366.826	90.06
367.052	89.06
367.278	93.06
367.505	92.06
367.731	91.06
367.957	89.06
368.184	98.06
368.41	114.06
368.636	115.06
368.862	119.06
369.089	111.06
369.315	107.06
369.541	106.06
369.767	91.06
369.993	118.06
370.219	102.06
370.445	96.06
370.672	89.06
370.898	109.06
371.124	98.06
371.35	89.06
371.576	115.06
371.802	91.06
372.028	112.06
372.254	97.06
372.48	90.06
372.706	103.06
372.932	101.06
373.158	91.06
373.384	98.06
373.61	98.06
373.835	89.06
374.061	103.06
374.287	90.06
374.513	93.06
374.739	97.06
374.965	93.06
375.191	89.06
375.416	93.06
375.642	106.06
375.868	98.06
376.094	105.06
376.319	95.06
376.545	104.06
376.771	104.06
376.997	109.06
377.222	103.06
377.448	82.06
377.674	94.06
377.899	110.06
378.125	97.06
378.35	102.06
378.576	102.06
378.802	102.06
379.027	103.06
379.253	92.06
379.478	103.06
379.704	107.06
379.929	98.06
380.155	97.06
380.38	98.06
380.606	106.06
380.831	101.06
381.057	115.06
381.282	100.06
381.507	103.06
381.733	111.06
381.958	112.06
382.184	105.06
382.409	115.06
382.634	115.06
382.86	126.06
383.085	126.06
383.31	102.06
383.535	110.06
383.761	126.06
383.986	102.06
384.211	117.06
384.436	122.06
384.662	121.06
384.887	116.06
385.112	132.06
385.337	125.06
385.562	123.06
385.787	121.06
386.013	137.06
386.238	153.06
386.463	121.06
386.688	134.06
386.913	137.06
387.138	130.06
387.363	125.06
387.588	112.06
387.813	113.06
388.038	123.06
388.263	138.06
388.488	138.06
388.713	103.06
388.938	112.06
389.163	109.06
389.387	98.06
389.612	107.06
389.837	90.06
390.062	97.06
390.287	99.06
390.512	94.06
390.736	106.06
390.961	107.06
391.186	105.06
391.411	105.06
391.636	93.06
391.86	86.06
392.085	99.06
392.31	92.06
392.534	95.06
392.759	99.06
392.984	106.06
393.208	95.06
393.433	108.06
393.658	99.06
393.882	83.06
394.107	89.06
394.331	89.06
394.556	89.06
394.78	102.06
395.005	96.06
395.229	99.06
395.454	97.06
395.678	83.06
395.903	87.06
396.127	80.06
396.352	95.06
396.576	102.06
396.801	92.06
397.025	86.06
397.249	107.06
397.474	97.06
397.698	94.06
397.922	98.06
398.147	96.06
398.371	84.06
398.595	93.06
398.82	99.06
399.044	94.06
399.268	95.06
399.492	91.06
399.717	97.06
399.941	92.06
400.165	100.06
400.389	92.06
400.613	96.06
400.837	90.06
401.062	95.06
401.286	92.06
401.51	102.06
401.734	110.06
401.958	107.06
402.182	121.06
402.406	156.06
402.63	111.06
402.854	101.06
403.078	84.06
403.302	82.06
403.526	89.06
403.75	94.06
403.974	87.06
404.198	88.06
404.422	91.06
404.645	110.06
404.869	89.06
405.093	106.06
405.317	96.06
405.541	109.06
405.765	98.06
405.988	121.06
406.212	150.06
406.436	217.06
406.66	155.06
406.883	113.06
407.107	100.06
407.331	95.06
407.555	115.06
407.778	99.06
408.002	86.06
408.226	95.06
408.449	95.06
408.673	104.06
408.896	106.06
409.12	109.06
409.344	90.06
409.567	85.06
409.791	94.06
410.014	97.06
410.238	97.06
410.461	101.06
410.685	104.06
410.908	103.06
411.132	94.06
411.355	111.06
411.578	107.06
411.802	86.06
412.025	103.06
412.249	92.06
412.472	82.06
412.695	97.06
412.919	97.06
413.142	86.06
413.365	92.06
413.589	99.06
413.812	97.06
414.035	107.06
414.258	85.06
414.482	95.06
414.705	98.06
414.928	61.06
415.151	97.06
415.374	90.06
415.597	102.06
415.821	92.06
416.044	96.06
416.267	102.06
416.49	101.06
416.713	78.06
416.936	88.06
417.159	98.06
417.382	100.06
417.605	81.06
417.828	90.06
418.051	92.06
418.274	91.06
418.497	102.06
418.72	98.06
418.943	87.06
419.166	97.06
419.389	88.06
419.611	105.06
419.834	93.06
420.057	99.06
420.28	90.06
420.503	98.06
420.726	102.06
420.948	109.06
421.171	91.06
421.394	96.06
421.617	110.06
421.839	92.06
422.062	94.06
422.285	84.06
422.507	71.06
422.73	96.06
422.953	95.06
423.175	84.06
423.398	100.06
423.621	101.06
423.843	93.06
424.066	81.06
424.288	96.06
424.511	95.06
424.733	101.06
424.956	103.06
425.178	109.06
425.401	105.06
425.623	107.06
425.846	96.06
426.068	94.06
426.291	105.06
426.513	107.06
426.735	94.06
426.958	88.06
427.18	111.06
427.402	141.06
427.625	159.06
427.847	126.06
428.069	108.06
428.292	95.06
428.514	78.06
428.736	97.06
428.958	102.06
429.181	86.06
429.403	95.06
429.625	90.06
429.847	93.06
430.069	88.06
430.292	105.06
430.514	80.06
430.736	91.06
430.958	89.06
431.18	84.06
431.402	87.06
431.624	86.06
431.846	89.06
432.068	105.06
432.29	98.06
432.512	95.06
432.734	97.06
432.956	91.06
433.178	103.06
433.4	122.06
433.622	96.06
433.844	96.06
434.066	111.06
434.287	101.06
434.509	99.06
434.731	89.06
434.953	98.06
435.175	84.06
435.397	94.06
435.618	96.06
435.84	109.06
436.062	121.06
436.284	108.06
436.505	93.06
436.727	108.06
436.949	99.06
437.17	99.06
437.392	101.06
437.614	116.06
437.835	112.06
438.057	114.06
438.278	116.06
438.5	111.06
438.721	129.06
438.943	96.06
439.165	98.06
439.386	88.06
439.608	110.06
439.829	112.06
440.05	135.06
440.272	144.06
440.493	106.06
440.715	102.06
440.936	95.06
441.158	95.06
441.379	100.06
441.6	97.06
441.822	96.06
442.043	101.06
442.264	113.06
442.486	100.06
442.707	103.06
442.928	97.06
443.149	114.06
443.371	126.06
443.592	106.06
443.813	119.06
444.034	116.06
444.255	92.06
444.476	104.06
444.698	91.06
444.919	105.06
445.14	129.06
445.361	122.06
445.582	127.06
445.803	118.06
446.024	122.06
446.245	130.06
446.466	106.06
446.687	97.06
446.908	90.06
447.129	89.06
447.35	95.06
447.571	95.06
447.792	95.06
448.013	97.06
448.234	94.06
448.455	96.06
448.675	120.06
448.896	131.06
449.117	113.06
449.338	100.06
449.559	150.06
449.779	128.06
450	85.06
450.221	97.06
450.442	97.06
450.662	108.06
450.883	102.06
451.104	107.06
451.324	109.06
451.545	94.06
451.766	97.06
451.986	99.06
452.207	96.06
452.428	97.06
452.648	101.06
452.869	102.06
453.089	127.06
453.31	129.06
453.53	101.06
453.751	87.06
453.971	95.06
454.192	111.06
454.412	94.06
454.633	113.06
454.853	81.06
455.073	94.06
455.294	93.06
455.514	108.06
455.734	94.06
455.955	91.06
456.175	93.06
456.395	92.06
456.616	93.06
456.836	84.06
457.056	96.06
457.276	101.06
457.497	84.06
457.717	86.06
457.937	97.06
458.157	101.06
458.377	97.06
458.598	97.06
458.818	132.06
459.038	143.06
459.258	115.06
459.478	92.06
459.698	89.06
459.918	83.06
460.138	99.06
460.358	97.06
460.578	92.06
460.798	94.06
461.018	94.06
461.238	87.06
461.458	91.06
461.678	109.06
461.898	110.06
462.118	96.06
462.338	93.06
462.558	93.06
462.777	89.06
462.997	77.06
463.217	91.06
463.437	91.06
463.657	92.06
463.876	92.06
464.096	92.06
464.316	94.06
464.536	93.06
464.755	95.06
464.975	94.06
465.195	139.06
465.414	147.06
465.634	105.06
465.854	101.06
466.073	98.06
466.293	95.06
466.512	100.06
466.732	79.06
466.951	85.06
467.171	109.06
467.391	90.06
467.61	101.06
467.829	94.06
468.049	88.06
468.268	109.06
468.488	85.06
468.707	94.06
468.927	106.06
469.146	102.06
469.365	95.06
469.585	97.06
469.804	99.06
470.023	95.06
470.243	87.06
470.462	107.06
470.681	111.06
470.901	92.06
471.12	86.06
471.339	103.06
471.558	84.06
471.777	83.06
471.997	97.06
472.216	92.06
472.435	109.06
472.654	87.06
472.873	91.06
473.092	103.06
473.311	105.06
473.53	91.06
473.749	101.06
473.968	94.06
474.187	104.06
474.406	96.06
474.625	93.06
474.844	99.06
475.063	85.06
475.282	105.06
475.501	92.06
475.72	96.06
475.939	85.06
476.158	99.06
476.377	100.06
476.596	95.06
476.814	93.06
477.033	97.06
477.252	93.06
477.471	101.06
477.69	91.06
477.908	83.06
478.127	99.06
478.346	100.06
478.564	103.06
478.783	98.06
479.002	96.06
479.22	102.06
479.439	103.06
479.658	99.06
479.876	95.06
480.095	108.06
480.313	104.06
480.532	101.06
480.751	96.06
480.969	91.06
481.188	142.06
481.406	128.06
481.624	94.06
481.843	103.06
482.061	102.06
482.28	89.06
482.498	94.06
482.717	68.06
482.935	91.06
483.153	95.06
483.372	96.06
483.59	96.06
483.808	101.06
484.027	83.06
484.245	87.06
484.463	113.06
484.681	108.06
484.9	107.06
485.118	112.06
485.336	101.06
485.554	115.06
485.772	113.06
485.99	123.06
486.209	115.06
486.427	107.06
486.645	113.06
486.863	114.06
487.081	110.06
487.299	106.06
487.517	94.06
487.735	101.06
487.953	102.06
488.171	107.06
488.389	105.06
488.607	102.06
488.825	94.06
489.043	95.06
489.261	111.06
489.479	93.06
489.696	98.06
489.914	82.06
490.132	85.06
490.35	103.06
490.568	83.06
490.786	96.06
491.003	87.06
491.221	87.06
491.439	74.06
491.657	90.06
491.874	89.06
492.092	99.06
492.31	96.06
492.527	98.06
492.745	112.06
492.963	111.06
493.18	100.06
493.398	101.06
493.615	112.06
493.833	98.06
494.05	92.06
494.268	89.06
494.485	102.06
494.703	106.06
494.92	112.06
495.138	103.06
495.355	96.06
495.573	106.06
495.79	90.06
496.008	99.06
496.225	103.06
496.442	96.06
496.66	94.06
496.877	103.06
497.094	87.06
497.312	92.06
497.529	96.06
497.746	94.06
497.963	89.06
498.181	93.06
498.398	96.06
498.615	119.06
498.832	91.06
499.049	105.06
499.267	95.06
499.484	96.06
499.701	91.06
499.918	104.06
500.135	85.06
500.352	87.06
500.569	101.06
500.786	93.06
501.003	93.06
501.22	85.06
501.437	99.06
501.654	98.06
501.871	106.06
502.088	92.06
502.305	92.06
502.522	103.06
502.739	92.06
502.956	92.06
503.172	81.06
503.389	91.06
503.606	105.06
503.823	109.06
504.04	89.06
504.256	99.06
504.473	102.06
504.69	90.06
504.907	92.06
505.123	94.06
505.34	94.06
505.557	116.06
505.773	92.06
505.99	98.06
506.207	105.06
506.423	107.06
506.64	90.06
506.856	93.06
507.073	96.06
507.289	101.06
507.506	109.06
507.722	119.06
507.939	110.06
508.155	89.06
508.372	82.06
508.588	95.06
508.805	92.06
509.021	110.06
509.238	113.06
509.454	94.06
509.67	107.06
509.887	108.06
510.103	132.06
510.319	214.06
510.536	735.06
510.752	2279.06
510.968	618.06
511.184	157.06
511.401	121.06
511.617	104.06
511.833	95.06
512.049	102.06
512.265	97.06
512.481	102.06
512.698	74.06
512.914	87.06
