Data from Uncirc_1999_H10_HRD10591_00003.txt Node
Date: Wed Jan 03 11:22:05 EST 2024
User: Yrep
Spectrometer: HR+D1059
Trigger mode: 1
Integration Time (sec): 1.000000E-1
Scans to average: 1
Electric dark correction enabled: true
Nonlinearity correction enabled: false
Boxcar width: 0
XAxis mode: Wavelengths
Number of Pixels in Spectrum: 2048
>>>>>Begin Spectral Data<<<<<
223.165	-11.94
223.4	-11.94
223.635	-11.94
223.869	-20.94
224.104	-8.94
224.338	-10.94
224.573	-13.94
224.808	-27.94
225.042	-1.94
225.277	8.06
225.511	-19.94
225.746	2.06
225.98	2.06
226.215	6.06
226.449	9.06
226.683	30.06
226.918	29.06
227.152	30.06
227.387	27.06
227.621	37.06
227.856	51.06
228.09	38.06
228.324	49.06
228.559	62.06
228.793	75.06
229.027	67.06
229.262	68.06
229.496	71.06
229.73	82.06
229.964	83.06
230.199	76.06
230.433	93.06
230.667	74.06
230.901	57.06
231.136	64.06
231.37	71.06
231.604	86.06
231.838	69.06
232.072	82.06
232.306	67.06
232.541	87.06
232.775	90.06
233.009	74.06
233.243	94.06
233.477	96.06
233.711	89.06
233.945	62.06
234.179	86.06
234.413	73.06
234.647	73.06
234.881	80.06
235.115	66.06
235.349	79.06
235.583	60.06
235.817	78.06
236.051	96.06
236.285	83.06
236.519	82.06
236.753	82.06
236.987	89.06
237.221	78.06
237.455	72.06
237.689	85.06
237.922	90.06
238.156	75.06
238.39	66.06
238.624	73.06
238.858	77.06
239.091	74.06
239.325	65.06
239.559	83.06
239.793	77.06
240.027	81.06
240.26	87.06
240.494	88.06
240.728	69.06
240.961	81.06
241.195	73.06
241.429	87.06
241.662	77.06
241.896	65.06
242.13	53.06
242.363	70.06
242.597	65.06
242.83	78.06
243.064	73.06
243.298	77.06
243.531	91.06
243.765	77.06
243.998	78.06
244.232	67.06
244.465	89.06
244.699	84.06
244.932	81.06
245.166	62.06
245.399	88.06
245.633	83.06
245.866	74.06
246.099	75.06
246.333	75.06
246.566	82.06
246.8	83.06
247.033	80.06
247.266	86.06
247.5	69.06
247.733	73.06
247.966	76.06
248.2	104.06
248.433	69.06
248.666	87.06
248.899	65.06
249.133	76.06
249.366	83.06
249.599	90.06
249.832	83.06
250.066	79.06
250.299	86.06
250.532	91.06
250.765	83.06
250.998	80.06
251.231	75.06
251.465	80.06
251.698	78.06
251.931	95.06
252.164	90.06
252.397	66.06
252.63	79.06
252.863	78.06
253.096	83.06
253.329	81.06
253.562	85.06
253.795	82.06
254.028	81.06
254.261	82.06
254.494	72.06
254.727	83.06
254.96	79.06
255.193	72.06
255.426	76.06
255.659	77.06
255.892	84.06
256.124	77.06
256.357	92.06
256.59	65.06
256.823	64.06
257.056	90.06
257.289	83.06
257.521	74.06
257.754	88.06
257.987	79.06
258.22	79.06
258.452	80.06
258.685	85.06
258.918	83.06
259.151	80.06
259.383	82.06
259.616	80.06
259.849	86.06
260.081	80.06
260.314	76.06
260.547	84.06
260.779	78.06
261.012	86.06
261.244	86.06
261.477	99.06
261.71	89.06
261.942	97.06
262.175	91.06
262.407	94.06
262.64	93.06
262.872	83.06
263.105	90.06
263.337	88.06
263.57	63.06
263.802	85.06
264.035	88.06
264.267	91.06
264.499	97.06
264.732	81.06
264.964	81.06
265.197	77.06
265.429	90.06
265.661	105.06
265.894	82.06
266.126	94.06
266.358	92.06
266.591	89.06
266.823	66.06
267.055	70.06
267.287	96.06
267.52	76.06
267.752	87.06
267.984	83.06
268.216	83.06
268.448	96.06
268.681	91.06
268.913	89.06
269.145	81.06
269.377	84.06
269.609	92.06
269.841	79.06
270.073	75.06
270.306	82.06
270.538	92.06
270.77	88.06
271.002	83.06
271.234	78.06
271.466	87.06
271.698	91.06
271.93	89.06
272.162	85.06
272.394	90.06
272.626	72.06
272.858	88.06
273.09	101.06
273.322	76.06
273.553	78.06
273.785	88.06
274.017	93.06
274.249	88.06
274.481	84.06
274.713	86.06
274.945	94.06
275.176	94.06
275.408	88.06
275.64	95.06
275.872	83.06
276.104	99.06
276.335	92.06
276.567	78.06
276.799	90.06
277.031	90.06
277.262	79.06
277.494	87.06
277.726	82.06
277.957	90.06
278.189	87.06
278.421	97.06
278.652	93.06
278.884	82.06
279.115	93.06
279.347	90.06
279.579	90.06
279.81	84.06
280.042	87.06
280.273	90.06
280.505	86.06
280.736	81.06
280.968	85.06
281.199	87.06
281.431	81.06
281.662	80.06
281.894	86.06
282.125	87.06
282.356	103.06
282.588	115.06
282.819	97.06
283.051	96.06
283.282	101.06
283.513	87.06
283.745	99.06
283.976	79.06
284.207	94.06
284.439	92.06
284.67	100.06
284.901	92.06
285.132	96.06
285.364	95.06
285.595	81.06
285.826	96.06
286.057	83.06
286.288	85.06
286.52	81.06
286.751	73.06
286.982	87.06
287.213	83.06
287.444	86.06
287.675	89.06
287.906	97.06
288.138	84.06
288.369	101.06
288.6	87.06
288.831	88.06
289.062	83.06
289.293	96.06
289.524	67.06
289.755	81.06
289.986	88.06
290.217	78.06
290.448	87.06
290.679	93.06
290.91	86.06
291.141	73.06
291.371	111.06
291.602	96.06
291.833	81.06
292.064	92.06
292.295	84.06
292.526	95.06
292.757	85.06
292.987	77.06
293.218	96.06
293.449	92.06
293.68	97.06
293.91	103.06
294.141	76.06
294.372	74.06
294.603	96.06
294.833	98.06
295.064	95.06
295.295	101.06
295.525	86.06
295.756	96.06
295.987	103.06
296.217	116.06
296.448	97.06
296.679	92.06
296.909	106.06
297.14	88.06
297.37	77.06
297.601	93.06
297.831	82.06
298.062	73.06
298.292	87.06
298.523	89.06
298.753	95.06
298.984	71.06
299.214	100.06
299.445	89.06
299.675	80.06
299.905	98.06
300.136	82.06
300.366	92.06
300.597	97.06
300.827	93.06
301.057	104.06
301.288	108.06
301.518	101.06
301.748	88.06
301.979	89.06
302.209	82.06
302.439	88.06
302.669	93.06
302.9	87.06
303.13	73.06
303.36	86.06
303.59	96.06
303.82	109.06
304.051	90.06
304.281	93.06
304.511	88.06
304.741	90.06
304.971	98.06
305.201	103.06
305.431	97.06
305.661	81.06
305.891	89.06
306.121	90.06
306.352	86.06
306.582	104.06
306.812	89.06
307.042	77.06
307.272	85.06
307.502	102.06
307.731	91.06
307.961	95.06
308.191	109.06
308.421	94.06
308.651	97.06
308.881	98.06
309.111	103.06
309.341	102.06
309.571	91.06
309.8	100.06
310.03	103.06
310.26	85.06
310.49	91.06
310.72	99.06
310.949	89.06
311.179	90.06
311.409	93.06
311.639	98.06
311.868	98.06
312.098	91.06
312.328	85.06
312.557	106.06
312.787	102.06
313.017	103.06
313.246	93.06
313.476	93.06
313.706	89.06
313.935	83.06
314.165	92.06
314.394	98.06
314.624	101.06
314.853	98.06
315.083	97.06
315.312	75.06
315.542	85.06
315.771	93.06
316.001	83.06
316.23	83.06
316.46	88.06
316.689	82.06
316.919	83.06
317.148	83.06
317.377	107.06
317.607	90.06
317.836	83.06
318.065	99.06
318.295	86.06
318.524	93.06
318.753	87.06
318.983	106.06
319.212	104.06
319.441	110.06
319.67	103.06
319.9	82.06
320.129	98.06
320.358	90.06
320.587	105.06
320.816	84.06
321.046	100.06
321.275	95.06
321.504	103.06
321.733	83.06
321.962	85.06
322.191	107.06
322.42	114.06
322.649	118.06
322.878	111.06
323.108	115.06
323.337	111.06
323.566	133.06
323.795	147.06
324.024	165.06
324.253	322.06
324.482	673.06
324.71	1353.06
324.939	1814.06
325.168	650.06
325.397	205.06
325.626	149.06
325.855	114.06
326.084	112.06
326.313	129.06
326.542	133.06
326.77	206.06
326.999	384.06
327.228	809.06
327.457	1450.06
327.686	1159.06
327.914	298.06
328.143	162.06
328.372	119.06
328.6	113.06
328.829	98.06
329.058	99.06
329.287	109.06
329.515	96.06
329.744	115.06
329.972	112.06
330.201	107.06
330.43	114.06
330.658	103.06
330.887	116.06
331.115	104.06
331.344	105.06
331.572	90.06
331.801	93.06
332.03	99.06
332.258	102.06
332.486	102.06
332.715	86.06
332.943	99.06
333.172	86.06
333.4	92.06
333.629	97.06
333.857	112.06
334.085	107.06
334.314	106.06
334.542	105.06
334.771	111.06
334.999	90.06
335.227	95.06
335.455	94.06
335.684	118.06
335.912	116.06
336.14	89.06
336.369	86.06
336.597	101.06
336.825	104.06
337.053	99.06
337.281	83.06
337.51	98.06
337.738	105.06
337.966	93.06
338.194	97.06
338.422	98.06
338.65	87.06
338.878	109.06
339.106	95.06
339.334	84.06
339.562	91.06
339.79	91.06
340.018	89.06
340.246	84.06
340.474	95.06
340.702	91.06
340.93	102.06
341.158	95.06
341.386	95.06
341.614	87.06
341.842	81.06
342.07	70.06
342.298	95.06
342.526	81.06
342.754	88.06
342.981	87.06
343.209	91.06
343.437	102.06
343.665	81.06
343.893	99.06
344.12	103.06
344.348	93.06
344.576	102.06
344.804	90.06
345.031	89.06
345.259	102.06
345.487	98.06
345.714	96.06
345.942	98.06
346.17	90.06
346.397	83.06
346.625	93.06
346.853	90.06
347.08	83.06
347.308	95.06
347.535	88.06
347.763	87.06
347.99	107.06
348.218	77.06
348.445	99.06
348.673	94.06
348.9	105.06
349.128	99.06
349.355	88.06
349.583	87.06
349.81	96.06
350.037	110.06
350.265	109.06
350.492	101.06
350.72	101.06
350.947	114.06
351.174	111.06
351.402	103.06
351.629	103.06
351.856	97.06
352.083	101.06
352.311	92.06
352.538	114.06
352.765	110.06
352.992	109.06
353.22	98.06
353.447	117.06
353.674	115.06
353.901	98.06
354.128	94.06
354.355	111.06
354.583	89.06
354.81	104.06
355.037	98.06
355.264	107.06
355.491	90.06
355.718	97.06
355.945	89.06
356.172	105.06
356.399	102.06
356.626	105.06
356.853	99.06
357.08	98.06
357.307	81.06
357.534	93.06
357.761	102.06
357.988	94.06
358.215	117.06
358.441	104.06
358.668	112.06
358.895	122.06
359.122	110.06
359.349	94.06
359.576	100.06
359.802	101.06
360.029	93.06
360.256	102.06
360.483	103.06
360.709	93.06
360.936	93.06
361.163	88.06
361.39	85.06
361.616	85.06
361.843	97.06
362.07	83.06
362.296	94.06
362.523	93.06
362.749	84.06
362.976	90.06
363.203	92.06
363.429	83.06
363.656	93.06
363.882	83.06
364.109	98.06
364.335	94.06
364.562	84.06
364.788	91.06
365.015	97.06
365.241	97.06
365.468	95.06
365.694	95.06
365.92	90.06
366.147	86.06
366.373	87.06
366.599	97.06
366.826	90.06
367.052	88.06
367.278	94.06
367.505	83.06
367.731	90.06
367.957	91.06
368.184	95.06
368.41	89.06
368.636	105.06
368.862	114.06
369.089	98.06
369.315	99.06
369.541	90.06
369.767	84.06
369.993	90.06
370.219	103.06
370.445	81.06
370.672	97.06
370.898	94.06
371.124	85.06
371.35	92.06
371.576	82.06
371.802	108.06
372.028	100.06
372.254	92.06
372.48	89.06
372.706	93.06
372.932	90.06
373.158	89.06
373.384	97.06
373.61	90.06
373.835	98.06
374.061	104.06
374.287	88.06
374.513	82.06
374.739	94.06
374.965	88.06
375.191	81.06
375.416	92.06
375.642	99.06
375.868	115.06
376.094	112.06
376.319	105.06
376.545	93.06
376.771	76.06
376.997	102.06
377.222	99.06
377.448	123.06
377.674	105.06
377.899	108.06
378.125	99.06
378.35	110.06
378.576	105.06
378.802	89.06
379.027	104.06
379.253	104.06
379.478	102.06
379.704	105.06
379.929	114.06
380.155	117.06
380.38	125.06
380.606	106.06
380.831	107.06
381.057	125.06
381.282	117.06
381.507	107.06
381.733	119.06
381.958	122.06
382.184	135.06
382.409	128.06
382.634	127.06
382.86	139.06
383.085	137.06
383.31	137.06
383.535	138.06
383.761	120.06
383.986	127.06
384.211	138.06
384.436	145.06
384.662	149.06
384.887	156.06
385.112	176.06
385.337	164.06
385.562	157.06
385.787	145.06
386.013	160.06
386.238	179.06
386.463	155.06
386.688	157.06
386.913	169.06
387.138	182.06
387.363	161.06
387.588	125.06
387.813	147.06
388.038	166.06
388.263	197.06
388.488	183.06
388.713	113.06
388.938	102.06
389.163	98.06
389.387	100.06
389.612	95.06
389.837	83.06
390.062	96.06
390.287	110.06
390.512	112.06
390.736	88.06
390.961	97.06
391.186	91.06
391.411	110.06
391.636	91.06
391.86	99.06
392.085	90.06
392.31	82.06
392.534	97.06
392.759	95.06
392.984	81.06
393.208	90.06
393.433	88.06
393.658	85.06
393.882	83.06
394.107	88.06
394.331	77.06
394.556	87.06
394.78	108.06
395.005	94.06
395.229	90.06
395.454	92.06
395.678	84.06
395.903	77.06
396.127	102.06
396.352	85.06
396.576	89.06
396.801	87.06
397.025	85.06
397.249	90.06
397.474	82.06
397.698	81.06
397.922	79.06
398.147	101.06
398.371	87.06
398.595	86.06
398.82	80.06
399.044	95.06
399.268	89.06
399.492	101.06
399.717	91.06
399.941	78.06
400.165	101.06
400.389	103.06
400.613	88.06
400.837	80.06
401.062	84.06
401.286	77.06
401.51	89.06
401.734	89.06
401.958	89.06
402.182	102.06
402.406	124.06
402.63	90.06
402.854	95.06
403.078	78.06
403.302	74.06
403.526	81.06
403.75	84.06
403.974	92.06
404.198	93.06
404.422	93.06
404.645	81.06
404.869	87.06
405.093	97.06
405.317	81.06
405.541	102.06
405.765	91.06
405.988	108.06
406.212	135.06
406.436	157.06
406.66	114.06
406.883	86.06
407.107	105.06
407.331	86.06
407.555	99.06
407.778	93.06
408.002	89.06
408.226	84.06
408.449	77.06
408.673	91.06
408.896	84.06
409.12	94.06
409.344	94.06
409.567	79.06
409.791	101.06
410.014	108.06
410.238	110.06
410.461	92.06
410.685	100.06
410.908	89.06
411.132	105.06
411.355	105.06
411.578	94.06
411.802	94.06
412.025	108.06
412.249	89.06
412.472	84.06
412.695	78.06
412.919	93.06
413.142	105.06
413.365	93.06
413.589	94.06
413.812	102.06
414.035	107.06
414.258	80.06
414.482	104.06
414.705	100.06
414.928	101.06
415.151	97.06
415.374	100.06
415.597	96.06
415.821	99.06
416.044	99.06
416.267	78.06
416.49	95.06
416.713	108.06
416.936	105.06
417.159	97.06
417.382	99.06
417.605	94.06
417.828	102.06
418.051	102.06
418.274	100.06
418.497	97.06
418.72	90.06
418.943	103.06
419.166	89.06
419.389	85.06
419.611	103.06
419.834	104.06
420.057	105.06
420.28	85.06
420.503	82.06
420.726	97.06
420.948	89.06
421.171	105.06
421.394	94.06
421.617	107.06
421.839	101.06
422.062	88.06
422.285	95.06
422.507	97.06
422.73	98.06
422.953	102.06
423.175	93.06
423.398	85.06
423.621	97.06
423.843	97.06
424.066	87.06
424.288	90.06
424.511	74.06
424.733	98.06
424.956	94.06
425.178	99.06
425.401	92.06
425.623	85.06
425.846	102.06
426.068	85.06
426.291	96.06
426.513	87.06
426.735	110.06
426.958	96.06
427.18	98.06
427.402	120.06
427.625	141.06
427.847	114.06
428.069	107.06
428.292	76.06
428.514	81.06
428.736	75.06
428.958	89.06
429.181	91.06
429.403	80.06
429.625	86.06
429.847	102.06
430.069	105.06
430.292	90.06
430.514	87.06
430.736	96.06
430.958	88.06
431.18	77.06
431.402	78.06
431.624	88.06
431.846	92.06
432.068	84.06
432.29	94.06
432.512	89.06
432.734	82.06
432.956	89.06
433.178	90.06
433.4	113.06
433.622	97.06
433.844	91.06
434.066	92.06
434.287	99.06
434.509	98.06
434.731	93.06
434.953	78.06
435.175	82.06
435.397	87.06
435.618	93.06
435.84	98.06
436.062	105.06
436.284	114.06
436.505	93.06
436.727	101.06
436.949	98.06
437.17	81.06
437.392	92.06
437.614	86.06
437.835	99.06
438.057	107.06
438.278	109.06
438.5	89.06
438.721	101.06
438.943	86.06
439.165	100.06
439.386	81.06
439.608	96.06
439.829	97.06
440.05	117.06
440.272	112.06
440.493	93.06
440.715	85.06
440.936	84.06
441.158	80.06
441.379	76.06
441.6	80.06
441.822	97.06
442.043	88.06
442.264	102.06
442.486	97.06
442.707	88.06
442.928	94.06
443.149	101.06
443.371	102.06
443.592	110.06
443.813	115.06
444.034	108.06
444.255	84.06
444.476	91.06
444.698	82.06
444.919	85.06
445.14	120.06
445.361	112.06
445.582	117.06
445.803	107.06
446.024	109.06
446.245	110.06
446.466	100.06
446.687	90.06
446.908	92.06
447.129	93.06
447.35	90.06
447.571	95.06
447.792	98.06
448.013	107.06
448.234	111.06
448.455	93.06
448.675	105.06
448.896	112.06
449.117	108.06
449.338	114.06
449.559	126.06
449.779	122.06
450	89.06
450.221	98.06
450.442	86.06
450.662	89.06
450.883	95.06
451.104	105.06
451.324	81.06
451.545	90.06
451.766	88.06
451.986	77.06
452.207	81.06
452.428	80.06
452.648	101.06
452.869	89.06
453.089	98.06
453.31	83.06
453.53	97.06
453.751	87.06
453.971	84.06
454.192	97.06
454.412	82.06
454.633	96.06
454.853	78.06
455.073	84.06
455.294	91.06
455.514	93.06
455.734	93.06
455.955	90.06
456.175	71.06
456.395	92.06
456.616	95.06
456.836	79.06
457.056	85.06
457.276	98.06
457.497	66.06
457.717	94.06
457.937	85.06
458.157	100.06
458.377	99.06
458.598	106.06
458.818	112.06
459.038	114.06
459.258	99.06
459.478	86.06
459.698	95.06
459.918	89.06
460.138	89.06
460.358	85.06
460.578	90.06
460.798	90.06
461.018	87.06
461.238	85.06
461.458	96.06
461.678	80.06
461.898	82.06
462.118	96.06
462.338	97.06
462.558	90.06
462.777	85.06
462.997	95.06
463.217	100.06
463.437	93.06
463.657	66.06
463.876	79.06
464.096	90.06
464.316	73.06
464.536	81.06
464.755	94.06
464.975	100.06
465.195	113.06
465.414	130.06
465.634	86.06
465.854	81.06
466.073	87.06
466.293	97.06
466.512	88.06
466.732	77.06
466.951	90.06
467.171	87.06
467.391	83.06
467.61	102.06
467.829	95.06
468.049	95.06
468.268	89.06
468.488	80.06
468.707	89.06
468.927	83.06
469.146	83.06
469.365	89.06
469.585	89.06
469.804	88.06
470.023	89.06
470.243	90.06
470.462	99.06
470.681	91.06
470.901	86.06
471.12	89.06
471.339	93.06
471.558	97.06
471.777	79.06
471.997	85.06
472.216	100.06
472.435	95.06
472.654	83.06
472.873	91.06
473.092	85.06
473.311	81.06
473.53	78.06
473.749	75.06
473.968	91.06
474.187	99.06
474.406	105.06
474.625	80.06
474.844	85.06
475.063	81.06
475.282	89.06
475.501	81.06
475.72	95.06
475.939	85.06
476.158	82.06
476.377	98.06
476.596	89.06
476.814	86.06
477.033	85.06
477.252	104.06
477.471	95.06
477.69	100.06
477.908	81.06
478.127	90.06
478.346	84.06
478.564	100.06
478.783	91.06
479.002	85.06
479.22	93.06
479.439	92.06
479.658	95.06
479.876	85.06
480.095	92.06
480.313	103.06
480.532	91.06
480.751	97.06
480.969	85.06
481.188	112.06
481.406	107.06
481.624	96.06
481.843	89.06
482.061	71.06
482.28	87.06
482.498	90.06
482.717	76.06
482.935	77.06
483.153	100.06
483.372	84.06
483.59	102.06
483.808	88.06
484.027	95.06
484.245	98.06
484.463	92.06
484.681	100.06
484.9	95.06
485.118	93.06
485.336	109.06
485.554	99.06
485.772	95.06
485.99	113.06
486.209	104.06
486.427	108.06
486.645	106.06
486.863	124.06
487.081	109.06
487.299	91.06
487.517	95.06
487.735	104.06
487.953	87.06
488.171	93.06
488.389	97.06
488.607	100.06
488.825	93.06
489.043	105.06
489.261	113.06
489.479	95.06
489.696	93.06
489.914	90.06
490.132	88.06
490.35	107.06
490.568	101.06
490.786	80.06
491.003	90.06
491.221	93.06
491.439	105.06
491.657	95.06
491.874	96.06
492.092	97.06
492.31	103.06
492.527	90.06
492.745	88.06
492.963	101.06
493.18	107.06
493.398	108.06
493.615	82.06
493.833	103.06
494.05	79.06
494.268	76.06
494.485	86.06
494.703	101.06
494.92	93.06
495.138	87.06
495.355	91.06
495.573	86.06
495.79	93.06
496.008	113.06
496.225	96.06
496.442	101.06
496.66	87.06
496.877	105.06
497.094	97.06
497.312	87.06
497.529	81.06
497.746	98.06
497.963	86.06
498.181	96.06
498.398	95.06
498.615	96.06
498.832	97.06
499.049	97.06
499.267	97.06
499.484	84.06
499.701	91.06
499.918	97.06
500.135	89.06
500.352	94.06
500.569	98.06
500.786	94.06
501.003	94.06
501.22	99.06
501.437	81.06
501.654	91.06
501.871	89.06
502.088	90.06
502.305	77.06
502.522	99.06
502.739	91.06
502.956	84.06
503.172	96.06
503.389	77.06
503.606	100.06
503.823	81.06
504.04	93.06
504.256	94.06
504.473	83.06
504.69	90.06
504.907	93.06
505.123	88.06
505.34	94.06
505.557	88.06
505.773	90.06
505.99	89.06
506.207	94.06
506.423	80.06
506.64	88.06
506.856	99.06
507.073	79.06
507.289	102.06
507.506	86.06
507.722	87.06
507.939	111.06
508.155	101.06
508.372	72.06
508.588	94.06
508.805	98.06
509.021	89.06
509.238	96.06
509.454	94.06
509.67	105.06
509.887	89.06
510.103	114.06
510.319	167.06
510.536	508.06
510.752	1410.06
510.968	431.06
511.184	126.06
511.401	99.06
511.617	99.06
511.833	91.06
512.049	90.06
512.265	89.06
512.481	90.06
512.698	93.06
512.914	88.06
513.13	93.06
513.346	105.06
513.562	77.06
513.778	105.06
513.994	90.06
514.21	93.06
514.426	111.06
514.642	110.06
514.858	113.06
515.074	145.06
515.29	290.06
