Data from Uncirc_1999_H10_HRD10591_00084.txt Node
Date: Wed Jan 03 11:22:22 EST 2024
User: Yrep
Spectrometer: HR+D1059
Trigger mode: 1
Integration Time (sec): 1.000000E-1
Scans to average: 1
Electric dark correction enabled: true
Nonlinearity correction enabled: false
Boxcar width: 0
XAxis mode: Wavelengths
Number of Pixels in Spectrum: 2048
>>>>>Begin Spectral Data<<<<<
223.165	-25.12
223.4	-25.12
223.635	-25.12
223.869	-16.12
224.104	-24.12
224.338	-17.12
224.573	-22.12
224.808	-7.12
225.042	-14.12
225.277	12.88
225.511	-11.12
225.746	8.88
225.98	14.88
226.215	10.88
226.449	22.88
226.683	8.88
226.918	28.88
227.152	28.88
227.387	29.88
227.621	45.88
227.856	53.88
228.09	46.88
228.324	54.88
228.559	66.88
228.793	66.88
229.027	60.88
229.262	64.88
229.496	81.88
229.73	84.88
229.964	86.88
230.199	75.88
230.433	79.88
230.667	73.88
230.901	61.88
231.136	71.88
231.37	78.88
231.604	75.88
231.838	74.88
232.072	84.88
232.306	80.88
232.541	79.88
232.775	81.88
233.009	72.88
233.243	85.88
233.477	72.88
233.711	78.88
233.945	88.88
234.179	64.88
234.413	86.88
234.647	84.88
234.881	80.88
235.115	88.88
235.349	81.88
235.583	69.88
235.817	61.88
236.051	67.88
236.285	66.88
236.519	76.88
236.753	72.88
236.987	82.88
237.221	71.88
237.455	88.88
237.689	69.88
237.922	76.88
238.156	83.88
238.39	82.88
238.624	78.88
238.858	71.88
239.091	63.88
239.325	76.88
239.559	98.88
239.793	63.88
240.027	79.88
240.26	80.88
240.494	68.88
240.728	92.88
240.961	75.88
241.195	77.88
241.429	82.88
241.662	87.88
241.896	62.88
242.13	65.88
242.363	74.88
242.597	64.88
242.83	71.88
243.064	76.88
243.298	79.88
243.531	64.88
243.765	91.88
243.998	68.88
244.232	78.88
244.465	93.88
244.699	70.88
244.932	68.88
245.166	70.88
245.399	82.88
245.633	71.88
245.866	83.88
246.099	90.88
246.333	85.88
246.566	80.88
246.8	79.88
247.033	85.88
247.266	67.88
247.5	84.88
247.733	80.88
247.966	80.88
248.2	72.88
248.433	88.88
248.666	65.88
248.899	82.88
249.133	65.88
249.366	96.88
249.599	87.88
249.832	68.88
250.066	73.88
250.299	80.88
250.532	74.88
250.765	72.88
250.998	86.88
251.231	80.88
251.465	80.88
251.698	84.88
251.931	66.88
252.164	82.88
252.397	81.88
252.63	89.88
252.863	73.88
253.096	87.88
253.329	80.88
253.562	86.88
253.795	76.88
254.028	72.88
254.261	66.88
254.494	82.88
254.727	92.88
254.96	73.88
255.193	88.88
255.426	71.88
255.659	86.88
255.892	99.88
256.124	68.88
256.357	89.88
256.59	88.88
256.823	92.88
257.056	82.88
257.289	83.88
257.521	94.88
257.754	76.88
257.987	87.88
258.22	87.88
258.452	76.88
258.685	89.88
258.918	78.88
259.151	84.88
259.383	78.88
259.616	90.88
259.849	70.88
260.081	85.88
260.314	84.88
260.547	79.88
260.779	96.88
261.012	73.88
261.244	76.88
261.477	92.88
261.71	97.88
261.942	106.88
262.175	103.88
262.407	90.88
262.64	74.88
262.872	72.88
263.105	72.88
263.337	68.88
263.57	97.88
263.802	76.88
264.035	83.88
264.267	89.88
264.499	84.88
264.732	84.88
264.964	84.88
265.197	84.88
265.429	100.88
265.661	75.88
265.894	84.88
266.126	87.88
266.358	88.88
266.591	79.88
266.823	91.88
267.055	81.88
267.287	86.88
267.52	76.88
267.752	100.88
267.984	76.88
268.216	60.88
268.448	77.88
268.681	83.88
268.913	85.88
269.145	76.88
269.377	78.88
269.609	84.88
269.841	90.88
270.073	91.88
270.306	85.88
270.538	87.88
270.77	80.88
271.002	86.88
271.234	85.88
271.466	95.88
271.698	81.88
271.93	83.88
272.162	93.88
272.394	86.88
272.626	79.88
272.858	81.88
273.09	80.88
273.322	93.88
273.553	87.88
273.785	72.88
274.017	82.88
274.249	71.88
274.481	94.88
274.713	88.88
274.945	90.88
275.176	81.88
275.408	86.88
275.64	86.88
275.872	79.88
276.104	90.88
276.335	97.88
276.567	83.88
276.799	101.88
277.031	104.88
277.262	76.88
277.494	103.88
277.726	79.88
277.957	85.88
278.189	75.88
278.421	79.88
278.652	78.88
278.884	88.88
279.115	84.88
279.347	81.88
279.579	78.88
279.81	88.88
280.042	76.88
280.273	75.88
280.505	72.88
280.736	82.88
280.968	88.88
281.199	92.88
281.431	89.88
281.662	71.88
281.894	89.88
282.125	96.88
282.356	119.88
282.588	144.88
282.819	105.88
283.051	79.88
283.282	82.88
283.513	85.88
283.745	89.88
283.976	86.88
284.207	89.88
284.439	79.88
284.67	79.88
284.901	91.88
285.132	84.88
285.364	86.88
285.595	96.88
285.826	89.88
286.057	100.88
286.288	97.88
286.52	79.88
286.751	80.88
286.982	89.88
287.213	87.88
287.444	89.88
287.675	84.88
287.906	108.88
288.138	99.88
288.369	86.88
288.6	82.88
288.831	93.88
289.062	89.88
289.293	97.88
289.524	84.88
289.755	86.88
289.986	91.88
290.217	84.88
290.448	90.88
290.679	81.88
290.91	99.88
291.141	87.88
291.371	73.88
291.602	74.88
291.833	95.88
292.064	79.88
292.295	81.88
292.526	79.88
292.757	86.88
292.987	79.88
293.218	92.88
293.449	80.88
293.68	80.88
293.91	86.88
294.141	82.88
294.372	86.88
294.603	89.88
294.833	92.88
295.064	78.88
295.295	84.88
295.525	95.88
295.756	87.88
295.987	114.88
296.217	139.88
296.448	105.88
296.679	94.88
296.909	85.88
297.14	73.88
297.37	87.88
297.601	82.88
297.831	79.88
298.062	97.88
298.292	97.88
298.523	104.88
298.753	86.88
298.984	86.88
299.214	81.88
299.445	90.88
299.675	90.88
299.905	100.88
300.136	102.88
300.366	84.88
300.597	89.88
300.827	98.88
301.057	104.88
301.288	98.88
301.518	94.88
301.748	91.88
301.979	97.88
302.209	74.88
302.439	98.88
302.669	60.88
302.9	97.88
303.13	95.88
303.36	88.88
303.59	98.88
303.82	110.88
304.051	91.88
304.281	91.88
304.511	92.88
304.741	91.88
304.971	94.88
305.201	87.88
305.431	89.88
305.661	86.88
305.891	89.88
306.121	94.88
306.352	105.88
306.582	89.88
306.812	86.88
307.042	85.88
307.272	93.88
307.502	105.88
307.731	100.88
307.961	104.88
308.191	107.88
308.421	90.88
308.651	89.88
308.881	94.88
309.111	85.88
309.341	97.88
309.571	106.88
309.8	84.88
310.03	112.88
310.26	98.88
310.49	89.88
310.72	85.88
310.949	95.88
311.179	86.88
311.409	89.88
311.639	98.88
311.868	97.88
312.098	93.88
312.328	111.88
312.557	98.88
312.787	104.88
313.017	91.88
313.246	98.88
313.476	90.88
313.706	103.88
313.935	80.88
314.165	106.88
314.394	100.88
314.624	88.88
314.853	102.88
315.083	78.88
315.312	84.88
315.542	92.88
315.771	100.88
316.001	85.88
316.23	82.88
316.46	87.88
316.689	100.88
316.919	102.88
317.148	96.88
317.377	80.88
317.607	96.88
317.836	103.88
318.065	96.88
318.295	88.88
318.524	81.88
318.753	97.88
318.983	90.88
319.212	103.88
319.441	109.88
319.67	81.88
319.9	94.88
320.129	113.88
320.358	90.88
320.587	101.88
320.816	110.88
321.046	98.88
321.275	88.88
321.504	94.88
321.733	88.88
321.962	96.88
322.191	98.88
322.42	106.88
322.649	114.88
322.878	111.88
323.108	107.88
323.337	125.88
323.566	140.88
323.795	162.88
324.024	232.88
324.253	424.88
324.482	880.88
324.71	1830.88
324.939	2390.88
325.168	842.88
325.397	247.88
325.626	155.88
325.855	126.88
326.084	124.88
326.313	130.88
326.542	149.88
326.77	229.88
326.999	490.88
327.228	1027.88
327.457	1848.88
327.686	1457.88
327.914	415.88
328.143	181.88
328.372	154.88
328.6	121.88
328.829	97.88
329.058	118.88
329.287	114.88
329.515	119.88
329.744	109.88
329.972	102.88
330.201	103.88
330.43	105.88
330.658	119.88
330.887	138.88
331.115	108.88
331.344	89.88
331.572	94.88
331.801	105.88
332.03	98.88
332.258	87.88
332.486	104.88
332.715	100.88
332.943	101.88
333.172	103.88
333.4	96.88
333.629	105.88
333.857	102.88
334.085	114.88
334.314	101.88
334.542	113.88
334.771	97.88
334.999	82.88
335.227	99.88
335.455	84.88
335.684	101.88
335.912	108.88
336.14	91.88
336.369	91.88
336.597	89.88
336.825	93.88
337.053	90.88
337.281	103.88
337.51	87.88
337.738	96.88
337.966	102.88
338.194	96.88
338.422	91.88
338.65	80.88
338.878	81.88
339.106	79.88
339.334	88.88
339.562	88.88
339.79	79.88
340.018	96.88
340.246	100.88
340.474	96.88
340.702	90.88
340.93	89.88
341.158	96.88
341.386	103.88
341.614	105.88
341.842	86.88
342.07	72.88
342.298	88.88
342.526	101.88
342.754	92.88
342.981	89.88
343.209	74.88
343.437	101.88
343.665	89.88
343.893	89.88
344.12	78.88
344.348	91.88
344.576	91.88
344.804	79.88
345.031	99.88
345.259	96.88
345.487	89.88
345.714	100.88
345.942	91.88
346.17	89.88
346.397	96.88
346.625	92.88
346.853	72.88
347.08	84.88
347.308	97.88
347.535	96.88
347.763	103.88
347.99	97.88
348.218	96.88
348.445	100.88
348.673	104.88
348.9	97.88
349.128	92.88
349.355	90.88
349.583	96.88
349.81	96.88
350.037	101.88
350.265	91.88
350.492	97.88
350.72	83.88
350.947	103.88
351.174	116.88
351.402	114.88
351.629	93.88
351.856	104.88
352.083	86.88
352.311	105.88
352.538	111.88
352.765	111.88
352.992	106.88
353.22	103.88
353.447	105.88
353.674	99.88
353.901	101.88
354.128	91.88
354.355	88.88
354.583	101.88
354.81	94.88
355.037	108.88
355.264	92.88
355.491	97.88
355.718	91.88
355.945	82.88
356.172	101.88
356.399	105.88
356.626	102.88
356.853	107.88
357.08	97.88
357.307	96.88
357.534	93.88
357.761	100.88
357.988	98.88
358.215	88.88
358.441	82.88
358.668	77.88
358.895	88.88
359.122	84.88
359.349	90.88
359.576	100.88
359.802	96.88
360.029	95.88
360.256	95.88
360.483	105.88
360.709	93.88
360.936	93.88
361.163	93.88
361.39	98.88
361.616	99.88
361.843	74.88
362.07	103.88
362.296	82.88
362.523	88.88
362.749	87.88
362.976	95.88
363.203	89.88
363.429	108.88
363.656	97.88
363.882	80.88
364.109	82.88
364.335	91.88
364.562	110.88
364.788	90.88
365.015	104.88
365.241	101.88
365.468	101.88
365.694	96.88
365.92	93.88
366.147	97.88
366.373	85.88
366.599	77.88
366.826	78.88
367.052	97.88
367.278	100.88
367.505	92.88
367.731	93.88
367.957	82.88
368.184	85.88
368.41	95.88
368.636	105.88
368.862	108.88
369.089	106.88
369.315	90.88
369.541	91.88
369.767	87.88
369.993	96.88
370.219	92.88
370.445	91.88
370.672	81.88
370.898	71.88
371.124	96.88
371.35	81.88
371.576	89.88
371.802	82.88
372.028	95.88
372.254	102.88
372.48	88.88
372.706	89.88
372.932	91.88
373.158	84.88
373.384	95.88
373.61	85.88
373.835	93.88
374.061	90.88
374.287	93.88
374.513	92.88
374.739	98.88
374.965	78.88
375.191	101.88
375.416	85.88
375.642	81.88
375.868	94.88
376.094	92.88
376.319	97.88
376.545	78.88
376.771	76.88
376.997	95.88
377.222	78.88
377.448	87.88
377.674	95.88
377.899	93.88
378.125	103.88
378.35	94.88
378.576	77.88
378.802	88.88
379.027	72.88
379.253	98.88
379.478	94.88
379.704	88.88
379.929	98.88
380.155	98.88
380.38	96.88
380.606	97.88
380.831	97.88
381.057	98.88
381.282	94.88
381.507	107.88
381.733	81.88
381.958	88.88
382.184	95.88
382.409	103.88
382.634	104.88
382.86	84.88
383.085	90.88
383.31	101.88
383.535	101.88
383.761	94.88
383.986	101.88
384.211	99.88
384.436	105.88
384.662	92.88
384.887	103.88
385.112	103.88
385.337	105.88
385.562	92.88
385.787	97.88
386.013	88.88
386.238	108.88
386.463	94.88
386.688	118.88
386.913	107.88
387.138	110.88
387.363	115.88
387.588	113.88
387.813	87.88
388.038	92.88
388.263	107.88
388.488	92.88
388.713	88.88
388.938	93.88
389.163	107.88
389.387	101.88
389.612	89.88
389.837	81.88
390.062	97.88
390.287	93.88
390.512	102.88
390.736	77.88
390.961	90.88
391.186	80.88
391.411	95.88
391.636	88.88
391.86	94.88
392.085	95.88
392.31	89.88
392.534	73.88
392.759	91.88
392.984	95.88
393.208	77.88
393.433	86.88
393.658	85.88
393.882	91.88
394.107	89.88
394.331	98.88
394.556	79.88
394.78	89.88
395.005	89.88
395.229	89.88
395.454	93.88
395.678	92.88
395.903	92.88
396.127	92.88
396.352	95.88
396.576	87.88
396.801	94.88
397.025	102.88
397.249	86.88
397.474	95.88
397.698	95.88
397.922	92.88
398.147	89.88
398.371	75.88
398.595	82.88
398.82	90.88
399.044	103.88
399.268	78.88
399.492	82.88
399.717	73.88
399.941	97.88
400.165	99.88
400.389	91.88
400.613	91.88
400.837	96.88
401.062	81.88
401.286	89.88
401.51	93.88
401.734	86.88
401.958	88.88
402.182	112.88
402.406	141.88
402.63	111.88
402.854	79.88
403.078	94.88
403.302	81.88
403.526	88.88
403.75	93.88
403.974	78.88
404.198	92.88
404.422	81.88
404.645	95.88
404.869	89.88
405.093	87.88
405.317	94.88
405.541	107.88
405.765	99.88
405.988	128.88
406.212	159.88
406.436	206.88
406.66	146.88
406.883	89.88
407.107	95.88
407.331	104.88
407.555	93.88
407.778	97.88
408.002	92.88
408.226	79.88
408.449	88.88
408.673	76.88
408.896	96.88
409.12	94.88
409.344	85.88
409.567	82.88
409.791	102.88
410.014	91.88
410.238	87.88
410.461	89.88
410.685	90.88
410.908	86.88
411.132	93.88
411.355	82.88
411.578	84.88
411.802	98.88
412.025	89.88
412.249	98.88
412.472	97.88
412.695	106.88
412.919	100.88
413.142	82.88
413.365	81.88
413.589	98.88
413.812	83.88
414.035	95.88
414.258	88.88
414.482	100.88
414.705	97.88
414.928	94.88
415.151	94.88
415.374	85.88
415.597	95.88
415.821	92.88
416.044	88.88
416.267	80.88
416.49	87.88
416.713	98.88
416.936	82.88
417.159	95.88
417.382	90.88
417.605	80.88
417.828	92.88
418.051	103.88
418.274	85.88
418.497	90.88
418.72	82.88
418.943	76.88
419.166	100.88
419.389	96.88
419.611	80.88
419.834	79.88
420.057	94.88
420.28	84.88
420.503	85.88
420.726	87.88
420.948	93.88
421.171	94.88
421.394	86.88
421.617	98.88
421.839	76.88
422.062	77.88
422.285	85.88
422.507	87.88
422.73	116.88
422.953	84.88
423.175	96.88
423.398	78.88
423.621	73.88
423.843	74.88
424.066	92.88
424.288	89.88
424.511	96.88
424.733	92.88
424.956	94.88
425.178	92.88
425.401	111.88
425.623	102.88
425.846	87.88
426.068	96.88
426.291	90.88
426.513	96.88
426.735	90.88
426.958	87.88
427.18	118.88
427.402	142.88
427.625	159.88
427.847	121.88
428.069	106.88
428.292	88.88
428.514	89.88
428.736	91.88
428.958	88.88
429.181	87.88
429.403	80.88
429.625	96.88
429.847	89.88
430.069	92.88
430.292	90.88
430.514	87.88
430.736	97.88
430.958	81.88
431.18	90.88
431.402	90.88
431.624	82.88
431.846	85.88
432.068	87.88
432.29	94.88
432.512	87.88
432.734	85.88
432.956	95.88
433.178	102.88
433.4	102.88
433.622	94.88
433.844	102.88
434.066	90.88
434.287	78.88
434.509	81.88
434.731	87.88
434.953	92.88
435.175	74.88
435.397	94.88
435.618	93.88
435.84	99.88
436.062	124.88
436.284	122.88
436.505	93.88
436.727	114.88
436.949	102.88
437.17	89.88
437.392	73.88
437.614	80.88
437.835	93.88
438.057	119.88
438.278	96.88
438.5	98.88
438.721	124.88
438.943	106.88
439.165	101.88
439.386	101.88
439.608	82.88
439.829	103.88
440.05	111.88
440.272	121.88
440.493	96.88
440.715	83.88
440.936	92.88
441.158	78.88
441.379	79.88
441.6	81.88
441.822	91.88
442.043	103.88
442.264	92.88
442.486	104.88
442.707	90.88
442.928	104.88
443.149	113.88
443.371	109.88
443.592	101.88
443.813	117.88
444.034	101.88
444.255	85.88
444.476	79.88
444.698	81.88
444.919	91.88
445.14	129.88
445.361	121.88
445.582	117.88
445.803	127.88
446.024	134.88
446.245	133.88
446.466	117.88
446.687	88.88
446.908	81.88
447.129	80.88
447.35	88.88
447.571	88.88
447.792	74.88
448.013	72.88
448.234	97.88
448.455	95.88
448.675	106.88
448.896	110.88
449.117	102.88
449.338	108.88
449.559	124.88
449.779	145.88
450	88.88
450.221	110.88
450.442	91.88
450.662	74.88
450.883	110.88
451.104	98.88
451.324	88.88
451.545	99.88
451.766	94.88
451.986	79.88
452.207	87.88
452.428	80.88
452.648	98.88
452.869	110.88
453.089	114.88
453.31	111.88
453.53	96.88
453.751	83.88
453.971	95.88
454.192	95.88
454.412	95.88
454.633	94.88
454.853	80.88
455.073	87.88
455.294	85.88
455.514	98.88
455.734	86.88
455.955	79.88
456.175	80.88
456.395	87.88
456.616	83.88
456.836	75.88
457.056	91.88
457.276	94.88
457.497	84.88
457.717	76.88
457.937	85.88
458.157	90.88
458.377	85.88
458.598	89.88
458.818	152.88
459.038	152.88
459.258	107.88
459.478	81.88
459.698	84.88
459.918	81.88
460.138	75.88
460.358	96.88
460.578	73.88
460.798	87.88
461.018	87.88
461.238	90.88
461.458	92.88
461.678	87.88
461.898	84.88
462.118	98.88
462.338	98.88
462.558	85.88
462.777	70.88
462.997	92.88
463.217	91.88
463.437	90.88
463.657	81.88
463.876	89.88
464.096	96.88
464.316	91.88
464.536	84.88
464.755	90.88
464.975	85.88
465.195	160.88
465.414	140.88
465.634	98.88
465.854	80.88
466.073	76.88
466.293	93.88
466.512	85.88
466.732	84.88
466.951	92.88
467.171	80.88
467.391	101.88
467.61	104.88
467.829	105.88
468.049	94.88
468.268	103.88
468.488	103.88
468.707	82.88
468.927	87.88
469.146	94.88
469.365	89.88
469.585	95.88
469.804	82.88
470.023	87.88
470.243	87.88
470.462	90.88
470.681	101.88
470.901	89.88
471.12	89.88
471.339	84.88
471.558	72.88
471.777	67.88
471.997	86.88
472.216	101.88
472.435	89.88
472.654	90.88
472.873	92.88
473.092	97.88
473.311	101.88
473.53	81.88
473.749	75.88
473.968	87.88
474.187	102.88
474.406	95.88
474.625	75.88
474.844	80.88
475.063	89.88
475.282	81.88
475.501	90.88
475.72	82.88
475.939	91.88
476.158	78.88
476.377	81.88
476.596	86.88
476.814	91.88
477.033	93.88
477.252	83.88
477.471	78.88
477.69	74.88
477.908	72.88
478.127	80.88
478.346	93.88
478.564	89.88
478.783	95.88
479.002	98.88
479.22	90.88
479.439	79.88
479.658	97.88
479.876	80.88
480.095	97.88
480.313	88.88
480.532	99.88
480.751	86.88
480.969	106.88
481.188	112.88
481.406	105.88
481.624	94.88
481.843	92.88
482.061	91.88
482.28	87.88
482.498	96.88
482.717	98.88
482.935	98.88
483.153	84.88
483.372	74.88
483.59	90.88
483.808	85.88
484.027	81.88
484.245	93.88
484.463	97.88
484.681	87.88
484.9	99.88
485.118	98.88
485.336	108.88
485.554	98.88
485.772	94.88
485.99	90.88
486.209	93.88
486.427	94.88
486.645	102.88
486.863	104.88
487.081	92.88
487.299	85.88
487.517	101.88
487.735	112.88
487.953	102.88
488.171	92.88
488.389	100.88
488.607	93.88
488.825	70.88
489.043	87.88
489.261	79.88
489.479	89.88
489.696	90.88
489.914	79.88
490.132	81.88
490.35	80.88
490.568	81.88
490.786	86.88
491.003	91.88
491.221	83.88
491.439	99.88
491.657	96.88
491.874	91.88
492.092	92.88
492.31	82.88
492.527	79.88
492.745	83.88
492.963	85.88
493.18	98.88
493.398	92.88
493.615	92.88
493.833	94.88
494.05	96.88
494.268	97.88
494.485	90.88
494.703	91.88
494.92	98.88
495.138	84.88
495.355	104.88
495.573	99.88
495.79	101.88
496.008	86.88
496.225	92.88
496.442	84.88
496.66	90.88
496.877	89.88
497.094	96.88
497.312	106.88
497.529	81.88
497.746	78.88
497.963	86.88
498.181	103.88
498.398	100.88
498.615	98.88
498.832	102.88
499.049	81.88
499.267	83.88
499.484	104.88
499.701	89.88
499.918	92.88
500.135	96.88
500.352	92.88
500.569	81.88
500.786	96.88
501.003	89.88
501.22	102.88
501.437	97.88
501.654	79.88
501.871	87.88
502.088	109.88
502.305	80.88
502.522	93.88
502.739	95.88
502.956	77.88
503.172	87.88
503.389	91.88
503.606	108.88
503.823	94.88
504.04	101.88
504.256	97.88
504.473	88.88
504.69	94.88
504.907	93.88
505.123	91.88
505.34	87.88
505.557	90.88
505.773	92.88
505.99	81.88
506.207	100.88
506.423	90.88
506.64	103.88
506.856	106.88
507.073	81.88
507.289	84.88
507.506	98.88
507.722	93.88
507.939	112.88
508.155	95.88
508.372	90.88
508.588	101.88
508.805	86.88
509.021	97.88
509.238	91.88
509.454	108.88
509.67	104.88
509.887	122.88
510.103	128.88
510.319	220.88
510.536	729.88
510.752	2225.88
510.968	627.88
511.184	139.88
511.401	92.88
511.617	94.88
511.833	94.88
512.049	81.88
512.265	91.88
512.481	95.88
512.698	89.88
512.914	81.88
513.13	92.88
513.346	89.88
513.562	100.88
513.778	82.88
513.994	102.88
514.21	87.88
514.426	127.88
514.642	132.88
514.858	121.88
515.074	167.88
515.29	428.88
515.506	1341.88
515.721	479.88
515.937	149.88
