Data from Uncirc_1999_H10_HRD10591_00025.txt Node
Date: Wed Jan 03 11:22:10 EST 2024
User: Yrep
Spectrometer: HR+D1059
Trigger mode: 1
Integration Time (sec): 1.000000E-1
Scans to average: 1
Electric dark correction enabled: true
Nonlinearity correction enabled: false
Boxcar width: 0
XAxis mode: Wavelengths
Number of Pixels in Spectrum: 2048
>>>>>Begin Spectral Data<<<<<
223.165	-15.38
223.4	-15.38
223.635	-15.38
223.869	-19.38
224.104	-31.38
224.338	-16.38
224.573	-16.38
224.808	-11.38
225.042	-22.38
225.277	-7.38
225.511	-13.38
225.746	15.62
225.98	12.62
226.215	6.62
226.449	25.62
226.683	32.62
226.918	40.62
227.152	19.62
227.387	38.62
227.621	39.62
227.856	53.62
228.09	49.62
228.324	54.62
228.559	45.62
228.793	57.62
229.027	62.62
229.262	71.62
229.496	69.62
229.73	77.62
229.964	75.62
230.199	75.62
230.433	76.62
230.667	77.62
230.901	71.62
231.136	84.62
231.37	86.62
231.604	67.62
231.838	68.62
232.072	80.62
232.306	91.62
232.541	78.62
232.775	83.62
233.009	73.62
233.243	84.62
233.477	69.62
233.711	78.62
233.945	77.62
234.179	85.62
234.413	92.62
234.647	92.62
234.881	97.62
235.115	87.62
235.349	87.62
235.583	75.62
235.817	74.62
236.051	70.62
236.285	69.62
236.519	75.62
236.753	66.62
236.987	91.62
237.221	69.62
237.455	85.62
237.689	92.62
237.922	71.62
238.156	77.62
238.39	60.62
238.624	83.62
238.858	72.62
239.091	72.62
239.325	92.62
239.559	83.62
239.793	69.62
240.027	73.62
240.26	79.62
240.494	71.62
240.728	74.62
240.961	67.62
241.195	81.62
241.429	75.62
241.662	79.62
241.896	77.62
242.13	67.62
242.363	76.62
242.597	85.62
242.83	84.62
243.064	77.62
243.298	79.62
243.531	67.62
243.765	77.62
243.998	59.62
244.232	83.62
244.465	77.62
244.699	92.62
244.932	86.62
245.166	87.62
245.399	74.62
245.633	70.62
245.866	86.62
246.099	74.62
246.333	74.62
246.566	69.62
246.8	89.62
247.033	100.62
247.266	74.62
247.5	65.62
247.733	88.62
247.966	59.62
248.2	73.62
248.433	80.62
248.666	67.62
248.899	72.62
249.133	73.62
249.366	83.62
249.599	81.62
249.832	93.62
250.066	83.62
250.299	66.62
250.532	80.62
250.765	76.62
250.998	74.62
251.231	68.62
251.465	90.62
251.698	80.62
251.931	76.62
252.164	68.62
252.397	74.62
252.63	87.62
252.863	84.62
253.096	79.62
253.329	83.62
253.562	69.62
253.795	72.62
254.028	74.62
254.261	77.62
254.494	74.62
254.727	96.62
254.96	95.62
255.193	80.62
255.426	75.62
255.659	71.62
255.892	76.62
256.124	93.62
256.357	85.62
256.59	93.62
256.823	82.62
257.056	83.62
257.289	83.62
257.521	85.62
257.754	80.62
257.987	67.62
258.22	83.62
258.452	85.62
258.685	78.62
258.918	84.62
259.151	80.62
259.383	74.62
259.616	70.62
259.849	82.62
260.081	91.62
260.314	90.62
260.547	88.62
260.779	75.62
261.012	85.62
261.244	67.62
261.477	100.62
261.71	93.62
261.942	104.62
262.175	102.62
262.407	87.62
262.64	73.62
262.872	82.62
263.105	77.62
263.337	85.62
263.57	81.62
263.802	77.62
264.035	79.62
264.267	83.62
264.499	89.62
264.732	68.62
264.964	81.62
265.197	92.62
265.429	88.62
265.661	77.62
265.894	91.62
266.126	86.62
266.358	73.62
266.591	94.62
266.823	63.62
267.055	80.62
267.287	81.62
267.52	87.62
267.752	84.62
267.984	75.62
268.216	71.62
268.448	87.62
268.681	72.62
268.913	94.62
269.145	81.62
269.377	104.62
269.609	99.62
269.841	89.62
270.073	89.62
270.306	93.62
270.538	94.62
270.77	88.62
271.002	89.62
271.234	86.62
271.466	89.62
271.698	91.62
271.93	75.62
272.162	79.62
272.394	102.62
272.626	76.62
272.858	79.62
273.09	80.62
273.322	82.62
273.553	87.62
273.785	88.62
274.017	88.62
274.249	80.62
274.481	89.62
274.713	89.62
274.945	84.62
275.176	85.62
275.408	95.62
275.64	80.62
275.872	83.62
276.104	78.62
276.335	96.62
276.567	88.62
276.799	101.62
277.031	89.62
277.262	85.62
277.494	96.62
277.726	91.62
277.957	79.62
278.189	75.62
278.421	86.62
278.652	102.62
278.884	71.62
279.115	85.62
279.347	88.62
279.579	75.62
279.81	92.62
280.042	90.62
280.273	83.62
280.505	75.62
280.736	83.62
280.968	100.62
281.199	85.62
281.431	83.62
281.662	86.62
281.894	91.62
282.125	93.62
282.356	108.62
282.588	121.62
282.819	100.62
283.051	79.62
283.282	83.62
283.513	87.62
283.745	92.62
283.976	100.62
284.207	86.62
284.439	89.62
284.67	85.62
284.901	86.62
285.132	80.62
285.364	88.62
285.595	80.62
285.826	77.62
286.057	84.62
286.288	89.62
286.52	85.62
286.751	93.62
286.982	76.62
287.213	81.62
287.444	84.62
287.675	85.62
287.906	87.62
288.138	85.62
288.369	95.62
288.6	95.62
288.831	87.62
289.062	96.62
289.293	94.62
289.524	88.62
289.755	84.62
289.986	79.62
290.217	73.62
290.448	80.62
290.679	98.62
290.91	81.62
291.141	70.62
291.371	92.62
291.602	82.62
291.833	75.62
292.064	97.62
292.295	96.62
292.526	86.62
292.757	95.62
292.987	84.62
293.218	79.62
293.449	92.62
293.68	87.62
293.91	87.62
294.141	85.62
294.372	94.62
294.603	78.62
294.833	88.62
295.064	87.62
295.295	92.62
295.525	102.62
295.756	96.62
295.987	97.62
296.217	111.62
296.448	106.62
296.679	94.62
296.909	95.62
297.14	86.62
297.37	88.62
297.601	77.62
297.831	82.62
298.062	79.62
298.292	80.62
298.523	84.62
298.753	86.62
298.984	83.62
299.214	87.62
299.445	77.62
299.675	92.62
299.905	93.62
300.136	90.62
300.366	89.62
300.597	93.62
300.827	92.62
301.057	88.62
301.288	84.62
301.518	92.62
301.748	77.62
301.979	99.62
302.209	98.62
302.439	73.62
302.669	88.62
302.9	72.62
303.13	88.62
303.36	81.62
303.59	94.62
303.82	91.62
304.051	91.62
304.281	84.62
304.511	83.62
304.741	75.62
304.971	91.62
305.201	93.62
305.431	84.62
305.661	82.62
305.891	79.62
306.121	87.62
306.352	105.62
306.582	96.62
306.812	93.62
307.042	97.62
307.272	87.62
307.502	93.62
307.731	83.62
307.961	83.62
308.191	88.62
308.421	90.62
308.651	77.62
308.881	106.62
309.111	78.62
309.341	95.62
309.571	100.62
309.8	100.62
310.03	89.62
310.26	87.62
310.49	105.62
310.72	79.62
310.949	89.62
311.179	99.62
311.409	97.62
311.639	97.62
311.868	116.62
312.098	91.62
312.328	90.62
312.557	95.62
312.787	101.62
313.017	105.62
313.246	90.62
313.476	78.62
313.706	91.62
313.935	85.62
314.165	90.62
314.394	87.62
314.624	92.62
314.853	69.62
315.083	100.62
315.312	81.62
315.542	78.62
315.771	97.62
316.001	91.62
316.23	101.62
316.46	90.62
316.689	87.62
316.919	77.62
317.148	84.62
317.377	94.62
317.607	81.62
317.836	93.62
318.065	87.62
318.295	90.62
318.524	107.62
318.753	91.62
318.983	87.62
319.212	104.62
319.441	92.62
319.67	91.62
319.9	74.62
320.129	97.62
320.358	78.62
320.587	99.62
320.816	108.62
321.046	107.62
321.275	97.62
321.504	111.62
321.733	101.62
321.962	103.62
322.191	124.62
322.42	107.62
322.649	103.62
322.878	107.62
323.108	94.62
323.337	118.62
323.566	130.62
323.795	146.62
324.024	189.62
324.253	362.62
324.482	771.62
324.71	1574.62
324.939	2025.62
325.168	749.62
325.397	225.62
325.626	141.62
325.855	143.62
326.084	133.62
326.313	129.62
326.542	156.62
326.77	215.62
326.999	440.62
327.228	903.62
327.457	1612.62
327.686	1276.62
327.914	353.62
328.143	165.62
328.372	140.62
328.6	104.62
328.829	103.62
329.058	128.62
329.287	119.62
329.515	101.62
329.744	104.62
329.972	92.62
330.201	103.62
330.43	107.62
330.658	116.62
330.887	118.62
331.115	115.62
331.344	74.62
331.572	109.62
331.801	108.62
332.03	86.62
332.258	100.62
332.486	92.62
332.715	104.62
332.943	89.62
333.172	80.62
333.4	92.62
333.629	99.62
333.857	117.62
334.085	100.62
334.314	95.62
334.542	92.62
334.771	112.62
334.999	100.62
335.227	93.62
335.455	83.62
335.684	96.62
335.912	100.62
336.14	103.62
336.369	85.62
336.597	99.62
336.825	98.62
337.053	97.62
337.281	86.62
337.51	89.62
337.738	92.62
337.966	98.62
338.194	84.62
338.422	102.62
338.65	97.62
338.878	100.62
339.106	91.62
339.334	89.62
339.562	83.62
339.79	91.62
340.018	91.62
340.246	86.62
340.474	92.62
340.702	88.62
340.93	102.62
341.158	81.62
341.386	91.62
341.614	99.62
341.842	91.62
342.07	88.62
342.298	82.62
342.526	88.62
342.754	77.62
342.981	90.62
343.209	82.62
343.437	98.62
343.665	85.62
343.893	97.62
344.12	96.62
344.348	92.62
344.576	88.62
344.804	88.62
345.031	95.62
345.259	96.62
345.487	105.62
345.714	95.62
345.942	93.62
346.17	89.62
346.397	107.62
346.625	85.62
346.853	101.62
347.08	98.62
347.308	97.62
347.535	84.62
347.763	79.62
347.99	84.62
348.218	104.62
348.445	102.62
348.673	89.62
348.9	98.62
349.128	102.62
349.355	93.62
349.583	90.62
349.81	91.62
350.037	95.62
350.265	95.62
350.492	95.62
350.72	100.62
350.947	83.62
351.174	85.62
351.402	111.62
351.629	104.62
351.856	91.62
352.083	96.62
352.311	107.62
352.538	95.62
352.765	104.62
352.992	114.62
353.22	111.62
353.447	103.62
353.674	100.62
353.901	93.62
354.128	104.62
354.355	102.62
354.583	92.62
354.81	91.62
355.037	101.62
355.264	85.62
355.491	101.62
355.718	99.62
355.945	90.62
356.172	86.62
356.399	93.62
356.626	95.62
356.853	87.62
357.08	80.62
357.307	89.62
357.534	99.62
357.761	102.62
357.988	89.62
358.215	111.62
358.441	96.62
358.668	103.62
358.895	79.62
359.122	81.62
359.349	89.62
359.576	100.62
359.802	94.62
360.029	105.62
360.256	101.62
360.483	84.62
360.709	79.62
360.936	80.62
361.163	84.62
361.39	91.62
361.616	97.62
361.843	80.62
362.07	90.62
362.296	87.62
362.523	81.62
362.749	79.62
362.976	95.62
363.203	85.62
363.429	92.62
363.656	86.62
363.882	85.62
364.109	80.62
364.335	87.62
364.562	89.62
364.788	89.62
365.015	104.62
365.241	90.62
365.468	86.62
365.694	94.62
365.92	96.62
366.147	81.62
366.373	80.62
366.599	84.62
366.826	97.62
367.052	91.62
367.278	85.62
367.505	111.62
367.731	96.62
367.957	95.62
368.184	97.62
368.41	96.62
368.636	87.62
368.862	99.62
369.089	94.62
369.315	103.62
369.541	88.62
369.767	74.62
369.993	83.62
370.219	95.62
370.445	84.62
370.672	80.62
370.898	87.62
371.124	77.62
371.35	89.62
371.576	97.62
371.802	94.62
372.028	81.62
372.254	89.62
372.48	94.62
372.706	92.62
372.932	98.62
373.158	89.62
373.384	88.62
373.61	92.62
373.835	92.62
374.061	92.62
374.287	73.62
374.513	96.62
374.739	82.62
374.965	95.62
375.191	88.62
375.416	91.62
375.642	80.62
375.868	105.62
376.094	75.62
376.319	91.62
376.545	95.62
376.771	87.62
376.997	77.62
377.222	89.62
377.448	99.62
377.674	88.62
377.899	86.62
378.125	91.62
378.35	92.62
378.576	84.62
378.802	101.62
379.027	94.62
379.253	90.62
379.478	92.62
379.704	107.62
379.929	98.62
380.155	82.62
380.38	97.62
380.606	97.62
380.831	107.62
381.057	115.62
381.282	90.62
381.507	86.62
381.733	97.62
381.958	99.62
382.184	91.62
382.409	95.62
382.634	92.62
382.86	116.62
383.085	94.62
383.31	112.62
383.535	87.62
383.761	107.62
383.986	102.62
384.211	101.62
384.436	107.62
384.662	108.62
384.887	119.62
385.112	118.62
385.337	121.62
385.562	122.62
385.787	127.62
386.013	126.62
386.238	112.62
386.463	126.62
386.688	119.62
386.913	130.62
387.138	117.62
387.363	118.62
387.588	99.62
387.813	95.62
388.038	119.62
388.263	119.62
388.488	133.62
388.713	97.62
388.938	94.62
389.163	103.62
389.387	96.62
389.612	108.62
389.837	93.62
390.062	97.62
390.287	80.62
390.512	87.62
390.736	101.62
390.961	95.62
391.186	86.62
391.411	88.62
391.636	100.62
391.86	92.62
392.085	91.62
392.31	81.62
392.534	100.62
392.759	85.62
392.984	82.62
393.208	84.62
393.433	98.62
393.658	93.62
393.882	103.62
394.107	97.62
394.331	80.62
394.556	85.62
394.78	94.62
395.005	77.62
395.229	83.62
395.454	99.62
395.678	84.62
395.903	101.62
396.127	92.62
396.352	87.62
396.576	91.62
396.801	99.62
397.025	74.62
397.249	80.62
397.474	89.62
397.698	77.62
397.922	89.62
398.147	86.62
398.371	85.62
398.595	87.62
398.82	72.62
399.044	89.62
399.268	88.62
399.492	86.62
399.717	88.62
399.941	100.62
400.165	83.62
400.389	85.62
400.613	87.62
400.837	82.62
401.062	80.62
401.286	82.62
401.51	80.62
401.734	88.62
401.958	90.62
402.182	104.62
402.406	132.62
402.63	102.62
402.854	89.62
403.078	110.62
403.302	78.62
403.526	84.62
403.75	86.62
403.974	107.62
404.198	85.62
404.422	77.62
404.645	83.62
404.869	79.62
405.093	91.62
405.317	101.62
405.541	86.62
405.765	83.62
405.988	103.62
406.212	155.62
406.436	190.62
406.66	124.62
406.883	93.62
407.107	101.62
407.331	90.62
407.555	98.62
407.778	99.62
408.002	81.62
408.226	85.62
408.449	100.62
408.673	77.62
408.896	88.62
409.12	87.62
409.344	90.62
409.567	85.62
409.791	80.62
410.014	89.62
410.238	91.62
410.461	104.62
410.685	104.62
410.908	93.62
411.132	101.62
411.355	107.62
411.578	85.62
411.802	105.62
412.025	91.62
412.249	89.62
412.472	88.62
412.695	95.62
412.919	85.62
413.142	97.62
413.365	92.62
413.589	80.62
413.812	97.62
414.035	91.62
414.258	110.62
414.482	97.62
414.705	102.62
414.928	86.62
415.151	102.62
415.374	92.62
415.597	81.62
415.821	87.62
416.044	81.62
416.267	79.62
416.49	74.62
416.713	103.62
416.936	94.62
417.159	77.62
417.382	96.62
417.605	87.62
417.828	104.62
418.051	93.62
418.274	92.62
418.497	85.62
418.72	86.62
418.943	85.62
419.166	79.62
419.389	101.62
419.611	86.62
419.834	94.62
420.057	97.62
420.28	89.62
420.503	87.62
420.726	84.62
420.948	77.62
421.171	85.62
421.394	104.62
421.617	92.62
421.839	95.62
422.062	96.62
422.285	96.62
422.507	103.62
422.73	94.62
422.953	91.62
423.175	95.62
423.398	70.62
423.621	86.62
423.843	94.62
424.066	89.62
424.288	80.62
424.511	76.62
424.733	99.62
424.956	104.62
425.178	90.62
425.401	89.62
425.623	94.62
425.846	94.62
426.068	69.62
426.291	103.62
426.513	97.62
426.735	98.62
426.958	91.62
427.18	85.62
427.402	140.62
427.625	137.62
427.847	119.62
428.069	99.62
428.292	75.62
428.514	97.62
428.736	73.62
428.958	78.62
429.181	85.62
429.403	83.62
429.625	81.62
429.847	109.62
430.069	88.62
430.292	76.62
430.514	76.62
430.736	84.62
430.958	93.62
431.18	76.62
431.402	97.62
431.624	86.62
431.846	84.62
432.068	84.62
432.29	88.62
432.512	82.62
432.734	72.62
432.956	92.62
433.178	93.62
433.4	101.62
433.622	91.62
433.844	81.62
434.066	89.62
434.287	86.62
434.509	101.62
434.731	79.62
434.953	83.62
435.175	86.62
435.397	83.62
435.618	102.62
435.84	101.62
436.062	111.62
436.284	108.62
436.505	101.62
436.727	88.62
436.949	91.62
437.17	88.62
437.392	83.62
437.614	97.62
437.835	94.62
438.057	100.62
438.278	104.62
438.5	106.62
438.721	101.62
438.943	94.62
439.165	85.62
439.386	89.62
439.608	76.62
439.829	84.62
440.05	107.62
440.272	121.62
440.493	93.62
440.715	65.62
440.936	92.62
441.158	92.62
441.379	79.62
441.6	79.62
441.822	86.62
442.043	105.62
442.264	101.62
442.486	86.62
442.707	94.62
442.928	92.62
443.149	125.62
443.371	128.62
443.592	87.62
443.813	111.62
444.034	93.62
444.255	74.62
444.476	84.62
444.698	83.62
444.919	85.62
445.14	141.62
445.361	116.62
445.582	115.62
445.803	121.62
446.024	118.62
446.245	136.62
446.466	110.62
446.687	91.62
446.908	87.62
447.129	80.62
447.35	93.62
447.571	77.62
447.792	96.62
448.013	86.62
448.234	97.62
448.455	104.62
448.675	121.62
448.896	105.62
449.117	100.62
449.338	90.62
449.559	106.62
449.779	117.62
450	85.62
450.221	95.62
450.442	77.62
450.662	102.62
450.883	99.62
451.104	97.62
451.324	88.62
451.545	82.62
451.766	100.62
451.986	82.62
452.207	89.62
452.428	85.62
452.648	91.62
452.869	92.62
453.089	94.62
453.31	105.62
453.53	90.62
453.751	86.62
453.971	106.62
454.192	104.62
454.412	84.62
454.633	92.62
454.853	69.62
455.073	89.62
455.294	96.62
455.514	94.62
455.734	82.62
455.955	74.62
456.175	79.62
456.395	81.62
456.616	90.62
456.836	83.62
457.056	90.62
457.276	85.62
457.497	84.62
457.717	76.62
457.937	83.62
458.157	81.62
458.377	80.62
458.598	102.62
458.818	134.62
459.038	129.62
459.258	110.62
459.478	86.62
459.698	86.62
459.918	83.62
460.138	74.62
460.358	74.62
460.578	86.62
460.798	92.62
461.018	89.62
461.238	90.62
461.458	88.62
461.678	80.62
461.898	82.62
462.118	84.62
462.338	88.62
462.558	78.62
462.777	75.62
462.997	86.62
463.217	107.62
463.437	78.62
463.657	91.62
463.876	81.62
464.096	77.62
464.316	83.62
464.536	80.62
464.755	89.62
464.975	95.62
465.195	125.62
465.414	128.62
465.634	89.62
465.854	89.62
466.073	88.62
466.293	88.62
466.512	79.62
466.732	92.62
466.951	92.62
467.171	86.62
467.391	90.62
467.61	79.62
467.829	93.62
468.049	95.62
468.268	86.62
468.488	95.62
468.707	84.62
468.927	89.62
469.146	90.62
469.365	61.62
469.585	84.62
469.804	81.62
470.023	76.62
470.243	100.62
470.462	96.62
470.681	108.62
470.901	78.62
471.12	85.62
471.339	93.62
471.558	75.62
471.777	85.62
471.997	96.62
472.216	100.62
472.435	96.62
472.654	93.62
472.873	83.62
473.092	79.62
473.311	97.62
473.53	80.62
473.749	91.62
473.968	87.62
474.187	91.62
474.406	88.62
474.625	91.62
474.844	100.62
475.063	86.62
475.282	83.62
475.501	74.62
475.72	88.62
475.939	92.62
476.158	87.62
476.377	87.62
476.596	86.62
476.814	80.62
477.033	78.62
477.252	77.62
477.471	75.62
477.69	82.62
477.908	86.62
478.127	87.62
478.346	78.62
478.564	80.62
478.783	91.62
479.002	93.62
479.22	90.62
479.439	96.62
479.658	105.62
479.876	106.62
480.095	85.62
480.313	82.62
480.532	92.62
480.751	88.62
480.969	96.62
481.188	110.62
481.406	104.62
481.624	97.62
481.843	96.62
482.061	83.62
482.28	71.62
482.498	80.62
482.717	83.62
482.935	77.62
483.153	79.62
483.372	95.62
483.59	84.62
483.808	86.62
484.027	92.62
484.245	108.62
484.463	90.62
484.681	110.62
484.9	104.62
485.118	85.62
485.336	95.62
485.554	98.62
485.772	102.62
485.99	116.62
486.209	98.62
486.427	94.62
486.645	97.62
486.863	91.62
487.081	108.62
487.299	101.62
487.517	106.62
487.735	93.62
487.953	91.62
488.171	89.62
488.389	81.62
488.607	95.62
488.825	96.62
489.043	91.62
489.261	85.62
489.479	93.62
489.696	91.62
489.914	91.62
490.132	83.62
490.35	81.62
490.568	86.62
490.786	91.62
491.003	84.62
491.221	94.62
491.439	92.62
491.657	85.62
491.874	92.62
492.092	87.62
492.31	88.62
492.527	85.62
492.745	88.62
492.963	86.62
493.18	90.62
493.398	94.62
493.615	95.62
493.833	103.62
494.05	95.62
494.268	65.62
494.485	80.62
494.703	108.62
494.92	79.62
495.138	101.62
495.355	80.62
495.573	104.62
495.79	86.62
496.008	88.62
496.225	85.62
496.442	90.62
496.66	93.62
496.877	101.62
497.094	79.62
497.312	84.62
497.529	75.62
497.746	100.62
497.963	97.62
498.181	87.62
498.398	99.62
498.615	86.62
498.832	91.62
499.049	76.62
499.267	88.62
499.484	78.62
499.701	96.62
499.918	85.62
500.135	89.62
500.352	98.62
500.569	95.62
500.786	78.62
501.003	87.62
501.22	91.62
501.437	96.62
501.654	91.62
501.871	99.62
502.088	83.62
502.305	94.62
502.522	110.62
502.739	97.62
502.956	95.62
503.172	97.62
503.389	85.62
503.606	107.62
503.823	94.62
504.04	92.62
504.256	87.62
504.473	89.62
504.69	86.62
504.907	75.62
505.123	90.62
505.34	84.62
505.557	84.62
505.773	96.62
505.99	94.62
506.207	85.62
506.423	86.62
506.64	93.62
506.856	94.62
507.073	92.62
507.289	91.62
507.506	91.62
507.722	118.62
507.939	103.62
508.155	95.62
508.372	85.62
508.588	92.62
508.805	107.62
509.021	112.62
509.238	102.62
509.454	96.62
509.67	87.62
509.887	90.62
510.103	126.62
510.319	185.62
510.536	639.62
510.752	1930.62
510.968	559.62
511.184	145.62
511.401	89.62
511.617	100.62
511.833	100.62
512.049	95.62
512.265	97.62
512.481	99.62
512.698	87.62
512.914	92.62
513.13	83.62
513.346	85.62
513.562	92.62
513.778	87.62
513.994	102.62
514.21	110.62
514.426	110.62
514.642	119.62
514.858	97.62
515.074	145.62
515.29	346.62
515.506	1099.62
515.721	401.62
515.937	131.62
516.153	103.62
