Data from Uncirc_1999_H10_HRD10591_00006.txt Node
Date: Wed Jan 03 11:22:06 EST 2024
User: Yrep
Spectrometer: HR+D1059
Trigger mode: 1
Integration Time (sec): 1.000000E-1
Scans to average: 1
Electric dark correction enabled: true
Nonlinearity correction enabled: false
Boxcar width: 0
XAxis mode: Wavelengths
Number of Pixels in Spectrum: 2048
>>>>>Begin Spectral Data<<<<<
223.165	-4
223.4	-4
223.635	-4
223.869	-19
224.104	-8
224.338	-13
224.573	-13
224.808	-19
225.042	-12
225.277	-11
225.511	2
225.746	11
225.98	8
226.215	17
226.449	16
226.683	14
226.918	13
227.152	18
227.387	38
227.621	56
227.856	42
228.09	47
228.324	57
228.559	50
228.793	61
229.027	60
229.262	74
229.496	56
229.73	83
229.964	82
230.199	77
230.433	80
230.667	89
230.901	91
231.136	82
231.37	86
231.604	84
231.838	93
232.072	92
232.306	85
232.541	69
232.775	101
233.009	74
233.243	104
233.477	100
233.711	78
233.945	84
234.179	74
234.413	92
234.647	72
234.881	82
235.115	77
235.349	85
235.583	85
235.817	84
236.051	93
236.285	82
236.519	80
236.753	67
236.987	81
237.221	77
237.455	82
237.689	75
237.922	84
238.156	85
238.39	82
238.624	66
238.858	75
239.091	84
239.325	82
239.559	91
239.793	74
240.027	87
240.26	86
240.494	80
240.728	78
240.961	76
241.195	81
241.429	72
241.662	73
241.896	85
242.13	83
242.363	89
242.597	80
242.83	74
243.064	77
243.298	82
243.531	96
243.765	89
243.998	88
244.232	85
244.465	81
244.699	87
244.932	67
245.166	81
245.399	80
245.633	80
245.866	70
246.099	84
246.333	88
246.566	78
246.8	78
247.033	86
247.266	96
247.5	90
247.733	73
247.966	89
248.2	82
248.433	95
248.666	93
248.899	92
249.133	100
249.366	90
249.599	94
249.832	74
250.066	86
250.299	98
250.532	92
250.765	78
250.998	97
251.231	80
251.465	75
251.698	75
251.931	83
252.164	76
252.397	72
252.63	89
252.863	69
253.096	84
253.329	81
253.562	93
253.795	78
254.028	86
254.261	80
254.494	86
254.727	77
254.96	85
255.193	82
255.426	89
255.659	92
255.892	74
256.124	91
256.357	81
256.59	83
256.823	93
257.056	80
257.289	88
257.521	82
257.754	85
257.987	96
258.22	86
258.452	79
258.685	89
258.918	78
259.151	84
259.383	91
259.616	84
259.849	81
260.081	88
260.314	95
260.547	92
260.779	76
261.012	89
261.244	90
261.477	94
261.71	88
261.942	99
262.175	108
262.407	87
262.64	101
262.872	85
263.105	89
263.337	90
263.57	92
263.802	92
264.035	98
264.267	79
264.499	94
264.732	87
264.964	81
265.197	82
265.429	82
265.661	89
265.894	94
266.126	93
266.358	82
266.591	90
266.823	77
267.055	91
267.287	94
267.52	81
267.752	85
267.984	99
268.216	90
268.448	84
268.681	84
268.913	97
269.145	82
269.377	87
269.609	85
269.841	79
270.073	70
270.306	78
270.538	94
270.77	82
271.002	73
271.234	90
271.466	100
271.698	86
271.93	85
272.162	98
272.394	85
272.626	88
272.858	87
273.09	97
273.322	91
273.553	83
273.785	92
274.017	86
274.249	91
274.481	85
274.713	85
274.945	80
275.176	84
275.408	92
275.64	93
275.872	70
276.104	92
276.335	93
276.567	102
276.799	100
277.031	99
277.262	84
277.494	78
277.726	95
277.957	83
278.189	81
278.421	82
278.652	93
278.884	85
279.115	98
279.347	91
279.579	81
279.81	82
280.042	74
280.273	85
280.505	89
280.736	101
280.968	88
281.199	60
281.431	85
281.662	101
281.894	93
282.125	98
282.356	109
282.588	115
282.819	106
283.051	87
283.282	97
283.513	95
283.745	95
283.976	101
284.207	93
284.439	85
284.67	88
284.901	79
285.132	79
285.364	87
285.595	75
285.826	82
286.057	78
286.288	83
286.52	87
286.751	78
286.982	95
287.213	88
287.444	99
287.675	74
287.906	105
288.138	90
288.369	91
288.6	95
288.831	94
289.062	84
289.293	102
289.524	89
289.755	97
289.986	85
290.217	92
290.448	84
290.679	91
290.91	97
291.141	90
291.371	82
291.602	95
291.833	97
292.064	94
292.295	85
292.526	93
292.757	95
292.987	92
293.218	92
293.449	77
293.68	99
293.91	75
294.141	77
294.372	75
294.603	89
294.833	89
295.064	101
295.295	77
295.525	91
295.756	95
295.987	109
296.217	115
296.448	94
296.679	96
296.909	93
297.14	92
297.37	100
297.601	102
297.831	85
298.062	88
298.292	85
298.523	84
298.753	81
298.984	85
299.214	96
299.445	95
299.675	98
299.905	102
300.136	93
300.366	97
300.597	92
300.827	86
301.057	106
301.288	95
301.518	99
301.748	109
301.979	108
302.209	105
302.439	99
302.669	93
302.9	100
303.13	110
303.36	104
303.59	99
303.82	97
304.051	84
304.281	93
304.511	95
304.741	93
304.971	89
305.201	95
305.431	77
305.661	92
305.891	90
306.121	92
306.352	94
306.582	102
306.812	103
307.042	98
307.272	86
307.502	90
307.731	95
307.961	96
308.191	87
308.421	105
308.651	95
308.881	106
309.111	87
309.341	93
309.571	107
309.8	94
310.03	104
310.26	96
310.49	88
310.72	103
310.949	99
311.179	97
311.409	89
311.639	107
311.868	101
312.098	96
312.328	105
312.557	107
312.787	96
313.017	95
313.246	107
313.476	92
313.706	94
313.935	93
314.165	99
314.394	106
314.624	104
314.853	101
315.083	104
315.312	96
315.542	97
315.771	89
316.001	87
316.23	88
316.46	87
316.689	99
316.919	94
317.148	97
317.377	104
317.607	95
317.836	78
318.065	72
318.295	90
318.524	99
318.753	97
318.983	93
319.212	102
319.441	113
319.67	99
319.9	100
320.129	99
320.358	98
320.587	102
320.816	105
321.046	105
321.275	94
321.504	93
321.733	91
321.962	100
322.191	98
322.42	115
322.649	96
322.878	92
323.108	101
323.337	117
323.566	133
323.795	136
324.024	200
324.253	377
324.482	760
324.71	1535
324.939	1985
325.168	737
325.397	224
325.626	134
325.855	136
326.084	122
326.313	132
326.542	153
326.77	218
326.999	458
327.228	886
327.457	1620
327.686	1255
327.914	322
328.143	174
328.372	129
328.6	116
328.829	128
329.058	115
329.287	118
329.515	104
329.744	105
329.972	104
330.201	109
330.43	101
330.658	115
330.887	123
331.115	116
331.344	96
331.572	97
331.801	102
332.03	91
332.258	88
332.486	86
332.715	89
332.943	86
333.172	98
333.4	99
333.629	105
333.857	112
334.085	110
334.314	101
334.542	114
334.771	120
334.999	101
335.227	92
335.455	99
335.684	101
335.912	108
336.14	105
336.369	102
336.597	110
336.825	99
337.053	107
337.281	98
337.51	96
337.738	77
337.966	100
338.194	102
338.422	94
338.65	97
338.878	114
339.106	89
339.334	115
339.562	101
339.79	106
340.018	100
340.246	102
340.474	83
340.702	105
340.93	91
341.158	92
341.386	89
341.614	91
341.842	85
342.07	74
342.298	87
342.526	95
342.754	88
342.981	85
343.209	84
343.437	98
343.665	79
343.893	91
344.12	102
344.348	93
344.576	101
344.804	90
345.031	86
345.259	109
345.487	106
345.714	94
345.942	90
346.17	100
346.397	100
346.625	98
346.853	113
347.08	88
347.308	85
347.535	85
347.763	79
347.99	99
348.218	101
348.445	102
348.673	98
348.9	98
349.128	111
349.355	91
349.583	108
349.81	96
350.037	90
350.265	100
350.492	97
350.72	104
350.947	98
351.174	85
351.402	110
351.629	92
351.856	93
352.083	110
352.311	95
352.538	106
352.765	117
352.992	120
353.22	108
353.447	112
353.674	131
353.901	106
354.128	114
354.355	111
354.583	109
354.81	96
355.037	111
355.264	102
355.491	101
355.718	103
355.945	103
356.172	100
356.399	102
356.626	109
356.853	100
357.08	90
357.307	96
357.534	106
357.761	99
357.988	120
358.215	116
358.441	133
358.668	121
358.895	93
359.122	92
359.349	99
359.576	106
359.802	104
360.029	112
360.256	115
360.483	102
360.709	89
360.936	101
361.163	93
361.39	93
361.616	89
361.843	88
362.07	91
362.296	106
362.523	82
362.749	100
362.976	90
363.203	107
363.429	94
363.656	101
363.882	93
364.109	108
364.335	96
364.562	93
364.788	103
365.015	90
365.241	106
365.468	106
365.694	99
365.92	94
366.147	86
366.373	92
366.599	92
366.826	84
367.052	94
367.278	99
367.505	92
367.731	96
367.957	92
368.184	101
368.41	101
368.636	92
368.862	100
369.089	105
369.315	96
369.541	97
369.767	93
369.993	90
370.219	92
370.445	80
370.672	100
370.898	93
371.124	85
371.35	97
371.576	99
371.802	86
372.028	88
372.254	85
372.48	92
372.706	85
372.932	92
373.158	99
373.384	94
373.61	90
373.835	88
374.061	90
374.287	102
374.513	94
374.739	96
374.965	96
375.191	93
375.416	109
375.642	96
375.868	90
376.094	107
376.319	109
376.545	106
376.771	103
376.997	112
377.222	99
377.448	100
377.674	101
377.899	110
378.125	105
378.35	100
378.576	100
378.802	94
379.027	93
379.253	98
379.478	118
379.704	108
379.929	121
380.155	102
380.38	111
380.606	107
380.831	113
381.057	121
381.282	113
381.507	116
381.733	125
381.958	126
382.184	132
382.409	149
382.634	138
382.86	125
383.085	122
383.31	123
383.535	139
383.761	133
383.986	131
384.211	119
384.436	140
384.662	146
384.887	157
385.112	171
385.337	163
385.562	156
385.787	146
386.013	166
386.238	162
386.463	170
386.688	169
386.913	142
387.138	159
387.363	156
387.588	140
387.813	152
388.038	176
388.263	194
388.488	178
388.713	110
388.938	100
389.163	108
389.387	109
389.612	102
389.837	103
390.062	91
390.287	101
390.512	98
390.736	91
390.961	92
391.186	92
391.411	108
391.636	98
391.86	100
392.085	90
392.31	104
392.534	104
392.759	100
392.984	96
393.208	95
393.433	106
393.658	81
393.882	70
394.107	89
394.331	96
394.556	87
394.78	95
395.005	104
395.229	90
395.454	113
395.678	92
395.903	89
396.127	94
396.352	98
396.576	84
396.801	103
397.025	99
397.249	85
397.474	93
397.698	92
397.922	81
398.147	89
398.371	99
398.595	88
398.82	79
399.044	91
399.268	93
399.492	99
399.717	98
399.941	94
400.165	101
400.389	98
400.613	87
400.837	88
401.062	99
401.286	94
401.51	98
401.734	115
401.958	97
402.182	121
402.406	127
402.63	107
402.854	95
403.078	93
403.302	89
403.526	88
403.75	90
403.974	93
404.198	92
404.422	101
404.645	87
404.869	90
405.093	104
405.317	105
405.541	91
405.765	107
405.988	103
406.212	143
406.436	184
406.66	121
406.883	85
407.107	93
407.331	83
407.555	107
407.778	106
408.002	95
408.226	95
408.449	69
408.673	105
408.896	89
409.12	111
409.344	91
409.567	95
409.791	96
410.014	118
410.238	99
410.461	84
410.685	97
410.908	109
411.132	122
411.355	96
411.578	101
411.802	96
412.025	100
412.249	104
412.472	94
412.695	95
412.919	88
413.142	96
413.365	90
413.589	91
413.812	91
414.035	106
414.258	98
414.482	94
414.705	103
414.928	103
415.151	102
415.374	119
415.597	85
415.821	108
416.044	101
416.267	92
416.49	100
416.713	97
416.936	97
417.159	104
417.382	76
417.605	101
417.828	93
418.051	102
418.274	89
418.497	77
418.72	96
418.943	93
419.166	83
419.389	102
419.611	110
419.834	88
420.057	108
420.28	95
420.503	92
420.726	85
420.948	88
421.171	104
421.394	106
421.617	100
421.839	101
422.062	83
422.285	94
422.507	104
422.73	101
422.953	92
423.175	78
423.398	85
423.621	98
423.843	89
424.066	85
424.288	87
424.511	92
424.733	96
424.956	108
425.178	84
425.401	101
425.623	109
425.846	94
426.068	102
426.291	91
426.513	87
426.735	102
426.958	105
427.18	112
427.402	132
427.625	152
427.847	108
428.069	100
428.292	83
428.514	91
428.736	96
428.958	85
429.181	79
429.403	101
429.625	98
429.847	103
430.069	90
430.292	101
430.514	95
430.736	79
430.958	98
431.18	89
431.402	95
431.624	88
431.846	89
432.068	104
432.29	90
432.512	90
432.734	103
432.956	104
433.178	102
433.4	101
433.622	98
433.844	100
434.066	84
434.287	103
434.509	110
434.731	90
434.953	99
435.175	103
435.397	99
435.618	88
435.84	92
436.062	105
436.284	117
436.505	101
436.727	100
436.949	103
437.17	90
437.392	95
437.614	99
437.835	110
438.057	104
438.278	99
438.5	121
438.721	116
438.943	108
439.165	102
439.386	103
439.608	84
439.829	98
440.05	121
440.272	125
440.493	97
440.715	93
440.936	99
441.158	88
441.379	88
441.6	93
441.822	90
442.043	109
442.264	101
442.486	99
442.707	86
442.928	106
443.149	112
443.371	115
443.592	102
443.813	116
444.034	109
444.255	76
444.476	91
444.698	104
444.919	86
445.14	143
445.361	129
445.582	106
445.803	122
446.024	121
446.245	130
446.466	125
446.687	85
446.908	96
447.129	92
447.35	92
447.571	82
447.792	81
448.013	108
448.234	110
448.455	89
448.675	113
448.896	114
449.117	113
449.338	103
449.559	132
449.779	118
450	92
450.221	96
450.442	89
450.662	102
450.883	109
451.104	91
451.324	100
451.545	105
451.766	96
451.986	83
452.207	101
452.428	97
452.648	99
452.869	106
453.089	132
453.31	103
453.53	88
453.751	87
453.971	91
454.192	108
454.412	109
454.633	80
454.853	92
455.073	78
455.294	92
455.514	99
455.734	91
455.955	85
456.175	84
456.395	88
456.616	105
456.836	95
457.056	81
457.276	98
457.497	84
457.717	85
457.937	97
458.157	86
458.377	93
458.598	96
458.818	118
459.038	129
459.258	91
459.478	88
459.698	81
459.918	106
460.138	93
460.358	84
460.578	95
460.798	94
461.018	109
461.238	90
461.458	97
461.678	75
461.898	100
462.118	95
462.338	96
462.558	86
462.777	102
462.997	88
463.217	82
463.437	89
463.657	86
463.876	96
464.096	94
464.316	88
464.536	102
464.755	101
464.975	98
465.195	144
465.414	140
465.634	97
465.854	91
466.073	102
466.293	92
466.512	96
466.732	90
466.951	94
467.171	93
467.391	93
467.61	94
467.829	85
468.049	83
468.268	101
468.488	83
468.707	85
468.927	82
469.146	90
469.365	88
469.585	89
469.804	101
470.023	87
470.243	91
470.462	94
470.681	108
470.901	78
471.12	98
471.339	79
471.558	105
471.777	85
471.997	93
472.216	90
472.435	98
472.654	95
472.873	88
473.092	84
473.311	89
473.53	86
473.749	86
473.968	88
474.187	105
474.406	101
474.625	100
474.844	73
475.063	97
475.282	85
475.501	92
475.72	90
475.939	98
476.158	88
476.377	91
476.596	93
476.814	96
477.033	92
477.252	100
477.471	104
477.69	101
477.908	90
478.127	102
478.346	90
478.564	101
478.783	94
479.002	101
479.22	102
479.439	103
479.658	98
479.876	93
480.095	92
480.313	107
480.532	95
480.751	105
480.969	109
481.188	133
481.406	114
481.624	106
481.843	99
482.061	87
482.28	88
482.498	86
482.717	94
482.935	88
483.153	88
483.372	96
483.59	86
483.808	81
484.027	84
484.245	98
484.463	93
484.681	107
484.9	103
485.118	103
485.336	96
485.554	91
485.772	104
485.99	120
486.209	102
486.427	126
486.645	116
486.863	112
487.081	106
487.299	92
487.517	102
487.735	104
487.953	100
488.171	106
488.389	96
488.607	87
488.825	92
489.043	90
489.261	92
489.479	84
489.696	91
489.914	102
490.132	102
490.35	93
490.568	100
490.786	97
491.003	98
491.221	91
491.439	96
491.657	90
491.874	94
492.092	97
492.31	100
492.527	97
492.745	94
492.963	89
493.18	95
493.398	110
493.615	104
493.833	108
494.05	105
494.268	90
494.485	85
494.703	97
494.92	87
495.138	83
495.355	88
495.573	92
495.79	109
496.008	105
496.225	94
496.442	92
496.66	101
496.877	90
497.094	81
497.312	82
497.529	103
497.746	95
497.963	94
498.181	90
498.398	105
498.615	88
498.832	98
499.049	97
499.267	86
499.484	91
499.701	92
499.918	96
500.135	99
500.352	99
500.569	89
500.786	94
501.003	96
501.22	90
501.437	104
501.654	102
501.871	97
502.088	101
502.305	96
502.522	98
502.739	90
502.956	94
503.172	100
503.389	97
503.606	119
503.823	96
504.04	93
504.256	90
504.473	103
504.69	82
504.907	83
505.123	102
505.34	93
505.557	84
505.773	101
505.99	89
506.207	86
506.423	102
506.64	106
506.856	109
507.073	90
507.289	108
507.506	102
507.722	98
507.939	89
508.155	97
508.372	91
508.588	91
508.805	109
509.021	99
509.238	99
509.454	100
509.67	97
509.887	121
510.103	123
510.319	178
510.536	553
510.752	1557
510.968	453
511.184	135
511.401	112
511.617	92
511.833	88
512.049	84
512.265	88
512.481	87
512.698	101
512.914	94
513.13	93
513.346	98
513.562	87
513.778	112
513.994	97
514.21	112
514.426	113
514.642	123
514.858	118
515.074	142
515.29	309
515.506	930
515.721	357
515.937	129
516.153	101
516.369	85
516.585	97
516.801	86
517.016	94
517.232	97
517.448	93
517.664	97
517.879	100
518.095	97
518.311	95
518.527	96
518.742	97
518.958	113
519.173	111
519.389	87
519.605	112
519.82	102
520.036	104
520.251	107
520.467	119
520.682	118
520.898	107
521.113	101
521.329	107
521.544	150
521.76	386
521.975	1508
522.19	920
522.406	238
522.621	108
522.836	102
523.052	90
523.267	98
523.482	103
523.698	105
523.913	117
524.128	96
524.343	106
524.559	94
524.774	96
524.989	99
525.204	93
525.419	85
525.634	85
525.849	90
526.064	92
526.28	101
526.495	94
526.71	104
526.925	97
527.14	93
527.355	96
527.57	90
527.785	99
527.999	86
528.214	96
528.429	101
528.644	96
528.859	102
529.074	76
529.289	106
529.503	143
529.718	97
529.933	94
530.148	102
530.363	98
530.577	95
530.792	88
531.007	86
531.221	96
531.436	97
531.651	95
531.865	85
532.08	90
532.295	88
532.509	81
532.724	98
532.938	91
533.153	98
533.367	97
533.582	101
533.796	97
534.011	97
534.225	91
534.44	106
534.654	92
534.868	98
535.083	88
535.297	93
535.511	95
535.726	113
535.94	101
536.154	96
536.369	79
536.583	99
536.797	110
537.011	109
537.225	113
537.44	103
537.654	113
537.868	103
538.082	91
538.296	93
538.51	98
538.724	80
538.938	101
539.153	102
539.367	112
539.581	85
539.795	97
540.009	96
540.222	90
540.436	96
540.65	97
540.864	85
541.078	97
541.292	98
541.506	89
541.72	106
541.934	95
542.147	86
542.361	92
542.575	89
542.789	96
543.002	91
543.216	80
543.43	101
543.644	94
543.857	105
544.071	96
544.285	97
544.498	87
544.712	92
544.925	95
545.139	96
545.352	105
545.566	101
545.779	86
545.993	82
546.206	93
546.42	88
546.633	80
546.847	90
547.06	92
547.274	95
547.487	104
547.7	100
547.914	90
548.127	80
548.34	88
548.554	95
548.767	101
548.98	102
549.193	88
549.407	81
549.62	96
549.833	100
550.046	96
550.259	93
550.473	82
550.686	79
550.899	87
551.112	80
551.325	75
551.538	91
551.751	82
551.964	87
552.177	90
552.39	93
552.603	81
552.816	92
553.029	90
553.242	96
553.455	99
553.667	100
553.88	102
554.093	101
554.306	86
554.519	96
554.732	89
554.944	98
555.157	84
555.37	99
555.583	85
555.795	98
556.008	102
556.221	101
556.433	109
556.646	102
556.859	115
557.071	90
557.284	80
557.496	100
557.709	92
557.921	91
558.134	100
558.346	102
558.559	86
558.771	96
558.984	87
559.196	92
559.409	95
559.621	92
559.833	98
560.046	90
560.258	93
560.47	91
560.683	93
560.895	86
561.107	101
561.32	95
561.532	97
561.744	95
561.956	97
562.168	117
562.381	99
562.593	94
562.805	120
563.017	109
563.229	93
563.441	90
563.653	83
563.865	91
564.077	87
564.289	76
564.501	101
564.713	89
564.925	105
565.137	105
565.349	98
565.561	101
565.773	93
565.985	96
566.197	101
566.408	107
566.62	100
566.832	81
567.044	99
567.255	90
567.467	95
567.679	92
567.891	81
568.102	78
568.314	84
568.526	95
568.737	88
568.949	90
569.161	91
569.372	93
569.584	90
569.795	97
570.007	117
570.218	190
570.43	120
570.641	99
570.853	101
571.064	90
571.276	90
571.487	83
571.698	82
571.91	75
572.121	84
572.333	88
572.544	92
572.755	93
572.966	95
573.178	90
573.389	92
573.6	91
573.811	86
574.023	97
574.234	96
574.445	96
574.656	100
574.867	94
575.078	97
575.289	101
575.501	97
575.712	99
575.923	85
576.134	90
576.345	93
576.556	97
576.767	92
576.978	79
577.188	85
577.399	85
577.61	94
577.821	98
578.032	118
578.243	230
578.454	547
578.665	165
578.875	90
579.086	88
579.297	97
579.508	89
579.718	85
579.929	88
580.14	90
580.35	105
580.561	89
580.772	97
580.982	67
581.193	100
581.403	85
