Data from Uncirc_1999_H10_HRD10591_00038.txt Node
Date: Wed Jan 03 11:22:12 EST 2024
User: Yrep
Spectrometer: HR+D1059
Trigger mode: 1
Integration Time (sec): 1.000000E-1
Scans to average: 1
Electric dark correction enabled: true
Nonlinearity correction enabled: false
Boxcar width: 0
XAxis mode: Wavelengths
Number of Pixels in Spectrum: 2048
>>>>>Begin Spectral Data<<<<<
223.165	-8.31
223.4	-8.31
223.635	-8.31
223.869	-26.31
224.104	-31.31
224.338	-20.31
224.573	-28.31
224.808	-15.31
225.042	8.69
225.277	-2.31
225.511	7.69
225.746	9.69
225.98	16.69
226.215	15.69
226.449	1.69
226.683	13.69
226.918	28.69
227.152	29.69
227.387	37.69
227.621	46.69
227.856	46.69
228.09	28.69
228.324	49.69
228.559	47.69
228.793	62.69
229.027	76.69
229.262	66.69
229.496	56.69
229.73	84.69
229.964	84.69
230.199	81.69
230.433	74.69
230.667	84.69
230.901	77.69
231.136	69.69
231.37	63.69
231.604	87.69
231.838	83.69
232.072	79.69
232.306	73.69
232.541	68.69
232.775	68.69
233.009	71.69
233.243	82.69
233.477	80.69
233.711	95.69
233.945	74.69
234.179	83.69
234.413	73.69
234.647	93.69
234.881	77.69
235.115	81.69
235.349	78.69
235.583	77.69
235.817	76.69
236.051	71.69
236.285	77.69
236.519	85.69
236.753	86.69
236.987	89.69
237.221	79.69
237.455	79.69
237.689	80.69
237.922	72.69
238.156	72.69
238.39	89.69
238.624	53.69
238.858	83.69
239.091	86.69
239.325	85.69
239.559	78.69
239.793	88.69
240.027	65.69
240.26	76.69
240.494	70.69
240.728	74.69
240.961	96.69
241.195	77.69
241.429	78.69
241.662	65.69
241.896	75.69
242.13	79.69
242.363	80.69
242.597	67.69
242.83	64.69
243.064	86.69
243.298	69.69
243.531	73.69
243.765	80.69
243.998	76.69
244.232	71.69
244.465	76.69
244.699	89.69
244.932	83.69
245.166	81.69
245.399	74.69
245.633	72.69
245.866	71.69
246.099	85.69
246.333	75.69
246.566	72.69
246.8	72.69
247.033	86.69
247.266	83.69
247.5	88.69
247.733	82.69
247.966	72.69
248.2	59.69
248.433	77.69
248.666	75.69
248.899	83.69
249.133	85.69
249.366	91.69
249.599	80.69
249.832	95.69
250.066	100.69
250.299	83.69
250.532	89.69
250.765	90.69
250.998	77.69
251.231	74.69
251.465	75.69
251.698	77.69
251.931	83.69
252.164	69.69
252.397	76.69
252.63	89.69
252.863	69.69
253.096	78.69
253.329	93.69
253.562	75.69
253.795	72.69
254.028	91.69
254.261	85.69
254.494	85.69
254.727	94.69
254.96	73.69
255.193	70.69
255.426	81.69
255.659	80.69
255.892	86.69
256.124	71.69
256.357	79.69
256.59	88.69
256.823	95.69
257.056	78.69
257.289	80.69
257.521	74.69
257.754	87.69
257.987	89.69
258.22	79.69
258.452	85.69
258.685	68.69
258.918	80.69
259.151	83.69
259.383	79.69
259.616	84.69
259.849	85.69
260.081	73.69
260.314	62.69
260.547	91.69
260.779	77.69
261.012	85.69
261.244	94.69
261.477	95.69
261.71	93.69
261.942	90.69
262.175	111.69
262.407	82.69
262.64	90.69
262.872	81.69
263.105	87.69
263.337	91.69
263.57	96.69
263.802	76.69
264.035	71.69
264.267	71.69
264.499	83.69
264.732	99.69
264.964	85.69
265.197	77.69
265.429	80.69
265.661	83.69
265.894	80.69
266.126	74.69
266.358	80.69
266.591	69.69
266.823	70.69
267.055	83.69
267.287	79.69
267.52	92.69
267.752	86.69
267.984	101.69
268.216	87.69
268.448	78.69
268.681	79.69
268.913	87.69
269.145	84.69
269.377	90.69
269.609	85.69
269.841	84.69
270.073	79.69
270.306	82.69
270.538	83.69
270.77	83.69
271.002	86.69
271.234	82.69
271.466	83.69
271.698	82.69
271.93	82.69
272.162	87.69
272.394	86.69
272.626	88.69
272.858	89.69
273.09	80.69
273.322	99.69
273.553	82.69
273.785	80.69
274.017	83.69
274.249	95.69
274.481	89.69
274.713	90.69
274.945	93.69
275.176	92.69
275.408	94.69
275.64	84.69
275.872	95.69
276.104	75.69
276.335	77.69
276.567	70.69
276.799	97.69
277.031	98.69
277.262	92.69
277.494	86.69
277.726	86.69
277.957	85.69
278.189	96.69
278.421	78.69
278.652	87.69
278.884	84.69
279.115	84.69
279.347	64.69
279.579	86.69
279.81	85.69
280.042	87.69
280.273	76.69
280.505	79.69
280.736	77.69
280.968	89.69
281.199	81.69
281.431	82.69
281.662	87.69
281.894	81.69
282.125	95.69
282.356	98.69
282.588	128.69
282.819	99.69
283.051	79.69
283.282	72.69
283.513	104.69
283.745	73.69
283.976	96.69
284.207	92.69
284.439	101.69
284.67	92.69
284.901	77.69
285.132	79.69
285.364	83.69
285.595	80.69
285.826	89.69
286.057	95.69
286.288	105.69
286.52	84.69
286.751	80.69
286.982	93.69
287.213	90.69
287.444	101.69
287.675	88.69
287.906	79.69
288.138	89.69
288.369	97.69
288.6	91.69
288.831	94.69
289.062	86.69
289.293	78.69
289.524	84.69
289.755	79.69
289.986	78.69
290.217	91.69
290.448	91.69
290.679	86.69
290.91	91.69
291.141	78.69
291.371	92.69
291.602	85.69
291.833	86.69
292.064	89.69
292.295	88.69
292.526	80.69
292.757	77.69
292.987	86.69
293.218	97.69
293.449	93.69
293.68	87.69
293.91	93.69
294.141	92.69
294.372	83.69
294.603	88.69
294.833	83.69
295.064	97.69
295.295	83.69
295.525	74.69
295.756	101.69
295.987	97.69
296.217	120.69
296.448	120.69
296.679	88.69
296.909	90.69
297.14	87.69
297.37	93.69
297.601	76.69
297.831	87.69
298.062	100.69
298.292	96.69
298.523	81.69
298.753	80.69
298.984	80.69
299.214	79.69
299.445	84.69
299.675	89.69
299.905	86.69
300.136	80.69
300.366	82.69
300.597	81.69
300.827	75.69
301.057	97.69
301.288	108.69
301.518	90.69
301.748	91.69
301.979	95.69
302.209	88.69
302.439	74.69
302.669	94.69
302.9	98.69
303.13	88.69
303.36	96.69
303.59	99.69
303.82	93.69
304.051	95.69
304.281	99.69
304.511	84.69
304.741	83.69
304.971	86.69
305.201	85.69
305.431	86.69
305.661	84.69
305.891	115.69
306.121	94.69
306.352	116.69
306.582	110.69
306.812	97.69
307.042	85.69
307.272	93.69
307.502	91.69
307.731	108.69
307.961	94.69
308.191	88.69
308.421	83.69
308.651	89.69
308.881	75.69
309.111	92.69
309.341	96.69
309.571	107.69
309.8	104.69
310.03	110.69
310.26	104.69
310.49	100.69
310.72	83.69
310.949	99.69
311.179	91.69
311.409	94.69
311.639	91.69
311.868	85.69
312.098	97.69
312.328	92.69
312.557	88.69
312.787	91.69
313.017	87.69
313.246	83.69
313.476	91.69
313.706	95.69
313.935	102.69
314.165	94.69
314.394	99.69
314.624	91.69
314.853	99.69
315.083	87.69
315.312	91.69
315.542	96.69
315.771	85.69
316.001	92.69
316.23	87.69
316.46	91.69
316.689	93.69
316.919	79.69
317.148	91.69
317.377	100.69
317.607	105.69
317.836	91.69
318.065	100.69
318.295	91.69
318.524	83.69
318.753	83.69
318.983	93.69
319.212	102.69
319.441	119.69
319.67	115.69
319.9	105.69
320.129	91.69
320.358	105.69
320.587	95.69
320.816	91.69
321.046	95.69
321.275	92.69
321.504	88.69
321.733	109.69
321.962	95.69
322.191	104.69
322.42	119.69
322.649	101.69
322.878	101.69
323.108	120.69
323.337	106.69
323.566	105.69
323.795	132.69
324.024	214.69
324.253	377.69
324.482	817.69
324.71	1698.69
324.939	2201.69
325.168	795.69
325.397	239.69
325.626	131.69
325.855	118.69
326.084	140.69
326.313	136.69
326.542	161.69
326.77	227.69
326.999	451.69
327.228	952.69
327.457	1691.69
327.686	1342.69
327.914	379.69
328.143	179.69
328.372	137.69
328.6	119.69
328.829	107.69
329.058	101.69
329.287	115.69
329.515	104.69
329.744	85.69
329.972	97.69
330.201	104.69
330.43	111.69
330.658	121.69
330.887	141.69
331.115	110.69
331.344	97.69
331.572	99.69
331.801	90.69
332.03	94.69
332.258	104.69
332.486	97.69
332.715	91.69
332.943	100.69
333.172	101.69
333.4	84.69
333.629	89.69
333.857	100.69
334.085	105.69
334.314	109.69
334.542	110.69
334.771	118.69
334.999	108.69
335.227	91.69
335.455	97.69
335.684	89.69
335.912	87.69
336.14	103.69
336.369	116.69
336.597	90.69
336.825	88.69
337.053	85.69
337.281	89.69
337.51	87.69
337.738	82.69
337.966	89.69
338.194	99.69
338.422	92.69
338.65	96.69
338.878	104.69
339.106	104.69
339.334	99.69
339.562	78.69
339.79	103.69
340.018	97.69
340.246	97.69
340.474	88.69
340.702	100.69
340.93	79.69
341.158	99.69
341.386	109.69
341.614	97.69
341.842	81.69
342.07	97.69
342.298	89.69
342.526	84.69
342.754	84.69
342.981	94.69
343.209	95.69
343.437	87.69
343.665	92.69
343.893	89.69
344.12	89.69
344.348	94.69
344.576	83.69
344.804	89.69
345.031	80.69
345.259	102.69
345.487	87.69
345.714	97.69
345.942	96.69
346.17	97.69
346.397	89.69
346.625	80.69
346.853	90.69
347.08	95.69
347.308	84.69
347.535	94.69
347.763	105.69
347.99	103.69
348.218	98.69
348.445	101.69
348.673	100.69
348.9	93.69
349.128	86.69
349.355	83.69
349.583	72.69
349.81	91.69
350.037	94.69
350.265	96.69
350.492	91.69
350.72	77.69
350.947	86.69
351.174	96.69
351.402	102.69
351.629	106.69
351.856	112.69
352.083	111.69
352.311	96.69
352.538	109.69
352.765	109.69
352.992	107.69
353.22	112.69
353.447	98.69
353.674	117.69
353.901	101.69
354.128	105.69
354.355	91.69
354.583	98.69
354.81	94.69
355.037	107.69
355.264	101.69
355.491	92.69
355.718	89.69
355.945	85.69
356.172	108.69
356.399	91.69
356.626	99.69
356.853	91.69
357.08	95.69
357.307	104.69
357.534	85.69
357.761	79.69
357.988	111.69
358.215	111.69
358.441	91.69
358.668	88.69
358.895	95.69
359.122	90.69
359.349	75.69
359.576	82.69
359.802	91.69
360.029	104.69
360.256	94.69
360.483	103.69
360.709	92.69
360.936	81.69
361.163	90.69
361.39	91.69
361.616	100.69
361.843	84.69
362.07	88.69
362.296	93.69
362.523	92.69
362.749	91.69
362.976	82.69
363.203	96.69
363.429	89.69
363.656	96.69
363.882	81.69
364.109	91.69
364.335	80.69
364.562	77.69
364.788	82.69
365.015	94.69
365.241	101.69
365.468	108.69
365.694	106.69
365.92	77.69
366.147	89.69
366.373	96.69
366.599	94.69
366.826	78.69
367.052	83.69
367.278	80.69
367.505	95.69
367.731	100.69
367.957	83.69
368.184	96.69
368.41	108.69
368.636	112.69
368.862	112.69
369.089	99.69
369.315	91.69
369.541	102.69
369.767	93.69
369.993	93.69
370.219	98.69
370.445	87.69
370.672	85.69
370.898	81.69
371.124	87.69
371.35	96.69
371.576	93.69
371.802	86.69
372.028	94.69
372.254	91.69
372.48	81.69
372.706	81.69
372.932	77.69
373.158	79.69
373.384	95.69
373.61	97.69
373.835	95.69
374.061	90.69
374.287	93.69
374.513	90.69
374.739	96.69
374.965	82.69
375.191	93.69
375.416	88.69
375.642	85.69
375.868	88.69
376.094	101.69
376.319	85.69
376.545	96.69
376.771	74.69
376.997	91.69
377.222	94.69
377.448	89.69
377.674	90.69
377.899	91.69
378.125	90.69
378.35	97.69
378.576	96.69
378.802	100.69
379.027	87.69
379.253	94.69
379.478	97.69
379.704	84.69
379.929	91.69
380.155	87.69
380.38	89.69
380.606	76.69
380.831	102.69
381.057	91.69
381.282	106.69
381.507	99.69
381.733	97.69
381.958	94.69
382.184	95.69
382.409	113.69
382.634	96.69
382.86	100.69
383.085	95.69
383.31	107.69
383.535	108.69
383.761	110.69
383.986	102.69
384.211	106.69
384.436	103.69
384.662	111.69
384.887	101.69
385.112	108.69
385.337	104.69
385.562	103.69
385.787	98.69
386.013	104.69
386.238	122.69
386.463	95.69
386.688	112.69
386.913	95.69
387.138	108.69
387.363	103.69
387.588	107.69
387.813	94.69
388.038	112.69
388.263	113.69
388.488	105.69
388.713	106.69
388.938	101.69
389.163	104.69
389.387	104.69
389.612	90.69
389.837	88.69
390.062	98.69
390.287	97.69
390.512	91.69
390.736	79.69
390.961	82.69
391.186	103.69
391.411	103.69
391.636	91.69
391.86	75.69
392.085	81.69
392.31	71.69
392.534	85.69
392.759	91.69
392.984	79.69
393.208	84.69
393.433	83.69
393.658	89.69
393.882	107.69
394.107	79.69
394.331	81.69
394.556	84.69
394.78	83.69
395.005	86.69
395.229	104.69
395.454	84.69
395.678	94.69
395.903	87.69
396.127	87.69
396.352	90.69
396.576	71.69
396.801	80.69
397.025	78.69
397.249	83.69
397.474	104.69
397.698	91.69
397.922	94.69
398.147	92.69
398.371	87.69
398.595	83.69
398.82	76.69
399.044	88.69
399.268	93.69
399.492	87.69
399.717	97.69
399.941	96.69
400.165	100.69
400.389	98.69
400.613	91.69
400.837	84.69
401.062	85.69
401.286	79.69
401.51	101.69
401.734	83.69
401.958	103.69
402.182	107.69
402.406	151.69
402.63	116.69
402.854	84.69
403.078	93.69
403.302	92.69
403.526	87.69
403.75	87.69
403.974	75.69
404.198	95.69
404.422	75.69
404.645	80.69
404.869	92.69
405.093	95.69
405.317	101.69
405.541	85.69
405.765	85.69
405.988	120.69
406.212	150.69
406.436	202.69
406.66	115.69
406.883	98.69
407.107	89.69
407.331	93.69
407.555	75.69
407.778	95.69
408.002	93.69
408.226	83.69
408.449	87.69
408.673	87.69
408.896	103.69
409.12	93.69
409.344	96.69
409.567	85.69
409.791	95.69
410.014	77.69
410.238	85.69
410.461	116.69
410.685	96.69
410.908	93.69
411.132	104.69
411.355	90.69
411.578	87.69
411.802	72.69
412.025	89.69
412.249	82.69
412.472	97.69
412.695	93.69
412.919	92.69
413.142	94.69
413.365	100.69
413.589	88.69
413.812	91.69
414.035	96.69
414.258	89.69
414.482	92.69
414.705	80.69
414.928	81.69
415.151	96.69
415.374	98.69
415.597	89.69
415.821	93.69
416.044	84.69
416.267	87.69
416.49	95.69
416.713	87.69
416.936	96.69
417.159	99.69
417.382	95.69
417.605	88.69
417.828	91.69
418.051	81.69
418.274	81.69
418.497	110.69
418.72	95.69
418.943	102.69
419.166	96.69
419.389	88.69
419.611	91.69
419.834	90.69
420.057	84.69
420.28	91.69
420.503	94.69
420.726	86.69
420.948	81.69
421.171	86.69
421.394	94.69
421.617	86.69
421.839	93.69
422.062	84.69
422.285	103.69
422.507	99.69
422.73	101.69
422.953	98.69
423.175	91.69
423.398	81.69
423.621	103.69
423.843	94.69
424.066	91.69
424.288	88.69
424.511	96.69
424.733	91.69
424.956	96.69
425.178	95.69
425.401	97.69
425.623	95.69
425.846	83.69
426.068	73.69
426.291	90.69
426.513	103.69
426.735	81.69
426.958	94.69
427.18	103.69
427.402	119.69
427.625	135.69
427.847	127.69
428.069	96.69
428.292	92.69
428.514	72.69
428.736	79.69
428.958	85.69
429.181	74.69
429.403	67.69
429.625	81.69
429.847	99.69
430.069	95.69
430.292	94.69
430.514	84.69
430.736	75.69
430.958	78.69
431.18	72.69
431.402	79.69
431.624	73.69
431.846	87.69
432.068	85.69
432.29	94.69
432.512	84.69
432.734	74.69
432.956	85.69
433.178	84.69
433.4	93.69
433.622	77.69
433.844	98.69
434.066	94.69
434.287	79.69
434.509	97.69
434.731	90.69
434.953	84.69
435.175	81.69
435.397	92.69
435.618	85.69
435.84	96.69
436.062	123.69
436.284	125.69
436.505	92.69
436.727	104.69
436.949	84.69
437.17	86.69
437.392	89.69
437.614	105.69
437.835	107.69
438.057	107.69
438.278	94.69
438.5	95.69
438.721	109.69
438.943	94.69
439.165	86.69
439.386	95.69
439.608	88.69
439.829	109.69
440.05	116.69
440.272	133.69
440.493	102.69
440.715	94.69
440.936	80.69
441.158	97.69
441.379	89.69
441.6	96.69
441.822	81.69
442.043	92.69
442.264	101.69
442.486	102.69
442.707	94.69
442.928	103.69
443.149	121.69
443.371	116.69
443.592	106.69
443.813	109.69
444.034	88.69
444.255	79.69
444.476	84.69
444.698	70.69
444.919	90.69
445.14	139.69
445.361	111.69
445.582	109.69
445.803	125.69
446.024	112.69
446.245	122.69
446.466	104.69
446.687	91.69
446.908	64.69
447.129	85.69
447.35	95.69
447.571	86.69
447.792	87.69
448.013	77.69
448.234	111.69
448.455	92.69
448.675	103.69
448.896	106.69
449.117	87.69
449.338	97.69
449.559	118.69
449.779	123.69
450	93.69
450.221	91.69
450.442	79.69
450.662	96.69
450.883	98.69
451.104	106.69
451.324	106.69
451.545	93.69
451.766	76.69
451.986	78.69
452.207	89.69
452.428	83.69
452.648	106.69
452.869	115.69
453.089	106.69
453.31	111.69
453.53	88.69
453.751	88.69
453.971	97.69
454.192	100.69
454.412	86.69
454.633	80.69
454.853	87.69
455.073	86.69
455.294	96.69
455.514	103.69
455.734	82.69
455.955	84.69
456.175	87.69
456.395	87.69
456.616	98.69
456.836	93.69
457.056	77.69
457.276	76.69
457.497	74.69
457.717	87.69
457.937	83.69
458.157	90.69
458.377	92.69
458.598	103.69
458.818	109.69
459.038	135.69
459.258	96.69
459.478	101.69
459.698	88.69
459.918	96.69
460.138	86.69
460.358	77.69
460.578	76.69
460.798	96.69
461.018	91.69
461.238	99.69
461.458	95.69
461.678	82.69
461.898	73.69
462.118	99.69
462.338	94.69
462.558	87.69
462.777	89.69
462.997	78.69
463.217	100.69
463.437	91.69
463.657	60.69
463.876	91.69
464.096	99.69
464.316	92.69
464.536	110.69
464.755	92.69
464.975	98.69
465.195	148.69
465.414	133.69
465.634	88.69
465.854	93.69
466.073	82.69
466.293	85.69
466.512	83.69
466.732	91.69
466.951	90.69
467.171	89.69
467.391	102.69
467.61	97.69
467.829	87.69
468.049	93.69
468.268	92.69
468.488	91.69
468.707	91.69
468.927	72.69
469.146	98.69
469.365	86.69
469.585	85.69
469.804	99.69
470.023	77.69
470.243	84.69
470.462	95.69
470.681	102.69
470.901	86.69
471.12	85.69
471.339	76.69
471.558	73.69
471.777	70.69
471.997	75.69
472.216	95.69
472.435	99.69
472.654	99.69
472.873	81.69
473.092	75.69
473.311	69.69
473.53	84.69
473.749	88.69
473.968	97.69
474.187	85.69
474.406	103.69
474.625	92.69
474.844	95.69
475.063	93.69
475.282	79.69
475.501	85.69
475.72	75.69
475.939	79.69
476.158	91.69
476.377	95.69
476.596	95.69
476.814	108.69
477.033	95.69
477.252	78.69
477.471	88.69
477.69	91.69
477.908	80.69
478.127	99.69
478.346	94.69
478.564	78.69
478.783	84.69
479.002	99.69
479.22	80.69
479.439	92.69
479.658	88.69
479.876	83.69
480.095	83.69
480.313	80.69
480.532	92.69
480.751	92.69
480.969	100.69
481.188	121.69
481.406	116.69
481.624	86.69
481.843	77.69
482.061	89.69
482.28	88.69
482.498	96.69
482.717	102.69
482.935	95.69
483.153	82.69
483.372	86.69
483.59	87.69
483.808	100.69
484.027	96.69
484.245	103.69
484.463	104.69
484.681	112.69
484.9	96.69
485.118	95.69
485.336	89.69
485.554	107.69
485.772	101.69
485.99	109.69
486.209	91.69
486.427	94.69
486.645	103.69
486.863	118.69
487.081	94.69
487.299	104.69
487.517	107.69
487.735	102.69
487.953	90.69
488.171	93.69
488.389	83.69
488.607	100.69
488.825	89.69
489.043	92.69
489.261	100.69
489.479	80.69
489.696	102.69
489.914	94.69
490.132	79.69
490.35	92.69
490.568	93.69
490.786	83.69
491.003	82.69
491.221	98.69
491.439	79.69
491.657	90.69
491.874	99.69
492.092	93.69
492.31	97.69
492.527	79.69
492.745	73.69
492.963	92.69
493.18	90.69
493.398	97.69
493.615	116.69
493.833	80.69
494.05	100.69
494.268	104.69
494.485	85.69
494.703	99.69
494.92	85.69
495.138	74.69
495.355	90.69
495.573	83.69
495.79	86.69
496.008	83.69
496.225	91.69
496.442	94.69
496.66	92.69
496.877	82.69
497.094	67.69
497.312	95.69
497.529	87.69
497.746	83.69
497.963	100.69
498.181	104.69
498.398	80.69
498.615	108.69
498.832	104.69
499.049	106.69
499.267	84.69
499.484	81.69
499.701	90.69
499.918	91.69
500.135	87.69
500.352	85.69
500.569	97.69
500.786	104.69
501.003	103.69
501.22	97.69
501.437	95.69
501.654	103.69
501.871	116.69
502.088	99.69
502.305	92.69
502.522	96.69
502.739	88.69
502.956	102.69
503.172	86.69
503.389	90.69
503.606	90.69
503.823	93.69
504.04	83.69
504.256	95.69
504.473	96.69
504.69	91.69
504.907	95.69
505.123	93.69
505.34	95.69
505.557	78.69
505.773	88.69
505.99	83.69
506.207	86.69
506.423	87.69
506.64	101.69
506.856	92.69
507.073	84.69
507.289	90.69
507.506	97.69
507.722	112.69
507.939	116.69
508.155	85.69
508.372	91.69
508.588	78.69
508.805	99.69
509.021	86.69
509.238	89.69
509.454	96.69
509.67	96.69
509.887	118.69
510.103	113.69
510.319	198.69
510.536	667.69
510.752	2103.69
510.968	589.69
511.184	155.69
511.401	109.69
511.617	93.69
511.833	82.69
512.049	89.69
512.265	89.69
512.481	94.69
512.698	92.69
512.914	85.69
513.13	95.69
513.346	103.69
513.562	95.69
513.778	92.69
513.994	95.69
514.21	90.69
514.426	113.69
514.642	119.69
514.858	115.69
515.074	161.69
515.29	368.69
515.506	1231.69
515.721	437.69
515.937	149.69
516.153	111.69
