Data from Uncirc_1999_H10_HRD10591_00095.txt Node
Date: Wed Jan 03 11:22:24 EST 2024
User: Yrep
Spectrometer: HR+D1059
Trigger mode: 1
Integration Time (sec): 1.000000E-1
Scans to average: 1
Electric dark correction enabled: true
Nonlinearity correction enabled: false
Boxcar width: 0
XAxis mode: Wavelengths
Number of Pixels in Spectrum: 2048
>>>>>Begin Spectral Data<<<<<
223.165	-17.19
223.4	-17.19
223.635	-17.19
223.869	-11.19
224.104	-10.19
224.338	-15.19
224.573	-21.19
224.808	-6.19
225.042	-14.19
225.277	-5.19
225.511	-0.19
225.746	4.81
225.98	17.81
226.215	-5.19
226.449	21.81
226.683	17.81
226.918	19.81
227.152	23.81
227.387	38.81
227.621	34.81
227.856	53.81
228.09	52.81
228.324	57.81
228.559	70.81
228.793	74.81
229.027	66.81
229.262	70.81
229.496	65.81
229.73	81.81
229.964	74.81
230.199	75.81
230.433	61.81
230.667	75.81
230.901	71.81
231.136	85.81
231.37	73.81
231.604	73.81
231.838	77.81
232.072	87.81
232.306	84.81
232.541	81.81
232.775	101.81
233.009	88.81
233.243	88.81
233.477	77.81
233.711	74.81
233.945	86.81
234.179	71.81
234.413	89.81
234.647	63.81
234.881	82.81
235.115	75.81
235.349	65.81
235.583	77.81
235.817	66.81
236.051	65.81
236.285	79.81
236.519	76.81
236.753	68.81
236.987	80.81
237.221	82.81
237.455	82.81
237.689	70.81
237.922	79.81
238.156	88.81
238.39	83.81
238.624	78.81
238.858	99.81
239.091	84.81
239.325	76.81
239.559	78.81
239.793	87.81
240.027	78.81
240.26	73.81
240.494	73.81
240.728	68.81
240.961	87.81
241.195	81.81
241.429	70.81
241.662	62.81
241.896	89.81
242.13	76.81
242.363	81.81
242.597	72.81
242.83	76.81
243.064	75.81
243.298	73.81
243.531	65.81
243.765	78.81
243.998	75.81
244.232	77.81
244.465	79.81
244.699	75.81
244.932	72.81
245.166	88.81
245.399	77.81
245.633	79.81
245.866	78.81
246.099	72.81
246.333	65.81
246.566	67.81
246.8	85.81
247.033	71.81
247.266	72.81
247.5	75.81
247.733	79.81
247.966	78.81
248.2	91.81
248.433	74.81
248.666	80.81
248.899	71.81
249.133	79.81
249.366	103.81
249.599	94.81
249.832	79.81
250.066	82.81
250.299	84.81
250.532	93.81
250.765	81.81
250.998	71.81
251.231	81.81
251.465	70.81
251.698	79.81
251.931	84.81
252.164	85.81
252.397	84.81
252.63	78.81
252.863	77.81
253.096	83.81
253.329	79.81
253.562	87.81
253.795	68.81
254.028	68.81
254.261	89.81
254.494	79.81
254.727	78.81
254.96	73.81
255.193	80.81
255.426	73.81
255.659	81.81
255.892	81.81
256.124	78.81
256.357	74.81
256.59	92.81
256.823	82.81
257.056	79.81
257.289	77.81
257.521	89.81
257.754	66.81
257.987	77.81
258.22	88.81
258.452	72.81
258.685	71.81
258.918	79.81
259.151	72.81
259.383	84.81
259.616	74.81
259.849	82.81
260.081	64.81
260.314	69.81
260.547	77.81
260.779	79.81
261.012	98.81
261.244	81.81
261.477	72.81
261.71	80.81
261.942	108.81
262.175	115.81
262.407	83.81
262.64	72.81
262.872	79.81
263.105	75.81
263.337	89.81
263.57	79.81
263.802	88.81
264.035	75.81
264.267	79.81
264.499	87.81
264.732	84.81
264.964	76.81
265.197	86.81
265.429	83.81
265.661	66.81
265.894	85.81
266.126	76.81
266.358	87.81
266.591	87.81
266.823	77.81
267.055	97.81
267.287	74.81
267.52	91.81
267.752	87.81
267.984	87.81
268.216	75.81
268.448	92.81
268.681	78.81
268.913	99.81
269.145	87.81
269.377	91.81
269.609	87.81
269.841	84.81
270.073	91.81
270.306	84.81
270.538	83.81
270.77	80.81
271.002	85.81
271.234	73.81
271.466	72.81
271.698	81.81
271.93	86.81
272.162	71.81
272.394	87.81
272.626	77.81
272.858	77.81
273.09	78.81
273.322	83.81
273.553	83.81
273.785	91.81
274.017	78.81
274.249	72.81
274.481	94.81
274.713	76.81
274.945	93.81
275.176	95.81
275.408	85.81
275.64	83.81
275.872	84.81
276.104	84.81
276.335	75.81
276.567	105.81
276.799	119.81
277.031	92.81
277.262	83.81
277.494	81.81
277.726	72.81
277.957	79.81
278.189	89.81
278.421	85.81
278.652	89.81
278.884	88.81
279.115	87.81
279.347	85.81
279.579	77.81
279.81	83.81
280.042	87.81
280.273	87.81
280.505	83.81
280.736	88.81
280.968	97.81
281.199	93.81
281.431	85.81
281.662	94.81
281.894	83.81
282.125	87.81
282.356	113.81
282.588	134.81
282.819	107.81
283.051	107.81
283.282	69.81
283.513	87.81
283.745	83.81
283.976	70.81
284.207	87.81
284.439	85.81
284.67	74.81
284.901	97.81
285.132	91.81
285.364	87.81
285.595	91.81
285.826	89.81
286.057	84.81
286.288	91.81
286.52	85.81
286.751	75.81
286.982	85.81
287.213	90.81
287.444	87.81
287.675	86.81
287.906	80.81
288.138	98.81
288.369	78.81
288.6	91.81
288.831	92.81
289.062	82.81
289.293	78.81
289.524	90.81
289.755	74.81
289.986	76.81
290.217	96.81
290.448	77.81
290.679	85.81
290.91	85.81
291.141	92.81
291.371	92.81
291.602	88.81
291.833	95.81
292.064	94.81
292.295	86.81
292.526	87.81
292.757	94.81
292.987	95.81
293.218	88.81
293.449	95.81
293.68	81.81
293.91	82.81
294.141	78.81
294.372	86.81
294.603	82.81
294.833	77.81
295.064	77.81
295.295	95.81
295.525	85.81
295.756	95.81
295.987	98.81
296.217	127.81
296.448	110.81
296.679	95.81
296.909	89.81
297.14	81.81
297.37	87.81
297.601	97.81
297.831	94.81
298.062	97.81
298.292	90.81
298.523	85.81
298.753	78.81
298.984	79.81
299.214	80.81
299.445	97.81
299.675	98.81
299.905	82.81
300.136	74.81
300.366	79.81
300.597	80.81
300.827	89.81
301.057	91.81
301.288	84.81
301.518	101.81
301.748	95.81
301.979	96.81
302.209	88.81
302.439	95.81
302.669	94.81
302.9	79.81
303.13	90.81
303.36	84.81
303.59	90.81
303.82	84.81
304.051	89.81
304.281	82.81
304.511	95.81
304.741	79.81
304.971	96.81
305.201	94.81
305.431	79.81
305.661	89.81
305.891	89.81
306.121	99.81
306.352	91.81
306.582	101.81
306.812	87.81
307.042	88.81
307.272	87.81
307.502	89.81
307.731	86.81
307.961	103.81
308.191	113.81
308.421	80.81
308.651	93.81
308.881	88.81
309.111	90.81
309.341	94.81
309.571	112.81
309.8	89.81
310.03	87.81
310.26	92.81
310.49	95.81
310.72	97.81
310.949	94.81
311.179	95.81
311.409	87.81
311.639	92.81
311.868	91.81
312.098	94.81
312.328	89.81
312.557	97.81
312.787	95.81
313.017	93.81
313.246	92.81
313.476	104.81
313.706	98.81
313.935	87.81
314.165	98.81
314.394	100.81
314.624	97.81
314.853	85.81
315.083	92.81
315.312	90.81
315.542	98.81
315.771	88.81
316.001	99.81
316.23	88.81
316.46	98.81
316.689	85.81
316.919	95.81
317.148	87.81
317.377	98.81
317.607	88.81
317.836	99.81
318.065	86.81
318.295	70.81
318.524	89.81
318.753	85.81
318.983	97.81
319.212	115.81
319.441	106.81
319.67	103.81
319.9	113.81
320.129	100.81
320.358	87.81
320.587	82.81
320.816	109.81
321.046	97.81
321.275	96.81
321.504	111.81
321.733	92.81
321.962	103.81
322.191	88.81
322.42	98.81
322.649	104.81
322.878	110.81
323.108	107.81
323.337	110.81
323.566	136.81
323.795	161.81
324.024	214.81
324.253	406.81
324.482	870.81
324.71	1779.81
324.939	2336.81
325.168	811.81
325.397	243.81
325.626	155.81
325.855	133.81
326.084	134.81
326.313	140.81
326.542	164.81
326.77	245.81
326.999	489.81
327.228	999.81
327.457	1791.81
327.686	1402.81
327.914	368.81
328.143	178.81
328.372	128.81
328.6	124.81
328.829	93.81
329.058	126.81
329.287	137.81
329.515	103.81
329.744	97.81
329.972	110.81
330.201	103.81
330.43	119.81
330.658	100.81
330.887	136.81
331.115	126.81
331.344	101.81
331.572	93.81
331.801	102.81
332.03	100.81
332.258	93.81
332.486	95.81
332.715	94.81
332.943	95.81
333.172	87.81
333.4	92.81
333.629	94.81
333.857	107.81
334.085	107.81
334.314	95.81
334.542	95.81
334.771	105.81
334.999	96.81
335.227	98.81
335.455	93.81
335.684	93.81
335.912	88.81
336.14	84.81
336.369	81.81
336.597	91.81
336.825	96.81
337.053	99.81
337.281	87.81
337.51	96.81
337.738	92.81
337.966	90.81
338.194	99.81
338.422	91.81
338.65	91.81
338.878	91.81
339.106	83.81
339.334	95.81
339.562	92.81
339.79	83.81
340.018	104.81
340.246	80.81
340.474	91.81
340.702	87.81
340.93	88.81
341.158	92.81
341.386	96.81
341.614	92.81
341.842	96.81
342.07	83.81
342.298	84.81
342.526	88.81
342.754	99.81
342.981	98.81
343.209	103.81
343.437	101.81
343.665	85.81
343.893	87.81
344.12	98.81
344.348	96.81
344.576	93.81
344.804	92.81
345.031	94.81
345.259	87.81
345.487	95.81
345.714	92.81
345.942	89.81
346.17	101.81
346.397	78.81
346.625	89.81
346.853	101.81
347.08	89.81
347.308	94.81
347.535	85.81
347.763	92.81
347.99	108.81
348.218	103.81
348.445	93.81
348.673	81.81
348.9	95.81
349.128	85.81
349.355	95.81
349.583	83.81
349.81	87.81
350.037	95.81
350.265	91.81
350.492	105.81
350.72	93.81
350.947	104.81
351.174	110.81
351.402	112.81
351.629	96.81
351.856	109.81
352.083	100.81
352.311	104.81
352.538	101.81
352.765	109.81
352.992	122.81
353.22	114.81
353.447	88.81
353.674	89.81
353.901	84.81
354.128	107.81
354.355	87.81
354.583	83.81
354.81	89.81
355.037	114.81
355.264	97.81
355.491	109.81
355.718	80.81
355.945	105.81
356.172	97.81
356.399	90.81
356.626	97.81
356.853	99.81
357.08	83.81
357.307	85.81
357.534	95.81
357.761	94.81
357.988	100.81
358.215	94.81
358.441	90.81
358.668	74.81
358.895	92.81
359.122	78.81
359.349	98.81
359.576	87.81
359.802	84.81
360.029	99.81
360.256	95.81
360.483	87.81
360.709	86.81
360.936	105.81
361.163	106.81
361.39	87.81
361.616	89.81
361.843	90.81
362.07	90.81
362.296	97.81
362.523	103.81
362.749	86.81
362.976	97.81
363.203	73.81
363.429	83.81
363.656	94.81
363.882	77.81
364.109	88.81
364.335	94.81
364.562	79.81
364.788	88.81
365.015	98.81
365.241	107.81
365.468	96.81
365.694	100.81
365.92	91.81
366.147	72.81
366.373	87.81
366.599	91.81
366.826	69.81
367.052	94.81
367.278	95.81
367.505	75.81
367.731	79.81
367.957	88.81
368.184	86.81
368.41	101.81
368.636	101.81
368.862	110.81
369.089	106.81
369.315	93.81
369.541	94.81
369.767	89.81
369.993	84.81
370.219	72.81
370.445	78.81
370.672	86.81
370.898	83.81
371.124	75.81
371.35	81.81
371.576	81.81
371.802	93.81
372.028	103.81
372.254	79.81
372.48	78.81
372.706	82.81
372.932	86.81
373.158	87.81
373.384	93.81
373.61	89.81
373.835	92.81
374.061	88.81
374.287	89.81
374.513	108.81
374.739	91.81
374.965	91.81
375.191	96.81
375.416	104.81
375.642	77.81
375.868	85.81
376.094	95.81
376.319	88.81
376.545	87.81
376.771	94.81
376.997	113.81
377.222	81.81
377.448	80.81
377.674	86.81
377.899	80.81
378.125	92.81
378.35	90.81
378.576	89.81
378.802	91.81
379.027	100.81
379.253	101.81
379.478	81.81
379.704	84.81
379.929	85.81
380.155	97.81
380.38	99.81
380.606	90.81
380.831	93.81
381.057	90.81
381.282	98.81
381.507	86.81
381.733	96.81
381.958	95.81
382.184	94.81
382.409	92.81
382.634	115.81
382.86	102.81
383.085	91.81
383.31	82.81
383.535	97.81
383.761	100.81
383.986	80.81
384.211	79.81
384.436	106.81
384.662	92.81
384.887	80.81
385.112	103.81
385.337	116.81
385.562	100.81
385.787	91.81
386.013	108.81
386.238	105.81
386.463	107.81
386.688	106.81
386.913	110.81
387.138	108.81
387.363	104.81
387.588	105.81
387.813	102.81
388.038	107.81
388.263	114.81
388.488	123.81
388.713	95.81
388.938	94.81
389.163	102.81
389.387	96.81
389.612	87.81
389.837	92.81
390.062	96.81
390.287	100.81
390.512	105.81
390.736	94.81
390.961	89.81
391.186	92.81
391.411	96.81
391.636	75.81
391.86	79.81
392.085	88.81
392.31	89.81
392.534	94.81
392.759	94.81
392.984	95.81
393.208	88.81
393.433	81.81
393.658	86.81
393.882	82.81
394.107	83.81
394.331	95.81
394.556	80.81
394.78	102.81
395.005	88.81
395.229	99.81
395.454	87.81
395.678	88.81
395.903	94.81
396.127	97.81
396.352	89.81
396.576	76.81
396.801	87.81
397.025	83.81
397.249	94.81
397.474	94.81
397.698	75.81
397.922	95.81
398.147	104.81
398.371	87.81
398.595	86.81
398.82	95.81
399.044	73.81
399.268	87.81
399.492	101.81
399.717	92.81
399.941	83.81
400.165	89.81
400.389	97.81
400.613	100.81
400.837	100.81
401.062	80.81
401.286	93.81
401.51	94.81
401.734	87.81
401.958	105.81
402.182	129.81
402.406	142.81
402.63	111.81
402.854	83.81
403.078	98.81
403.302	93.81
403.526	85.81
403.75	84.81
403.974	86.81
404.198	86.81
404.422	81.81
404.645	96.81
404.869	91.81
405.093	77.81
405.317	100.81
405.541	89.81
405.765	98.81
405.988	110.81
406.212	160.81
406.436	184.81
406.66	127.81
406.883	92.81
407.107	94.81
407.331	96.81
407.555	95.81
407.778	101.81
408.002	74.81
408.226	87.81
408.449	87.81
408.673	90.81
408.896	93.81
409.12	75.81
409.344	75.81
409.567	89.81
409.791	86.81
410.014	94.81
410.238	82.81
410.461	88.81
410.685	87.81
410.908	95.81
411.132	96.81
411.355	90.81
411.578	97.81
411.802	95.81
412.025	96.81
412.249	84.81
412.472	75.81
412.695	93.81
412.919	83.81
413.142	88.81
413.365	79.81
413.589	87.81
413.812	83.81
414.035	86.81
414.258	98.81
414.482	92.81
414.705	83.81
414.928	87.81
415.151	84.81
415.374	94.81
415.597	87.81
415.821	90.81
416.044	90.81
416.267	96.81
416.49	77.81
416.713	83.81
416.936	88.81
417.159	73.81
417.382	86.81
417.605	89.81
417.828	108.81
418.051	79.81
418.274	107.81
418.497	89.81
418.72	83.81
418.943	99.81
419.166	99.81
419.389	92.81
419.611	88.81
419.834	99.81
420.057	81.81
420.28	75.81
420.503	75.81
420.726	82.81
420.948	73.81
421.171	78.81
421.394	88.81
421.617	76.81
421.839	77.81
422.062	84.81
422.285	108.81
422.507	102.81
422.73	103.81
422.953	96.81
423.175	99.81
423.398	89.81
423.621	86.81
423.843	84.81
424.066	87.81
424.288	93.81
424.511	108.81
424.733	104.81
424.956	99.81
425.178	89.81
425.401	111.81
425.623	87.81
425.846	72.81
426.068	88.81
426.291	81.81
426.513	88.81
426.735	92.81
426.958	77.81
427.18	103.81
427.402	146.81
427.625	136.81
427.847	128.81
428.069	114.81
428.292	97.81
428.514	93.81
428.736	95.81
428.958	78.81
429.181	90.81
429.403	83.81
429.625	87.81
429.847	87.81
430.069	107.81
430.292	81.81
430.514	72.81
430.736	86.81
430.958	94.81
431.18	92.81
431.402	92.81
431.624	83.81
431.846	80.81
432.068	78.81
432.29	85.81
432.512	83.81
432.734	92.81
432.956	81.81
433.178	93.81
433.4	103.81
433.622	91.81
433.844	82.81
434.066	95.81
434.287	104.81
434.509	76.81
434.731	106.81
434.953	83.81
435.175	87.81
435.397	110.81
435.618	84.81
435.84	92.81
436.062	125.81
436.284	117.81
436.505	87.81
436.727	108.81
436.949	83.81
437.17	90.81
437.392	87.81
437.614	85.81
437.835	107.81
438.057	119.81
438.278	118.81
438.5	106.81
438.721	122.81
438.943	116.81
439.165	103.81
439.386	83.81
439.608	94.81
439.829	94.81
440.05	125.81
440.272	126.81
440.493	113.81
440.715	79.81
440.936	84.81
441.158	97.81
441.379	103.81
441.6	104.81
441.822	95.81
442.043	77.81
442.264	93.81
442.486	86.81
442.707	91.81
442.928	93.81
443.149	116.81
443.371	117.81
443.592	120.81
443.813	108.81
444.034	110.81
444.255	89.81
444.476	90.81
444.698	83.81
444.919	92.81
445.14	138.81
445.361	134.81
445.582	105.81
445.803	128.81
446.024	110.81
446.245	136.81
446.466	111.81
446.687	99.81
446.908	91.81
447.129	84.81
447.35	79.81
447.571	94.81
447.792	97.81
448.013	88.81
448.234	99.81
448.455	95.81
448.675	103.81
448.896	120.81
449.117	97.81
449.338	92.81
449.559	124.81
449.779	111.81
450	91.81
450.221	87.81
450.442	80.81
450.662	74.81
450.883	104.81
451.104	108.81
451.324	106.81
451.545	96.81
451.766	85.81
451.986	78.81
452.207	87.81
452.428	90.81
452.648	85.81
452.869	102.81
453.089	100.81
453.31	115.81
453.53	90.81
453.751	80.81
453.971	87.81
454.192	106.81
454.412	93.81
454.633	79.81
454.853	77.81
455.073	81.81
455.294	98.81
455.514	85.81
455.734	93.81
455.955	76.81
456.175	77.81
456.395	87.81
456.616	81.81
456.836	100.81
457.056	94.81
457.276	78.81
457.497	85.81
457.717	89.81
457.937	104.81
458.157	76.81
458.377	98.81
458.598	92.81
458.818	131.81
459.038	127.81
459.258	115.81
459.478	80.81
459.698	64.81
459.918	74.81
460.138	81.81
460.358	95.81
460.578	101.81
460.798	101.81
461.018	100.81
461.238	80.81
461.458	84.81
461.678	89.81
461.898	84.81
462.118	95.81
462.338	92.81
462.558	79.81
462.777	80.81
462.997	85.81
463.217	93.81
463.437	90.81
463.657	88.81
463.876	84.81
464.096	88.81
464.316	91.81
464.536	92.81
464.755	96.81
464.975	99.81
465.195	149.81
465.414	132.81
465.634	104.81
465.854	81.81
466.073	87.81
466.293	93.81
466.512	88.81
466.732	84.81
466.951	86.81
467.171	86.81
467.391	95.81
467.61	87.81
467.829	90.81
468.049	88.81
468.268	83.81
468.488	85.81
468.707	73.81
468.927	81.81
469.146	93.81
469.365	67.81
469.585	81.81
469.804	94.81
470.023	91.81
470.243	105.81
470.462	99.81
470.681	110.81
470.901	95.81
471.12	102.81
471.339	82.81
471.558	87.81
471.777	80.81
471.997	87.81
472.216	99.81
472.435	100.81
472.654	87.81
472.873	80.81
473.092	91.81
473.311	83.81
473.53	78.81
473.749	90.81
473.968	89.81
474.187	111.81
474.406	102.81
474.625	99.81
474.844	86.81
475.063	99.81
475.282	79.81
475.501	68.81
475.72	87.81
475.939	95.81
476.158	80.81
476.377	91.81
476.596	92.81
476.814	77.81
477.033	89.81
477.252	90.81
477.471	87.81
477.69	93.81
477.908	89.81
478.127	87.81
478.346	93.81
478.564	82.81
478.783	94.81
479.002	96.81
479.22	76.81
479.439	107.81
479.658	87.81
479.876	101.81
480.095	81.81
480.313	94.81
480.532	102.81
480.751	97.81
480.969	88.81
481.188	117.81
481.406	106.81
481.624	82.81
481.843	94.81
482.061	91.81
482.28	102.81
482.498	81.81
482.717	100.81
482.935	81.81
483.153	92.81
483.372	94.81
483.59	81.81
483.808	79.81
484.027	96.81
484.245	91.81
484.463	100.81
484.681	96.81
484.9	90.81
485.118	84.81
485.336	94.81
485.554	96.81
485.772	99.81
485.99	99.81
486.209	99.81
486.427	102.81
486.645	110.81
486.863	111.81
487.081	105.81
487.299	92.81
487.517	92.81
487.735	92.81
487.953	109.81
488.171	83.81
488.389	100.81
488.607	95.81
488.825	77.81
489.043	100.81
489.261	93.81
489.479	104.81
489.696	99.81
489.914	93.81
490.132	81.81
490.35	84.81
490.568	81.81
490.786	83.81
491.003	85.81
491.221	95.81
491.439	87.81
491.657	101.81
491.874	88.81
492.092	99.81
492.31	83.81
492.527	89.81
492.745	91.81
492.963	73.81
493.18	104.81
493.398	95.81
493.615	103.81
493.833	88.81
494.05	94.81
494.268	104.81
494.485	106.81
494.703	93.81
494.92	97.81
495.138	95.81
495.355	91.81
495.573	87.81
495.79	87.81
496.008	91.81
496.225	75.81
496.442	88.81
496.66	94.81
496.877	71.81
497.094	96.81
497.312	87.81
497.529	72.81
497.746	78.81
497.963	78.81
498.181	83.81
498.398	88.81
498.615	98.81
498.832	101.81
499.049	81.81
499.267	103.81
499.484	89.81
499.701	96.81
499.918	96.81
500.135	97.81
500.352	92.81
500.569	86.81
500.786	94.81
501.003	96.81
501.22	99.81
501.437	94.81
501.654	102.81
501.871	101.81
502.088	99.81
502.305	84.81
502.522	91.81
502.739	101.81
502.956	102.81
503.172	74.81
503.389	108.81
503.606	99.81
503.823	98.81
504.04	81.81
504.256	92.81
504.473	105.81
504.69	95.81
504.907	94.81
505.123	105.81
505.34	86.81
505.557	94.81
505.773	85.81
505.99	102.81
506.207	87.81
506.423	100.81
506.64	96.81
506.856	91.81
507.073	89.81
507.289	84.81
507.506	85.81
507.722	109.81
507.939	113.81
508.155	90.81
508.372	81.81
508.588	87.81
508.805	78.81
509.021	96.81
509.238	102.81
509.454	96.81
509.67	100.81
509.887	106.81
510.103	124.81
510.319	192.81
510.536	695.81
510.752	2131.81
510.968	600.81
511.184	155.81
511.401	105.81
511.617	116.81
511.833	91.81
512.049	79.81
512.265	107.81
512.481	86.81
512.698	91.81
512.914	72.81
513.13	93.81
513.346	96.81
513.562	85.81
513.778	92.81
513.994	101.81
514.21	98.81
514.426	114.81
514.642	125.81
514.858	110.81
515.074	158.81
515.29	404.81
515.506	1260.81
515.721	469.81
515.937	136.81
516.153	121.81
