Data from Uncirc_1999_H10_HRD10591_00089.txt Node
Date: Wed Jan 03 11:22:23 EST 2024
User: Yrep
Spectrometer: HR+D1059
Trigger mode: 1
Integration Time (sec): 1.000000E-1
Scans to average: 1
Electric dark correction enabled: true
Nonlinearity correction enabled: false
Boxcar width: 0
XAxis mode: Wavelengths
Number of Pixels in Spectrum: 2048
>>>>>Begin Spectral Data<<<<<
223.165	-19.56
223.4	-19.56
223.635	-19.56
223.869	-25.56
224.104	-18.56
224.338	-18.56
224.573	-20.56
224.808	-4.56
225.042	-4.56
225.277	-11.56
225.511	-6.56
225.746	3.44
225.98	1.44
226.215	16.44
226.449	23.44
226.683	16.44
226.918	30.44
227.152	38.44
227.387	38.44
227.621	48.44
227.856	55.44
228.09	45.44
228.324	48.44
228.559	57.44
228.793	67.44
229.027	55.44
229.262	80.44
229.496	64.44
229.73	95.44
229.964	80.44
230.199	75.44
230.433	70.44
230.667	73.44
230.901	77.44
231.136	74.44
231.37	70.44
231.604	89.44
231.838	69.44
232.072	68.44
232.306	72.44
232.541	90.44
232.775	79.44
233.009	79.44
233.243	74.44
233.477	67.44
233.711	76.44
233.945	75.44
234.179	72.44
234.413	67.44
234.647	92.44
234.881	77.44
235.115	86.44
235.349	80.44
235.583	69.44
235.817	71.44
236.051	74.44
236.285	75.44
236.519	80.44
236.753	72.44
236.987	80.44
237.221	86.44
237.455	76.44
237.689	85.44
237.922	78.44
238.156	63.44
238.39	62.44
238.624	77.44
238.858	68.44
239.091	63.44
239.325	69.44
239.559	84.44
239.793	83.44
240.027	75.44
240.26	76.44
240.494	79.44
240.728	73.44
240.961	63.44
241.195	88.44
241.429	73.44
241.662	85.44
241.896	58.44
242.13	71.44
242.363	64.44
242.597	67.44
242.83	65.44
243.064	79.44
243.298	70.44
243.531	70.44
243.765	79.44
243.998	73.44
244.232	72.44
244.465	87.44
244.699	83.44
244.932	75.44
245.166	83.44
245.399	60.44
245.633	88.44
245.866	80.44
246.099	99.44
246.333	79.44
246.566	76.44
246.8	85.44
247.033	73.44
247.266	86.44
247.5	91.44
247.733	79.44
247.966	70.44
248.2	66.44
248.433	78.44
248.666	70.44
248.899	72.44
249.133	68.44
249.366	89.44
249.599	77.44
249.832	89.44
250.066	88.44
250.299	71.44
250.532	74.44
250.765	74.44
250.998	73.44
251.231	81.44
251.465	81.44
251.698	79.44
251.931	73.44
252.164	83.44
252.397	63.44
252.63	78.44
252.863	73.44
253.096	84.44
253.329	84.44
253.562	86.44
253.795	83.44
254.028	91.44
254.261	73.44
254.494	80.44
254.727	78.44
254.96	81.44
255.193	76.44
255.426	94.44
255.659	76.44
255.892	86.44
256.124	84.44
256.357	81.44
256.59	56.44
256.823	96.44
257.056	73.44
257.289	78.44
257.521	85.44
257.754	81.44
257.987	78.44
258.22	82.44
258.452	71.44
258.685	70.44
258.918	86.44
259.151	88.44
259.383	83.44
259.616	79.44
259.849	93.44
260.081	76.44
260.314	74.44
260.547	83.44
260.779	83.44
261.012	87.44
261.244	97.44
261.477	78.44
261.71	91.44
261.942	106.44
262.175	85.44
262.407	91.44
262.64	83.44
262.872	82.44
263.105	75.44
263.337	89.44
263.57	78.44
263.802	79.44
264.035	77.44
264.267	64.44
264.499	64.44
264.732	75.44
264.964	69.44
265.197	73.44
265.429	99.44
265.661	91.44
265.894	78.44
266.126	97.44
266.358	75.44
266.591	77.44
266.823	78.44
267.055	78.44
267.287	83.44
267.52	91.44
267.752	74.44
267.984	75.44
268.216	72.44
268.448	87.44
268.681	84.44
268.913	75.44
269.145	80.44
269.377	88.44
269.609	84.44
269.841	78.44
270.073	76.44
270.306	96.44
270.538	79.44
270.77	70.44
271.002	83.44
271.234	82.44
271.466	83.44
271.698	90.44
271.93	94.44
272.162	95.44
272.394	89.44
272.626	86.44
272.858	75.44
273.09	75.44
273.322	75.44
273.553	81.44
273.785	77.44
274.017	91.44
274.249	75.44
274.481	86.44
274.713	83.44
274.945	81.44
275.176	95.44
275.408	78.44
275.64	83.44
275.872	79.44
276.104	87.44
276.335	84.44
276.567	86.44
276.799	108.44
277.031	86.44
277.262	85.44
277.494	86.44
277.726	70.44
277.957	82.44
278.189	75.44
278.421	75.44
278.652	88.44
278.884	88.44
279.115	71.44
279.347	80.44
279.579	103.44
279.81	77.44
280.042	97.44
280.273	83.44
280.505	81.44
280.736	70.44
280.968	82.44
281.199	90.44
281.431	93.44
281.662	89.44
281.894	92.44
282.125	90.44
282.356	105.44
282.588	133.44
282.819	133.44
283.051	98.44
283.282	89.44
283.513	91.44
283.745	86.44
283.976	92.44
284.207	96.44
284.439	88.44
284.67	84.44
284.901	92.44
285.132	90.44
285.364	80.44
285.595	83.44
285.826	78.44
286.057	96.44
286.288	87.44
286.52	93.44
286.751	86.44
286.982	81.44
287.213	73.44
287.444	84.44
287.675	93.44
287.906	80.44
288.138	101.44
288.369	94.44
288.6	96.44
288.831	87.44
289.062	84.44
289.293	69.44
289.524	68.44
289.755	79.44
289.986	86.44
290.217	93.44
290.448	79.44
290.679	88.44
290.91	86.44
291.141	73.44
291.371	89.44
291.602	88.44
291.833	84.44
292.064	92.44
292.295	93.44
292.526	86.44
292.757	74.44
292.987	88.44
293.218	86.44
293.449	73.44
293.68	91.44
293.91	89.44
294.141	80.44
294.372	96.44
294.603	84.44
294.833	81.44
295.064	77.44
295.295	88.44
295.525	101.44
295.756	109.44
295.987	99.44
296.217	142.44
296.448	111.44
296.679	96.44
296.909	79.44
297.14	93.44
297.37	101.44
297.601	86.44
297.831	83.44
298.062	73.44
298.292	78.44
298.523	82.44
298.753	95.44
298.984	86.44
299.214	94.44
299.445	83.44
299.675	71.44
299.905	99.44
300.136	85.44
300.366	87.44
300.597	90.44
300.827	92.44
301.057	89.44
301.288	101.44
301.518	96.44
301.748	74.44
301.979	107.44
302.209	86.44
302.439	82.44
302.669	91.44
302.9	88.44
303.13	87.44
303.36	92.44
303.59	93.44
303.82	92.44
304.051	111.44
304.281	91.44
304.511	107.44
304.741	88.44
304.971	72.44
305.201	92.44
305.431	93.44
305.661	89.44
305.891	84.44
306.121	95.44
306.352	94.44
306.582	101.44
306.812	93.44
307.042	89.44
307.272	84.44
307.502	84.44
307.731	97.44
307.961	84.44
308.191	81.44
308.421	108.44
308.651	107.44
308.881	97.44
309.111	94.44
309.341	85.44
309.571	97.44
309.8	98.44
310.03	85.44
310.26	86.44
310.49	108.44
310.72	91.44
310.949	103.44
311.179	111.44
311.409	91.44
311.639	92.44
311.868	98.44
312.098	95.44
312.328	93.44
312.557	94.44
312.787	95.44
313.017	85.44
313.246	101.44
313.476	92.44
313.706	102.44
313.935	96.44
314.165	101.44
314.394	92.44
314.624	89.44
314.853	100.44
315.083	77.44
315.312	93.44
315.542	97.44
315.771	91.44
316.001	86.44
316.23	84.44
316.46	94.44
316.689	91.44
316.919	115.44
317.148	61.44
317.377	96.44
317.607	81.44
317.836	83.44
318.065	91.44
318.295	81.44
318.524	91.44
318.753	97.44
318.983	89.44
319.212	97.44
319.441	99.44
319.67	103.44
319.9	92.44
320.129	99.44
320.358	93.44
320.587	90.44
320.816	105.44
321.046	114.44
321.275	90.44
321.504	88.44
321.733	89.44
321.962	111.44
322.191	108.44
322.42	100.44
322.649	116.44
322.878	104.44
323.108	110.44
323.337	117.44
323.566	132.44
323.795	143.44
324.024	195.44
324.253	412.44
324.482	834.44
324.71	1739.44
324.939	2290.44
325.168	873.44
325.397	246.44
325.626	150.44
325.855	140.44
326.084	119.44
326.313	115.44
326.542	144.44
326.77	229.44
326.999	477.44
327.228	997.44
327.457	1792.44
327.686	1401.44
327.914	361.44
328.143	184.44
328.372	131.44
328.6	126.44
328.829	112.44
329.058	100.44
329.287	133.44
329.515	107.44
329.744	105.44
329.972	83.44
330.201	100.44
330.43	115.44
330.658	114.44
330.887	133.44
331.115	99.44
331.344	94.44
331.572	88.44
331.801	95.44
332.03	101.44
332.258	104.44
332.486	89.44
332.715	89.44
332.943	90.44
333.172	96.44
333.4	102.44
333.629	106.44
333.857	108.44
334.085	110.44
334.314	102.44
334.542	98.44
334.771	101.44
334.999	90.44
335.227	101.44
335.455	99.44
335.684	97.44
335.912	105.44
336.14	96.44
336.369	97.44
336.597	101.44
336.825	83.44
337.053	91.44
337.281	88.44
337.51	88.44
337.738	90.44
337.966	82.44
338.194	88.44
338.422	103.44
338.65	97.44
338.878	91.44
339.106	95.44
339.334	96.44
339.562	103.44
339.79	83.44
340.018	91.44
340.246	89.44
340.474	83.44
340.702	97.44
340.93	93.44
341.158	97.44
341.386	97.44
341.614	91.44
341.842	88.44
342.07	87.44
342.298	100.44
342.526	77.44
342.754	94.44
342.981	90.44
343.209	94.44
343.437	99.44
343.665	89.44
343.893	93.44
344.12	106.44
344.348	82.44
344.576	88.44
344.804	75.44
345.031	88.44
345.259	84.44
345.487	96.44
345.714	87.44
345.942	88.44
346.17	92.44
346.397	91.44
346.625	102.44
346.853	88.44
347.08	95.44
347.308	100.44
347.535	99.44
347.763	89.44
347.99	102.44
348.218	103.44
348.445	107.44
348.673	97.44
348.9	103.44
349.128	97.44
349.355	92.44
349.583	88.44
349.81	91.44
350.037	95.44
350.265	72.44
350.492	88.44
350.72	110.44
350.947	97.44
351.174	111.44
351.402	123.44
351.629	101.44
351.856	88.44
352.083	95.44
352.311	125.44
352.538	112.44
352.765	113.44
352.992	101.44
353.22	112.44
353.447	112.44
353.674	95.44
353.901	109.44
354.128	98.44
354.355	103.44
354.583	91.44
354.81	96.44
355.037	87.44
355.264	83.44
355.491	90.44
355.718	95.44
355.945	92.44
356.172	103.44
356.399	107.44
356.626	94.44
356.853	100.44
357.08	93.44
357.307	78.44
357.534	95.44
357.761	90.44
357.988	106.44
358.215	83.44
358.441	74.44
358.668	95.44
358.895	90.44
359.122	91.44
359.349	89.44
359.576	102.44
359.802	96.44
360.029	93.44
360.256	92.44
360.483	92.44
360.709	97.44
360.936	85.44
361.163	82.44
361.39	95.44
361.616	97.44
361.843	74.44
362.07	98.44
362.296	79.44
362.523	91.44
362.749	90.44
362.976	100.44
363.203	89.44
363.429	95.44
363.656	97.44
363.882	82.44
364.109	93.44
364.335	92.44
364.562	80.44
364.788	96.44
365.015	90.44
365.241	101.44
365.468	111.44
365.694	101.44
365.92	86.44
366.147	91.44
366.373	87.44
366.599	88.44
366.826	87.44
367.052	92.44
367.278	95.44
367.505	92.44
367.731	90.44
367.957	109.44
368.184	97.44
368.41	93.44
368.636	104.44
368.862	118.44
369.089	97.44
369.315	95.44
369.541	89.44
369.767	89.44
369.993	88.44
370.219	102.44
370.445	86.44
370.672	87.44
370.898	84.44
371.124	80.44
371.35	87.44
371.576	77.44
371.802	77.44
372.028	101.44
372.254	100.44
372.48	83.44
372.706	86.44
372.932	83.44
373.158	97.44
373.384	95.44
373.61	83.44
373.835	95.44
374.061	67.44
374.287	87.44
374.513	86.44
374.739	88.44
374.965	78.44
375.191	83.44
375.416	97.44
375.642	89.44
375.868	79.44
376.094	87.44
376.319	81.44
376.545	85.44
376.771	84.44
376.997	90.44
377.222	77.44
377.448	79.44
377.674	83.44
377.899	88.44
378.125	97.44
378.35	78.44
378.576	95.44
378.802	101.44
379.027	89.44
379.253	92.44
379.478	84.44
379.704	84.44
379.929	103.44
380.155	86.44
380.38	77.44
380.606	101.44
380.831	98.44
381.057	99.44
381.282	93.44
381.507	100.44
381.733	85.44
381.958	95.44
382.184	99.44
382.409	104.44
382.634	105.44
382.86	93.44
383.085	96.44
383.31	99.44
383.535	95.44
383.761	99.44
383.986	107.44
384.211	100.44
384.436	92.44
384.662	89.44
384.887	105.44
385.112	94.44
385.337	110.44
385.562	97.44
385.787	97.44
386.013	109.44
386.238	89.44
386.463	102.44
386.688	115.44
386.913	102.44
387.138	102.44
387.363	85.44
387.588	109.44
387.813	93.44
388.038	109.44
388.263	119.44
388.488	94.44
388.713	99.44
388.938	100.44
389.163	103.44
389.387	91.44
389.612	82.44
389.837	89.44
390.062	94.44
390.287	75.44
390.512	74.44
390.736	104.44
390.961	85.44
391.186	107.44
391.411	97.44
391.636	97.44
391.86	110.44
392.085	86.44
392.31	89.44
392.534	101.44
392.759	87.44
392.984	82.44
393.208	95.44
393.433	97.44
393.658	70.44
393.882	80.44
394.107	83.44
394.331	83.44
394.556	79.44
394.78	83.44
395.005	87.44
395.229	89.44
395.454	90.44
395.678	88.44
395.903	79.44
396.127	101.44
396.352	88.44
396.576	85.44
396.801	83.44
397.025	97.44
397.249	104.44
397.474	84.44
397.698	94.44
397.922	92.44
398.147	90.44
398.371	94.44
398.595	74.44
398.82	84.44
399.044	102.44
399.268	86.44
399.492	75.44
399.717	97.44
399.941	101.44
400.165	87.44
400.389	93.44
400.613	80.44
400.837	93.44
401.062	96.44
401.286	84.44
401.51	88.44
401.734	73.44
401.958	97.44
402.182	117.44
402.406	139.44
402.63	119.44
402.854	97.44
403.078	107.44
403.302	75.44
403.526	77.44
403.75	83.44
403.974	91.44
404.198	70.44
404.422	90.44
404.645	83.44
404.869	86.44
405.093	95.44
405.317	91.44
405.541	94.44
405.765	105.44
405.988	106.44
406.212	152.44
406.436	203.44
406.66	131.44
406.883	91.44
407.107	81.44
407.331	97.44
407.555	108.44
407.778	90.44
408.002	86.44
408.226	90.44
408.449	96.44
408.673	86.44
408.896	92.44
409.12	89.44
409.344	82.44
409.567	80.44
409.791	85.44
410.014	97.44
410.238	93.44
410.461	89.44
410.685	97.44
410.908	108.44
411.132	119.44
411.355	92.44
411.578	80.44
411.802	82.44
412.025	93.44
412.249	91.44
412.472	98.44
412.695	86.44
412.919	91.44
413.142	107.44
413.365	84.44
413.589	95.44
413.812	73.44
414.035	94.44
414.258	90.44
414.482	86.44
414.705	79.44
414.928	81.44
415.151	92.44
415.374	97.44
415.597	93.44
415.821	97.44
416.044	89.44
416.267	89.44
416.49	94.44
416.713	89.44
416.936	92.44
417.159	99.44
417.382	104.44
417.605	96.44
417.828	91.44
418.051	90.44
418.274	97.44
418.497	75.44
418.72	85.44
418.943	106.44
419.166	89.44
419.389	87.44
419.611	89.44
419.834	73.44
420.057	92.44
420.28	94.44
420.503	83.44
420.726	90.44
420.948	99.44
421.171	88.44
421.394	93.44
421.617	105.44
421.839	102.44
422.062	97.44
422.285	104.44
422.507	95.44
422.73	99.44
422.953	95.44
423.175	86.44
423.398	81.44
423.621	87.44
423.843	80.44
424.066	93.44
424.288	89.44
424.511	88.44
424.733	97.44
424.956	93.44
425.178	111.44
425.401	98.44
425.623	86.44
425.846	97.44
426.068	89.44
426.291	86.44
426.513	79.44
426.735	88.44
426.958	84.44
427.18	99.44
427.402	138.44
427.625	165.44
427.847	125.44
428.069	97.44
428.292	96.44
428.514	83.44
428.736	67.44
428.958	95.44
429.181	83.44
429.403	94.44
429.625	82.44
429.847	87.44
430.069	86.44
430.292	90.44
430.514	90.44
430.736	95.44
430.958	97.44
431.18	85.44
431.402	85.44
431.624	85.44
431.846	79.44
432.068	76.44
432.29	84.44
432.512	92.44
432.734	76.44
432.956	93.44
433.178	87.44
433.4	103.44
433.622	94.44
433.844	87.44
434.066	96.44
434.287	100.44
434.509	89.44
434.731	80.44
434.953	74.44
435.175	87.44
435.397	92.44
435.618	101.44
435.84	103.44
436.062	113.44
436.284	103.44
436.505	108.44
436.727	102.44
436.949	94.44
437.17	88.44
437.392	92.44
437.614	87.44
437.835	93.44
438.057	108.44
438.278	96.44
438.5	95.44
438.721	114.44
438.943	101.44
439.165	90.44
439.386	79.44
439.608	85.44
439.829	89.44
440.05	119.44
440.272	127.44
440.493	96.44
440.715	83.44
440.936	86.44
441.158	81.44
441.379	72.44
441.6	87.44
441.822	103.44
442.043	100.44
442.264	113.44
442.486	106.44
442.707	93.44
442.928	101.44
443.149	118.44
443.371	117.44
443.592	108.44
443.813	103.44
444.034	93.44
444.255	92.44
444.476	75.44
444.698	78.44
444.919	81.44
445.14	131.44
445.361	115.44
445.582	115.44
445.803	124.44
446.024	141.44
446.245	117.44
446.466	95.44
446.687	84.44
446.908	82.44
447.129	86.44
447.35	79.44
447.571	85.44
447.792	96.44
448.013	91.44
448.234	95.44
448.455	92.44
448.675	119.44
448.896	94.44
449.117	99.44
449.338	95.44
449.559	126.44
449.779	122.44
450	85.44
450.221	97.44
450.442	84.44
450.662	95.44
450.883	95.44
451.104	84.44
451.324	80.44
451.545	92.44
451.766	79.44
451.986	81.44
452.207	90.44
452.428	89.44
452.648	93.44
452.869	104.44
453.089	113.44
453.31	104.44
453.53	92.44
453.751	89.44
453.971	109.44
454.192	100.44
454.412	101.44
454.633	79.44
454.853	93.44
455.073	68.44
455.294	91.44
455.514	88.44
455.734	90.44
455.955	77.44
456.175	93.44
456.395	84.44
456.616	87.44
456.836	85.44
457.056	76.44
457.276	99.44
457.497	88.44
457.717	80.44
457.937	90.44
458.157	92.44
458.377	104.44
458.598	98.44
458.818	125.44
459.038	146.44
459.258	108.44
459.478	99.44
459.698	95.44
459.918	93.44
460.138	88.44
460.358	88.44
460.578	89.44
460.798	92.44
461.018	85.44
461.238	87.44
461.458	78.44
461.678	97.44
461.898	79.44
462.118	67.44
462.338	85.44
462.558	76.44
462.777	83.44
462.997	84.44
463.217	81.44
463.437	106.44
463.657	83.44
463.876	86.44
464.096	95.44
464.316	90.44
464.536	92.44
464.755	92.44
464.975	102.44
465.195	143.44
465.414	133.44
465.634	85.44
465.854	83.44
466.073	87.44
466.293	70.44
466.512	73.44
466.732	85.44
466.951	86.44
467.171	102.44
467.391	103.44
467.61	93.44
467.829	91.44
468.049	90.44
468.268	93.44
468.488	94.44
468.707	91.44
468.927	86.44
469.146	78.44
469.365	84.44
469.585	83.44
469.804	104.44
470.023	80.44
470.243	92.44
470.462	103.44
470.681	103.44
470.901	102.44
471.12	100.44
471.339	102.44
471.558	91.44
471.777	76.44
471.997	87.44
472.216	88.44
472.435	76.44
472.654	99.44
472.873	93.44
473.092	94.44
473.311	82.44
473.53	90.44
473.749	81.44
473.968	87.44
474.187	78.44
474.406	93.44
474.625	84.44
474.844	91.44
475.063	95.44
475.282	90.44
475.501	69.44
475.72	85.44
475.939	76.44
476.158	90.44
476.377	77.44
476.596	83.44
476.814	85.44
477.033	93.44
477.252	87.44
477.471	85.44
477.69	86.44
477.908	85.44
478.127	97.44
478.346	92.44
478.564	93.44
478.783	98.44
479.002	92.44
479.22	88.44
479.439	83.44
479.658	90.44
479.876	94.44
480.095	97.44
480.313	77.44
480.532	76.44
480.751	87.44
480.969	80.44
481.188	96.44
481.406	96.44
481.624	79.44
481.843	91.44
482.061	89.44
482.28	83.44
482.498	90.44
482.717	85.44
482.935	89.44
483.153	81.44
483.372	75.44
483.59	78.44
483.808	84.44
484.027	93.44
484.245	103.44
484.463	101.44
484.681	85.44
484.9	101.44
485.118	82.44
485.336	87.44
485.554	95.44
485.772	102.44
485.99	94.44
486.209	100.44
486.427	94.44
486.645	102.44
486.863	123.44
487.081	106.44
487.299	96.44
487.517	95.44
487.735	80.44
487.953	116.44
488.171	97.44
488.389	105.44
488.607	98.44
488.825	89.44
489.043	87.44
489.261	92.44
489.479	95.44
489.696	92.44
489.914	77.44
490.132	101.44
490.35	88.44
490.568	86.44
490.786	89.44
491.003	82.44
491.221	87.44
491.439	103.44
491.657	101.44
491.874	98.44
492.092	92.44
492.31	85.44
492.527	109.44
492.745	87.44
492.963	79.44
493.18	95.44
493.398	85.44
493.615	102.44
493.833	95.44
494.05	96.44
494.268	90.44
494.485	92.44
494.703	92.44
494.92	87.44
495.138	81.44
495.355	103.44
495.573	89.44
495.79	96.44
496.008	97.44
496.225	92.44
496.442	81.44
496.66	96.44
496.877	92.44
497.094	86.44
497.312	86.44
497.529	85.44
497.746	91.44
497.963	84.44
498.181	97.44
498.398	84.44
498.615	103.44
498.832	98.44
499.049	99.44
499.267	95.44
499.484	98.44
499.701	92.44
499.918	87.44
500.135	89.44
500.352	83.44
500.569	94.44
500.786	88.44
501.003	73.44
501.22	89.44
501.437	90.44
501.654	88.44
501.871	111.44
502.088	94.44
502.305	84.44
502.522	96.44
502.739	90.44
502.956	92.44
503.172	84.44
503.389	92.44
503.606	78.44
503.823	92.44
504.04	79.44
504.256	88.44
504.473	83.44
504.69	89.44
504.907	94.44
505.123	88.44
505.34	89.44
505.557	96.44
505.773	100.44
505.99	92.44
506.207	76.44
506.423	93.44
506.64	76.44
506.856	89.44
507.073	83.44
507.289	91.44
507.506	107.44
507.722	113.44
507.939	104.44
508.155	99.44
508.372	90.44
508.588	91.44
508.805	88.44
509.021	100.44
509.238	107.44
509.454	95.44
509.67	89.44
509.887	107.44
510.103	137.44
510.319	208.44
510.536	752.44
510.752	2455.44
510.968	677.44
511.184	162.44
511.401	112.44
511.617	86.44
511.833	93.44
512.049	93.44
512.265	95.44
512.481	95.44
512.698	97.44
512.914	81.44
513.13	97.44
513.346	98.44
513.562	92.44
513.778	95.44
513.994	92.44
514.21	95.44
514.426	124.44
514.642	131.44
514.858	123.44
515.074	149.44
515.29	433.44
515.506	1341.44
515.721	516.44
515.937	152.44
516.153	105.44
516.369	97.44
