Data from Uncirc_1999_H10_HRD10591_00061.txt Node
Date: Wed Jan 03 11:22:17 EST 2024
User: Yrep
Spectrometer: HR+D1059
Trigger mode: 1
Integration Time (sec): 1.000000E-1
Scans to average: 1
Electric dark correction enabled: true
Nonlinearity correction enabled: false
Boxcar width: 0
XAxis mode: Wavelengths
Number of Pixels in Spectrum: 2048
>>>>>Begin Spectral Data<<<<<
223.165	-17.88
223.4	-17.88
223.635	-17.88
223.869	-16.88
224.104	-20.88
224.338	-23.88
224.573	-11.88
224.808	-4.88
225.042	-1.88
225.277	-3.88
225.511	3.12
225.746	11.12
225.98	-0.88
226.215	16.12
226.449	8.12
226.683	20.12
226.918	20.12
227.152	24.12
227.387	42.12
227.621	30.12
227.856	30.12
228.09	54.12
228.324	48.12
228.559	54.12
228.793	71.12
229.027	58.12
229.262	62.12
229.496	73.12
229.73	72.12
229.964	68.12
230.199	69.12
230.433	72.12
230.667	66.12
230.901	80.12
231.136	70.12
231.37	86.12
231.604	79.12
231.838	77.12
232.072	74.12
232.306	82.12
232.541	66.12
232.775	79.12
233.009	80.12
233.243	74.12
233.477	81.12
233.711	65.12
233.945	73.12
234.179	74.12
234.413	83.12
234.647	74.12
234.881	57.12
235.115	76.12
235.349	86.12
235.583	61.12
235.817	89.12
236.051	76.12
236.285	79.12
236.519	72.12
236.753	74.12
236.987	57.12
237.221	74.12
237.455	78.12
237.689	77.12
237.922	71.12
238.156	68.12
238.39	85.12
238.624	72.12
238.858	87.12
239.091	80.12
239.325	74.12
239.559	82.12
239.793	69.12
240.027	75.12
240.26	85.12
240.494	84.12
240.728	76.12
240.961	75.12
241.195	86.12
241.429	57.12
241.662	73.12
241.896	68.12
242.13	91.12
242.363	80.12
242.597	85.12
242.83	66.12
243.064	77.12
243.298	69.12
243.531	86.12
243.765	88.12
243.998	68.12
244.232	86.12
244.465	63.12
244.699	88.12
244.932	81.12
245.166	84.12
245.399	92.12
245.633	68.12
245.866	94.12
246.099	71.12
246.333	76.12
246.566	79.12
246.8	76.12
247.033	71.12
247.266	80.12
247.5	81.12
247.733	72.12
247.966	89.12
248.2	78.12
248.433	80.12
248.666	68.12
248.899	95.12
249.133	86.12
249.366	80.12
249.599	79.12
249.832	75.12
250.066	82.12
250.299	75.12
250.532	80.12
250.765	80.12
250.998	62.12
251.231	76.12
251.465	81.12
251.698	82.12
251.931	83.12
252.164	85.12
252.397	74.12
252.63	80.12
252.863	73.12
253.096	70.12
253.329	76.12
253.562	86.12
253.795	91.12
254.028	83.12
254.261	77.12
254.494	84.12
254.727	73.12
254.96	79.12
255.193	73.12
255.426	68.12
255.659	86.12
255.892	83.12
256.124	70.12
256.357	76.12
256.59	85.12
256.823	73.12
257.056	76.12
257.289	99.12
257.521	81.12
257.754	82.12
257.987	64.12
258.22	78.12
258.452	92.12
258.685	65.12
258.918	84.12
259.151	82.12
259.383	82.12
259.616	82.12
259.849	78.12
260.081	81.12
260.314	87.12
260.547	79.12
260.779	72.12
261.012	75.12
261.244	81.12
261.477	86.12
261.71	95.12
261.942	101.12
262.175	119.12
262.407	85.12
262.64	75.12
262.872	81.12
263.105	88.12
263.337	94.12
263.57	77.12
263.802	95.12
264.035	84.12
264.267	80.12
264.499	87.12
264.732	82.12
264.964	94.12
265.197	86.12
265.429	88.12
265.661	78.12
265.894	94.12
266.126	88.12
266.358	89.12
266.591	89.12
266.823	84.12
267.055	84.12
267.287	78.12
267.52	74.12
267.752	89.12
267.984	93.12
268.216	89.12
268.448	84.12
268.681	92.12
268.913	71.12
269.145	90.12
269.377	101.12
269.609	76.12
269.841	68.12
270.073	81.12
270.306	71.12
270.538	92.12
270.77	77.12
271.002	75.12
271.234	79.12
271.466	88.12
271.698	77.12
271.93	86.12
272.162	92.12
272.394	82.12
272.626	80.12
272.858	78.12
273.09	95.12
273.322	86.12
273.553	76.12
273.785	76.12
274.017	96.12
274.249	78.12
274.481	76.12
274.713	81.12
274.945	85.12
275.176	89.12
275.408	83.12
275.64	90.12
275.872	81.12
276.104	82.12
276.335	85.12
276.567	95.12
276.799	104.12
277.031	98.12
277.262	93.12
277.494	84.12
277.726	100.12
277.957	78.12
278.189	87.12
278.421	72.12
278.652	77.12
278.884	72.12
279.115	76.12
279.347	90.12
279.579	71.12
279.81	81.12
280.042	87.12
280.273	94.12
280.505	77.12
280.736	90.12
280.968	87.12
281.199	79.12
281.431	78.12
281.662	81.12
281.894	92.12
282.125	102.12
282.356	112.12
282.588	125.12
282.819	113.12
283.051	92.12
283.282	73.12
283.513	87.12
283.745	92.12
283.976	90.12
284.207	92.12
284.439	89.12
284.67	93.12
284.901	82.12
285.132	80.12
285.364	78.12
285.595	93.12
285.826	91.12
286.057	95.12
286.288	86.12
286.52	78.12
286.751	93.12
286.982	93.12
287.213	76.12
287.444	95.12
287.675	76.12
287.906	93.12
288.138	65.12
288.369	83.12
288.6	94.12
288.831	76.12
289.062	81.12
289.293	102.12
289.524	78.12
289.755	92.12
289.986	84.12
290.217	81.12
290.448	82.12
290.679	84.12
290.91	84.12
291.141	80.12
291.371	92.12
291.602	93.12
291.833	95.12
292.064	106.12
292.295	84.12
292.526	94.12
292.757	86.12
292.987	84.12
293.218	79.12
293.449	96.12
293.68	90.12
293.91	96.12
294.141	91.12
294.372	79.12
294.603	85.12
294.833	100.12
295.064	76.12
295.295	87.12
295.525	100.12
295.756	90.12
295.987	115.12
296.217	133.12
296.448	132.12
296.679	96.12
296.909	102.12
297.14	93.12
297.37	96.12
297.601	78.12
297.831	86.12
298.062	84.12
298.292	87.12
298.523	94.12
298.753	97.12
298.984	84.12
299.214	68.12
299.445	91.12
299.675	89.12
299.905	110.12
300.136	101.12
300.366	104.12
300.597	92.12
300.827	91.12
301.057	118.12
301.288	101.12
301.518	98.12
301.748	88.12
301.979	106.12
302.209	89.12
302.439	82.12
302.669	96.12
302.9	102.12
303.13	78.12
303.36	89.12
303.59	94.12
303.82	99.12
304.051	73.12
304.281	74.12
304.511	113.12
304.741	85.12
304.971	96.12
305.201	81.12
305.431	88.12
305.661	98.12
305.891	77.12
306.121	98.12
306.352	100.12
306.582	98.12
306.812	91.12
307.042	89.12
307.272	99.12
307.502	99.12
307.731	100.12
307.961	92.12
308.191	76.12
308.421	99.12
308.651	87.12
308.881	96.12
309.111	81.12
309.341	102.12
309.571	91.12
309.8	96.12
310.03	91.12
310.26	105.12
310.49	97.12
310.72	84.12
310.949	115.12
311.179	98.12
311.409	105.12
311.639	95.12
311.868	97.12
312.098	83.12
312.328	80.12
312.557	96.12
312.787	96.12
313.017	103.12
313.246	93.12
313.476	80.12
313.706	88.12
313.935	91.12
314.165	96.12
314.394	103.12
314.624	94.12
314.853	94.12
315.083	96.12
315.312	93.12
315.542	94.12
315.771	89.12
316.001	88.12
316.23	78.12
316.46	96.12
316.689	90.12
316.919	89.12
317.148	82.12
317.377	99.12
317.607	93.12
317.836	102.12
318.065	92.12
318.295	94.12
318.524	84.12
318.753	96.12
318.983	83.12
319.212	100.12
319.441	103.12
319.67	103.12
319.9	96.12
320.129	97.12
320.358	97.12
320.587	100.12
320.816	94.12
321.046	98.12
321.275	95.12
321.504	87.12
321.733	94.12
321.962	104.12
322.191	88.12
322.42	101.12
322.649	105.12
322.878	95.12
323.108	128.12
323.337	126.12
323.566	135.12
323.795	152.12
324.024	207.12
324.253	431.12
324.482	885.12
324.71	1838.12
324.939	2425.12
325.168	857.12
325.397	263.12
325.626	167.12
325.855	126.12
326.084	124.12
326.313	142.12
326.542	168.12
326.77	246.12
326.999	508.12
327.228	1026.12
327.457	1846.12
327.686	1448.12
327.914	392.12
328.143	188.12
328.372	140.12
328.6	127.12
328.829	115.12
329.058	124.12
329.287	121.12
329.515	117.12
329.744	116.12
329.972	96.12
330.201	97.12
330.43	111.12
330.658	116.12
330.887	127.12
331.115	120.12
331.344	101.12
331.572	90.12
331.801	90.12
332.03	97.12
332.258	93.12
332.486	85.12
332.715	103.12
332.943	97.12
333.172	84.12
333.4	89.12
333.629	121.12
333.857	114.12
334.085	101.12
334.314	98.12
334.542	102.12
334.771	105.12
334.999	102.12
335.227	102.12
335.455	109.12
335.684	101.12
335.912	101.12
336.14	86.12
336.369	102.12
336.597	98.12
336.825	101.12
337.053	95.12
337.281	90.12
337.51	96.12
337.738	93.12
337.966	84.12
338.194	100.12
338.422	98.12
338.65	92.12
338.878	93.12
339.106	97.12
339.334	89.12
339.562	83.12
339.79	84.12
340.018	73.12
340.246	104.12
340.474	93.12
340.702	90.12
340.93	97.12
341.158	86.12
341.386	99.12
341.614	96.12
341.842	90.12
342.07	73.12
342.298	76.12
342.526	72.12
342.754	84.12
342.981	94.12
343.209	101.12
343.437	104.12
343.665	93.12
343.893	98.12
344.12	78.12
344.348	84.12
344.576	88.12
344.804	91.12
345.031	93.12
345.259	98.12
345.487	82.12
345.714	100.12
345.942	86.12
346.17	101.12
346.397	81.12
346.625	94.12
346.853	103.12
347.08	90.12
347.308	94.12
347.535	93.12
347.763	104.12
347.99	102.12
348.218	90.12
348.445	101.12
348.673	103.12
348.9	89.12
349.128	92.12
349.355	102.12
349.583	100.12
349.81	91.12
350.037	95.12
350.265	93.12
350.492	86.12
350.72	98.12
350.947	107.12
351.174	112.12
351.402	120.12
351.629	119.12
351.856	97.12
352.083	94.12
352.311	98.12
352.538	114.12
352.765	112.12
352.992	106.12
353.22	111.12
353.447	99.12
353.674	110.12
353.901	105.12
354.128	91.12
354.355	97.12
354.583	91.12
354.81	97.12
355.037	84.12
355.264	97.12
355.491	98.12
355.718	92.12
355.945	103.12
356.172	105.12
356.399	98.12
356.626	84.12
356.853	100.12
357.08	98.12
357.307	94.12
357.534	89.12
357.761	100.12
357.988	93.12
358.215	105.12
358.441	88.12
358.668	98.12
358.895	93.12
359.122	90.12
359.349	104.12
359.576	104.12
359.802	97.12
360.029	93.12
360.256	109.12
360.483	97.12
360.709	92.12
360.936	105.12
361.163	92.12
361.39	98.12
361.616	93.12
361.843	84.12
362.07	72.12
362.296	93.12
362.523	93.12
362.749	85.12
362.976	85.12
363.203	92.12
363.429	82.12
363.656	77.12
363.882	77.12
364.109	95.12
364.335	88.12
364.562	80.12
364.788	90.12
365.015	86.12
365.241	96.12
365.468	118.12
365.694	92.12
365.92	106.12
366.147	85.12
366.373	90.12
366.599	97.12
366.826	91.12
367.052	93.12
367.278	95.12
367.505	89.12
367.731	91.12
367.957	90.12
368.184	97.12
368.41	102.12
368.636	111.12
368.862	114.12
369.089	95.12
369.315	103.12
369.541	94.12
369.767	93.12
369.993	77.12
370.219	113.12
370.445	91.12
370.672	93.12
370.898	105.12
371.124	101.12
371.35	70.12
371.576	88.12
371.802	82.12
372.028	87.12
372.254	89.12
372.48	83.12
372.706	97.12
372.932	90.12
373.158	80.12
373.384	86.12
373.61	80.12
373.835	94.12
374.061	91.12
374.287	116.12
374.513	103.12
374.739	90.12
374.965	70.12
375.191	91.12
375.416	92.12
375.642	98.12
375.868	85.12
376.094	88.12
376.319	94.12
376.545	88.12
376.771	85.12
376.997	102.12
377.222	86.12
377.448	103.12
377.674	105.12
377.899	87.12
378.125	79.12
378.35	88.12
378.576	86.12
378.802	96.12
379.027	88.12
379.253	89.12
379.478	90.12
379.704	99.12
379.929	96.12
380.155	80.12
380.38	92.12
380.606	80.12
380.831	90.12
381.057	105.12
381.282	100.12
381.507	85.12
381.733	110.12
381.958	97.12
382.184	104.12
382.409	106.12
382.634	120.12
382.86	97.12
383.085	111.12
383.31	107.12
383.535	92.12
383.761	92.12
383.986	95.12
384.211	104.12
384.436	110.12
384.662	94.12
384.887	107.12
385.112	103.12
385.337	105.12
385.562	101.12
385.787	97.12
386.013	105.12
386.238	106.12
386.463	110.12
386.688	110.12
386.913	86.12
387.138	114.12
387.363	97.12
387.588	111.12
387.813	101.12
388.038	106.12
388.263	116.12
388.488	119.12
388.713	92.12
388.938	88.12
389.163	93.12
389.387	101.12
389.612	86.12
389.837	106.12
390.062	93.12
390.287	90.12
390.512	96.12
390.736	94.12
390.961	95.12
391.186	101.12
391.411	95.12
391.636	92.12
391.86	90.12
392.085	82.12
392.31	92.12
392.534	66.12
392.759	90.12
392.984	94.12
393.208	88.12
393.433	89.12
393.658	82.12
393.882	72.12
394.107	78.12
394.331	82.12
394.556	68.12
394.78	92.12
395.005	100.12
395.229	92.12
395.454	92.12
395.678	80.12
395.903	80.12
396.127	70.12
396.352	88.12
396.576	96.12
396.801	94.12
397.025	96.12
397.249	91.12
397.474	80.12
397.698	78.12
397.922	101.12
398.147	83.12
398.371	101.12
398.595	92.12
398.82	86.12
399.044	84.12
399.268	77.12
399.492	88.12
399.717	78.12
399.941	78.12
400.165	95.12
400.389	99.12
400.613	85.12
400.837	93.12
401.062	92.12
401.286	84.12
401.51	90.12
401.734	79.12
401.958	111.12
402.182	123.12
402.406	152.12
402.63	130.12
402.854	93.12
403.078	77.12
403.302	84.12
403.526	86.12
403.75	93.12
403.974	80.12
404.198	89.12
404.422	84.12
404.645	78.12
404.869	78.12
405.093	91.12
405.317	82.12
405.541	96.12
405.765	109.12
405.988	113.12
406.212	153.12
406.436	224.12
406.66	145.12
406.883	97.12
407.107	96.12
407.331	86.12
407.555	96.12
407.778	102.12
408.002	101.12
408.226	80.12
408.449	76.12
408.673	74.12
408.896	90.12
409.12	96.12
409.344	105.12
409.567	88.12
409.791	91.12
410.014	90.12
410.238	82.12
410.461	80.12
410.685	98.12
410.908	104.12
411.132	109.12
411.355	104.12
411.578	87.12
411.802	94.12
412.025	85.12
412.249	87.12
412.472	94.12
412.695	101.12
412.919	96.12
413.142	84.12
413.365	92.12
413.589	97.12
413.812	92.12
414.035	97.12
414.258	82.12
414.482	98.12
414.705	101.12
414.928	86.12
415.151	94.12
415.374	85.12
415.597	92.12
415.821	89.12
416.044	90.12
416.267	87.12
416.49	90.12
416.713	90.12
416.936	85.12
417.159	94.12
417.382	92.12
417.605	80.12
417.828	84.12
418.051	88.12
418.274	89.12
418.497	95.12
418.72	80.12
418.943	91.12
419.166	75.12
419.389	106.12
419.611	95.12
419.834	93.12
420.057	87.12
420.28	89.12
420.503	84.12
420.726	86.12
420.948	85.12
421.171	92.12
421.394	82.12
421.617	89.12
421.839	98.12
422.062	84.12
422.285	98.12
422.507	105.12
422.73	97.12
422.953	89.12
423.175	91.12
423.398	94.12
423.621	85.12
423.843	87.12
424.066	89.12
424.288	88.12
424.511	101.12
424.733	81.12
424.956	103.12
425.178	94.12
425.401	84.12
425.623	98.12
425.846	87.12
426.068	100.12
426.291	89.12
426.513	92.12
426.735	78.12
426.958	94.12
427.18	102.12
427.402	125.12
427.625	156.12
427.847	114.12
428.069	90.12
428.292	92.12
428.514	89.12
428.736	87.12
428.958	88.12
429.181	96.12
429.403	74.12
429.625	91.12
429.847	97.12
430.069	101.12
430.292	89.12
430.514	90.12
430.736	86.12
430.958	88.12
431.18	90.12
431.402	86.12
431.624	89.12
431.846	78.12
432.068	93.12
432.29	81.12
432.512	91.12
432.734	91.12
432.956	82.12
433.178	94.12
433.4	110.12
433.622	103.12
433.844	90.12
434.066	92.12
434.287	88.12
434.509	76.12
434.731	92.12
434.953	80.12
435.175	80.12
435.397	82.12
435.618	104.12
435.84	103.12
436.062	122.12
436.284	98.12
436.505	105.12
436.727	106.12
436.949	88.12
437.17	92.12
437.392	79.12
437.614	92.12
437.835	100.12
438.057	105.12
438.278	101.12
438.5	85.12
438.721	111.12
438.943	98.12
439.165	83.12
439.386	77.12
439.608	97.12
439.829	92.12
440.05	120.12
440.272	147.12
440.493	97.12
440.715	88.12
440.936	90.12
441.158	90.12
441.379	77.12
441.6	90.12
441.822	96.12
442.043	103.12
442.264	89.12
442.486	81.12
442.707	86.12
442.928	99.12
443.149	109.12
443.371	126.12
443.592	111.12
443.813	101.12
444.034	120.12
444.255	87.12
444.476	82.12
444.698	79.12
444.919	80.12
445.14	133.12
445.361	120.12
445.582	116.12
445.803	140.12
446.024	125.12
446.245	131.12
446.466	97.12
446.687	95.12
446.908	86.12
447.129	83.12
447.35	90.12
447.571	104.12
447.792	91.12
448.013	101.12
448.234	103.12
448.455	99.12
448.675	109.12
448.896	116.12
449.117	110.12
449.338	84.12
449.559	121.12
449.779	136.12
450	100.12
450.221	77.12
450.442	96.12
450.662	108.12
450.883	89.12
451.104	102.12
451.324	90.12
451.545	95.12
451.766	93.12
451.986	72.12
452.207	85.12
452.428	95.12
452.648	94.12
452.869	99.12
453.089	113.12
453.31	120.12
453.53	90.12
453.751	104.12
453.971	92.12
454.192	114.12
454.412	101.12
454.633	105.12
454.853	73.12
455.073	77.12
455.294	82.12
455.514	92.12
455.734	71.12
455.955	90.12
456.175	92.12
456.395	88.12
456.616	85.12
456.836	88.12
457.056	77.12
457.276	83.12
457.497	84.12
457.717	89.12
457.937	76.12
458.157	86.12
458.377	81.12
458.598	97.12
458.818	137.12
459.038	146.12
459.258	114.12
459.478	91.12
459.698	92.12
459.918	88.12
460.138	94.12
460.358	90.12
460.578	90.12
460.798	98.12
461.018	91.12
461.238	86.12
461.458	70.12
461.678	89.12
461.898	73.12
462.118	79.12
462.338	77.12
462.558	79.12
462.777	78.12
462.997	92.12
463.217	92.12
463.437	68.12
463.657	87.12
463.876	94.12
464.096	98.12
464.316	91.12
464.536	85.12
464.755	93.12
464.975	88.12
465.195	162.12
465.414	130.12
465.634	92.12
465.854	79.12
466.073	92.12
466.293	86.12
466.512	94.12
466.732	92.12
466.951	77.12
467.171	89.12
467.391	93.12
467.61	104.12
467.829	92.12
468.049	92.12
468.268	74.12
468.488	86.12
468.707	77.12
468.927	86.12
469.146	80.12
469.365	79.12
469.585	79.12
469.804	98.12
470.023	100.12
470.243	89.12
470.462	104.12
470.681	100.12
470.901	101.12
471.12	87.12
471.339	94.12
471.558	91.12
471.777	90.12
471.997	95.12
472.216	93.12
472.435	95.12
472.654	89.12
472.873	103.12
473.092	84.12
473.311	88.12
473.53	89.12
473.749	95.12
473.968	102.12
474.187	112.12
474.406	82.12
474.625	92.12
474.844	97.12
475.063	97.12
475.282	85.12
475.501	88.12
475.72	86.12
475.939	82.12
476.158	84.12
476.377	91.12
476.596	75.12
476.814	79.12
477.033	85.12
477.252	94.12
477.471	95.12
477.69	91.12
477.908	95.12
478.127	85.12
478.346	82.12
478.564	84.12
478.783	93.12
479.002	78.12
479.22	93.12
479.439	90.12
479.658	105.12
479.876	94.12
480.095	89.12
480.313	102.12
480.532	88.12
480.751	86.12
480.969	91.12
481.188	118.12
481.406	96.12
481.624	81.12
481.843	102.12
482.061	87.12
482.28	79.12
482.498	93.12
482.717	83.12
482.935	90.12
483.153	85.12
483.372	95.12
483.59	89.12
483.808	91.12
484.027	93.12
484.245	81.12
484.463	95.12
484.681	100.12
484.9	97.12
485.118	93.12
485.336	89.12
485.554	107.12
485.772	110.12
485.99	102.12
486.209	108.12
486.427	112.12
486.645	80.12
486.863	104.12
487.081	93.12
487.299	91.12
487.517	86.12
487.735	82.12
487.953	88.12
488.171	98.12
488.389	93.12
488.607	101.12
488.825	88.12
489.043	91.12
489.261	101.12
489.479	95.12
489.696	98.12
489.914	73.12
490.132	87.12
490.35	88.12
490.568	93.12
490.786	79.12
491.003	99.12
491.221	85.12
491.439	102.12
491.657	84.12
491.874	95.12
492.092	64.12
492.31	87.12
492.527	87.12
492.745	96.12
492.963	94.12
493.18	93.12
493.398	104.12
493.615	98.12
493.833	105.12
494.05	98.12
494.268	87.12
494.485	86.12
494.703	76.12
494.92	90.12
495.138	101.12
495.355	90.12
495.573	96.12
495.79	102.12
496.008	90.12
496.225	104.12
496.442	88.12
496.66	88.12
496.877	95.12
497.094	103.12
497.312	93.12
497.529	95.12
497.746	93.12
497.963	90.12
498.181	102.12
498.398	85.12
498.615	101.12
498.832	110.12
499.049	90.12
499.267	84.12
499.484	81.12
499.701	102.12
499.918	93.12
500.135	82.12
500.352	97.12
500.569	85.12
500.786	111.12
501.003	97.12
501.22	76.12
501.437	77.12
501.654	96.12
501.871	97.12
502.088	88.12
502.305	82.12
502.522	88.12
502.739	94.12
502.956	78.12
503.172	94.12
503.389	99.12
503.606	105.12
503.823	106.12
504.04	87.12
504.256	97.12
504.473	86.12
504.69	85.12
504.907	94.12
505.123	102.12
505.34	100.12
505.557	79.12
505.773	88.12
505.99	102.12
506.207	102.12
506.423	95.12
506.64	79.12
506.856	97.12
507.073	93.12
507.289	96.12
507.506	106.12
507.722	102.12
507.939	98.12
508.155	90.12
508.372	99.12
508.588	90.12
508.805	113.12
509.021	110.12
509.238	78.12
509.454	86.12
509.67	93.12
509.887	115.12
510.103	130.12
510.319	216.12
510.536	777.12
510.752	2348.12
510.968	666.12
511.184	152.12
511.401	126.12
511.617	106.12
511.833	90.12
512.049	93.12
512.265	97.12
512.481	99.12
512.698	103.12
512.914	108.12
513.13	94.12
513.346	98.12
513.562	80.12
513.778	101.12
513.994	93.12
514.21	92.12
514.426	114.12
514.642	125.12
514.858	127.12
515.074	149.12
515.29	434.12
515.506	1392.12
515.721	493.12
