Data from Uncirc_1999_H10_HRD10591_00064.txt Node
Date: Wed Jan 03 11:22:18 EST 2024
User: Yrep
Spectrometer: HR+D1059
Trigger mode: 1
Integration Time (sec): 1.000000E-1
Scans to average: 1
Electric dark correction enabled: true
Nonlinearity correction enabled: false
Boxcar width: 0
XAxis mode: Wavelengths
Number of Pixels in Spectrum: 2048
>>>>>Begin Spectral Data<<<<<
223.165	-18.44
223.4	-18.44
223.635	-18.44
223.869	-24.44
224.104	-8.44
224.338	-17.44
224.573	-19.44
224.808	-11.44
225.042	-12.44
225.277	-1.44
225.511	-6.44
225.746	7.56
225.98	-6.44
226.215	2.56
226.449	13.56
226.683	28.56
226.918	43.56
227.152	30.56
227.387	32.56
227.621	37.56
227.856	37.56
228.09	43.56
228.324	48.56
228.559	60.56
228.793	162.56
229.027	457.56
229.262	520.56
229.496	627.56
229.73	828.56
229.964	835.56
230.199	565.56
230.433	507.56
230.667	487.56
230.901	468.56
231.136	448.56
231.37	464.56
231.604	453.56
231.838	447.56
232.072	458.56
232.306	447.56
232.541	460.56
232.775	483.56
233.009	484.56
233.243	461.56
233.477	515.56
233.711	500.56
233.945	512.56
234.179	492.56
234.413	513.56
234.647	529.56
234.881	533.56
235.115	543.56
235.349	567.56
235.583	555.56
235.817	583.56
236.051	619.56
236.285	625.56
236.519	654.56
236.753	730.56
236.987	939.56
237.221	1406.56
237.455	1552.56
237.689	922.56
237.922	755.56
238.156	703.56
238.39	687.56
238.624	645.56
238.858	663.56
239.091	654.56
239.325	684.56
239.559	686.56
239.793	711.56
240.027	761.56
240.26	921.56
240.494	981.56
240.728	959.56
240.961	951.56
241.195	832.56
241.429	795.56
241.662	787.56
241.896	794.56
242.13	774.56
242.363	780.56
242.597	814.56
242.83	839.56
243.064	805.56
243.298	842.56
243.531	831.56
243.765	861.56
243.998	860.56
244.232	856.56
244.465	909.56
244.699	927.56
244.932	925.56
245.166	925.56
245.399	911.56
245.633	906.56
245.866	906.56
246.099	931.56
246.333	1004.56
246.566	980.56
246.8	997.56
247.033	1026.56
247.266	1075.56
247.5	1151.56
247.733	1182.56
247.966	1188.56
248.2	1141.56
248.433	1167.56
248.666	1244.56
248.899	1367.56
249.133	1468.56
249.366	1442.56
249.599	1296.56
249.832	1239.56
250.066	1233.56
250.299	1267.56
250.532	1403.56
250.765	1569.56
250.998	1726.56
251.231	1691.56
251.465	1513.56
251.698	1442.56
251.931	1449.56
252.164	1392.56
252.397	1441.56
252.63	1469.56
252.863	1597.56
253.096	1724.56
253.329	1788.56
253.562	1673.56
253.795	1620.56
254.028	1544.56
254.261	1639.56
254.494	1901.56
254.727	2235.56
254.96	2274.56
255.193	1980.56
255.426	1772.56
255.659	1657.56
255.892	1634.56
256.124	1624.56
256.357	1588.56
256.59	1553.56
256.823	1558.56
257.056	1537.56
257.289	1555.56
257.521	1541.56
257.754	1573.56
257.987	1563.56
258.22	1564.56
258.452	1552.56
258.685	1559.56
258.918	1598.56
259.151	1688.56
259.383	1709.56
259.616	1749.56
259.849	1822.56
260.081	1967.56
260.314	2163.56
260.547	2128.56
260.779	1881.56
261.012	1815.56
261.244	1751.56
261.477	1754.56
261.71	1704.56
261.942	1768.56
262.175	1795.56
262.407	1711.56
262.64	1687.56
262.872	1652.56
263.105	1665.56
263.337	1679.56
263.57	1663.56
263.802	1708.56
264.035	1715.56
264.267	1691.56
264.499	1716.56
264.732	1682.56
264.964	1695.56
265.197	1743.56
265.429	1739.56
265.661	1739.56
265.894	1768.56
266.126	1743.56
266.358	1769.56
266.591	1808.56
266.823	1941.56
267.055	1909.56
267.287	1895.56
267.52	1888.56
267.752	1912.56
267.984	1891.56
268.216	1938.56
268.448	1947.56
268.681	2050.56
268.913	2171.56
269.145	2372.56
269.377	2483.56
269.609	2368.56
269.841	2276.56
270.073	2476.56
270.306	2766.56
270.538	2884.56
270.77	2721.56
271.002	2571.56
271.234	2507.56
271.466	2673.56
271.698	2819.56
271.93	2855.56
272.162	2815.56
272.394	2718.56
272.626	2538.56
272.858	2405.56
273.09	2352.56
273.322	2303.56
273.553	2301.56
273.785	2267.56
274.017	2249.56
274.249	2305.56
274.481	2304.56
274.713	2355.56
274.945	2361.56
275.176	2329.56
275.408	2331.56
275.64	2325.56
275.872	2334.56
276.104	2377.56
276.335	2382.56
276.567	2444.56
276.799	2597.56
277.031	2814.56
277.262	2917.56
277.494	2804.56
277.726	2603.56
277.957	2562.56
278.189	2499.56
278.421	2454.56
278.652	2450.56
278.884	2428.56
279.115	2420.56
279.347	2414.56
279.579	2387.56
279.81	2493.56
280.042	2415.56
280.273	2451.56
280.505	2463.56
280.736	2466.56
280.968	2466.56
281.199	2495.56
281.431	2539.56
281.662	2577.56
281.894	2529.56
282.125	2549.56
282.356	2760.56
282.588	2872.56
282.819	2722.56
283.051	2597.56
283.282	2575.56
283.513	2610.56
283.745	2649.56
283.976	2731.56
284.207	2730.56
284.439	2674.56
284.67	2740.56
284.901	2688.56
285.132	2743.56
285.364	2697.56
285.595	2640.56
285.826	2727.56
286.057	2721.56
286.288	2685.56
286.52	2761.56
286.751	2825.56
286.982	2774.56
287.213	2791.56
287.444	2825.56
287.675	2868.56
287.906	2948.56
288.138	3020.56
288.369	2991.56
288.6	2966.56
288.831	2954.56
289.062	2923.56
289.293	2865.56
289.524	2882.56
289.755	2893.56
289.986	2847.56
290.217	2855.56
290.448	2855.56
290.679	2905.56
290.91	2877.56
291.141	2928.56
291.371	2939.56
291.602	2939.56
291.833	2857.56
292.064	2874.56
292.295	2866.56
292.526	2940.56
292.757	2913.56
292.987	2885.56
293.218	2862.56
293.449	2953.56
293.68	2914.56
293.91	2935.56
294.141	2926.56
294.372	2975.56
294.603	2971.56
294.833	2985.56
295.064	2965.56
295.295	2973.56
295.525	2988.56
295.756	3039.56
295.987	3131.56
296.217	3320.56
296.448	3249.56
296.679	3091.56
296.909	3001.56
297.14	3057.56
297.37	3111.56
297.601	3163.56
297.831	3170.56
298.062	3128.56
298.292	3183.56
298.523	3200.56
298.753	3224.56
298.984	3159.56
299.214	3196.56
299.445	3160.56
299.675	3208.56
299.905	3235.56
300.136	3239.56
300.366	3236.56
300.597	3311.56
300.827	3418.56
301.057	3501.56
301.288	3503.56
301.518	3454.56
301.748	3514.56
301.979	3538.56
302.209	3513.56
302.439	3489.56
302.669	3437.56
302.9	3421.56
303.13	3417.56
303.36	3460.56
303.59	3491.56
303.82	3490.56
304.051	3461.56
304.281	3440.56
304.511	3388.56
304.741	3407.56
304.971	3393.56
305.201	3333.56
305.431	3393.56
305.661	3407.56
305.891	3357.56
306.121	3434.56
306.352	3463.56
306.582	3445.56
306.812	3328.56
307.042	3383.56
307.272	3335.56
307.502	3403.56
307.731	3414.56
307.961	3385.56
308.191	3368.56
308.421	3344.56
308.651	3400.56
308.881	3362.56
309.111	3487.56
309.341	3495.56
309.571	3608.56
309.8	3637.56
310.03	3635.56
310.26	3716.56
310.49	3687.56
310.72	3828.56
310.949	3887.56
311.179	3892.56
311.409	3724.56
311.639	3733.56
311.868	3755.56
312.098	3749.56
312.328	3905.56
312.557	4017.56
312.787	4099.56
313.017	3973.56
313.246	3963.56
313.476	3825.56
313.706	3895.56
313.935	3993.56
314.165	4050.56
314.394	4094.56
314.624	4067.56
314.853	3981.56
315.083	3916.56
315.312	3859.56
315.542	3852.56
315.771	3837.56
316.001	3808.56
316.23	3841.56
316.46	3843.56
316.689	3874.56
316.919	3873.56
317.148	3913.56
317.377	3871.56
317.607	3889.56
317.836	3859.56
318.065	3827.56
318.295	3799.56
318.524	3781.56
318.753	3766.56
318.983	3748.56
319.212	3780.56
319.441	3860.56
319.67	3839.56
319.9	3812.56
320.129	3860.56
320.358	3911.56
320.587	3860.56
320.816	3908.56
321.046	3994.56
321.275	3941.56
321.504	3984.56
321.733	3943.56
321.962	4072.56
322.191	4082.56
322.42	4255.56
322.649	4340.56
322.878	4361.56
323.108	4420.56
323.337	4751.56
323.566	4832.56
323.795	5063.56
324.024	5656.56
324.253	7358.56
324.482	11236.56
324.71	15412.56
324.939	15621.56
325.168	13387.56
325.397	6774.56
325.626	5375.56
325.855	4953.56
326.084	4839.56
326.313	4907.56
326.542	5088.56
326.77	5705.56
326.999	7252.56
327.228	10591.56
327.457	14588.56
327.686	13945.56
327.914	7469.56
328.143	5880.56
328.372	5640.56
328.6	5371.56
328.829	5306.56
329.058	5503.56
329.287	5495.56
329.515	5077.56
329.744	4939.56
329.972	4957.56
330.201	5149.56
330.43	5325.56
330.658	5521.56
330.887	5918.56
331.115	5571.56
331.344	5168.56
331.572	5037.56
331.801	5154.56
332.03	5111.56
332.258	5084.56
332.486	5124.56
332.715	5242.56
332.943	5399.56
333.172	5538.56
333.4	5682.56
333.629	5762.56
333.857	5874.56
334.085	5786.56
334.314	5686.56
334.542	5726.56
334.771	5687.56
334.999	5542.56
335.227	5415.56
335.455	5295.56
335.684	5199.56
335.912	5172.56
336.14	5060.56
336.369	5109.56
336.597	5150.56
336.825	5124.56
337.053	5063.56
337.281	4949.56
337.51	4881.56
337.738	4901.56
337.966	4933.56
338.194	4897.56
338.422	4738.56
338.65	4735.56
338.878	4682.56
339.106	4693.56
339.334	4739.56
339.562	4663.56
339.79	4530.56
340.018	4542.56
340.246	4564.56
340.474	4623.56
340.702	4546.56
340.93	4625.56
341.158	4587.56
341.386	4547.56
341.614	4567.56
341.842	4513.56
342.07	4495.56
342.298	4545.56
342.526	4517.56
342.754	4500.56
342.981	4472.56
343.209	4583.56
343.437	4868.56
343.665	5104.56
343.893	5336.56
344.12	5383.56
344.348	5161.56
344.576	4937.56
344.804	4924.56
345.031	4779.56
345.259	4794.56
345.487	4648.56
345.714	4484.56
345.942	4407.56
346.17	4387.56
346.397	4373.56
346.625	4350.56
346.853	4305.56
347.08	4378.56
347.308	4434.56
347.535	4510.56
347.763	4473.56
347.99	4489.56
348.218	4452.56
348.445	4488.56
348.673	4340.56
348.9	4303.56
349.128	4273.56
349.355	4247.56
349.583	4276.56
349.81	4233.56
350.037	4180.56
350.265	4147.56
350.492	4212.56
350.72	4210.56
350.947	4283.56
351.174	4344.56
351.402	4402.56
351.629	4357.56
351.856	4335.56
352.083	4347.56
352.311	4361.56
352.538	4434.56
352.765	4324.56
352.992	4335.56
353.22	4264.56
353.447	4185.56
353.674	4112.56
353.901	4111.56
354.128	4187.56
354.355	4145.56
354.583	4171.56
354.81	4155.56
355.037	4124.56
355.264	4121.56
355.491	4113.56
355.718	4107.56
355.945	4071.56
356.172	4127.56
356.399	4089.56
356.626	4226.56
356.853	4099.56
357.08	4093.56
357.307	4133.56
357.534	4044.56
357.761	4164.56
357.988	4141.56
358.215	4124.56
358.441	4107.56
358.668	4108.56
358.895	4199.56
359.122	4244.56
359.349	4370.56
359.576	4417.56
359.802	4621.56
360.029	4735.56
360.256	4717.56
360.483	4567.56
360.709	4372.56
360.936	4336.56
361.163	4359.56
361.39	4368.56
361.616	4340.56
361.843	4369.56
362.07	4400.56
362.296	4346.56
362.523	4277.56
362.749	4311.56
362.976	4363.56
363.203	4242.56
363.429	4211.56
363.656	4239.56
363.882	4191.56
364.109	4242.56
364.335	4088.56
364.562	4185.56
364.788	4251.56
365.015	4268.56
365.241	4168.56
365.468	4280.56
365.694	4320.56
365.92	4296.56
366.147	4199.56
366.373	4197.56
366.599	4203.56
366.826	4189.56
367.052	4152.56
367.278	4256.56
367.505	4248.56
367.731	4275.56
367.957	4188.56
368.184	4265.56
368.41	4370.56
368.636	4424.56
368.862	4443.56
369.089	4348.56
369.315	4339.56
369.541	4298.56
369.767	4345.56
369.993	4350.56
370.219	4344.56
370.445	4329.56
370.672	4337.56
370.898	4429.56
371.124	4437.56
371.35	4449.56
371.576	4421.56
371.802	4445.56
372.028	4405.56
372.254	4503.56
372.48	4511.56
372.706	4587.56
372.932	4661.56
373.158	4563.56
373.384	4540.56
373.61	4433.56
373.835	4544.56
374.061	4534.56
374.287	4594.56
374.513	4708.56
374.739	4840.56
374.965	4934.56
375.191	4871.56
375.416	4811.56
375.642	4694.56
375.868	4649.56
376.094	4602.56
376.319	4639.56
376.545	4557.56
376.771	4550.56
376.997	4486.56
377.222	4472.56
377.448	4461.56
377.674	4412.56
377.899	4395.56
378.125	4445.56
378.35	4384.56
378.576	4506.56
378.802	4437.56
379.027	4435.56
379.253	4432.56
379.478	4456.56
379.704	4435.56
379.929	4522.56
380.155	4557.56
380.38	4456.56
380.606	4524.56
380.831	4450.56
381.057	4519.56
381.282	4557.56
381.507	4580.56
381.733	4588.56
381.958	4575.56
382.184	4600.56
382.409	4739.56
382.634	4703.56
382.86	4739.56
383.085	4853.56
383.31	4984.56
383.535	4951.56
383.761	5004.56
383.986	5129.56
384.211	5219.56
384.436	5229.56
384.662	5293.56
384.887	5436.56
385.112	5392.56
385.337	5482.56
385.562	5444.56
385.787	5478.56
386.013	5582.56
386.238	5570.56
386.463	5565.56
386.688	5441.56
386.913	5391.56
387.138	5331.56
387.363	5339.56
387.588	5350.56
387.813	5375.56
388.038	5339.56
388.263	5442.56
388.488	5429.56
388.713	5378.56
388.938	5343.56
389.163	5341.56
389.387	5342.56
389.612	5214.56
389.837	5271.56
390.062	5273.56
390.287	5284.56
390.512	5319.56
390.736	5359.56
390.961	5474.56
391.186	5515.56
391.411	5719.56
391.636	5803.56
391.86	6010.56
392.085	6080.56
392.31	5952.56
392.534	5831.56
392.759	5751.56
392.984	5666.56
393.208	5599.56
393.433	5624.56
393.658	5561.56
393.882	5613.56
394.107	5625.56
394.331	5682.56
394.556	5632.56
394.78	5753.56
395.005	5775.56
395.229	5816.56
395.454	5931.56
395.678	6151.56
395.903	6085.56
396.127	6127.56
396.352	5940.56
396.576	5718.56
396.801	5720.56
397.025	5852.56
397.249	5966.56
397.474	6064.56
397.698	6060.56
397.922	6188.56
398.147	6354.56
398.371	6387.56
398.595	6611.56
398.82	6868.56
399.044	7503.56
399.268	8251.56
399.492	9362.56
399.717	10157.56
399.941	9836.56
400.165	9120.56
400.389	8463.56
400.613	7605.56
400.837	7134.56
401.062	7008.56
401.286	6867.56
401.51	6825.56
401.734	6755.56
401.958	6867.56
402.182	7036.56
402.406	7274.56
402.63	7230.56
402.854	7369.56
403.078	7431.56
403.302	7471.56
403.526	7671.56
403.75	7678.56
403.974	7746.56
404.198	7765.56
404.422	7919.56
404.645	7729.56
404.869	7630.56
405.093	7836.56
405.317	7939.56
405.541	7947.56
405.765	7637.56
405.988	7614.56
406.212	7753.56
406.436	7925.56
406.66	8141.56
406.883	8108.56
407.107	8749.56
407.331	9303.56
407.555	9879.56
407.778	9346.56
408.002	8639.56
408.226	8201.56
408.449	8066.56
408.673	8004.56
408.896	8074.56
409.12	8353.56
409.344	7879.56
409.567	7463.56
409.791	7437.56
410.014	7280.56
410.238	7286.56
410.461	7323.56
410.685	7339.56
410.908	7444.56
411.132	7695.56
411.355	7695.56
411.578	7272.56
411.802	7068.56
412.025	7007.56
412.249	7125.56
412.472	7213.56
412.695	7168.56
412.919	6876.56
413.142	6772.56
413.365	6680.56
413.589	6744.56
413.812	6626.56
414.035	6630.56
414.258	6681.56
414.482	6706.56
414.705	6782.56
414.928	6766.56
415.151	6768.56
415.374	6685.56
415.597	6609.56
415.821	6476.56
416.044	6575.56
416.267	6603.56
416.49	6570.56
416.713	6428.56
416.936	6592.56
417.159	6616.56
417.382	6701.56
417.605	6604.56
417.828	6817.56
418.051	6934.56
418.274	6914.56
418.497	6733.56
418.72	6846.56
418.943	6778.56
419.166	7273.56
419.389	7613.56
419.611	7486.56
419.834	7263.56
420.057	7090.56
420.28	6944.56
420.503	6714.56
420.726	6749.56
420.948	6989.56
421.171	7375.56
421.394	7354.56
421.617	6926.56
421.839	6823.56
422.062	6960.56
422.285	7012.56
422.507	7717.56
422.73	8442.56
422.953	7698.56
423.175	7293.56
423.398	7386.56
423.621	7334.56
423.843	7581.56
424.066	7531.56
424.288	7372.56
424.511	7634.56
424.733	8147.56
424.956	8607.56
425.178	8135.56
425.401	8275.56
425.623	8095.56
425.846	7173.56
426.068	6959.56
426.291	6857.56
426.513	6818.56
426.735	6946.56
426.958	7392.56
427.18	8258.56
427.402	9517.56
427.625	9467.56
427.847	7978.56
428.069	7075.56
428.292	6661.56
428.514	6338.56
428.736	6200.56
428.958	6264.56
429.181	6122.56
429.403	6015.56
429.625	6329.56
429.847	6657.56
430.069	7179.56
430.292	6624.56
430.514	6139.56
430.736	6176.56
430.958	5947.56
431.18	5970.56
431.402	5911.56
431.624	5888.56
431.846	5991.56
432.068	6011.56
432.29	6090.56
432.512	5962.56
432.734	6157.56
432.956	6017.56
433.178	6173.56
433.4	6063.56
433.622	5929.56
433.844	6077.56
434.066	6048.56
434.287	6083.56
434.509	6408.56
434.731	6583.56
434.953	6768.56
435.175	6874.56
435.397	7023.56
435.618	6968.56
435.84	7391.56
436.062	8249.56
436.284	8144.56
436.505	6893.56
436.727	6519.56
436.949	6245.56
437.17	6046.56
437.392	6061.56
437.614	6308.56
437.835	6754.56
438.057	7706.56
438.278	8375.56
438.5	8259.56
438.721	9135.56
438.943	7913.56
439.165	6666.56
439.386	6537.56
439.608	6566.56
439.829	6646.56
440.05	7037.56
440.272	7395.56
440.493	6659.56
440.715	6403.56
440.936	6355.56
441.158	6448.56
441.379	6573.56
441.6	6874.56
441.822	7155.56
442.043	7599.56
442.264	8484.56
442.486	8189.56
442.707	7270.56
442.928	7027.56
443.149	7204.56
443.371	7428.56
443.592	8066.56
443.813	9031.56
444.034	9085.56
444.255	7929.56
444.476	7711.56
444.698	7887.56
444.919	7925.56
445.14	7732.56
445.361	7576.56
445.582	7817.56
445.803	8407.56
446.024	9071.56
446.245	8685.56
446.466	7744.56
446.687	6761.56
446.908	6427.56
447.129	6123.56
447.35	5988.56
447.571	5868.56
447.792	5841.56
448.013	5899.56
448.234	6079.56
448.455	6866.56
448.675	8079.56
448.896	8563.56
449.117	7076.56
449.338	7251.56
449.559	8623.56
449.779	8903.56
450	6779.56
450.221	6081.56
450.442	5717.56
450.662	5752.56
450.883	5744.56
451.104	5909.56
451.324	5709.56
451.545	5554.56
451.766	5399.56
451.986	5337.56
452.207	5257.56
452.428	5216.56
452.648	5201.56
452.869	5263.56
453.089	5347.56
453.31	5545.56
453.53	5323.56
453.751	5216.56
453.971	5199.56
454.192	5327.56
454.412	5155.56
454.633	5154.56
454.853	5098.56
455.073	5113.56
455.294	5592.56
455.514	6223.56
455.734	5588.56
455.955	5035.56
456.175	4932.56
456.395	4853.56
456.616	4867.56
456.836	4841.56
457.056	4868.56
457.276	4786.56
457.497	4951.56
457.717	4914.56
457.937	5033.56
458.157	5092.56
458.377	5221.56
458.598	5492.56
458.818	6304.56
459.038	7089.56
459.258	6953.56
459.478	6170.56
459.698	6127.56
459.918	6111.56
460.138	6404.56
460.358	6549.56
460.578	6604.56
460.798	6718.56
461.018	6605.56
461.238	6513.56
461.458	6456.56
461.678	6495.56
461.898	6614.56
462.118	6647.56
462.338	7042.56
462.558	7203.56
462.777	7484.56
462.997	8063.56
463.217	8538.56
463.437	8248.56
463.657	7663.56
463.876	7442.56
464.096	7504.56
464.316	7503.56
464.536	7531.56
464.755	7312.56
464.975	7228.56
465.195	7336.56
465.414	7364.56
465.634	6506.56
465.854	6124.56
466.073	5810.56
466.293	5774.56
466.512	5535.56
466.732	5389.56
466.951	5489.56
467.171	5399.56
467.391	5486.56
467.61	5567.56
467.829	5540.56
468.049	5365.56
468.268	5235.56
468.488	5227.56
468.707	5174.56
468.927	5176.56
469.146	5240.56
469.365	5340.56
469.585	5251.56
469.804	5589.56
470.023	5692.56
470.243	5623.56
470.462	5768.56
470.681	5810.56
470.901	5757.56
471.12	5621.56
471.339	5562.56
471.558	5551.56
471.777	5402.56
471.997	5283.56
472.216	5264.56
472.435	5308.56
472.654	5229.56
472.873	5128.56
473.092	5139.56
473.311	5204.56
473.53	5208.56
473.749	5351.56
473.968	5969.56
474.187	7026.56
474.406	6477.56
474.625	5537.56
474.844	5308.56
475.063	5244.56
475.282	5205.56
475.501	5255.56
475.72	5256.56
475.939	5324.56
476.158	5431.56
476.377	5357.56
476.596	5401.56
476.814	5581.56
477.033	5609.56
477.252	5756.56
477.471	5753.56
477.69	5884.56
477.908	6056.56
478.127	6153.56
478.346	6334.56
478.564	6428.56
478.783	6409.56
479.002	6529.56
479.22	6596.56
479.439	6689.56
479.658	6817.56
479.876	6837.56
480.095	7103.56
480.313	7529.56
480.532	7355.56
480.751	7229.56
480.969	7086.56
481.188	7126.56
481.406	6817.56
481.624	6512.56
481.843	6402.56
482.061	6263.56
482.28	6216.56
482.498	6104.56
482.717	6099.56
482.935	6124.56
483.153	6145.56
483.372	6066.56
483.59	6089.56
483.808	6114.56
484.027	6118.56
484.245	6167.56
484.463	6125.56
484.681	6298.56
484.9	6371.56
485.118	6417.56
485.336	6394.56
485.554	6469.56
485.772	6522.56
485.99	6579.56
486.209	6586.56
486.427	6662.56
486.645	6663.56
486.863	6750.56
487.081	6744.56
487.299	6596.56
487.517	6578.56
487.735	6506.56
