Data from Uncirc_1999_H10_HRD10591_00004.txt Node
Date: Wed Jan 03 11:22:06 EST 2024
User: Yrep
Spectrometer: HR+D1059
Trigger mode: 1
Integration Time (sec): 1.000000E-1
Scans to average: 1
Electric dark correction enabled: true
Nonlinearity correction enabled: false
Boxcar width: 0
XAxis mode: Wavelengths
Number of Pixels in Spectrum: 2048
>>>>>Begin Spectral Data<<<<<
223.165	-22.44
223.4	-22.44
223.635	-22.44
223.869	-28.44
224.104	3.56
224.338	-17.44
224.573	-17.44
224.808	-20.44
225.042	-2.44
225.277	-4.44
225.511	-18.44
225.746	6.56
225.98	1.56
226.215	11.56
226.449	17.56
226.683	21.56
226.918	42.56
227.152	26.56
227.387	38.56
227.621	30.56
227.856	37.56
228.09	34.56
228.324	47.56
228.559	54.56
228.793	65.56
229.027	69.56
229.262	47.56
229.496	78.56
229.73	76.56
229.964	76.56
230.199	76.56
230.433	63.56
230.667	83.56
230.901	73.56
231.136	90.56
231.37	70.56
231.604	64.56
231.838	68.56
232.072	76.56
232.306	78.56
232.541	80.56
232.775	81.56
233.009	76.56
233.243	90.56
233.477	69.56
233.711	77.56
233.945	84.56
234.179	69.56
234.413	71.56
234.647	61.56
234.881	74.56
235.115	73.56
235.349	79.56
235.583	82.56
235.817	80.56
236.051	74.56
236.285	93.56
236.519	85.56
236.753	74.56
236.987	80.56
237.221	89.56
237.455	73.56
237.689	70.56
237.922	86.56
238.156	64.56
238.39	72.56
238.624	63.56
238.858	81.56
239.091	75.56
239.325	60.56
239.559	75.56
239.793	90.56
240.027	79.56
240.26	70.56
240.494	62.56
240.728	73.56
240.961	55.56
241.195	74.56
241.429	74.56
241.662	73.56
241.896	77.56
242.13	69.56
242.363	50.56
242.597	61.56
242.83	59.56
243.064	55.56
243.298	66.56
243.531	77.56
243.765	69.56
243.998	78.56
244.232	77.56
244.465	94.56
244.699	68.56
244.932	69.56
245.166	74.56
245.399	65.56
245.633	75.56
245.866	66.56
246.099	72.56
246.333	63.56
246.566	86.56
246.8	66.56
247.033	77.56
247.266	62.56
247.5	79.56
247.733	90.56
247.966	79.56
248.2	89.56
248.433	76.56
248.666	76.56
248.899	53.56
249.133	81.56
249.366	107.56
249.599	94.56
249.832	92.56
250.066	73.56
250.299	79.56
250.532	70.56
250.765	81.56
250.998	73.56
251.231	76.56
251.465	73.56
251.698	82.56
251.931	90.56
252.164	76.56
252.397	69.56
252.63	79.56
252.863	70.56
253.096	73.56
253.329	82.56
253.562	81.56
253.795	76.56
254.028	72.56
254.261	73.56
254.494	67.56
254.727	66.56
254.96	65.56
255.193	74.56
255.426	77.56
255.659	65.56
255.892	88.56
256.124	80.56
256.357	70.56
256.59	63.56
256.823	75.56
257.056	70.56
257.289	73.56
257.521	81.56
257.754	75.56
257.987	74.56
258.22	82.56
258.452	76.56
258.685	78.56
258.918	81.56
259.151	74.56
259.383	81.56
259.616	92.56
259.849	79.56
260.081	83.56
260.314	88.56
260.547	88.56
260.779	70.56
261.012	77.56
261.244	73.56
261.477	82.56
261.71	85.56
261.942	92.56
262.175	94.56
262.407	81.56
262.64	69.56
262.872	80.56
263.105	90.56
263.337	81.56
263.57	69.56
263.802	76.56
264.035	69.56
264.267	77.56
264.499	78.56
264.732	82.56
264.964	91.56
265.197	61.56
265.429	84.56
265.661	91.56
265.894	89.56
266.126	90.56
266.358	85.56
266.591	78.56
266.823	82.56
267.055	94.56
267.287	77.56
267.52	70.56
267.752	83.56
267.984	80.56
268.216	80.56
268.448	72.56
268.681	74.56
268.913	70.56
269.145	78.56
269.377	77.56
269.609	76.56
269.841	76.56
270.073	81.56
270.306	89.56
270.538	84.56
270.77	75.56
271.002	74.56
271.234	85.56
271.466	70.56
271.698	77.56
271.93	84.56
272.162	84.56
272.394	78.56
272.626	93.56
272.858	80.56
273.09	85.56
273.322	92.56
273.553	83.56
273.785	86.56
274.017	88.56
274.249	77.56
274.481	83.56
274.713	94.56
274.945	70.56
275.176	77.56
275.408	93.56
275.64	76.56
275.872	82.56
276.104	82.56
276.335	82.56
276.567	94.56
276.799	95.56
277.031	90.56
277.262	87.56
277.494	90.56
277.726	88.56
277.957	71.56
278.189	74.56
278.421	77.56
278.652	85.56
278.884	94.56
279.115	97.56
279.347	82.56
279.579	76.56
279.81	78.56
280.042	85.56
280.273	86.56
280.505	73.56
280.736	98.56
280.968	78.56
281.199	78.56
281.431	81.56
281.662	72.56
281.894	97.56
282.125	91.56
282.356	114.56
282.588	94.56
282.819	95.56
283.051	88.56
283.282	79.56
283.513	85.56
283.745	85.56
283.976	87.56
284.207	88.56
284.439	78.56
284.67	71.56
284.901	85.56
285.132	88.56
285.364	89.56
285.595	77.56
285.826	85.56
286.057	83.56
286.288	71.56
286.52	78.56
286.751	87.56
286.982	92.56
287.213	83.56
287.444	95.56
287.675	80.56
287.906	89.56
288.138	91.56
288.369	79.56
288.6	84.56
288.831	86.56
289.062	70.56
289.293	85.56
289.524	87.56
289.755	94.56
289.986	90.56
290.217	92.56
290.448	81.56
290.679	75.56
290.91	90.56
291.141	77.56
291.371	84.56
291.602	94.56
291.833	87.56
292.064	83.56
292.295	80.56
292.526	84.56
292.757	88.56
292.987	71.56
293.218	94.56
293.449	92.56
293.68	84.56
293.91	79.56
294.141	80.56
294.372	100.56
294.603	86.56
294.833	91.56
295.064	76.56
295.295	83.56
295.525	90.56
295.756	103.56
295.987	85.56
296.217	103.56
296.448	107.56
296.679	91.56
296.909	92.56
297.14	86.56
297.37	83.56
297.601	81.56
297.831	75.56
298.062	88.56
298.292	77.56
298.523	87.56
298.753	92.56
298.984	71.56
299.214	58.56
299.445	89.56
299.675	80.56
299.905	88.56
300.136	98.56
300.366	84.56
300.597	89.56
300.827	95.56
301.057	99.56
301.288	89.56
301.518	89.56
301.748	77.56
301.979	113.56
302.209	96.56
302.439	74.56
302.669	64.56
302.9	93.56
303.13	92.56
303.36	100.56
303.59	85.56
303.82	94.56
304.051	83.56
304.281	80.56
304.511	83.56
304.741	73.56
304.971	76.56
305.201	77.56
305.431	91.56
305.661	97.56
305.891	89.56
306.121	82.56
306.352	88.56
306.582	83.56
306.812	82.56
307.042	84.56
307.272	85.56
307.502	96.56
307.731	90.56
307.961	89.56
308.191	90.56
308.421	86.56
308.651	83.56
308.881	83.56
309.111	89.56
309.341	75.56
309.571	104.56
309.8	79.56
310.03	98.56
310.26	96.56
310.49	89.56
310.72	97.56
310.949	99.56
311.179	86.56
311.409	94.56
311.639	94.56
311.868	85.56
312.098	95.56
312.328	86.56
312.557	89.56
312.787	91.56
313.017	79.56
313.246	94.56
313.476	87.56
313.706	93.56
313.935	86.56
314.165	88.56
314.394	81.56
314.624	99.56
314.853	98.56
315.083	74.56
315.312	84.56
315.542	81.56
315.771	88.56
316.001	88.56
316.23	88.56
316.46	81.56
316.689	85.56
316.919	81.56
317.148	76.56
317.377	81.56
317.607	87.56
317.836	94.56
318.065	93.56
318.295	91.56
318.524	85.56
318.753	75.56
318.983	97.56
319.212	90.56
319.441	107.56
319.67	90.56
319.9	107.56
320.129	94.56
320.358	99.56
320.587	93.56
320.816	85.56
321.046	92.56
321.275	81.56
321.504	88.56
321.733	85.56
321.962	100.56
322.191	92.56
322.42	89.56
322.649	96.56
322.878	83.56
323.108	117.56
323.337	113.56
323.566	120.56
323.795	133.56
324.024	167.56
324.253	310.56
324.482	659.56
324.71	1300.56
324.939	1699.56
325.168	642.56
325.397	215.56
325.626	147.56
325.855	124.56
326.084	102.56
326.313	115.56
326.542	133.56
326.77	193.56
326.999	383.56
327.228	764.56
327.457	1350.56
327.686	1079.56
327.914	312.56
328.143	153.56
328.372	119.56
328.6	119.56
328.829	113.56
329.058	97.56
329.287	122.56
329.515	107.56
329.744	100.56
329.972	114.56
330.201	93.56
330.43	114.56
330.658	102.56
330.887	108.56
331.115	97.56
331.344	86.56
331.572	88.56
331.801	90.56
332.03	96.56
332.258	93.56
332.486	75.56
332.715	89.56
332.943	92.56
333.172	81.56
333.4	89.56
333.629	86.56
333.857	87.56
334.085	94.56
334.314	95.56
334.542	100.56
334.771	92.56
334.999	95.56
335.227	69.56
335.455	85.56
335.684	98.56
335.912	96.56
336.14	88.56
336.369	86.56
336.597	94.56
336.825	95.56
337.053	86.56
337.281	91.56
337.51	85.56
337.738	95.56
337.966	90.56
338.194	93.56
338.422	90.56
338.65	102.56
338.878	87.56
339.106	82.56
339.334	89.56
339.562	92.56
339.79	72.56
340.018	97.56
340.246	98.56
340.474	81.56
340.702	91.56
340.93	95.56
341.158	100.56
341.386	89.56
341.614	81.56
341.842	92.56
342.07	77.56
342.298	101.56
342.526	106.56
342.754	85.56
342.981	82.56
343.209	83.56
343.437	92.56
343.665	77.56
343.893	95.56
344.12	74.56
344.348	92.56
344.576	84.56
344.804	84.56
345.031	85.56
345.259	95.56
345.487	86.56
345.714	94.56
345.942	89.56
346.17	94.56
346.397	96.56
346.625	85.56
346.853	93.56
347.08	84.56
347.308	86.56
347.535	83.56
347.763	90.56
347.99	84.56
348.218	105.56
348.445	85.56
348.673	104.56
348.9	100.56
349.128	85.56
349.355	86.56
349.583	97.56
349.81	82.56
350.037	97.56
350.265	97.56
350.492	99.56
350.72	88.56
350.947	100.56
351.174	93.56
351.402	86.56
351.629	95.56
351.856	96.56
352.083	109.56
352.311	99.56
352.538	121.56
352.765	106.56
352.992	119.56
353.22	99.56
353.447	106.56
353.674	98.56
353.901	87.56
354.128	97.56
354.355	109.56
354.583	95.56
354.81	82.56
355.037	108.56
355.264	94.56
355.491	93.56
355.718	91.56
355.945	102.56
356.172	108.56
356.399	91.56
356.626	108.56
356.853	94.56
357.08	101.56
357.307	98.56
357.534	92.56
357.761	81.56
357.988	93.56
358.215	102.56
358.441	109.56
358.668	106.56
358.895	90.56
359.122	92.56
359.349	91.56
359.576	90.56
359.802	103.56
360.029	108.56
360.256	107.56
360.483	95.56
360.709	87.56
360.936	80.56
361.163	75.56
361.39	96.56
361.616	93.56
361.843	88.56
362.07	87.56
362.296	79.56
362.523	89.56
362.749	77.56
362.976	87.56
363.203	85.56
363.429	70.56
363.656	94.56
363.882	79.56
364.109	85.56
364.335	85.56
364.562	95.56
364.788	73.56
365.015	82.56
365.241	90.56
365.468	101.56
365.694	90.56
365.92	92.56
366.147	83.56
366.373	86.56
366.599	86.56
366.826	86.56
367.052	78.56
367.278	79.56
367.505	92.56
367.731	95.56
367.957	85.56
368.184	91.56
368.41	87.56
368.636	101.56
368.862	89.56
369.089	103.56
369.315	82.56
369.541	97.56
369.767	104.56
369.993	92.56
370.219	95.56
370.445	82.56
370.672	84.56
370.898	93.56
371.124	84.56
371.35	91.56
371.576	85.56
371.802	90.56
372.028	95.56
372.254	78.56
372.48	90.56
372.706	81.56
372.932	100.56
373.158	95.56
373.384	93.56
373.61	85.56
373.835	88.56
374.061	88.56
374.287	77.56
374.513	95.56
374.739	92.56
374.965	90.56
375.191	88.56
375.416	82.56
375.642	91.56
375.868	91.56
376.094	83.56
376.319	107.56
376.545	95.56
376.771	99.56
376.997	85.56
377.222	89.56
377.448	100.56
377.674	96.56
377.899	100.56
378.125	87.56
378.35	94.56
378.576	104.56
378.802	96.56
379.027	101.56
379.253	112.56
379.478	94.56
379.704	102.56
379.929	110.56
380.155	102.56
380.38	99.56
380.606	104.56
380.831	104.56
381.057	101.56
381.282	115.56
381.507	114.56
381.733	107.56
381.958	112.56
382.184	127.56
382.409	123.56
382.634	127.56
382.86	131.56
383.085	141.56
383.31	140.56
383.535	127.56
383.761	118.56
383.986	130.56
384.211	139.56
384.436	125.56
384.662	136.56
384.887	149.56
385.112	159.56
385.337	164.56
385.562	169.56
385.787	154.56
386.013	166.56
386.238	178.56
386.463	145.56
386.688	140.56
386.913	163.56
387.138	163.56
387.363	142.56
387.588	126.56
387.813	145.56
388.038	179.56
388.263	183.56
388.488	165.56
388.713	110.56
388.938	110.56
389.163	99.56
389.387	102.56
389.612	94.56
389.837	92.56
390.062	107.56
390.287	97.56
390.512	76.56
390.736	83.56
390.961	94.56
391.186	94.56
391.411	98.56
391.636	98.56
391.86	91.56
392.085	95.56
392.31	91.56
392.534	77.56
392.759	90.56
392.984	91.56
393.208	83.56
393.433	98.56
393.658	109.56
393.882	88.56
394.107	89.56
394.331	83.56
394.556	67.56
394.78	86.56
395.005	86.56
395.229	75.56
395.454	78.56
395.678	93.56
395.903	83.56
396.127	89.56
396.352	93.56
396.576	73.56
396.801	87.56
397.025	92.56
397.249	82.56
397.474	87.56
397.698	82.56
397.922	89.56
398.147	81.56
398.371	87.56
398.595	95.56
398.82	90.56
399.044	89.56
399.268	88.56
399.492	89.56
399.717	91.56
399.941	76.56
400.165	81.56
400.389	77.56
400.613	86.56
400.837	70.56
401.062	85.56
401.286	83.56
401.51	94.56
401.734	88.56
401.958	90.56
402.182	104.56
402.406	111.56
402.63	101.56
402.854	78.56
403.078	102.56
403.302	94.56
403.526	86.56
403.75	92.56
403.974	90.56
404.198	79.56
404.422	80.56
404.645	84.56
404.869	95.56
405.093	87.56
405.317	98.56
405.541	93.56
405.765	85.56
405.988	106.56
406.212	158.56
406.436	164.56
406.66	119.56
406.883	103.56
407.107	95.56
407.331	83.56
407.555	88.56
407.778	85.56
408.002	88.56
408.226	78.56
408.449	83.56
408.673	81.56
408.896	98.56
409.12	100.56
409.344	93.56
409.567	98.56
409.791	88.56
410.014	85.56
410.238	91.56
410.461	102.56
410.685	103.56
410.908	106.56
411.132	97.56
411.355	92.56
411.578	102.56
411.802	94.56
412.025	93.56
412.249	87.56
412.472	95.56
412.695	98.56
412.919	81.56
413.142	86.56
413.365	105.56
413.589	81.56
413.812	90.56
414.035	107.56
414.258	100.56
414.482	82.56
414.705	90.56
414.928	95.56
415.151	106.56
415.374	112.56
415.597	95.56
415.821	93.56
416.044	87.56
416.267	92.56
416.49	88.56
416.713	99.56
416.936	99.56
417.159	83.56
417.382	84.56
417.605	78.56
417.828	95.56
418.051	98.56
418.274	91.56
418.497	104.56
418.72	81.56
418.943	89.56
419.166	75.56
419.389	91.56
419.611	103.56
419.834	95.56
420.057	87.56
420.28	102.56
420.503	75.56
420.726	93.56
420.948	99.56
421.171	89.56
421.394	81.56
421.617	95.56
421.839	87.56
422.062	86.56
422.285	93.56
422.507	94.56
422.73	83.56
422.953	91.56
423.175	78.56
423.398	76.56
423.621	73.56
423.843	81.56
424.066	86.56
424.288	88.56
424.511	85.56
424.733	102.56
424.956	81.56
425.178	87.56
425.401	84.56
425.623	87.56
425.846	89.56
426.068	87.56
426.291	98.56
426.513	87.56
426.735	81.56
426.958	84.56
427.18	107.56
427.402	121.56
427.625	137.56
427.847	108.56
428.069	111.56
428.292	90.56
428.514	88.56
428.736	84.56
428.958	95.56
429.181	86.56
429.403	92.56
429.625	95.56
429.847	79.56
430.069	102.56
430.292	77.56
430.514	77.56
430.736	84.56
430.958	95.56
431.18	90.56
431.402	84.56
431.624	78.56
431.846	73.56
432.068	84.56
432.29	95.56
432.512	90.56
432.734	91.56
432.956	89.56
433.178	74.56
433.4	87.56
433.622	105.56
433.844	95.56
434.066	82.56
434.287	99.56
434.509	86.56
434.731	91.56
434.953	90.56
435.175	85.56
435.397	94.56
435.618	93.56
435.84	93.56
436.062	102.56
436.284	100.56
436.505	84.56
436.727	95.56
436.949	87.56
437.17	83.56
437.392	107.56
437.614	100.56
437.835	98.56
438.057	100.56
438.278	87.56
438.5	93.56
438.721	105.56
438.943	98.56
439.165	82.56
439.386	87.56
439.608	87.56
439.829	102.56
440.05	110.56
440.272	126.56
440.493	87.56
440.715	90.56
440.936	89.56
441.158	73.56
441.379	85.56
441.6	82.56
441.822	92.56
442.043	86.56
442.264	88.56
442.486	95.56
442.707	109.56
442.928	101.56
443.149	102.56
443.371	107.56
443.592	90.56
443.813	99.56
444.034	89.56
444.255	81.56
444.476	88.56
444.698	89.56
444.919	79.56
445.14	138.56
445.361	115.56
445.582	107.56
445.803	119.56
446.024	120.56
446.245	104.56
446.466	105.56
446.687	70.56
446.908	83.56
447.129	96.56
447.35	86.56
447.571	90.56
447.792	93.56
448.013	74.56
448.234	86.56
448.455	83.56
448.675	118.56
448.896	94.56
449.117	76.56
449.338	103.56
449.559	119.56
449.779	123.56
450	100.56
450.221	87.56
450.442	72.56
450.662	81.56
450.883	93.56
451.104	100.56
451.324	95.56
451.545	69.56
451.766	76.56
451.986	93.56
452.207	93.56
452.428	86.56
452.648	87.56
452.869	100.56
453.089	99.56
453.31	104.56
453.53	90.56
453.751	98.56
453.971	95.56
454.192	103.56
454.412	82.56
454.633	98.56
454.853	84.56
455.073	73.56
455.294	84.56
455.514	93.56
455.734	73.56
455.955	76.56
456.175	84.56
456.395	81.56
456.616	82.56
456.836	69.56
457.056	80.56
457.276	87.56
457.497	83.56
457.717	103.56
457.937	89.56
458.157	88.56
458.377	71.56
458.598	99.56
458.818	105.56
459.038	120.56
459.258	103.56
459.478	87.56
459.698	75.56
459.918	83.56
460.138	79.56
460.358	87.56
460.578	82.56
460.798	85.56
461.018	89.56
461.238	83.56
461.458	78.56
461.678	83.56
461.898	87.56
462.118	96.56
462.338	85.56
462.558	88.56
462.777	70.56
462.997	81.56
463.217	92.56
463.437	97.56
463.657	80.56
463.876	89.56
464.096	86.56
464.316	83.56
464.536	89.56
464.755	91.56
464.975	97.56
465.195	125.56
465.414	115.56
465.634	77.56
465.854	88.56
466.073	70.56
466.293	93.56
466.512	86.56
466.732	77.56
466.951	86.56
467.171	93.56
467.391	90.56
467.61	77.56
467.829	75.56
468.049	85.56
468.268	91.56
468.488	81.56
468.707	81.56
468.927	84.56
469.146	76.56
469.365	101.56
469.585	85.56
469.804	89.56
470.023	88.56
470.243	91.56
470.462	89.56
470.681	89.56
470.901	94.56
471.12	77.56
471.339	89.56
471.558	93.56
471.777	99.56
471.997	84.56
472.216	87.56
472.435	98.56
472.654	89.56
472.873	81.56
473.092	87.56
473.311	82.56
473.53	90.56
473.749	94.56
473.968	103.56
474.187	98.56
474.406	81.56
474.625	90.56
474.844	93.56
475.063	84.56
475.282	86.56
475.501	81.56
475.72	71.56
475.939	92.56
476.158	83.56
476.377	72.56
476.596	92.56
476.814	80.56
477.033	81.56
477.252	81.56
477.471	74.56
477.69	83.56
477.908	84.56
478.127	85.56
478.346	94.56
478.564	86.56
478.783	97.56
479.002	95.56
479.22	101.56
479.439	102.56
479.658	85.56
479.876	93.56
480.095	87.56
480.313	84.56
480.532	75.56
480.751	91.56
480.969	71.56
481.188	118.56
481.406	93.56
481.624	74.56
481.843	88.56
482.061	69.56
482.28	92.56
482.498	94.56
482.717	90.56
482.935	98.56
483.153	86.56
483.372	93.56
483.59	94.56
483.808	78.56
484.027	86.56
484.245	92.56
484.463	84.56
484.681	102.56
484.9	92.56
485.118	88.56
485.336	102.56
485.554	110.56
485.772	105.56
485.99	109.56
486.209	111.56
486.427	102.56
486.645	114.56
486.863	110.56
487.081	96.56
487.299	89.56
487.517	107.56
487.735	87.56
487.953	113.56
488.171	110.56
488.389	104.56
488.607	100.56
488.825	91.56
489.043	71.56
489.261	96.56
489.479	82.56
489.696	83.56
489.914	92.56
490.132	81.56
490.35	104.56
490.568	103.56
490.786	91.56
491.003	89.56
491.221	92.56
491.439	94.56
491.657	89.56
491.874	100.56
492.092	81.56
492.31	88.56
492.527	83.56
492.745	91.56
492.963	70.56
493.18	82.56
493.398	90.56
493.615	100.56
493.833	90.56
494.05	94.56
494.268	77.56
494.485	83.56
494.703	83.56
494.92	86.56
495.138	87.56
495.355	90.56
495.573	105.56
495.79	103.56
496.008	104.56
496.225	89.56
496.442	88.56
496.66	91.56
496.877	79.56
497.094	93.56
497.312	85.56
497.529	86.56
497.746	109.56
497.963	80.56
498.181	90.56
498.398	86.56
498.615	108.56
498.832	97.56
499.049	95.56
499.267	80.56
499.484	89.56
499.701	73.56
499.918	76.56
500.135	83.56
500.352	93.56
500.569	82.56
500.786	93.56
501.003	102.56
501.22	85.56
501.437	78.56
501.654	92.56
501.871	100.56
502.088	92.56
502.305	100.56
502.522	103.56
502.739	77.56
502.956	76.56
503.172	82.56
503.389	92.56
503.606	102.56
503.823	92.56
504.04	82.56
504.256	78.56
504.473	87.56
504.69	86.56
504.907	81.56
505.123	74.56
505.34	89.56
505.557	95.56
505.773	90.56
505.99	94.56
506.207	73.56
506.423	87.56
506.64	93.56
506.856	86.56
507.073	75.56
507.289	101.56
507.506	100.56
507.722	107.56
507.939	114.56
508.155	82.56
508.372	86.56
508.588	86.56
508.805	101.56
509.021	113.56
509.238	105.56
509.454	97.56
509.67	92.56
509.887	110.56
510.103	121.56
510.319	171.56
510.536	540.56
510.752	1507.56
510.968	437.56
511.184	129.56
511.401	87.56
511.617	87.56
511.833	102.56
512.049	90.56
512.265	89.56
512.481	86.56
512.698	86.56
512.914	81.56
513.13	111.56
513.346	91.56
513.562	80.56
513.778	107.56
513.994	78.56
514.21	92.56
514.426	98.56
514.642	105.56
514.858	102.56
515.074	136.56
515.29	304.56
515.506	890.56
515.721	349.56
515.937	116.56
516.153	97.56
516.369	90.56
516.585	94.56
