Data from Uncirc_1999_H10_HRD10591_00075.txt Node
Date: Wed Jan 03 11:22:20 EST 2024
User: Yrep
Spectrometer: HR+D1059
Trigger mode: 1
Integration Time (sec): 1.000000E-1
Scans to average: 1
Electric dark correction enabled: true
Nonlinearity correction enabled: false
Boxcar width: 0
XAxis mode: Wavelengths
Number of Pixels in Spectrum: 2048
>>>>>Begin Spectral Data<<<<<
223.165	-18.94
223.4	-18.94
223.635	-18.94
223.869	-18.94
224.104	-4.94
224.338	-17.94
224.573	-8.94
224.808	-14.94
225.042	-6.94
225.277	-25.94
225.511	-18.94
225.746	0.06
225.98	15.06
226.215	13.06
226.449	15.06
226.683	25.06
226.918	32.06
227.152	36.06
227.387	27.06
227.621	42.06
227.856	38.06
228.09	55.06
228.324	40.06
228.559	57.06
228.793	52.06
229.027	56.06
229.262	65.06
229.496	74.06
229.73	81.06
229.964	86.06
230.199	72.06
230.433	92.06
230.667	65.06
230.901	81.06
231.136	78.06
231.37	77.06
231.604	74.06
231.838	67.06
232.072	82.06
232.306	77.06
232.541	69.06
232.775	72.06
233.009	80.06
233.243	73.06
233.477	68.06
233.711	85.06
233.945	77.06
234.179	68.06
234.413	90.06
234.647	70.06
234.881	78.06
235.115	78.06
235.349	82.06
235.583	62.06
235.817	83.06
236.051	76.06
236.285	67.06
236.519	77.06
236.753	71.06
236.987	65.06
237.221	74.06
237.455	80.06
237.689	79.06
237.922	78.06
238.156	77.06
238.39	75.06
238.624	72.06
238.858	73.06
239.091	79.06
239.325	64.06
239.559	60.06
239.793	84.06
240.027	88.06
240.26	76.06
240.494	82.06
240.728	68.06
240.961	58.06
241.195	74.06
241.429	74.06
241.662	73.06
241.896	77.06
242.13	68.06
242.363	65.06
242.597	70.06
242.83	88.06
243.064	74.06
243.298	84.06
243.531	76.06
243.765	80.06
243.998	89.06
244.232	72.06
244.465	98.06
244.699	85.06
244.932	74.06
245.166	84.06
245.399	90.06
245.633	61.06
245.866	86.06
246.099	72.06
246.333	77.06
246.566	81.06
246.8	80.06
247.033	77.06
247.266	88.06
247.5	78.06
247.733	80.06
247.966	80.06
248.2	86.06
248.433	70.06
248.666	78.06
248.899	80.06
249.133	81.06
249.366	92.06
249.599	95.06
249.832	97.06
250.066	78.06
250.299	93.06
250.532	85.06
250.765	85.06
250.998	85.06
251.231	75.06
251.465	78.06
251.698	79.06
251.931	91.06
252.164	74.06
252.397	85.06
252.63	82.06
252.863	81.06
253.096	75.06
253.329	72.06
253.562	78.06
253.795	70.06
254.028	71.06
254.261	80.06
254.494	85.06
254.727	86.06
254.96	81.06
255.193	82.06
255.426	81.06
255.659	92.06
255.892	87.06
256.124	76.06
256.357	89.06
256.59	72.06
256.823	82.06
257.056	74.06
257.289	93.06
257.521	68.06
257.754	76.06
257.987	66.06
258.22	74.06
258.452	84.06
258.685	96.06
258.918	78.06
259.151	79.06
259.383	79.06
259.616	88.06
259.849	95.06
260.081	93.06
260.314	71.06
260.547	86.06
260.779	75.06
261.012	72.06
261.244	78.06
261.477	77.06
261.71	73.06
261.942	114.06
262.175	111.06
262.407	94.06
262.64	79.06
262.872	84.06
263.105	76.06
263.337	84.06
263.57	94.06
263.802	76.06
264.035	81.06
264.267	70.06
264.499	75.06
264.732	65.06
264.964	83.06
265.197	74.06
265.429	81.06
265.661	78.06
265.894	78.06
266.126	91.06
266.358	81.06
266.591	79.06
266.823	81.06
267.055	80.06
267.287	75.06
267.52	75.06
267.752	86.06
267.984	81.06
268.216	69.06
268.448	79.06
268.681	81.06
268.913	92.06
269.145	97.06
269.377	77.06
269.609	81.06
269.841	69.06
270.073	85.06
270.306	85.06
270.538	91.06
270.77	101.06
271.002	72.06
271.234	84.06
271.466	76.06
271.698	87.06
271.93	101.06
272.162	77.06
272.394	88.06
272.626	76.06
272.858	76.06
273.09	106.06
273.322	78.06
273.553	94.06
273.785	99.06
274.017	79.06
274.249	85.06
274.481	81.06
274.713	85.06
274.945	86.06
275.176	86.06
275.408	81.06
275.64	91.06
275.872	83.06
276.104	79.06
276.335	82.06
276.567	94.06
276.799	91.06
277.031	106.06
277.262	88.06
277.494	96.06
277.726	103.06
277.957	80.06
278.189	73.06
278.421	77.06
278.652	100.06
278.884	95.06
279.115	86.06
279.347	93.06
279.579	79.06
279.81	89.06
280.042	88.06
280.273	70.06
280.505	72.06
280.736	77.06
280.968	80.06
281.199	92.06
281.431	83.06
281.662	93.06
281.894	89.06
282.125	90.06
282.356	104.06
282.588	122.06
282.819	114.06
283.051	82.06
283.282	84.06
283.513	81.06
283.745	88.06
283.976	78.06
284.207	84.06
284.439	91.06
284.67	85.06
284.901	91.06
285.132	98.06
285.364	75.06
285.595	93.06
285.826	85.06
286.057	81.06
286.288	69.06
286.52	96.06
286.751	89.06
286.982	89.06
287.213	84.06
287.444	88.06
287.675	70.06
287.906	88.06
288.138	84.06
288.369	91.06
288.6	83.06
288.831	71.06
289.062	103.06
289.293	91.06
289.524	103.06
289.755	77.06
289.986	84.06
290.217	93.06
290.448	84.06
290.679	83.06
290.91	91.06
291.141	89.06
291.371	86.06
291.602	98.06
291.833	84.06
292.064	88.06
292.295	96.06
292.526	76.06
292.757	74.06
292.987	91.06
293.218	82.06
293.449	87.06
293.68	68.06
293.91	90.06
294.141	98.06
294.372	91.06
294.603	84.06
294.833	91.06
295.064	95.06
295.295	90.06
295.525	96.06
295.756	101.06
295.987	122.06
296.217	126.06
296.448	119.06
296.679	102.06
296.909	100.06
297.14	89.06
297.37	89.06
297.601	89.06
297.831	104.06
298.062	83.06
298.292	78.06
298.523	91.06
298.753	87.06
298.984	108.06
299.214	77.06
299.445	97.06
299.675	88.06
299.905	76.06
300.136	88.06
300.366	78.06
300.597	91.06
300.827	90.06
301.057	90.06
301.288	101.06
301.518	102.06
301.748	84.06
301.979	92.06
302.209	80.06
302.439	83.06
302.669	84.06
302.9	93.06
303.13	90.06
303.36	90.06
303.59	103.06
303.82	116.06
304.051	79.06
304.281	96.06
304.511	87.06
304.741	88.06
304.971	97.06
305.201	94.06
305.431	98.06
305.661	97.06
305.891	84.06
306.121	87.06
306.352	89.06
306.582	109.06
306.812	87.06
307.042	98.06
307.272	91.06
307.502	89.06
307.731	103.06
307.961	90.06
308.191	72.06
308.421	91.06
308.651	104.06
308.881	90.06
309.111	80.06
309.341	82.06
309.571	122.06
309.8	104.06
310.03	92.06
310.26	96.06
310.49	97.06
310.72	92.06
310.949	96.06
311.179	101.06
311.409	97.06
311.639	93.06
311.868	102.06
312.098	93.06
312.328	97.06
312.557	111.06
312.787	100.06
313.017	94.06
313.246	105.06
313.476	85.06
313.706	102.06
313.935	93.06
314.165	96.06
314.394	81.06
314.624	89.06
314.853	85.06
315.083	96.06
315.312	97.06
315.542	103.06
315.771	82.06
316.001	84.06
316.23	85.06
316.46	89.06
316.689	91.06
316.919	98.06
317.148	105.06
317.377	107.06
317.607	100.06
317.836	89.06
318.065	100.06
318.295	90.06
318.524	86.06
318.753	80.06
318.983	98.06
319.212	87.06
319.441	110.06
319.67	111.06
319.9	95.06
320.129	95.06
320.358	101.06
320.587	79.06
320.816	91.06
321.046	95.06
321.275	104.06
321.504	92.06
321.733	103.06
321.962	93.06
322.191	111.06
322.42	107.06
322.649	109.06
322.878	114.06
323.108	104.06
323.337	117.06
323.566	124.06
323.795	145.06
324.024	198.06
324.253	390.06
324.482	811.06
324.71	1701.06
324.939	2259.06
325.168	800.06
325.397	252.06
325.626	147.06
325.855	135.06
326.084	113.06
326.313	114.06
326.542	169.06
326.77	254.06
326.999	466.06
327.228	994.06
327.457	1777.06
327.686	1358.06
327.914	384.06
328.143	185.06
328.372	132.06
328.6	116.06
328.829	119.06
329.058	121.06
329.287	118.06
329.515	105.06
329.744	102.06
329.972	102.06
330.201	93.06
330.43	99.06
330.658	117.06
330.887	119.06
331.115	114.06
331.344	110.06
331.572	109.06
331.801	94.06
332.03	103.06
332.258	95.06
332.486	97.06
332.715	91.06
332.943	92.06
333.172	96.06
333.4	92.06
333.629	102.06
333.857	122.06
334.085	100.06
334.314	103.06
334.542	118.06
334.771	93.06
334.999	85.06
335.227	96.06
335.455	94.06
335.684	98.06
335.912	98.06
336.14	92.06
336.369	90.06
336.597	87.06
336.825	90.06
337.053	90.06
337.281	101.06
337.51	95.06
337.738	103.06
337.966	87.06
338.194	87.06
338.422	103.06
338.65	87.06
338.878	100.06
339.106	88.06
339.334	106.06
339.562	80.06
339.79	89.06
340.018	98.06
340.246	86.06
340.474	98.06
340.702	94.06
340.93	98.06
341.158	102.06
341.386	96.06
341.614	84.06
341.842	95.06
342.07	106.06
342.298	86.06
342.526	95.06
342.754	79.06
342.981	86.06
343.209	89.06
343.437	103.06
343.665	86.06
343.893	84.06
344.12	94.06
344.348	86.06
344.576	82.06
344.804	75.06
345.031	109.06
345.259	91.06
345.487	88.06
345.714	103.06
345.942	103.06
346.17	87.06
346.397	88.06
346.625	88.06
346.853	89.06
347.08	77.06
347.308	87.06
347.535	97.06
347.763	109.06
347.99	103.06
348.218	99.06
348.445	88.06
348.673	96.06
348.9	101.06
349.128	92.06
349.355	89.06
349.583	103.06
349.81	102.06
350.037	104.06
350.265	100.06
350.492	101.06
350.72	89.06
350.947	84.06
351.174	109.06
351.402	99.06
351.629	114.06
351.856	89.06
352.083	105.06
352.311	108.06
352.538	104.06
352.765	103.06
352.992	117.06
353.22	101.06
353.447	105.06
353.674	103.06
353.901	101.06
354.128	95.06
354.355	95.06
354.583	102.06
354.81	98.06
355.037	95.06
355.264	93.06
355.491	77.06
355.718	102.06
355.945	87.06
356.172	100.06
356.399	86.06
356.626	99.06
356.853	103.06
357.08	90.06
357.307	88.06
357.534	96.06
357.761	102.06
357.988	102.06
358.215	116.06
358.441	114.06
358.668	87.06
358.895	91.06
359.122	98.06
359.349	94.06
359.576	91.06
359.802	102.06
360.029	98.06
360.256	104.06
360.483	101.06
360.709	95.06
360.936	93.06
361.163	103.06
361.39	79.06
361.616	88.06
361.843	102.06
362.07	81.06
362.296	86.06
362.523	96.06
362.749	96.06
362.976	95.06
363.203	88.06
363.429	81.06
363.656	104.06
363.882	102.06
364.109	102.06
364.335	93.06
364.562	92.06
364.788	85.06
365.015	85.06
365.241	93.06
365.468	105.06
365.694	94.06
365.92	95.06
366.147	92.06
366.373	91.06
366.599	94.06
366.826	99.06
367.052	99.06
367.278	88.06
367.505	90.06
367.731	74.06
367.957	93.06
368.184	84.06
368.41	93.06
368.636	90.06
368.862	125.06
369.089	92.06
369.315	89.06
369.541	97.06
369.767	93.06
369.993	88.06
370.219	91.06
370.445	86.06
370.672	106.06
370.898	79.06
371.124	93.06
371.35	92.06
371.576	88.06
371.802	88.06
372.028	92.06
372.254	82.06
372.48	87.06
372.706	101.06
372.932	92.06
373.158	85.06
373.384	96.06
373.61	89.06
373.835	86.06
374.061	93.06
374.287	103.06
374.513	100.06
374.739	95.06
374.965	98.06
375.191	92.06
375.416	86.06
375.642	95.06
375.868	86.06
376.094	93.06
376.319	91.06
376.545	79.06
376.771	94.06
376.997	82.06
377.222	83.06
377.448	87.06
377.674	84.06
377.899	97.06
378.125	88.06
378.35	113.06
378.576	99.06
378.802	100.06
379.027	85.06
379.253	95.06
379.478	95.06
379.704	85.06
379.929	103.06
380.155	98.06
380.38	108.06
380.606	85.06
380.831	90.06
381.057	106.06
381.282	110.06
381.507	85.06
381.733	87.06
381.958	93.06
382.184	94.06
382.409	95.06
382.634	95.06
382.86	99.06
383.085	105.06
383.31	107.06
383.535	86.06
383.761	93.06
383.986	108.06
384.211	105.06
384.436	108.06
384.662	98.06
384.887	104.06
385.112	99.06
385.337	100.06
385.562	110.06
385.787	104.06
386.013	110.06
386.238	108.06
386.463	111.06
386.688	107.06
386.913	119.06
387.138	113.06
387.363	95.06
387.588	98.06
387.813	92.06
388.038	107.06
388.263	95.06
388.488	118.06
388.713	115.06
388.938	100.06
389.163	101.06
389.387	107.06
389.612	103.06
389.837	88.06
390.062	102.06
390.287	93.06
390.512	88.06
390.736	94.06
390.961	105.06
391.186	94.06
391.411	100.06
391.636	128.06
391.86	88.06
392.085	90.06
392.31	90.06
392.534	89.06
392.759	93.06
392.984	82.06
393.208	96.06
393.433	91.06
393.658	98.06
393.882	82.06
394.107	85.06
394.331	93.06
394.556	89.06
394.78	91.06
395.005	87.06
395.229	77.06
395.454	75.06
395.678	76.06
395.903	91.06
396.127	96.06
396.352	86.06
396.576	96.06
396.801	89.06
397.025	93.06
397.249	94.06
397.474	94.06
397.698	82.06
397.922	77.06
398.147	102.06
398.371	80.06
398.595	92.06
398.82	83.06
399.044	89.06
399.268	87.06
399.492	89.06
399.717	81.06
399.941	96.06
400.165	92.06
400.389	85.06
400.613	80.06
400.837	82.06
401.062	98.06
401.286	100.06
401.51	68.06
401.734	92.06
401.958	78.06
402.182	110.06
402.406	159.06
402.63	118.06
402.854	88.06
403.078	92.06
403.302	89.06
403.526	88.06
403.75	87.06
403.974	83.06
404.198	97.06
404.422	97.06
404.645	98.06
404.869	91.06
405.093	106.06
405.317	102.06
405.541	96.06
405.765	93.06
405.988	109.06
406.212	154.06
406.436	196.06
406.66	116.06
406.883	96.06
407.107	89.06
407.331	92.06
407.555	85.06
407.778	79.06
408.002	102.06
408.226	96.06
408.449	88.06
408.673	87.06
408.896	94.06
409.12	101.06
409.344	93.06
409.567	101.06
409.791	96.06
410.014	89.06
410.238	89.06
410.461	92.06
410.685	107.06
410.908	94.06
411.132	95.06
411.355	93.06
411.578	99.06
411.802	95.06
412.025	101.06
412.249	96.06
412.472	85.06
412.695	92.06
412.919	90.06
413.142	92.06
413.365	96.06
413.589	79.06
413.812	92.06
414.035	94.06
414.258	87.06
414.482	104.06
414.705	88.06
414.928	85.06
415.151	87.06
415.374	87.06
415.597	85.06
415.821	90.06
416.044	84.06
416.267	90.06
416.49	91.06
416.713	88.06
416.936	82.06
417.159	86.06
417.382	78.06
417.605	90.06
417.828	101.06
418.051	90.06
418.274	94.06
418.497	89.06
418.72	92.06
418.943	76.06
419.166	93.06
419.389	82.06
419.611	95.06
419.834	102.06
420.057	97.06
420.28	81.06
420.503	88.06
420.726	92.06
420.948	86.06
421.171	94.06
421.394	97.06
421.617	85.06
421.839	102.06
422.062	87.06
422.285	90.06
422.507	88.06
422.73	96.06
422.953	85.06
423.175	81.06
423.398	77.06
423.621	80.06
423.843	91.06
424.066	106.06
424.288	95.06
424.511	111.06
424.733	92.06
424.956	111.06
425.178	93.06
425.401	97.06
425.623	90.06
425.846	93.06
426.068	107.06
426.291	88.06
426.513	75.06
426.735	87.06
426.958	95.06
427.18	97.06
427.402	122.06
427.625	160.06
427.847	125.06
428.069	103.06
428.292	79.06
428.514	97.06
428.736	74.06
428.958	81.06
429.181	97.06
429.403	97.06
429.625	97.06
429.847	87.06
430.069	91.06
430.292	90.06
430.514	86.06
430.736	99.06
430.958	85.06
431.18	77.06
431.402	86.06
431.624	84.06
431.846	91.06
432.068	90.06
432.29	90.06
432.512	87.06
432.734	78.06
432.956	89.06
433.178	90.06
433.4	96.06
433.622	113.06
433.844	84.06
434.066	94.06
434.287	100.06
434.509	88.06
434.731	97.06
434.953	97.06
435.175	99.06
435.397	85.06
435.618	93.06
435.84	107.06
436.062	114.06
436.284	103.06
436.505	104.06
436.727	92.06
436.949	95.06
437.17	81.06
437.392	82.06
437.614	85.06
437.835	99.06
438.057	119.06
438.278	108.06
438.5	102.06
438.721	116.06
438.943	101.06
439.165	94.06
439.386	63.06
439.608	92.06
439.829	106.06
440.05	105.06
440.272	132.06
440.493	92.06
440.715	80.06
440.936	79.06
441.158	89.06
441.379	85.06
441.6	97.06
441.822	110.06
442.043	93.06
442.264	103.06
442.486	90.06
442.707	90.06
442.928	91.06
443.149	111.06
443.371	120.06
443.592	103.06
443.813	94.06
444.034	101.06
444.255	96.06
444.476	72.06
444.698	93.06
444.919	95.06
445.14	103.06
445.361	119.06
445.582	114.06
445.803	126.06
446.024	129.06
446.245	126.06
446.466	101.06
446.687	98.06
446.908	108.06
447.129	87.06
447.35	96.06
447.571	93.06
447.792	106.06
448.013	103.06
448.234	91.06
448.455	99.06
448.675	111.06
448.896	103.06
449.117	96.06
449.338	104.06
449.559	123.06
449.779	123.06
450	84.06
450.221	76.06
450.442	92.06
450.662	96.06
450.883	102.06
451.104	103.06
451.324	90.06
451.545	81.06
451.766	88.06
451.986	91.06
452.207	105.06
452.428	92.06
452.648	96.06
452.869	112.06
453.089	110.06
453.31	122.06
453.53	97.06
453.751	102.06
453.971	102.06
454.192	106.06
454.412	90.06
454.633	95.06
454.853	92.06
455.073	74.06
455.294	96.06
455.514	89.06
455.734	107.06
455.955	84.06
456.175	74.06
456.395	96.06
456.616	89.06
456.836	91.06
457.056	78.06
457.276	68.06
457.497	90.06
457.717	90.06
457.937	91.06
458.157	90.06
458.377	98.06
458.598	113.06
458.818	135.06
459.038	142.06
459.258	104.06
459.478	87.06
459.698	75.06
459.918	99.06
460.138	89.06
460.358	85.06
460.578	98.06
460.798	82.06
461.018	94.06
461.238	82.06
461.458	97.06
461.678	94.06
461.898	66.06
462.118	86.06
462.338	89.06
462.558	74.06
462.777	80.06
462.997	90.06
463.217	86.06
463.437	80.06
463.657	89.06
463.876	87.06
464.096	95.06
464.316	84.06
464.536	100.06
464.755	107.06
464.975	116.06
465.195	154.06
465.414	134.06
465.634	92.06
465.854	84.06
466.073	89.06
466.293	89.06
466.512	86.06
466.732	82.06
466.951	86.06
467.171	95.06
467.391	102.06
467.61	109.06
467.829	87.06
468.049	96.06
468.268	109.06
468.488	80.06
468.707	73.06
468.927	84.06
469.146	65.06
469.365	92.06
469.585	92.06
469.804	93.06
470.023	90.06
470.243	108.06
470.462	99.06
470.681	108.06
470.901	77.06
471.12	80.06
471.339	98.06
471.558	97.06
471.777	103.06
471.997	92.06
472.216	100.06
472.435	119.06
472.654	97.06
472.873	90.06
473.092	80.06
473.311	90.06
473.53	97.06
473.749	90.06
473.968	89.06
474.187	108.06
474.406	101.06
474.625	88.06
474.844	70.06
475.063	80.06
475.282	85.06
475.501	86.06
475.72	97.06
475.939	91.06
476.158	88.06
476.377	86.06
476.596	87.06
476.814	91.06
477.033	77.06
477.252	90.06
477.471	97.06
477.69	97.06
477.908	86.06
478.127	85.06
478.346	89.06
478.564	94.06
478.783	88.06
479.002	99.06
479.22	93.06
479.439	98.06
479.658	88.06
479.876	92.06
480.095	93.06
480.313	80.06
480.532	94.06
480.751	106.06
480.969	104.06
481.188	108.06
481.406	113.06
481.624	106.06
481.843	85.06
482.061	92.06
482.28	87.06
482.498	78.06
482.717	73.06
482.935	82.06
483.153	94.06
483.372	93.06
483.59	88.06
483.808	76.06
484.027	96.06
484.245	103.06
484.463	102.06
484.681	89.06
484.9	91.06
485.118	79.06
485.336	100.06
485.554	94.06
485.772	102.06
485.99	109.06
486.209	95.06
486.427	108.06
486.645	101.06
486.863	95.06
487.081	103.06
487.299	116.06
487.517	109.06
487.735	97.06
487.953	88.06
488.171	90.06
488.389	98.06
488.607	105.06
488.825	100.06
489.043	82.06
489.261	90.06
489.479	88.06
489.696	80.06
489.914	79.06
490.132	104.06
490.35	75.06
490.568	94.06
490.786	83.06
491.003	107.06
491.221	96.06
491.439	96.06
491.657	97.06
491.874	93.06
492.092	97.06
492.31	81.06
492.527	81.06
492.745	86.06
492.963	91.06
493.18	91.06
493.398	96.06
493.615	96.06
493.833	84.06
494.05	95.06
494.268	93.06
494.485	83.06
494.703	85.06
494.92	86.06
495.138	97.06
495.355	89.06
495.573	86.06
495.79	94.06
496.008	94.06
496.225	96.06
496.442	85.06
496.66	97.06
496.877	92.06
497.094	75.06
497.312	72.06
497.529	85.06
497.746	103.06
497.963	89.06
498.181	100.06
498.398	84.06
498.615	111.06
498.832	89.06
499.049	95.06
499.267	102.06
499.484	81.06
499.701	78.06
499.918	94.06
500.135	88.06
500.352	97.06
500.569	90.06
500.786	110.06
501.003	84.06
501.22	95.06
501.437	89.06
501.654	100.06
501.871	111.06
502.088	88.06
502.305	88.06
502.522	85.06
502.739	105.06
502.956	91.06
503.172	94.06
503.389	82.06
503.606	95.06
503.823	88.06
504.04	82.06
504.256	94.06
504.473	101.06
504.69	83.06
504.907	89.06
505.123	79.06
505.34	83.06
505.557	84.06
505.773	89.06
505.99	88.06
506.207	96.06
506.423	88.06
506.64	92.06
506.856	81.06
507.073	91.06
507.289	87.06
507.506	93.06
507.722	105.06
507.939	102.06
508.155	98.06
508.372	90.06
508.588	106.06
508.805	86.06
509.021	97.06
509.238	104.06
509.454	92.06
509.67	108.06
509.887	115.06
510.103	124.06
510.319	200.06
510.536	717.06
510.752	2214.06
510.968	618.06
511.184	160.06
511.401	118.06
511.617	83.06
511.833	89.06
512.049	102.06
512.265	94.06
512.481	79.06
512.698	92.06
512.914	76.06
513.13	88.06
513.346	84.06
513.562	89.06
513.778	98.06
513.994	96.06
514.21	97.06
514.426	124.06
514.642	119.06
514.858	125.06
515.074	149.06
515.29	399.06
515.506	1279.06
