Data from Uncirc_1999_H10_HRD10591_00007.txt Node
Date: Wed Jan 03 11:22:06 EST 2024
User: Yrep
Spectrometer: HR+D1059
Trigger mode: 1
Integration Time (sec): 1.000000E-1
Scans to average: 1
Electric dark correction enabled: true
Nonlinearity correction enabled: false
Boxcar width: 0
XAxis mode: Wavelengths
Number of Pixels in Spectrum: 2048
>>>>>Begin Spectral Data<<<<<
223.165	-15.31
223.4	-15.31
223.635	-15.31
223.869	-19.31
224.104	-24.31
224.338	-13.31
224.573	-3.31
224.808	3.69
225.042	0.69
225.277	-9.31
225.511	-9.31
225.746	-15.31
225.98	-5.31
226.215	2.69
226.449	18.69
226.683	20.69
226.918	19.69
227.152	48.69
227.387	16.69
227.621	41.69
227.856	47.69
228.09	44.69
228.324	40.69
228.559	60.69
228.793	156.69
229.027	413.69
229.262	489.69
229.496	566.69
229.73	777.69
229.964	768.69
230.199	512.69
230.433	448.69
230.667	452.69
230.901	449.69
231.136	439.69
231.37	437.69
231.604	442.69
231.838	450.69
232.072	445.69
232.306	450.69
232.541	466.69
232.775	462.69
233.009	471.69
233.243	459.69
233.477	478.69
233.711	497.69
233.945	481.69
234.179	472.69
234.413	485.69
234.647	523.69
234.881	498.69
235.115	535.69
235.349	548.69
235.583	541.69
235.817	576.69
236.051	620.69
236.285	612.69
236.519	598.69
236.753	650.69
236.987	833.69
237.221	1297.69
237.455	1438.69
237.689	875.69
237.922	700.69
238.156	710.69
238.39	642.69
238.624	636.69
238.858	657.69
239.091	630.69
239.325	647.69
239.559	686.69
239.793	692.69
240.027	733.69
240.26	888.69
240.494	928.69
240.728	931.69
240.961	906.69
241.195	790.69
241.429	777.69
241.662	736.69
241.896	737.69
242.13	759.69
242.363	770.69
242.597	791.69
242.83	815.69
243.064	817.69
243.298	792.69
243.531	788.69
243.765	824.69
243.998	805.69
244.232	859.69
244.465	894.69
244.699	893.69
244.932	909.69
245.166	924.69
245.399	890.69
245.633	878.69
245.866	923.69
246.099	939.69
246.333	936.69
246.566	961.69
246.8	982.69
247.033	996.69
247.266	1079.69
247.5	1099.69
247.733	1133.69
247.966	1145.69
248.2	1149.69
248.433	1152.69
248.666	1202.69
248.899	1328.69
249.133	1394.69
249.366	1371.69
249.599	1272.69
249.832	1188.69
250.066	1199.69
250.299	1238.69
250.532	1361.69
250.765	1530.69
250.998	1721.69
251.231	1580.69
251.465	1476.69
251.698	1368.69
251.931	1359.69
252.164	1377.69
252.397	1405.69
252.63	1423.69
252.863	1512.69
253.096	1686.69
253.329	1732.69
253.562	1619.69
253.795	1517.69
254.028	1539.69
254.261	1586.69
254.494	1758.69
254.727	2074.69
254.96	2165.69
255.193	1895.69
255.426	1706.69
255.659	1630.69
255.892	1613.69
256.124	1580.69
256.357	1545.69
256.59	1501.69
256.823	1499.69
257.056	1465.69
257.289	1504.69
257.521	1516.69
257.754	1539.69
257.987	1504.69
258.22	1540.69
258.452	1516.69
258.685	1516.69
258.918	1545.69
259.151	1587.69
259.383	1663.69
259.616	1730.69
259.849	1748.69
260.081	1888.69
260.314	2060.69
260.547	1978.69
260.779	1791.69
261.012	1723.69
261.244	1666.69
261.477	1642.69
261.71	1662.69
261.942	1722.69
262.175	1761.69
262.407	1678.69
262.64	1624.69
262.872	1645.69
263.105	1636.69
263.337	1640.69
263.57	1632.69
263.802	1641.69
264.035	1648.69
264.267	1692.69
264.499	1677.69
264.732	1682.69
264.964	1688.69
265.197	1668.69
265.429	1735.69
265.661	1708.69
265.894	1754.69
266.126	1739.69
266.358	1749.69
266.591	1746.69
266.823	1848.69
267.055	1859.69
267.287	1858.69
267.52	1838.69
267.752	1810.69
267.984	1816.69
268.216	1906.69
268.448	1904.69
268.681	2026.69
268.913	2136.69
269.145	2337.69
269.377	2386.69
269.609	2206.69
269.841	2179.69
270.073	2326.69
270.306	2626.69
270.538	2798.69
270.77	2624.69
271.002	2456.69
271.234	2445.69
271.466	2545.69
271.698	2693.69
271.93	2754.69
272.162	2680.69
272.394	2640.69
272.626	2489.69
272.858	2320.69
273.09	2242.69
273.322	2226.69
273.553	2213.69
273.785	2249.69
274.017	2233.69
274.249	2260.69
274.481	2243.69
274.713	2220.69
274.945	2303.69
275.176	2287.69
275.408	2254.69
275.64	2245.69
275.872	2296.69
276.104	2313.69
276.335	2316.69
276.567	2408.69
276.799	2542.69
277.031	2805.69
277.262	2880.69
277.494	2742.69
277.726	2582.69
277.957	2455.69
278.189	2379.69
278.421	2407.69
278.652	2374.69
278.884	2370.69
279.115	2365.69
279.347	2384.69
279.579	2362.69
279.81	2412.69
280.042	2343.69
280.273	2360.69
280.505	2426.69
280.736	2417.69
280.968	2381.69
281.199	2451.69
281.431	2513.69
281.662	2444.69
281.894	2529.69
282.125	2513.69
282.356	2666.69
282.588	2799.69
282.819	2641.69
283.051	2510.69
283.282	2537.69
283.513	2589.69
283.745	2589.69
283.976	2689.69
284.207	2674.69
284.439	2621.69
284.67	2667.69
284.901	2684.69
285.132	2673.69
285.364	2658.69
285.595	2646.69
285.826	2697.69
286.057	2683.69
286.288	2702.69
286.52	2718.69
286.751	2722.69
286.982	2721.69
287.213	2781.69
287.444	2800.69
287.675	2896.69
287.906	2949.69
288.138	2970.69
288.369	2937.69
288.6	2919.69
288.831	2887.69
289.062	2808.69
289.293	2803.69
289.524	2847.69
289.755	2844.69
289.986	2836.69
290.217	2835.69
290.448	2854.69
290.679	2869.69
290.91	2865.69
291.141	2847.69
291.371	2872.69
291.602	2880.69
291.833	2817.69
292.064	2880.69
292.295	2844.69
292.526	2839.69
292.757	2878.69
292.987	2843.69
293.218	2843.69
293.449	2922.69
293.68	2925.69
293.91	2859.69
294.141	2878.69
294.372	2834.69
294.603	2877.69
294.833	2910.69
295.064	2921.69
295.295	2932.69
295.525	2914.69
295.756	3017.69
295.987	3033.69
296.217	3196.69
296.448	3116.69
296.679	3005.69
296.909	2976.69
297.14	3017.69
297.37	3063.69
297.601	3076.69
297.831	3083.69
298.062	3093.69
298.292	3044.69
298.523	3193.69
298.753	3148.69
298.984	3103.69
299.214	3130.69
299.445	3087.69
299.675	3169.69
299.905	3265.69
300.136	3137.69
300.366	3208.69
300.597	3220.69
300.827	3309.69
301.057	3387.69
301.288	3464.69
301.518	3317.69
301.748	3400.69
301.979	3471.69
302.209	3447.69
302.439	3473.69
302.669	3405.69
302.9	3345.69
303.13	3285.69
303.36	3428.69
303.59	3441.69
303.82	3403.69
304.051	3396.69
304.281	3388.69
304.511	3376.69
304.741	3313.69
304.971	3384.69
305.201	3294.69
305.431	3310.69
305.661	3273.69
305.891	3291.69
306.121	3310.69
306.352	3376.69
306.582	3297.69
306.812	3245.69
307.042	3303.69
307.272	3318.69
307.502	3294.69
307.731	3315.69
307.961	3308.69
308.191	3297.69
308.421	3349.69
308.651	3365.69
308.881	3326.69
309.111	3417.69
309.341	3365.69
309.571	3449.69
309.8	3566.69
310.03	3543.69
310.26	3591.69
310.49	3536.69
310.72	3662.69
310.949	3776.69
311.179	3715.69
311.409	3642.69
311.639	3637.69
311.868	3689.69
312.098	3754.69
312.328	3758.69
312.557	3847.69
312.787	3922.69
313.017	3891.69
313.246	3774.69
313.476	3681.69
313.706	3813.69
313.935	3860.69
314.165	3914.69
314.394	3912.69
314.624	3969.69
314.853	3814.69
315.083	3771.69
315.312	3785.69
315.542	3748.69
315.771	3695.69
316.001	3686.69
316.23	3677.69
316.46	3690.69
316.689	3761.69
316.919	3776.69
317.148	3801.69
317.377	3813.69
317.607	3830.69
317.836	3751.69
318.065	3689.69
318.295	3729.69
318.524	3707.69
318.753	3703.69
318.983	3699.69
319.212	3636.69
319.441	3782.69
319.67	3698.69
319.9	3701.69
320.129	3746.69
320.358	3718.69
320.587	3701.69
320.816	3874.69
321.046	3855.69
321.275	3813.69
321.504	3804.69
321.733	3878.69
321.962	3888.69
322.191	4004.69
322.42	4062.69
322.649	4142.69
322.878	4159.69
323.108	4230.69
323.337	4463.69
323.566	4614.69
323.795	4844.69
324.024	5256.69
324.253	6761.69
324.482	10051.69
324.71	14620.69
324.939	15614.69
325.168	11865.69
325.397	6016.69
325.626	4949.69
325.855	4646.69
326.084	4569.69
326.313	4668.69
326.542	4795.69
326.77	5308.69
326.999	6654.69
327.228	9549.69
327.457	13806.69
327.686	13076.69
327.914	6810.69
328.143	5491.69
328.372	5286.69
328.6	5071.69
328.829	5050.69
329.058	5206.69
329.287	5229.69
329.515	4865.69
329.744	4668.69
329.972	4776.69
330.201	4895.69
330.43	5141.69
330.658	5364.69
330.887	5609.69
331.115	5370.69
331.344	4915.69
331.572	4869.69
331.801	5009.69
332.03	5014.69
332.258	4939.69
332.486	4957.69
332.715	5029.69
332.943	5214.69
333.172	5348.69
333.4	5492.69
333.629	5552.69
333.857	5735.69
334.085	5601.69
334.314	5643.69
334.542	5698.69
334.771	5605.69
334.999	5421.69
335.227	5278.69
335.455	5243.69
335.684	5160.69
335.912	5037.69
336.14	4991.69
336.369	5013.69
336.597	5047.69
336.825	4961.69
337.053	4908.69
337.281	4860.69
337.51	4788.69
337.738	4813.69
337.966	4817.69
338.194	4646.69
338.422	4697.69
338.65	4636.69
338.878	4588.69
339.106	4549.69
339.334	4540.69
339.562	4520.69
339.79	4427.69
340.018	4436.69
340.246	4457.69
340.474	4491.69
340.702	4456.69
340.93	4471.69
341.158	4410.69
341.386	4423.69
341.614	4425.69
341.842	4411.69
342.07	4391.69
342.298	4400.69
342.526	4310.69
342.754	4366.69
342.981	4360.69
343.209	4413.69
343.437	4778.69
343.665	5010.69
343.893	5283.69
344.12	5237.69
344.348	5032.69
344.576	4858.69
344.804	4827.69
345.031	4624.69
345.259	4630.69
345.487	4528.69
345.714	4390.69
345.942	4278.69
346.17	4333.69
346.397	4259.69
346.625	4285.69
346.853	4260.69
347.08	4218.69
347.308	4249.69
347.535	4322.69
347.763	4308.69
347.99	4330.69
348.218	4284.69
348.445	4391.69
348.673	4304.69
348.9	4158.69
349.128	4107.69
349.355	4096.69
349.583	4140.69
349.81	4140.69
350.037	4067.69
350.265	4081.69
350.492	4087.69
350.72	4111.69
350.947	4150.69
351.174	4243.69
351.402	4292.69
351.629	4182.69
351.856	4137.69
352.083	4263.69
352.311	4259.69
352.538	4260.69
352.765	4257.69
352.992	4185.69
353.22	4116.69
353.447	4098.69
353.674	4050.69
353.901	4060.69
354.128	3957.69
354.355	4000.69
354.583	4054.69
354.81	4009.69
355.037	4030.69
355.264	4037.69
355.491	4007.69
355.718	4046.69
355.945	4014.69
356.172	3961.69
356.399	3994.69
356.626	4002.69
356.853	4009.69
357.08	3964.69
357.307	4001.69
357.534	4007.69
357.761	4056.69
357.988	4014.69
358.215	4061.69
358.441	4086.69
358.668	4097.69
358.895	4051.69
359.122	4185.69
359.349	4232.69
359.576	4291.69
359.802	4464.69
360.029	4646.69
360.256	4617.69
360.483	4439.69
360.709	4283.69
360.936	4254.69
361.163	4213.69
361.39	4279.69
361.616	4192.69
361.843	4210.69
362.07	4347.69
362.296	4252.69
362.523	4288.69
362.749	4221.69
362.976	4176.69
363.203	4129.69
363.429	4089.69
363.656	4140.69
363.882	4046.69
364.109	4041.69
364.335	4032.69
364.562	4065.69
364.788	4091.69
365.015	4069.69
365.241	4089.69
365.468	4113.69
365.694	4142.69
365.92	4100.69
366.147	4111.69
366.373	4092.69
366.599	4070.69
366.826	4074.69
367.052	4035.69
367.278	4116.69
367.505	4156.69
367.731	4087.69
367.957	4108.69
368.184	4168.69
368.41	4217.69
368.636	4319.69
368.862	4357.69
369.089	4248.69
369.315	4224.69
369.541	4217.69
369.767	4240.69
369.993	4253.69
370.219	4273.69
370.445	4297.69
370.672	4291.69
370.898	4331.69
371.124	4312.69
371.35	4429.69
371.576	4381.69
371.802	4335.69
372.028	4354.69
372.254	4428.69
372.48	4441.69
372.706	4590.69
372.932	4564.69
373.158	4496.69
373.384	4485.69
373.61	4377.69
373.835	4474.69
374.061	4526.69
374.287	4578.69
374.513	4600.69
374.739	4741.69
374.965	4806.69
375.191	4882.69
375.416	4772.69
375.642	4603.69
375.868	4663.69
376.094	4518.69
376.319	4436.69
376.545	4471.69
376.771	4453.69
376.997	4437.69
377.222	4411.69
377.448	4414.69
377.674	4405.69
377.899	4372.69
378.125	4367.69
378.35	4368.69
378.576	4376.69
378.802	4428.69
379.027	4441.69
379.253	4452.69
379.478	4357.69
379.704	4378.69
379.929	4361.69
380.155	4422.69
380.38	4439.69
380.606	4490.69
380.831	4436.69
381.057	4478.69
381.282	4498.69
381.507	4469.69
381.733	4538.69
381.958	4597.69
382.184	4632.69
382.409	4685.69
382.634	4686.69
382.86	4739.69
383.085	4780.69
383.31	4780.69
383.535	4907.69
383.761	4994.69
383.986	5037.69
384.211	5187.69
384.436	5173.69
384.662	5316.69
384.887	5376.69
385.112	5360.69
385.337	5447.69
385.562	5420.69
385.787	5451.69
386.013	5475.69
386.238	5609.69
386.463	5488.69
386.688	5472.69
386.913	5444.69
387.138	5328.69
387.363	5327.69
387.588	5255.69
387.813	5336.69
388.038	5282.69
388.263	5415.69
388.488	5332.69
388.713	5277.69
388.938	5203.69
389.163	5256.69
389.387	5226.69
389.612	5154.69
389.837	5174.69
390.062	5201.69
390.287	5245.69
390.512	5152.69
390.736	5299.69
390.961	5423.69
391.186	5470.69
391.411	5589.69
391.636	5697.69
391.86	5937.69
392.085	5954.69
392.31	5892.69
392.534	5725.69
392.759	5665.69
392.984	5534.69
393.208	5481.69
393.433	5557.69
393.658	5492.69
393.882	5449.69
394.107	5563.69
394.331	5585.69
394.556	5582.69
394.78	5587.69
395.005	5674.69
395.229	5647.69
395.454	5786.69
395.678	5962.69
395.903	5988.69
396.127	5924.69
396.352	5787.69
396.576	5544.69
396.801	5600.69
397.025	5648.69
397.249	5817.69
397.474	5948.69
397.698	5964.69
397.922	6128.69
398.147	6183.69
398.371	6290.69
398.595	6456.69
398.82	6722.69
399.044	7368.69
399.268	8132.69
399.492	9168.69
399.717	9761.69
399.941	9547.69
400.165	8957.69
400.389	8244.69
400.613	7363.69
400.837	6964.69
401.062	6786.69
401.286	6695.69
401.51	6538.69
401.734	6637.69
401.958	6865.69
402.182	6802.69
402.406	6872.69
402.63	7056.69
402.854	7131.69
403.078	7180.69
403.302	7444.69
403.526	7532.69
403.75	7526.69
403.974	7617.69
404.198	7587.69
404.422	7718.69
404.645	7634.69
404.869	7485.69
405.093	7719.69
405.317	7921.69
405.541	7881.69
405.765	7427.69
405.988	7412.69
406.212	7510.69
406.436	7698.69
406.66	7849.69
406.883	7846.69
407.107	8460.69
407.331	8990.69
407.555	9492.69
407.778	9213.69
408.002	8460.69
408.226	7960.69
408.449	7930.69
408.673	7757.69
408.896	7951.69
409.12	8181.69
409.344	7635.69
409.567	7284.69
409.791	7370.69
410.014	7123.69
410.238	7091.69
410.461	7124.69
410.685	7222.69
410.908	7244.69
411.132	7479.69
411.355	7495.69
411.578	7021.69
411.802	6856.69
412.025	6862.69
412.249	7054.69
412.472	7105.69
412.695	7115.69
412.919	6714.69
413.142	6623.69
413.365	6560.69
413.589	6550.69
413.812	6484.69
414.035	6363.69
414.258	6541.69
414.482	6515.69
414.705	6683.69
414.928	6595.69
415.151	6544.69
415.374	6636.69
415.597	6442.69
415.821	6451.69
416.044	6389.69
416.267	6434.69
416.49	6380.69
416.713	6312.69
416.936	6411.69
417.159	6464.69
417.382	6480.69
417.605	6504.69
417.828	6587.69
418.051	6900.69
418.274	6632.69
418.497	6610.69
418.72	6669.69
418.943	6594.69
419.166	6969.69
419.389	7440.69
419.611	7283.69
419.834	7070.69
420.057	6928.69
420.28	6783.69
420.503	6570.69
420.726	6637.69
420.948	6755.69
421.171	7222.69
421.394	7122.69
421.617	6699.69
421.839	6590.69
422.062	6713.69
422.285	6931.69
422.507	7510.69
422.73	7996.69
422.953	7437.69
423.175	7149.69
423.398	7089.69
423.621	7177.69
423.843	7396.69
424.066	7330.69
424.288	7184.69
424.511	7448.69
424.733	7897.69
424.956	8363.69
425.178	7834.69
425.401	7995.69
425.623	7811.69
425.846	6854.69
426.068	6753.69
426.291	6688.69
426.513	6626.69
426.735	6723.69
426.958	7172.69
427.18	7990.69
427.402	9068.69
427.625	9061.69
427.847	7680.69
428.069	6821.69
428.292	6444.69
428.514	6098.69
428.736	6009.69
428.958	6037.69
429.181	5849.69
429.403	5889.69
429.625	6075.69
429.847	6349.69
430.069	6931.69
430.292	6451.69
430.514	5841.69
430.736	5835.69
430.958	5828.69
431.18	5704.69
431.402	5784.69
431.624	5676.69
431.846	5861.69
432.068	5863.69
432.29	5990.69
432.512	5820.69
432.734	5881.69
432.956	5890.69
433.178	5903.69
433.4	5941.69
433.622	5863.69
433.844	5902.69
434.066	5884.69
434.287	5983.69
434.509	6272.69
434.731	6425.69
434.953	6596.69
435.175	6700.69
435.397	6726.69
435.618	6679.69
435.84	7062.69
436.062	7920.69
436.284	7829.69
436.505	6699.69
436.727	6313.69
436.949	6002.69
437.17	5888.69
437.392	5907.69
437.614	6048.69
437.835	6363.69
438.057	7344.69
438.278	7992.69
438.5	7906.69
438.721	8727.69
438.943	7618.69
439.165	6390.69
439.386	6249.69
439.608	6354.69
439.829	6380.69
440.05	6800.69
440.272	7138.69
440.493	6552.69
440.715	6226.69
440.936	6181.69
441.158	6199.69
441.379	6384.69
441.6	6679.69
441.822	6924.69
442.043	7368.69
442.264	8136.69
442.486	7813.69
442.707	6976.69
442.928	6869.69
443.149	7004.69
443.371	7265.69
443.592	7714.69
443.813	8694.69
444.034	8749.69
444.255	7560.69
444.476	7424.69
444.698	7708.69
444.919	7780.69
445.14	7508.69
445.361	7346.69
445.582	7436.69
445.803	8052.69
446.024	8718.69
446.245	8318.69
446.466	7462.69
446.687	6483.69
446.908	6212.69
447.129	5870.69
447.35	5715.69
447.571	5722.69
447.792	5630.69
448.013	5731.69
448.234	5874.69
448.455	6429.69
448.675	7710.69
448.896	8205.69
449.117	6716.69
449.338	6871.69
449.559	8268.69
449.779	8418.69
450	6441.69
450.221	5844.69
450.442	5563.69
450.662	5517.69
450.883	5583.69
451.104	5677.69
451.324	5553.69
451.545	5404.69
451.766	5267.69
451.986	5178.69
452.207	5146.69
452.428	5063.69
452.648	5211.69
452.869	5196.69
453.089	5210.69
453.31	5353.69
453.53	5170.69
453.751	5071.69
453.971	5041.69
454.192	5223.69
454.412	5020.69
454.633	4955.69
454.853	4894.69
455.073	4963.69
455.294	5365.69
455.514	5874.69
455.734	5400.69
455.955	4902.69
456.175	4778.69
456.395	4727.69
456.616	4737.69
456.836	4678.69
457.056	4715.69
457.276	4568.69
457.497	4840.69
457.717	4718.69
457.937	4843.69
458.157	4916.69
458.377	5049.69
458.598	5328.69
458.818	6036.69
459.038	6846.69
459.258	6738.69
459.478	6040.69
459.698	5899.69
459.918	5964.69
460.138	6209.69
460.358	6401.69
460.578	6467.69
460.798	6502.69
461.018	6517.69
461.238	6375.69
461.458	6385.69
461.678	6348.69
461.898	6435.69
462.118	6506.69
462.338	6806.69
462.558	6991.69
462.777	7314.69
462.997	7862.69
463.217	8342.69
463.437	8090.69
463.657	7487.69
463.876	7330.69
464.096	7334.69
464.316	7344.69
464.536	7394.69
464.755	7220.69
464.975	6993.69
465.195	7089.69
465.414	7032.69
465.634	6276.69
465.854	5935.69
466.073	5634.69
466.293	5560.69
466.512	5385.69
466.732	5295.69
466.951	5315.69
467.171	5345.69
467.391	5442.69
467.61	5418.69
467.829	5346.69
468.049	5275.69
468.268	5191.69
468.488	5096.69
468.707	5073.69
468.927	5134.69
469.146	5077.69
469.365	5186.69
469.585	5196.69
469.804	5384.69
470.023	5499.69
470.243	5479.69
470.462	5584.69
470.681	5706.69
470.901	5642.69
471.12	5479.69
471.339	5373.69
471.558	5363.69
471.777	5288.69
471.997	5166.69
472.216	5214.69
472.435	5204.69
472.654	5169.69
472.873	4965.69
473.092	5019.69
473.311	5029.69
473.53	5101.69
473.749	5195.69
473.968	5735.69
474.187	6677.69
474.406	6216.69
474.625	5331.69
474.844	5159.69
475.063	5072.69
475.282	5124.69
475.501	5193.69
475.72	5202.69
475.939	5206.69
476.158	5272.69
476.377	5240.69
476.596	5300.69
476.814	5414.69
477.033	5434.69
477.252	5565.69
477.471	5657.69
477.69	5761.69
477.908	5935.69
478.127	6054.69
478.346	6170.69
478.564	6273.69
478.783	6311.69
479.002	6509.69
479.22	6441.69
479.439	6553.69
479.658	6651.69
479.876	6686.69
480.095	6894.69
480.313	7350.69
480.532	7201.69
480.751	7019.69
480.969	6947.69
481.188	6986.69
481.406	6724.69
481.624	6368.69
481.843	6222.69
482.061	6107.69
482.28	6032.69
482.498	6024.69
482.717	5958.69
482.935	5970.69
483.153	5960.69
483.372	5949.69
483.59	5949.69
483.808	6063.69
484.027	6009.69
484.245	6057.69
484.463	6040.69
484.681	6170.69
484.9	6196.69
485.118	6249.69
485.336	6249.69
485.554	6343.69
485.772	6328.69
485.99	6420.69
486.209	6422.69
486.427	6414.69
486.645	6453.69
486.863	6618.69
487.081	6522.69
487.299	6470.69
487.517	6407.69
487.735	6400.69
487.953	6443.69
