Data from Uncirc_1999_H10_HRD10591_00080.txt Node
Date: Wed Jan 03 11:22:21 EST 2024
User: Yrep
Spectrometer: HR+D1059
Trigger mode: 1
Integration Time (sec): 1.000000E-1
Scans to average: 1
Electric dark correction enabled: true
Nonlinearity correction enabled: false
Boxcar width: 0
XAxis mode: Wavelengths
Number of Pixels in Spectrum: 2048
>>>>>Begin Spectral Data<<<<<
223.165	-10.12
223.4	-10.12
223.635	-10.12
223.869	-23.12
224.104	-18.12
224.338	-18.12
224.573	-1.12
224.808	-21.12
225.042	-5.12
225.277	-11.12
225.511	-0.12
225.746	-0.12
225.98	-5.12
226.215	20.88
226.449	17.88
226.683	21.88
226.918	24.88
227.152	27.88
227.387	31.88
227.621	52.88
227.856	40.88
228.09	42.88
228.324	49.88
228.559	49.88
228.793	54.88
229.027	62.88
229.262	66.88
229.496	73.88
229.73	87.88
229.964	82.88
230.199	81.88
230.433	62.88
230.667	80.88
230.901	73.88
231.136	65.88
231.37	80.88
231.604	90.88
231.838	87.88
232.072	83.88
232.306	77.88
232.541	79.88
232.775	79.88
233.009	92.88
233.243	71.88
233.477	78.88
233.711	84.88
233.945	94.88
234.179	81.88
234.413	62.88
234.647	84.88
234.881	87.88
235.115	81.88
235.349	83.88
235.583	77.88
235.817	79.88
236.051	91.88
236.285	99.88
236.519	72.88
236.753	70.88
236.987	81.88
237.221	63.88
237.455	73.88
237.689	91.88
237.922	67.88
238.156	66.88
238.39	71.88
238.624	72.88
238.858	89.88
239.091	71.88
239.325	67.88
239.559	78.88
239.793	79.88
240.027	84.88
240.26	73.88
240.494	85.88
240.728	74.88
240.961	72.88
241.195	82.88
241.429	89.88
241.662	76.88
241.896	83.88
242.13	62.88
242.363	56.88
242.597	68.88
242.83	75.88
243.064	87.88
243.298	73.88
243.531	76.88
243.765	73.88
243.998	90.88
244.232	88.88
244.465	74.88
244.699	83.88
244.932	76.88
245.166	71.88
245.399	78.88
245.633	80.88
245.866	77.88
246.099	85.88
246.333	79.88
246.566	71.88
246.8	66.88
247.033	68.88
247.266	76.88
247.5	77.88
247.733	58.88
247.966	71.88
248.2	85.88
248.433	74.88
248.666	74.88
248.899	83.88
249.133	97.88
249.366	103.88
249.599	87.88
249.832	77.88
250.066	71.88
250.299	78.88
250.532	88.88
250.765	73.88
250.998	68.88
251.231	83.88
251.465	79.88
251.698	88.88
251.931	77.88
252.164	71.88
252.397	80.88
252.63	86.88
252.863	74.88
253.096	85.88
253.329	77.88
253.562	61.88
253.795	76.88
254.028	90.88
254.261	82.88
254.494	78.88
254.727	83.88
254.96	82.88
255.193	77.88
255.426	77.88
255.659	89.88
255.892	90.88
256.124	84.88
256.357	81.88
256.59	76.88
256.823	88.88
257.056	79.88
257.289	88.88
257.521	72.88
257.754	80.88
257.987	76.88
258.22	87.88
258.452	88.88
258.685	65.88
258.918	92.88
259.151	78.88
259.383	81.88
259.616	82.88
259.849	87.88
260.081	87.88
260.314	86.88
260.547	79.88
260.779	84.88
261.012	82.88
261.244	90.88
261.477	88.88
261.71	86.88
261.942	114.88
262.175	103.88
262.407	91.88
262.64	74.88
262.872	72.88
263.105	77.88
263.337	85.88
263.57	80.88
263.802	95.88
264.035	81.88
264.267	78.88
264.499	98.88
264.732	93.88
264.964	89.88
265.197	95.88
265.429	87.88
265.661	68.88
265.894	80.88
266.126	82.88
266.358	89.88
266.591	67.88
266.823	80.88
267.055	85.88
267.287	83.88
267.52	81.88
267.752	78.88
267.984	76.88
268.216	84.88
268.448	93.88
268.681	76.88
268.913	71.88
269.145	80.88
269.377	80.88
269.609	87.88
269.841	71.88
270.073	81.88
270.306	88.88
270.538	82.88
270.77	64.88
271.002	80.88
271.234	89.88
271.466	97.88
271.698	78.88
271.93	75.88
272.162	95.88
272.394	96.88
272.626	79.88
272.858	69.88
273.09	77.88
273.322	89.88
273.553	90.88
273.785	83.88
274.017	94.88
274.249	86.88
274.481	73.88
274.713	76.88
274.945	63.88
275.176	84.88
275.408	83.88
275.64	89.88
275.872	73.88
276.104	86.88
276.335	97.88
276.567	103.88
276.799	106.88
277.031	100.88
277.262	79.88
277.494	78.88
277.726	77.88
277.957	84.88
278.189	80.88
278.421	77.88
278.652	89.88
278.884	87.88
279.115	91.88
279.347	92.88
279.579	78.88
279.81	93.88
280.042	88.88
280.273	80.88
280.505	74.88
280.736	79.88
280.968	87.88
281.199	85.88
281.431	94.88
281.662	89.88
281.894	83.88
282.125	98.88
282.356	117.88
282.588	133.88
282.819	108.88
283.051	82.88
283.282	70.88
283.513	87.88
283.745	82.88
283.976	83.88
284.207	85.88
284.439	92.88
284.67	85.88
284.901	92.88
285.132	85.88
285.364	80.88
285.595	86.88
285.826	77.88
286.057	91.88
286.288	69.88
286.52	83.88
286.751	83.88
286.982	85.88
287.213	81.88
287.444	97.88
287.675	84.88
287.906	82.88
288.138	95.88
288.369	86.88
288.6	89.88
288.831	87.88
289.062	78.88
289.293	94.88
289.524	78.88
289.755	85.88
289.986	80.88
290.217	90.88
290.448	86.88
290.679	80.88
290.91	92.88
291.141	79.88
291.371	93.88
291.602	101.88
291.833	80.88
292.064	84.88
292.295	85.88
292.526	91.88
292.757	95.88
292.987	101.88
293.218	101.88
293.449	101.88
293.68	79.88
293.91	88.88
294.141	90.88
294.372	88.88
294.603	87.88
294.833	85.88
295.064	79.88
295.295	84.88
295.525	78.88
295.756	103.88
295.987	102.88
296.217	134.88
296.448	125.88
296.679	85.88
296.909	93.88
297.14	96.88
297.37	90.88
297.601	70.88
297.831	95.88
298.062	97.88
298.292	87.88
298.523	92.88
298.753	87.88
298.984	81.88
299.214	80.88
299.445	97.88
299.675	95.88
299.905	98.88
300.136	98.88
300.366	89.88
300.597	90.88
300.827	87.88
301.057	107.88
301.288	83.88
301.518	84.88
301.748	89.88
301.979	103.88
302.209	84.88
302.439	103.88
302.669	89.88
302.9	90.88
303.13	74.88
303.36	88.88
303.59	102.88
303.82	87.88
304.051	95.88
304.281	87.88
304.511	104.88
304.741	88.88
304.971	84.88
305.201	82.88
305.431	78.88
305.661	91.88
305.891	83.88
306.121	94.88
306.352	92.88
306.582	112.88
306.812	81.88
307.042	87.88
307.272	99.88
307.502	94.88
307.731	99.88
307.961	87.88
308.191	78.88
308.421	93.88
308.651	100.88
308.881	89.88
309.111	103.88
309.341	96.88
309.571	92.88
309.8	94.88
310.03	92.88
310.26	92.88
310.49	88.88
310.72	95.88
310.949	106.88
311.179	94.88
311.409	88.88
311.639	81.88
311.868	106.88
312.098	101.88
312.328	94.88
312.557	107.88
312.787	94.88
313.017	98.88
313.246	93.88
313.476	92.88
313.706	81.88
313.935	84.88
314.165	95.88
314.394	92.88
314.624	105.88
314.853	87.88
315.083	93.88
315.312	88.88
315.542	99.88
315.771	91.88
316.001	80.88
316.23	108.88
316.46	92.88
316.689	95.88
316.919	82.88
317.148	72.88
317.377	111.88
317.607	95.88
317.836	92.88
318.065	103.88
318.295	103.88
318.524	96.88
318.753	92.88
318.983	78.88
319.212	101.88
319.441	97.88
319.67	109.88
319.9	92.88
320.129	104.88
320.358	95.88
320.587	98.88
320.816	107.88
321.046	102.88
321.275	101.88
321.504	97.88
321.733	110.88
321.962	90.88
322.191	102.88
322.42	103.88
322.649	117.88
322.878	125.88
323.108	109.88
323.337	118.88
323.566	131.88
323.795	150.88
324.024	204.88
324.253	397.88
324.482	865.88
324.71	1814.88
324.939	2325.88
325.168	822.88
325.397	246.88
325.626	138.88
325.855	132.88
326.084	135.88
326.313	141.88
326.542	161.88
326.77	226.88
326.999	489.88
327.228	1007.88
327.457	1824.88
327.686	1422.88
327.914	370.88
328.143	183.88
328.372	139.88
328.6	103.88
328.829	128.88
329.058	127.88
329.287	110.88
329.515	105.88
329.744	97.88
329.972	110.88
330.201	94.88
330.43	98.88
330.658	135.88
330.887	114.88
331.115	120.88
331.344	101.88
331.572	103.88
331.801	98.88
332.03	101.88
332.258	95.88
332.486	84.88
332.715	96.88
332.943	103.88
333.172	96.88
333.4	90.88
333.629	102.88
333.857	111.88
334.085	114.88
334.314	106.88
334.542	96.88
334.771	106.88
334.999	92.88
335.227	93.88
335.455	91.88
335.684	74.88
335.912	101.88
336.14	89.88
336.369	99.88
336.597	94.88
336.825	97.88
337.053	91.88
337.281	91.88
337.51	90.88
337.738	96.88
337.966	95.88
338.194	89.88
338.422	107.88
338.65	86.88
338.878	95.88
339.106	83.88
339.334	100.88
339.562	87.88
339.79	93.88
340.018	75.88
340.246	96.88
340.474	89.88
340.702	91.88
340.93	95.88
341.158	100.88
341.386	94.88
341.614	100.88
341.842	93.88
342.07	92.88
342.298	82.88
342.526	90.88
342.754	82.88
342.981	107.88
343.209	95.88
343.437	96.88
343.665	94.88
343.893	91.88
344.12	95.88
344.348	72.88
344.576	95.88
344.804	100.88
345.031	86.88
345.259	92.88
345.487	92.88
345.714	105.88
345.942	99.88
346.17	100.88
346.397	102.88
346.625	91.88
346.853	85.88
347.08	82.88
347.308	92.88
347.535	82.88
347.763	78.88
347.99	95.88
348.218	96.88
348.445	99.88
348.673	91.88
348.9	92.88
349.128	100.88
349.355	90.88
349.583	95.88
349.81	93.88
350.037	87.88
350.265	89.88
350.492	94.88
350.72	108.88
350.947	88.88
351.174	98.88
351.402	112.88
351.629	97.88
351.856	105.88
352.083	111.88
352.311	103.88
352.538	106.88
352.765	98.88
352.992	114.88
353.22	112.88
353.447	110.88
353.674	107.88
353.901	90.88
354.128	102.88
354.355	116.88
354.583	87.88
354.81	91.88
355.037	88.88
355.264	89.88
355.491	94.88
355.718	101.88
355.945	97.88
356.172	103.88
356.399	109.88
356.626	103.88
356.853	100.88
357.08	84.88
357.307	105.88
357.534	95.88
357.761	104.88
357.988	98.88
358.215	94.88
358.441	109.88
358.668	96.88
358.895	86.88
359.122	87.88
359.349	95.88
359.576	81.88
359.802	97.88
360.029	95.88
360.256	114.88
360.483	88.88
360.709	89.88
360.936	90.88
361.163	83.88
361.39	78.88
361.616	97.88
361.843	85.88
362.07	95.88
362.296	97.88
362.523	103.88
362.749	91.88
362.976	96.88
363.203	89.88
363.429	89.88
363.656	91.88
363.882	97.88
364.109	102.88
364.335	93.88
364.562	89.88
364.788	91.88
365.015	102.88
365.241	96.88
365.468	111.88
365.694	105.88
365.92	88.88
366.147	91.88
366.373	89.88
366.599	87.88
366.826	90.88
367.052	93.88
367.278	87.88
367.505	92.88
367.731	85.88
367.957	93.88
368.184	97.88
368.41	79.88
368.636	98.88
368.862	97.88
369.089	99.88
369.315	109.88
369.541	94.88
369.767	99.88
369.993	104.88
370.219	101.88
370.445	96.88
370.672	76.88
370.898	83.88
371.124	77.88
371.35	81.88
371.576	87.88
371.802	94.88
372.028	87.88
372.254	75.88
372.48	98.88
372.706	75.88
372.932	75.88
373.158	86.88
373.384	99.88
373.61	96.88
373.835	93.88
374.061	91.88
374.287	100.88
374.513	93.88
374.739	94.88
374.965	80.88
375.191	87.88
375.416	98.88
375.642	82.88
375.868	79.88
376.094	83.88
376.319	92.88
376.545	88.88
376.771	76.88
376.997	77.88
377.222	75.88
377.448	90.88
377.674	91.88
377.899	86.88
378.125	89.88
378.35	99.88
378.576	82.88
378.802	93.88
379.027	88.88
379.253	85.88
379.478	95.88
379.704	79.88
379.929	87.88
380.155	99.88
380.38	91.88
380.606	91.88
380.831	95.88
381.057	90.88
381.282	83.88
381.507	92.88
381.733	97.88
381.958	90.88
382.184	87.88
382.409	94.88
382.634	97.88
382.86	102.88
383.085	88.88
383.31	98.88
383.535	105.88
383.761	94.88
383.986	99.88
384.211	75.88
384.436	95.88
384.662	101.88
384.887	122.88
385.112	106.88
385.337	116.88
385.562	99.88
385.787	109.88
386.013	114.88
386.238	112.88
386.463	95.88
386.688	107.88
386.913	102.88
387.138	111.88
387.363	104.88
387.588	95.88
387.813	95.88
388.038	107.88
388.263	106.88
388.488	106.88
388.713	87.88
388.938	102.88
389.163	95.88
389.387	106.88
389.612	95.88
389.837	94.88
390.062	92.88
390.287	92.88
390.512	91.88
390.736	86.88
390.961	96.88
391.186	96.88
391.411	93.88
391.636	93.88
391.86	84.88
392.085	80.88
392.31	77.88
392.534	83.88
392.759	83.88
392.984	84.88
393.208	76.88
393.433	86.88
393.658	97.88
393.882	85.88
394.107	88.88
394.331	96.88
394.556	87.88
394.78	90.88
395.005	70.88
395.229	79.88
395.454	96.88
395.678	93.88
395.903	73.88
396.127	82.88
396.352	93.88
396.576	88.88
396.801	85.88
397.025	91.88
397.249	91.88
397.474	86.88
397.698	87.88
397.922	92.88
398.147	77.88
398.371	78.88
398.595	89.88
398.82	86.88
399.044	104.88
399.268	89.88
399.492	87.88
399.717	91.88
399.941	83.88
400.165	76.88
400.389	77.88
400.613	75.88
400.837	87.88
401.062	87.88
401.286	87.88
401.51	91.88
401.734	91.88
401.958	92.88
402.182	118.88
402.406	149.88
402.63	111.88
402.854	91.88
403.078	87.88
403.302	95.88
403.526	79.88
403.75	94.88
403.974	76.88
404.198	93.88
404.422	86.88
404.645	94.88
404.869	76.88
405.093	85.88
405.317	97.88
405.541	87.88
405.765	96.88
405.988	109.88
406.212	147.88
406.436	218.88
406.66	142.88
406.883	106.88
407.107	92.88
407.331	113.88
407.555	110.88
407.778	94.88
408.002	84.88
408.226	102.88
408.449	86.88
408.673	92.88
408.896	80.88
409.12	105.88
409.344	100.88
409.567	89.88
409.791	104.88
410.014	105.88
410.238	103.88
410.461	87.88
410.685	97.88
410.908	106.88
411.132	101.88
411.355	105.88
411.578	100.88
411.802	68.88
412.025	83.88
412.249	79.88
412.472	88.88
412.695	92.88
412.919	93.88
413.142	90.88
413.365	102.88
413.589	90.88
413.812	88.88
414.035	85.88
414.258	92.88
414.482	86.88
414.705	90.88
414.928	86.88
415.151	94.88
415.374	101.88
415.597	77.88
415.821	86.88
416.044	83.88
416.267	89.88
416.49	76.88
416.713	86.88
416.936	89.88
417.159	100.88
417.382	81.88
417.605	83.88
417.828	71.88
418.051	96.88
418.274	70.88
418.497	91.88
418.72	81.88
418.943	81.88
419.166	67.88
419.389	91.88
419.611	91.88
419.834	87.88
420.057	88.88
420.28	88.88
420.503	83.88
420.726	81.88
420.948	85.88
421.171	102.88
421.394	95.88
421.617	90.88
421.839	87.88
422.062	90.88
422.285	94.88
422.507	113.88
422.73	106.88
422.953	100.88
423.175	82.88
423.398	84.88
423.621	90.88
423.843	84.88
424.066	93.88
424.288	85.88
424.511	92.88
424.733	94.88
424.956	113.88
425.178	102.88
425.401	100.88
425.623	97.88
425.846	86.88
426.068	103.88
426.291	97.88
426.513	91.88
426.735	92.88
426.958	90.88
427.18	106.88
427.402	132.88
427.625	171.88
427.847	121.88
428.069	104.88
428.292	92.88
428.514	95.88
428.736	79.88
428.958	96.88
429.181	98.88
429.403	91.88
429.625	87.88
429.847	88.88
430.069	98.88
430.292	91.88
430.514	75.88
430.736	85.88
430.958	87.88
431.18	90.88
431.402	85.88
431.624	100.88
431.846	83.88
432.068	90.88
432.29	101.88
432.512	77.88
432.734	86.88
432.956	93.88
433.178	106.88
433.4	109.88
433.622	76.88
433.844	86.88
434.066	80.88
434.287	94.88
434.509	107.88
434.731	90.88
434.953	85.88
435.175	82.88
435.397	82.88
435.618	90.88
435.84	92.88
436.062	116.88
436.284	127.88
436.505	102.88
436.727	112.88
436.949	91.88
437.17	86.88
437.392	81.88
437.614	100.88
437.835	106.88
438.057	116.88
438.278	118.88
438.5	99.88
438.721	120.88
438.943	94.88
439.165	96.88
439.386	97.88
439.608	89.88
439.829	117.88
440.05	124.88
440.272	154.88
440.493	106.88
440.715	93.88
440.936	71.88
441.158	80.88
441.379	76.88
441.6	105.88
441.822	97.88
442.043	95.88
442.264	93.88
442.486	94.88
442.707	91.88
442.928	103.88
443.149	116.88
443.371	112.88
443.592	112.88
443.813	110.88
444.034	117.88
444.255	95.88
444.476	106.88
444.698	100.88
444.919	84.88
445.14	126.88
445.361	115.88
445.582	110.88
445.803	120.88
446.024	123.88
446.245	131.88
446.466	102.88
446.687	95.88
446.908	82.88
447.129	81.88
447.35	78.88
447.571	95.88
447.792	85.88
448.013	105.88
448.234	103.88
448.455	105.88
448.675	107.88
448.896	115.88
449.117	101.88
449.338	100.88
449.559	147.88
449.779	129.88
450	83.88
450.221	91.88
450.442	88.88
450.662	93.88
450.883	99.88
451.104	102.88
451.324	92.88
451.545	83.88
451.766	83.88
451.986	100.88
452.207	86.88
452.428	91.88
452.648	101.88
452.869	107.88
453.089	103.88
453.31	118.88
453.53	103.88
453.751	96.88
453.971	104.88
454.192	99.88
454.412	85.88
454.633	92.88
454.853	87.88
455.073	75.88
455.294	96.88
455.514	116.88
455.734	92.88
455.955	94.88
456.175	95.88
456.395	72.88
456.616	94.88
456.836	84.88
457.056	89.88
457.276	77.88
457.497	92.88
457.717	95.88
457.937	84.88
458.157	94.88
458.377	72.88
458.598	102.88
458.818	138.88
459.038	147.88
459.258	121.88
459.478	93.88
459.698	101.88
459.918	88.88
460.138	80.88
460.358	85.88
460.578	79.88
460.798	74.88
461.018	97.88
461.238	98.88
461.458	92.88
461.678	76.88
461.898	79.88
462.118	92.88
462.338	78.88
462.558	93.88
462.777	89.88
462.997	94.88
463.217	79.88
463.437	76.88
463.657	81.88
463.876	70.88
464.096	90.88
464.316	94.88
464.536	79.88
464.755	81.88
464.975	81.88
465.195	142.88
465.414	164.88
465.634	101.88
465.854	79.88
466.073	92.88
466.293	86.88
466.512	86.88
466.732	101.88
466.951	91.88
467.171	102.88
467.391	93.88
467.61	88.88
467.829	95.88
468.049	92.88
468.268	75.88
468.488	85.88
468.707	83.88
468.927	95.88
469.146	85.88
469.365	82.88
469.585	102.88
469.804	103.88
470.023	100.88
470.243	86.88
470.462	84.88
470.681	100.88
470.901	93.88
471.12	79.88
471.339	80.88
471.558	83.88
471.777	82.88
471.997	88.88
472.216	82.88
472.435	91.88
472.654	83.88
472.873	100.88
473.092	84.88
473.311	85.88
473.53	86.88
473.749	85.88
473.968	109.88
474.187	102.88
474.406	97.88
474.625	85.88
474.844	92.88
475.063	89.88
475.282	85.88
475.501	90.88
475.72	85.88
475.939	87.88
476.158	85.88
476.377	88.88
476.596	94.88
476.814	97.88
477.033	95.88
477.252	93.88
477.471	85.88
477.69	79.88
477.908	96.88
478.127	105.88
478.346	79.88
478.564	90.88
478.783	99.88
479.002	90.88
479.22	96.88
479.439	94.88
479.658	100.88
479.876	83.88
480.095	92.88
480.313	101.88
480.532	97.88
480.751	79.88
480.969	97.88
481.188	123.88
481.406	109.88
481.624	85.88
481.843	93.88
482.061	88.88
482.28	85.88
482.498	95.88
482.717	94.88
482.935	89.88
483.153	89.88
483.372	90.88
483.59	98.88
483.808	93.88
484.027	97.88
484.245	89.88
484.463	87.88
484.681	86.88
484.9	91.88
485.118	89.88
485.336	94.88
485.554	89.88
485.772	92.88
485.99	122.88
486.209	113.88
486.427	116.88
486.645	116.88
486.863	99.88
487.081	96.88
487.299	105.88
487.517	101.88
487.735	99.88
487.953	80.88
488.171	99.88
488.389	89.88
488.607	97.88
488.825	93.88
489.043	101.88
489.261	110.88
489.479	83.88
489.696	96.88
489.914	93.88
490.132	94.88
490.35	109.88
490.568	92.88
490.786	79.88
491.003	91.88
491.221	94.88
491.439	86.88
491.657	106.88
491.874	90.88
492.092	97.88
492.31	86.88
492.527	79.88
492.745	108.88
492.963	81.88
493.18	84.88
493.398	81.88
493.615	88.88
493.833	103.88
494.05	96.88
494.268	77.88
494.485	86.88
494.703	94.88
494.92	88.88
495.138	79.88
495.355	91.88
495.573	91.88
495.79	93.88
496.008	99.88
496.225	87.88
496.442	88.88
496.66	100.88
496.877	97.88
497.094	93.88
497.312	87.88
497.529	99.88
497.746	84.88
497.963	90.88
498.181	86.88
498.398	73.88
498.615	95.88
498.832	99.88
499.049	85.88
499.267	100.88
499.484	97.88
499.701	88.88
499.918	100.88
500.135	87.88
500.352	78.88
500.569	91.88
500.786	93.88
501.003	92.88
501.22	83.88
501.437	90.88
501.654	98.88
501.871	97.88
502.088	87.88
502.305	89.88
502.522	80.88
502.739	89.88
502.956	84.88
503.172	91.88
503.389	91.88
503.606	95.88
503.823	98.88
504.04	94.88
504.256	90.88
504.473	90.88
504.69	91.88
504.907	102.88
505.123	96.88
505.34	92.88
505.557	97.88
505.773	94.88
505.99	108.88
506.207	87.88
506.423	91.88
506.64	70.88
506.856	79.88
507.073	93.88
507.289	101.88
507.506	99.88
507.722	117.88
507.939	116.88
508.155	108.88
508.372	95.88
508.588	79.88
508.805	107.88
509.021	110.88
509.238	97.88
509.454	94.88
509.67	103.88
509.887	119.88
510.103	149.88
510.319	213.88
510.536	772.88
510.752	2371.88
510.968	656.88
511.184	152.88
511.401	100.88
511.617	85.88
511.833	91.88
512.049	87.88
512.265	95.88
512.481	95.88
512.698	89.88
512.914	89.88
513.13	85.88
513.346	78.88
513.562	84.88
513.778	110.88
513.994	93.88
514.21	106.88
514.426	121.88
514.642	135.88
514.858	126.88
515.074	151.88
515.29	423.88
515.506	1413.88
515.721	503.88
