Data from Uncirc_1999_H10_HRD10591_00057.txt Node
Date: Wed Jan 03 11:22:16 EST 2024
User: Yrep
Spectrometer: HR+D1059
Trigger mode: 1
Integration Time (sec): 1.000000E-1
Scans to average: 1
Electric dark correction enabled: true
Nonlinearity correction enabled: false
Boxcar width: 0
XAxis mode: Wavelengths
Number of Pixels in Spectrum: 2048
>>>>>Begin Spectral Data<<<<<
223.165	-24.25
223.4	-24.25
223.635	-24.25
223.869	-8.25
224.104	-29.25
224.338	-22.25
224.573	-21.25
224.808	-16.25
225.042	-9.25
225.277	-5.25
225.511	-1.25
225.746	-0.25
225.98	1.75
226.215	23.75
226.449	29.75
226.683	27.75
226.918	11.75
227.152	42.75
227.387	41.75
227.621	41.75
227.856	44.75
228.09	45.75
228.324	45.75
228.559	64.75
228.793	57.75
229.027	55.75
229.262	62.75
229.496	73.75
229.73	70.75
229.964	69.75
230.199	71.75
230.433	74.75
230.667	68.75
230.901	74.75
231.136	79.75
231.37	70.75
231.604	68.75
231.838	77.75
232.072	80.75
232.306	68.75
232.541	82.75
232.775	78.75
233.009	83.75
233.243	68.75
233.477	87.75
233.711	77.75
233.945	75.75
234.179	78.75
234.413	70.75
234.647	84.75
234.881	74.75
235.115	82.75
235.349	76.75
235.583	69.75
235.817	67.75
236.051	75.75
236.285	80.75
236.519	75.75
236.753	79.75
236.987	72.75
237.221	77.75
237.455	80.75
237.689	89.75
237.922	77.75
238.156	75.75
238.39	59.75
238.624	66.75
238.858	70.75
239.091	78.75
239.325	76.75
239.559	87.75
239.793	65.75
240.027	91.75
240.26	68.75
240.494	67.75
240.728	70.75
240.961	59.75
241.195	68.75
241.429	77.75
241.662	73.75
241.896	72.75
242.13	76.75
242.363	80.75
242.597	72.75
242.83	62.75
243.064	82.75
243.298	72.75
243.531	74.75
243.765	59.75
243.998	76.75
244.232	81.75
244.465	83.75
244.699	75.75
244.932	78.75
245.166	84.75
245.399	81.75
245.633	73.75
245.866	69.75
246.099	60.75
246.333	85.75
246.566	85.75
246.8	79.75
247.033	73.75
247.266	84.75
247.5	70.75
247.733	74.75
247.966	73.75
248.2	78.75
248.433	71.75
248.666	78.75
248.899	83.75
249.133	90.75
249.366	90.75
249.599	94.75
249.832	81.75
250.066	81.75
250.299	58.75
250.532	88.75
250.765	84.75
250.998	85.75
251.231	83.75
251.465	86.75
251.698	73.75
251.931	71.75
252.164	82.75
252.397	79.75
252.63	76.75
252.863	81.75
253.096	85.75
253.329	88.75
253.562	76.75
253.795	85.75
254.028	75.75
254.261	81.75
254.494	74.75
254.727	84.75
254.96	77.75
255.193	86.75
255.426	74.75
255.659	71.75
255.892	75.75
256.124	80.75
256.357	72.75
256.59	85.75
256.823	77.75
257.056	66.75
257.289	69.75
257.521	76.75
257.754	82.75
257.987	74.75
258.22	78.75
258.452	76.75
258.685	70.75
258.918	75.75
259.151	82.75
259.383	83.75
259.616	77.75
259.849	79.75
260.081	70.75
260.314	73.75
260.547	79.75
260.779	81.75
261.012	75.75
261.244	89.75
261.477	74.75
261.71	83.75
261.942	101.75
262.175	106.75
262.407	87.75
262.64	62.75
262.872	76.75
263.105	75.75
263.337	87.75
263.57	73.75
263.802	95.75
264.035	77.75
264.267	79.75
264.499	83.75
264.732	87.75
264.964	72.75
265.197	73.75
265.429	73.75
265.661	82.75
265.894	73.75
266.126	76.75
266.358	67.75
266.591	69.75
266.823	70.75
267.055	89.75
267.287	79.75
267.52	80.75
267.752	95.75
267.984	95.75
268.216	95.75
268.448	79.75
268.681	70.75
268.913	80.75
269.145	85.75
269.377	85.75
269.609	73.75
269.841	75.75
270.073	81.75
270.306	86.75
270.538	72.75
270.77	85.75
271.002	83.75
271.234	74.75
271.466	80.75
271.698	60.75
271.93	82.75
272.162	88.75
272.394	78.75
272.626	102.75
272.858	93.75
273.09	74.75
273.322	88.75
273.553	81.75
273.785	70.75
274.017	81.75
274.249	77.75
274.481	77.75
274.713	85.75
274.945	77.75
275.176	85.75
275.408	84.75
275.64	87.75
275.872	78.75
276.104	81.75
276.335	92.75
276.567	103.75
276.799	103.75
277.031	90.75
277.262	88.75
277.494	79.75
277.726	76.75
277.957	78.75
278.189	91.75
278.421	81.75
278.652	67.75
278.884	81.75
279.115	86.75
279.347	80.75
279.579	89.75
279.81	77.75
280.042	79.75
280.273	85.75
280.505	95.75
280.736	100.75
280.968	85.75
281.199	83.75
281.431	65.75
281.662	86.75
281.894	91.75
282.125	103.75
282.356	123.75
282.588	125.75
282.819	96.75
283.051	92.75
283.282	78.75
283.513	84.75
283.745	86.75
283.976	83.75
284.207	80.75
284.439	88.75
284.67	83.75
284.901	81.75
285.132	79.75
285.364	89.75
285.595	78.75
285.826	80.75
286.057	79.75
286.288	81.75
286.52	91.75
286.751	80.75
286.982	99.75
287.213	102.75
287.444	82.75
287.675	78.75
287.906	86.75
288.138	78.75
288.369	62.75
288.6	93.75
288.831	83.75
289.062	75.75
289.293	92.75
289.524	81.75
289.755	95.75
289.986	91.75
290.217	89.75
290.448	69.75
290.679	72.75
290.91	78.75
291.141	90.75
291.371	71.75
291.602	78.75
291.833	84.75
292.064	81.75
292.295	91.75
292.526	83.75
292.757	66.75
292.987	83.75
293.218	85.75
293.449	88.75
293.68	74.75
293.91	80.75
294.141	91.75
294.372	97.75
294.603	72.75
294.833	90.75
295.064	78.75
295.295	88.75
295.525	76.75
295.756	100.75
295.987	103.75
296.217	121.75
296.448	107.75
296.679	91.75
296.909	89.75
297.14	83.75
297.37	95.75
297.601	93.75
297.831	95.75
298.062	86.75
298.292	91.75
298.523	78.75
298.753	86.75
298.984	81.75
299.214	86.75
299.445	99.75
299.675	91.75
299.905	85.75
300.136	81.75
300.366	77.75
300.597	90.75
300.827	83.75
301.057	91.75
301.288	107.75
301.518	73.75
301.748	73.75
301.979	87.75
302.209	95.75
302.439	79.75
302.669	81.75
302.9	84.75
303.13	85.75
303.36	91.75
303.59	99.75
303.82	85.75
304.051	77.75
304.281	102.75
304.511	85.75
304.741	81.75
304.971	99.75
305.201	90.75
305.431	81.75
305.661	89.75
305.891	89.75
306.121	90.75
306.352	82.75
306.582	93.75
306.812	81.75
307.042	85.75
307.272	83.75
307.502	92.75
307.731	86.75
307.961	94.75
308.191	90.75
308.421	87.75
308.651	80.75
308.881	84.75
309.111	95.75
309.341	98.75
309.571	86.75
309.8	94.75
310.03	99.75
310.26	105.75
310.49	107.75
310.72	98.75
310.949	95.75
311.179	88.75
311.409	82.75
311.639	95.75
311.868	87.75
312.098	95.75
312.328	100.75
312.557	87.75
312.787	88.75
313.017	93.75
313.246	105.75
313.476	83.75
313.706	102.75
313.935	93.75
314.165	100.75
314.394	86.75
314.624	94.75
314.853	94.75
315.083	81.75
315.312	88.75
315.542	98.75
315.771	84.75
316.001	101.75
316.23	107.75
316.46	91.75
316.689	80.75
316.919	91.75
317.148	96.75
317.377	87.75
317.607	77.75
317.836	82.75
318.065	89.75
318.295	83.75
318.524	91.75
318.753	84.75
318.983	85.75
319.212	95.75
319.441	92.75
319.67	101.75
319.9	87.75
320.129	86.75
320.358	102.75
320.587	77.75
320.816	69.75
321.046	93.75
321.275	100.75
321.504	109.75
321.733	95.75
321.962	91.75
322.191	96.75
322.42	83.75
322.649	93.75
322.878	114.75
323.108	100.75
323.337	125.75
323.566	131.75
323.795	152.75
324.024	202.75
324.253	391.75
324.482	806.75
324.71	1665.75
324.939	2148.75
325.168	793.75
325.397	235.75
325.626	141.75
325.855	121.75
326.084	122.75
326.313	117.75
326.542	157.75
326.77	231.75
326.999	445.75
327.228	933.75
327.457	1679.75
327.686	1349.75
327.914	355.75
328.143	184.75
328.372	126.75
328.6	104.75
328.829	123.75
329.058	118.75
329.287	125.75
329.515	116.75
329.744	109.75
329.972	93.75
330.201	110.75
330.43	106.75
330.658	103.75
330.887	133.75
331.115	121.75
331.344	99.75
331.572	107.75
331.801	93.75
332.03	84.75
332.258	97.75
332.486	91.75
332.715	92.75
332.943	88.75
333.172	97.75
333.4	89.75
333.629	91.75
333.857	103.75
334.085	105.75
334.314	98.75
334.542	96.75
334.771	95.75
334.999	92.75
335.227	87.75
335.455	85.75
335.684	89.75
335.912	89.75
336.14	82.75
336.369	102.75
336.597	92.75
336.825	99.75
337.053	94.75
337.281	81.75
337.51	93.75
337.738	83.75
337.966	79.75
338.194	84.75
338.422	82.75
338.65	85.75
338.878	84.75
339.106	86.75
339.334	87.75
339.562	88.75
339.79	108.75
340.018	90.75
340.246	90.75
340.474	92.75
340.702	77.75
340.93	79.75
341.158	97.75
341.386	95.75
341.614	91.75
341.842	99.75
342.07	98.75
342.298	94.75
342.526	71.75
342.754	103.75
342.981	91.75
343.209	89.75
343.437	86.75
343.665	97.75
343.893	91.75
344.12	78.75
344.348	94.75
344.576	98.75
344.804	84.75
345.031	103.75
345.259	106.75
345.487	86.75
345.714	88.75
345.942	89.75
346.17	82.75
346.397	95.75
346.625	83.75
346.853	82.75
347.08	103.75
347.308	90.75
347.535	96.75
347.763	89.75
347.99	103.75
348.218	103.75
348.445	88.75
348.673	77.75
348.9	93.75
349.128	90.75
349.355	80.75
349.583	107.75
349.81	103.75
350.037	100.75
350.265	86.75
350.492	98.75
350.72	94.75
350.947	95.75
351.174	108.75
351.402	86.75
351.629	83.75
351.856	95.75
352.083	99.75
352.311	101.75
352.538	98.75
352.765	113.75
352.992	99.75
353.22	119.75
353.447	99.75
353.674	94.75
353.901	93.75
354.128	85.75
354.355	94.75
354.583	91.75
354.81	98.75
355.037	88.75
355.264	89.75
355.491	87.75
355.718	90.75
355.945	97.75
356.172	83.75
356.399	88.75
356.626	99.75
356.853	84.75
357.08	79.75
357.307	86.75
357.534	91.75
357.761	94.75
357.988	115.75
358.215	95.75
358.441	83.75
358.668	98.75
358.895	94.75
359.122	88.75
359.349	85.75
359.576	83.75
359.802	101.75
360.029	97.75
360.256	95.75
360.483	97.75
360.709	86.75
360.936	82.75
361.163	83.75
361.39	90.75
361.616	83.75
361.843	92.75
362.07	90.75
362.296	101.75
362.523	71.75
362.749	97.75
362.976	68.75
363.203	89.75
363.429	73.75
363.656	91.75
363.882	85.75
364.109	76.75
364.335	93.75
364.562	83.75
364.788	87.75
365.015	78.75
365.241	88.75
365.468	82.75
365.694	101.75
365.92	94.75
366.147	87.75
366.373	92.75
366.599	82.75
366.826	73.75
367.052	98.75
367.278	80.75
367.505	102.75
367.731	95.75
367.957	85.75
368.184	73.75
368.41	88.75
368.636	93.75
368.862	112.75
369.089	104.75
369.315	87.75
369.541	86.75
369.767	78.75
369.993	79.75
370.219	70.75
370.445	92.75
370.672	102.75
370.898	83.75
371.124	74.75
371.35	83.75
371.576	75.75
371.802	102.75
372.028	97.75
372.254	83.75
372.48	95.75
372.706	84.75
372.932	83.75
373.158	90.75
373.384	78.75
373.61	84.75
373.835	99.75
374.061	78.75
374.287	95.75
374.513	91.75
374.739	87.75
374.965	85.75
375.191	93.75
375.416	88.75
375.642	87.75
375.868	94.75
376.094	80.75
376.319	84.75
376.545	79.75
376.771	92.75
376.997	86.75
377.222	82.75
377.448	83.75
377.674	91.75
377.899	97.75
378.125	77.75
378.35	83.75
378.576	81.75
378.802	98.75
379.027	80.75
379.253	91.75
379.478	96.75
379.704	93.75
379.929	80.75
380.155	86.75
380.38	73.75
380.606	86.75
380.831	102.75
381.057	90.75
381.282	81.75
381.507	113.75
381.733	97.75
381.958	94.75
382.184	92.75
382.409	93.75
382.634	114.75
382.86	92.75
383.085	98.75
383.31	99.75
383.535	95.75
383.761	95.75
383.986	115.75
384.211	105.75
384.436	100.75
384.662	92.75
384.887	93.75
385.112	84.75
385.337	103.75
385.562	100.75
385.787	97.75
386.013	106.75
386.238	106.75
386.463	88.75
386.688	108.75
386.913	93.75
387.138	104.75
387.363	99.75
387.588	90.75
387.813	105.75
388.038	96.75
388.263	123.75
388.488	111.75
388.713	91.75
388.938	94.75
389.163	83.75
389.387	102.75
389.612	99.75
389.837	94.75
390.062	71.75
390.287	90.75
390.512	81.75
390.736	81.75
390.961	91.75
391.186	105.75
391.411	97.75
391.636	86.75
391.86	85.75
392.085	73.75
392.31	74.75
392.534	85.75
392.759	77.75
392.984	95.75
393.208	95.75
393.433	83.75
393.658	85.75
393.882	83.75
394.107	68.75
394.331	81.75
394.556	82.75
394.78	93.75
395.005	80.75
395.229	70.75
395.454	81.75
395.678	86.75
395.903	80.75
396.127	83.75
396.352	96.75
396.576	93.75
396.801	71.75
397.025	73.75
397.249	76.75
397.474	79.75
397.698	81.75
397.922	89.75
398.147	79.75
398.371	89.75
398.595	82.75
398.82	78.75
399.044	83.75
399.268	60.75
399.492	92.75
399.717	85.75
399.941	89.75
400.165	90.75
400.389	91.75
400.613	79.75
400.837	76.75
401.062	67.75
401.286	81.75
401.51	77.75
401.734	88.75
401.958	106.75
402.182	112.75
402.406	139.75
402.63	105.75
402.854	84.75
403.078	99.75
403.302	89.75
403.526	95.75
403.75	93.75
403.974	89.75
404.198	86.75
404.422	73.75
404.645	79.75
404.869	80.75
405.093	81.75
405.317	94.75
405.541	101.75
405.765	85.75
405.988	100.75
406.212	140.75
406.436	201.75
406.66	133.75
406.883	92.75
407.107	93.75
407.331	83.75
407.555	87.75
407.778	73.75
408.002	93.75
408.226	85.75
408.449	92.75
408.673	95.75
408.896	94.75
409.12	95.75
409.344	94.75
409.567	88.75
409.791	97.75
410.014	94.75
410.238	83.75
410.461	99.75
410.685	90.75
410.908	95.75
411.132	95.75
411.355	93.75
411.578	82.75
411.802	77.75
412.025	93.75
412.249	93.75
412.472	85.75
412.695	80.75
412.919	87.75
413.142	98.75
413.365	88.75
413.589	67.75
413.812	92.75
414.035	101.75
414.258	89.75
414.482	90.75
414.705	91.75
414.928	83.75
415.151	87.75
415.374	106.75
415.597	93.75
415.821	78.75
416.044	86.75
416.267	94.75
416.49	84.75
416.713	78.75
416.936	96.75
417.159	91.75
417.382	85.75
417.605	90.75
417.828	75.75
418.051	105.75
418.274	74.75
418.497	85.75
418.72	72.75
418.943	86.75
419.166	89.75
419.389	91.75
419.611	84.75
419.834	79.75
420.057	81.75
420.28	79.75
420.503	89.75
420.726	88.75
420.948	95.75
421.171	92.75
421.394	75.75
421.617	95.75
421.839	99.75
422.062	88.75
422.285	94.75
422.507	94.75
422.73	85.75
422.953	85.75
423.175	77.75
423.398	82.75
423.621	79.75
423.843	99.75
424.066	97.75
424.288	86.75
424.511	85.75
424.733	93.75
424.956	83.75
425.178	78.75
425.401	84.75
425.623	72.75
425.846	88.75
426.068	84.75
426.291	80.75
426.513	87.75
426.735	85.75
426.958	81.75
427.18	91.75
427.402	119.75
427.625	135.75
427.847	123.75
428.069	117.75
428.292	89.75
428.514	97.75
428.736	71.75
428.958	84.75
429.181	79.75
429.403	78.75
429.625	87.75
429.847	77.75
430.069	95.75
430.292	93.75
430.514	88.75
430.736	99.75
430.958	77.75
431.18	87.75
431.402	84.75
431.624	78.75
431.846	81.75
432.068	77.75
432.29	84.75
432.512	95.75
432.734	88.75
432.956	84.75
433.178	97.75
433.4	100.75
433.622	87.75
433.844	77.75
434.066	79.75
434.287	92.75
434.509	70.75
434.731	82.75
434.953	73.75
435.175	70.75
435.397	80.75
435.618	88.75
435.84	86.75
436.062	126.75
436.284	104.75
436.505	98.75
436.727	89.75
436.949	72.75
437.17	83.75
437.392	81.75
437.614	81.75
437.835	90.75
438.057	117.75
438.278	99.75
438.5	99.75
438.721	110.75
438.943	93.75
439.165	76.75
439.386	83.75
439.608	88.75
439.829	90.75
440.05	118.75
440.272	132.75
440.493	99.75
440.715	69.75
440.936	92.75
441.158	73.75
441.379	88.75
441.6	86.75
441.822	81.75
442.043	77.75
442.264	100.75
442.486	91.75
442.707	97.75
442.928	102.75
443.149	115.75
443.371	131.75
443.592	108.75
443.813	107.75
444.034	105.75
444.255	88.75
444.476	87.75
444.698	102.75
444.919	90.75
445.14	131.75
445.361	126.75
445.582	110.75
445.803	115.75
446.024	124.75
446.245	123.75
446.466	88.75
446.687	90.75
446.908	91.75
447.129	101.75
447.35	89.75
447.571	69.75
447.792	85.75
448.013	92.75
448.234	109.75
448.455	89.75
448.675	102.75
448.896	85.75
449.117	92.75
449.338	82.75
449.559	118.75
449.779	115.75
450	93.75
450.221	73.75
450.442	86.75
450.662	101.75
450.883	99.75
451.104	98.75
451.324	90.75
451.545	85.75
451.766	106.75
451.986	92.75
452.207	84.75
452.428	82.75
452.648	70.75
452.869	97.75
453.089	99.75
453.31	110.75
453.53	95.75
453.751	84.75
453.971	108.75
454.192	98.75
454.412	85.75
454.633	84.75
454.853	100.75
455.073	78.75
455.294	97.75
455.514	95.75
455.734	84.75
455.955	79.75
456.175	77.75
456.395	94.75
456.616	84.75
456.836	72.75
457.056	88.75
457.276	77.75
457.497	86.75
457.717	75.75
457.937	87.75
458.157	84.75
458.377	83.75
458.598	102.75
458.818	134.75
459.038	147.75
459.258	100.75
459.478	79.75
459.698	85.75
459.918	77.75
460.138	70.75
460.358	80.75
460.578	79.75
460.798	79.75
461.018	76.75
461.238	82.75
461.458	84.75
461.678	84.75
461.898	78.75
462.118	80.75
462.338	90.75
462.558	80.75
462.777	85.75
462.997	80.75
463.217	95.75
463.437	94.75
463.657	78.75
463.876	84.75
464.096	81.75
464.316	90.75
464.536	90.75
464.755	100.75
464.975	93.75
465.195	120.75
465.414	130.75
465.634	90.75
465.854	86.75
466.073	84.75
466.293	73.75
466.512	86.75
466.732	96.75
466.951	87.75
467.171	98.75
467.391	83.75
467.61	93.75
467.829	93.75
468.049	92.75
468.268	81.75
468.488	86.75
468.707	76.75
468.927	99.75
469.146	73.75
469.365	81.75
469.585	84.75
469.804	94.75
470.023	88.75
470.243	91.75
470.462	92.75
470.681	97.75
470.901	100.75
471.12	71.75
471.339	78.75
471.558	83.75
471.777	84.75
471.997	76.75
472.216	89.75
472.435	97.75
472.654	94.75
472.873	91.75
473.092	85.75
473.311	89.75
473.53	87.75
473.749	83.75
473.968	94.75
474.187	101.75
474.406	101.75
474.625	83.75
474.844	77.75
475.063	77.75
475.282	85.75
475.501	80.75
475.72	88.75
475.939	83.75
476.158	84.75
476.377	96.75
476.596	88.75
476.814	75.75
477.033	92.75
477.252	89.75
477.471	85.75
477.69	83.75
477.908	86.75
478.127	88.75
478.346	95.75
478.564	81.75
478.783	92.75
479.002	82.75
479.22	78.75
479.439	90.75
479.658	100.75
479.876	82.75
480.095	93.75
480.313	79.75
480.532	69.75
480.751	87.75
480.969	82.75
481.188	120.75
481.406	106.75
481.624	89.75
481.843	93.75
482.061	89.75
482.28	81.75
482.498	75.75
482.717	82.75
482.935	96.75
483.153	103.75
483.372	92.75
483.59	97.75
483.808	86.75
484.027	90.75
484.245	85.75
484.463	88.75
484.681	99.75
484.9	87.75
485.118	81.75
485.336	103.75
485.554	92.75
485.772	95.75
485.99	98.75
486.209	91.75
486.427	107.75
486.645	95.75
486.863	103.75
487.081	102.75
487.299	97.75
487.517	106.75
487.735	98.75
487.953	89.75
488.171	81.75
488.389	81.75
488.607	92.75
488.825	94.75
489.043	90.75
489.261	83.75
489.479	73.75
489.696	92.75
489.914	78.75
490.132	81.75
490.35	85.75
490.568	87.75
490.786	87.75
491.003	75.75
491.221	87.75
491.439	105.75
491.657	88.75
491.874	80.75
492.092	91.75
492.31	86.75
492.527	70.75
492.745	82.75
492.963	83.75
493.18	95.75
493.398	102.75
493.615	97.75
493.833	90.75
494.05	98.75
494.268	79.75
494.485	82.75
494.703	83.75
494.92	87.75
495.138	82.75
495.355	85.75
495.573	96.75
495.79	90.75
496.008	85.75
496.225	80.75
496.442	83.75
496.66	71.75
496.877	91.75
497.094	93.75
497.312	91.75
497.529	90.75
497.746	88.75
497.963	89.75
498.181	78.75
498.398	97.75
498.615	103.75
498.832	110.75
499.049	83.75
499.267	89.75
499.484	80.75
499.701	89.75
499.918	92.75
500.135	92.75
500.352	98.75
500.569	93.75
500.786	83.75
501.003	75.75
501.22	69.75
501.437	99.75
501.654	91.75
501.871	87.75
502.088	92.75
502.305	88.75
502.522	84.75
502.739	81.75
502.956	104.75
503.172	77.75
503.389	82.75
503.606	82.75
503.823	100.75
504.04	98.75
504.256	89.75
504.473	81.75
504.69	86.75
504.907	90.75
505.123	91.75
505.34	88.75
505.557	87.75
505.773	79.75
505.99	85.75
506.207	93.75
506.423	92.75
506.64	88.75
506.856	98.75
507.073	84.75
507.289	95.75
507.506	99.75
507.722	97.75
507.939	101.75
508.155	86.75
508.372	100.75
508.588	87.75
508.805	94.75
509.021	89.75
509.238	89.75
509.454	104.75
509.67	91.75
509.887	104.75
510.103	128.75
510.319	202.75
510.536	721.75
510.752	2193.75
510.968	606.75
511.184	153.75
511.401	100.75
511.617	95.75
511.833	93.75
512.049	82.75
512.265	94.75
512.481	93.75
512.698	83.75
512.914	93.75
513.13	86.75
513.346	88.75
513.562	100.75
513.778	78.75
513.994	75.75
514.21	86.75
514.426	112.75
514.642	127.75
514.858	109.75
515.074	141.75
515.29	397.75
515.506	1263.75
515.721	455.75
515.937	138.75
516.153	95.75
516.369	102.75
516.585	92.75
516.801	78.75
517.016	75.75
517.232	98.75
