Data from Uncirc_1999_H10_HRD10591_00018.txt Node
Date: Wed Jan 03 11:22:08 EST 2024
User: Yrep
Spectrometer: HR+D1059
Trigger mode: 1
Integration Time (sec): 1.000000E-1
Scans to average: 1
Electric dark correction enabled: true
Nonlinearity correction enabled: false
Boxcar width: 0
XAxis mode: Wavelengths
Number of Pixels in Spectrum: 2048
>>>>>Begin Spectral Data<<<<<
223.165	-12.56
223.4	-12.56
223.635	-12.56
223.869	-24.56
224.104	-13.56
224.338	-17.56
224.573	-11.56
224.808	-15.56
225.042	-14.56
225.277	-16.56
225.511	9.44
225.746	0.44
225.98	15.44
226.215	15.44
226.449	17.44
226.683	15.44
226.918	21.44
227.152	31.44
227.387	41.44
227.621	40.44
227.856	42.44
228.09	40.44
228.324	56.44
228.559	64.44
228.793	57.44
229.027	52.44
229.262	71.44
229.496	74.44
229.73	91.44
229.964	89.44
230.199	76.44
230.433	76.44
230.667	95.44
230.901	78.44
231.136	70.44
231.37	87.44
231.604	82.44
231.838	91.44
232.072	78.44
232.306	77.44
232.541	91.44
232.775	88.44
233.009	80.44
233.243	84.44
233.477	81.44
233.711	86.44
233.945	87.44
234.179	75.44
234.413	84.44
234.647	86.44
234.881	82.44
235.115	79.44
235.349	79.44
235.583	87.44
235.817	69.44
236.051	86.44
236.285	78.44
236.519	80.44
236.753	69.44
236.987	69.44
237.221	86.44
237.455	95.44
237.689	84.44
237.922	66.44
238.156	82.44
238.39	71.44
238.624	71.44
238.858	80.44
239.091	94.44
239.325	81.44
239.559	78.44
239.793	79.44
240.027	84.44
240.26	65.44
240.494	77.44
240.728	69.44
240.961	67.44
241.195	79.44
241.429	82.44
241.662	88.44
241.896	80.44
242.13	64.44
242.363	71.44
242.597	75.44
242.83	67.44
243.064	77.44
243.298	71.44
243.531	75.44
243.765	66.44
243.998	83.44
244.232	80.44
244.465	93.44
244.699	83.44
244.932	77.44
245.166	73.44
245.399	69.44
245.633	77.44
245.866	71.44
246.099	75.44
246.333	85.44
246.566	75.44
246.8	88.44
247.033	77.44
247.266	69.44
247.5	92.44
247.733	80.44
247.966	86.44
248.2	88.44
248.433	73.44
248.666	77.44
248.899	91.44
249.133	73.44
249.366	86.44
249.599	92.44
249.832	85.44
250.066	79.44
250.299	84.44
250.532	65.44
250.765	71.44
250.998	78.44
251.231	90.44
251.465	82.44
251.698	83.44
251.931	79.44
252.164	81.44
252.397	78.44
252.63	84.44
252.863	88.44
253.096	73.44
253.329	72.44
253.562	86.44
253.795	92.44
254.028	78.44
254.261	76.44
254.494	83.44
254.727	82.44
254.96	71.44
255.193	82.44
255.426	82.44
255.659	70.44
255.892	79.44
256.124	86.44
256.357	63.44
256.59	78.44
256.823	65.44
257.056	70.44
257.289	57.44
257.521	73.44
257.754	74.44
257.987	83.44
258.22	82.44
258.452	70.44
258.685	99.44
258.918	77.44
259.151	86.44
259.383	81.44
259.616	69.44
259.849	78.44
260.081	81.44
260.314	68.44
260.547	87.44
260.779	63.44
261.012	81.44
261.244	79.44
261.477	89.44
261.71	88.44
261.942	113.44
262.175	119.44
262.407	83.44
262.64	74.44
262.872	82.44
263.105	75.44
263.337	97.44
263.57	86.44
263.802	88.44
264.035	97.44
264.267	87.44
264.499	88.44
264.732	76.44
264.964	75.44
265.197	96.44
265.429	78.44
265.661	84.44
265.894	86.44
266.126	97.44
266.358	73.44
266.591	69.44
266.823	76.44
267.055	91.44
267.287	82.44
267.52	89.44
267.752	86.44
267.984	89.44
268.216	87.44
268.448	94.44
268.681	69.44
268.913	90.44
269.145	87.44
269.377	92.44
269.609	91.44
269.841	88.44
270.073	84.44
270.306	76.44
270.538	75.44
270.77	79.44
271.002	69.44
271.234	84.44
271.466	76.44
271.698	89.44
271.93	75.44
272.162	75.44
272.394	97.44
272.626	78.44
272.858	83.44
273.09	88.44
273.322	82.44
273.553	80.44
273.785	78.44
274.017	80.44
274.249	90.44
274.481	86.44
274.713	80.44
274.945	79.44
275.176	75.44
275.408	78.44
275.64	96.44
275.872	93.44
276.104	92.44
276.335	89.44
276.567	96.44
276.799	88.44
277.031	89.44
277.262	93.44
277.494	70.44
277.726	89.44
277.957	77.44
278.189	86.44
278.421	101.44
278.652	92.44
278.884	88.44
279.115	75.44
279.347	83.44
279.579	83.44
279.81	94.44
280.042	80.44
280.273	98.44
280.505	91.44
280.736	98.44
280.968	91.44
281.199	96.44
281.431	79.44
281.662	85.44
281.894	89.44
282.125	90.44
282.356	105.44
282.588	114.44
282.819	115.44
283.051	82.44
283.282	73.44
283.513	83.44
283.745	84.44
283.976	89.44
284.207	80.44
284.439	89.44
284.67	80.44
284.901	85.44
285.132	79.44
285.364	83.44
285.595	90.44
285.826	96.44
286.057	77.44
286.288	79.44
286.52	95.44
286.751	83.44
286.982	88.44
287.213	93.44
287.444	82.44
287.675	82.44
287.906	88.44
288.138	107.44
288.369	85.44
288.6	86.44
288.831	91.44
289.062	78.44
289.293	86.44
289.524	86.44
289.755	83.44
289.986	78.44
290.217	85.44
290.448	87.44
290.679	82.44
290.91	73.44
291.141	86.44
291.371	88.44
291.602	87.44
291.833	76.44
292.064	88.44
292.295	82.44
292.526	95.44
292.757	91.44
292.987	100.44
293.218	98.44
293.449	95.44
293.68	91.44
293.91	77.44
294.141	102.44
294.372	89.44
294.603	81.44
294.833	86.44
295.064	81.44
295.295	81.44
295.525	90.44
295.756	103.44
295.987	102.44
296.217	137.44
296.448	120.44
296.679	93.44
296.909	83.44
297.14	89.44
297.37	97.44
297.601	96.44
297.831	97.44
298.062	89.44
298.292	91.44
298.523	93.44
298.753	78.44
298.984	83.44
299.214	95.44
299.445	88.44
299.675	104.44
299.905	92.44
300.136	94.44
300.366	90.44
300.597	71.44
300.827	92.44
301.057	89.44
301.288	96.44
301.518	90.44
301.748	82.44
301.979	93.44
302.209	85.44
302.439	81.44
302.669	87.44
302.9	85.44
303.13	71.44
303.36	85.44
303.59	88.44
303.82	104.44
304.051	96.44
304.281	75.44
304.511	84.44
304.741	91.44
304.971	89.44
305.201	80.44
305.431	78.44
305.661	78.44
305.891	88.44
306.121	86.44
306.352	104.44
306.582	96.44
306.812	87.44
307.042	78.44
307.272	93.44
307.502	97.44
307.731	95.44
307.961	86.44
308.191	98.44
308.421	89.44
308.651	94.44
308.881	81.44
309.111	81.44
309.341	103.44
309.571	99.44
309.8	92.44
310.03	104.44
310.26	108.44
310.49	101.44
310.72	99.44
310.949	99.44
311.179	105.44
311.409	91.44
311.639	83.44
311.868	94.44
312.098	95.44
312.328	104.44
312.557	111.44
312.787	96.44
313.017	101.44
313.246	106.44
313.476	78.44
313.706	98.44
313.935	97.44
314.165	98.44
314.394	101.44
314.624	96.44
314.853	103.44
315.083	90.44
315.312	96.44
315.542	79.44
315.771	91.44
316.001	100.44
316.23	99.44
316.46	88.44
316.689	80.44
316.919	98.44
317.148	100.44
317.377	86.44
317.607	97.44
317.836	79.44
318.065	88.44
318.295	96.44
318.524	98.44
318.753	96.44
318.983	93.44
319.212	87.44
319.441	93.44
319.67	110.44
319.9	91.44
320.129	103.44
320.358	99.44
320.587	96.44
320.816	102.44
321.046	99.44
321.275	124.44
321.504	112.44
321.733	92.44
321.962	87.44
322.191	95.44
322.42	103.44
322.649	106.44
322.878	97.44
323.108	113.44
323.337	127.44
323.566	123.44
323.795	165.44
324.024	227.44
324.253	416.44
324.482	933.44
324.71	1918.44
324.939	2538.44
325.168	900.44
325.397	275.44
325.626	151.44
325.855	135.44
326.084	126.44
326.313	151.44
326.542	178.44
326.77	249.44
326.999	509.44
327.228	1097.44
327.457	1985.44
327.686	1584.44
327.914	410.44
328.143	204.44
328.372	153.44
328.6	134.44
328.829	115.44
329.058	126.44
329.287	125.44
329.515	107.44
329.744	110.44
329.972	101.44
330.201	93.44
330.43	110.44
330.658	138.44
330.887	137.44
331.115	124.44
331.344	83.44
331.572	94.44
331.801	83.44
332.03	97.44
332.258	96.44
332.486	101.44
332.715	99.44
332.943	98.44
333.172	88.44
333.4	90.44
333.629	109.44
333.857	104.44
334.085	105.44
334.314	99.44
334.542	108.44
334.771	107.44
334.999	103.44
335.227	98.44
335.455	101.44
335.684	99.44
335.912	93.44
336.14	99.44
336.369	104.44
336.597	101.44
336.825	104.44
337.053	90.44
337.281	86.44
337.51	98.44
337.738	87.44
337.966	99.44
338.194	92.44
338.422	100.44
338.65	105.44
338.878	97.44
339.106	87.44
339.334	90.44
339.562	99.44
339.79	94.44
340.018	76.44
340.246	94.44
340.474	106.44
340.702	96.44
340.93	89.44
341.158	84.44
341.386	80.44
341.614	102.44
341.842	95.44
342.07	89.44
342.298	103.44
342.526	90.44
342.754	89.44
342.981	82.44
343.209	91.44
343.437	97.44
343.665	90.44
343.893	105.44
344.12	92.44
344.348	106.44
344.576	104.44
344.804	93.44
345.031	84.44
345.259	110.44
345.487	94.44
345.714	111.44
345.942	91.44
346.17	88.44
346.397	90.44
346.625	98.44
346.853	98.44
347.08	89.44
347.308	82.44
347.535	108.44
347.763	90.44
347.99	99.44
348.218	91.44
348.445	103.44
348.673	89.44
348.9	99.44
349.128	76.44
349.355	95.44
349.583	91.44
349.81	87.44
350.037	95.44
350.265	94.44
350.492	105.44
350.72	97.44
350.947	101.44
351.174	98.44
351.402	105.44
351.629	95.44
351.856	96.44
352.083	89.44
352.311	96.44
352.538	123.44
352.765	104.44
352.992	118.44
353.22	100.44
353.447	101.44
353.674	98.44
353.901	109.44
354.128	114.44
354.355	82.44
354.583	103.44
354.81	113.44
355.037	102.44
355.264	99.44
355.491	94.44
355.718	96.44
355.945	101.44
356.172	103.44
356.399	112.44
356.626	104.44
356.853	97.44
357.08	101.44
357.307	77.44
357.534	95.44
357.761	115.44
357.988	105.44
358.215	114.44
358.441	101.44
358.668	91.44
358.895	91.44
359.122	81.44
359.349	84.44
359.576	81.44
359.802	101.44
360.029	119.44
360.256	98.44
360.483	103.44
360.709	91.44
360.936	82.44
361.163	99.44
361.39	98.44
361.616	96.44
361.843	100.44
362.07	94.44
362.296	99.44
362.523	96.44
362.749	98.44
362.976	95.44
363.203	97.44
363.429	90.44
363.656	77.44
363.882	89.44
364.109	99.44
364.335	99.44
364.562	86.44
364.788	92.44
365.015	102.44
365.241	98.44
365.468	105.44
365.694	107.44
365.92	105.44
366.147	94.44
366.373	86.44
366.599	86.44
366.826	87.44
367.052	82.44
367.278	81.44
367.505	89.44
367.731	92.44
367.957	93.44
368.184	100.44
368.41	93.44
368.636	106.44
368.862	115.44
369.089	118.44
369.315	104.44
369.541	111.44
369.767	96.44
369.993	77.44
370.219	91.44
370.445	89.44
370.672	92.44
370.898	90.44
371.124	91.44
371.35	91.44
371.576	104.44
371.802	93.44
372.028	79.44
372.254	98.44
372.48	97.44
372.706	90.44
372.932	84.44
373.158	92.44
373.384	97.44
373.61	81.44
373.835	89.44
374.061	84.44
374.287	95.44
374.513	94.44
374.739	86.44
374.965	94.44
375.191	97.44
375.416	94.44
375.642	86.44
375.868	98.44
376.094	103.44
376.319	89.44
376.545	105.44
376.771	88.44
376.997	95.44
377.222	104.44
377.448	100.44
377.674	85.44
377.899	94.44
378.125	85.44
378.35	104.44
378.576	115.44
378.802	89.44
379.027	116.44
379.253	96.44
379.478	80.44
379.704	85.44
379.929	93.44
380.155	88.44
380.38	99.44
380.606	105.44
380.831	101.44
381.057	111.44
381.282	97.44
381.507	113.44
381.733	99.44
381.958	105.44
382.184	115.44
382.409	97.44
382.634	113.44
382.86	113.44
383.085	106.44
383.31	107.44
383.535	111.44
383.761	110.44
383.986	119.44
384.211	117.44
384.436	117.44
384.662	112.44
384.887	129.44
385.112	121.44
385.337	127.44
385.562	137.44
385.787	130.44
386.013	125.44
386.238	132.44
386.463	111.44
386.688	120.44
386.913	121.44
387.138	130.44
387.363	120.44
387.588	118.44
387.813	131.44
388.038	113.44
388.263	136.44
388.488	131.44
388.713	105.44
388.938	102.44
389.163	115.44
389.387	110.44
389.612	97.44
389.837	99.44
390.062	105.44
390.287	101.44
390.512	79.44
390.736	105.44
390.961	85.44
391.186	94.44
391.411	111.44
391.636	85.44
391.86	90.44
392.085	91.44
392.31	82.44
392.534	84.44
392.759	85.44
392.984	83.44
393.208	80.44
393.433	95.44
393.658	114.44
393.882	98.44
394.107	96.44
394.331	83.44
394.556	103.44
394.78	85.44
395.005	82.44
395.229	84.44
395.454	90.44
395.678	87.44
395.903	99.44
396.127	84.44
396.352	82.44
396.576	90.44
396.801	81.44
397.025	90.44
397.249	76.44
397.474	85.44
397.698	86.44
397.922	77.44
398.147	83.44
398.371	102.44
398.595	87.44
398.82	73.44
399.044	90.44
399.268	94.44
399.492	80.44
399.717	106.44
399.941	93.44
400.165	99.44
400.389	97.44
400.613	86.44
400.837	87.44
401.062	85.44
401.286	85.44
401.51	92.44
401.734	80.44
401.958	88.44
402.182	119.44
402.406	143.44
402.63	113.44
402.854	81.44
403.078	96.44
403.302	97.44
403.526	88.44
403.75	78.44
403.974	81.44
404.198	82.44
404.422	92.44
404.645	82.44
404.869	88.44
405.093	102.44
405.317	93.44
405.541	97.44
405.765	98.44
405.988	117.44
406.212	160.44
406.436	199.44
406.66	139.44
406.883	95.44
407.107	101.44
407.331	102.44
407.555	90.44
407.778	86.44
408.002	96.44
408.226	90.44
408.449	81.44
408.673	84.44
408.896	99.44
409.12	102.44
409.344	100.44
409.567	93.44
409.791	92.44
410.014	93.44
410.238	96.44
410.461	91.44
410.685	115.44
410.908	101.44
411.132	107.44
411.355	102.44
411.578	101.44
411.802	92.44
412.025	87.44
412.249	100.44
412.472	102.44
412.695	98.44
412.919	90.44
413.142	104.44
413.365	92.44
413.589	85.44
413.812	87.44
414.035	97.44
414.258	94.44
414.482	96.44
414.705	100.44
414.928	98.44
415.151	100.44
415.374	103.44
415.597	104.44
415.821	75.44
416.044	98.44
416.267	96.44
416.49	87.44
416.713	88.44
416.936	93.44
417.159	80.44
417.382	74.44
417.605	91.44
417.828	88.44
418.051	91.44
418.274	88.44
418.497	93.44
418.72	90.44
418.943	90.44
419.166	94.44
419.389	81.44
419.611	96.44
419.834	85.44
420.057	93.44
420.28	101.44
420.503	90.44
420.726	93.44
420.948	106.44
421.171	99.44
421.394	99.44
421.617	102.44
421.839	103.44
422.062	99.44
422.285	93.44
422.507	94.44
422.73	116.44
422.953	119.44
423.175	93.44
423.398	99.44
423.621	88.44
423.843	89.44
424.066	78.44
424.288	96.44
424.511	79.44
424.733	96.44
424.956	124.44
425.178	111.44
425.401	89.44
425.623	104.44
425.846	97.44
426.068	97.44
426.291	86.44
426.513	91.44
426.735	98.44
426.958	116.44
427.18	105.44
427.402	153.44
427.625	154.44
427.847	134.44
428.069	120.44
428.292	100.44
428.514	84.44
428.736	94.44
428.958	93.44
429.181	89.44
429.403	81.44
429.625	98.44
429.847	102.44
430.069	97.44
430.292	114.44
430.514	90.44
430.736	81.44
430.958	89.44
431.18	76.44
431.402	89.44
431.624	96.44
431.846	83.44
432.068	84.44
432.29	103.44
432.512	94.44
432.734	91.44
432.956	96.44
433.178	100.44
433.4	103.44
433.622	92.44
433.844	92.44
434.066	79.44
434.287	96.44
434.509	82.44
434.731	93.44
434.953	82.44
435.175	88.44
435.397	103.44
435.618	83.44
435.84	115.44
436.062	135.44
436.284	119.44
436.505	101.44
436.727	102.44
436.949	93.44
437.17	98.44
437.392	109.44
437.614	97.44
437.835	109.44
438.057	125.44
438.278	121.44
438.5	113.44
438.721	121.44
438.943	112.44
439.165	83.44
439.386	103.44
439.608	77.44
439.829	92.44
440.05	119.44
440.272	153.44
440.493	105.44
440.715	97.44
440.936	70.44
441.158	91.44
441.379	85.44
441.6	101.44
441.822	87.44
442.043	96.44
442.264	120.44
442.486	114.44
442.707	101.44
442.928	97.44
443.149	128.44
443.371	127.44
443.592	112.44
443.813	129.44
444.034	106.44
444.255	91.44
444.476	94.44
444.698	98.44
444.919	73.44
445.14	122.44
445.361	115.44
445.582	119.44
445.803	137.44
446.024	141.44
446.245	142.44
446.466	122.44
446.687	82.44
446.908	68.44
447.129	100.44
447.35	73.44
447.571	84.44
447.792	89.44
448.013	94.44
448.234	115.44
448.455	102.44
448.675	111.44
448.896	129.44
449.117	90.44
449.338	99.44
449.559	133.44
449.779	151.44
450	104.44
450.221	89.44
450.442	95.44
450.662	91.44
450.883	111.44
451.104	112.44
451.324	103.44
451.545	89.44
451.766	88.44
451.986	85.44
452.207	87.44
452.428	81.44
452.648	81.44
452.869	108.44
453.089	114.44
453.31	114.44
453.53	110.44
453.751	94.44
453.971	106.44
454.192	105.44
454.412	107.44
454.633	84.44
454.853	87.44
455.073	97.44
455.294	91.44
455.514	100.44
455.734	82.44
455.955	98.44
456.175	80.44
456.395	89.44
456.616	88.44
456.836	102.44
457.056	81.44
457.276	87.44
457.497	92.44
457.717	88.44
457.937	98.44
458.157	87.44
458.377	98.44
458.598	108.44
458.818	138.44
459.038	149.44
459.258	104.44
459.478	99.44
459.698	90.44
459.918	89.44
460.138	75.44
460.358	81.44
460.578	86.44
460.798	88.44
461.018	92.44
461.238	97.44
461.458	98.44
461.678	94.44
461.898	90.44
462.118	84.44
462.338	83.44
462.558	87.44
462.777	84.44
462.997	91.44
463.217	100.44
463.437	94.44
463.657	85.44
463.876	84.44
464.096	96.44
464.316	96.44
464.536	99.44
464.755	81.44
464.975	103.44
465.195	149.44
465.414	155.44
465.634	105.44
465.854	96.44
466.073	98.44
466.293	82.44
466.512	81.44
466.732	94.44
466.951	90.44
467.171	89.44
467.391	88.44
467.61	96.44
467.829	98.44
468.049	89.44
468.268	82.44
468.488	92.44
468.707	103.44
468.927	88.44
469.146	78.44
469.365	92.44
469.585	89.44
469.804	105.44
470.023	98.44
470.243	87.44
470.462	103.44
470.681	119.44
470.901	85.44
471.12	98.44
471.339	87.44
471.558	81.44
471.777	101.44
471.997	92.44
472.216	105.44
472.435	117.44
472.654	96.44
472.873	91.44
473.092	108.44
473.311	90.44
473.53	86.44
473.749	84.44
473.968	90.44
474.187	118.44
474.406	100.44
474.625	76.44
474.844	90.44
475.063	81.44
475.282	75.44
475.501	105.44
475.72	88.44
475.939	104.44
476.158	86.44
476.377	85.44
476.596	80.44
476.814	99.44
477.033	83.44
477.252	96.44
477.471	96.44
477.69	81.44
477.908	96.44
478.127	82.44
478.346	74.44
478.564	92.44
478.783	109.44
479.002	91.44
479.22	92.44
479.439	96.44
479.658	99.44
479.876	85.44
480.095	86.44
480.313	94.44
480.532	96.44
480.751	97.44
480.969	99.44
481.188	130.44
481.406	115.44
481.624	88.44
481.843	91.44
482.061	93.44
482.28	100.44
482.498	77.44
482.717	87.44
482.935	96.44
483.153	88.44
483.372	90.44
483.59	86.44
483.808	99.44
484.027	93.44
484.245	106.44
484.463	97.44
484.681	97.44
484.9	86.44
485.118	92.44
485.336	95.44
485.554	95.44
485.772	98.44
485.99	103.44
486.209	96.44
486.427	96.44
486.645	114.44
486.863	117.44
487.081	95.44
487.299	77.44
487.517	99.44
487.735	96.44
487.953	103.44
488.171	88.44
488.389	98.44
488.607	87.44
488.825	80.44
489.043	71.44
489.261	99.44
489.479	91.44
489.696	99.44
489.914	96.44
490.132	87.44
490.35	100.44
490.568	94.44
490.786	102.44
491.003	90.44
491.221	94.44
491.439	101.44
491.657	93.44
491.874	98.44
492.092	105.44
492.31	92.44
492.527	82.44
492.745	99.44
492.963	96.44
493.18	93.44
493.398	119.44
493.615	94.44
493.833	99.44
494.05	83.44
494.268	85.44
494.485	93.44
494.703	79.44
494.92	85.44
495.138	105.44
495.355	103.44
495.573	101.44
495.79	102.44
496.008	101.44
496.225	93.44
496.442	72.44
496.66	85.44
496.877	90.44
497.094	99.44
497.312	93.44
497.529	96.44
497.746	89.44
497.963	95.44
498.181	101.44
498.398	92.44
498.615	107.44
498.832	103.44
499.049	92.44
499.267	97.44
499.484	106.44
499.701	105.44
499.918	106.44
500.135	86.44
500.352	95.44
500.569	103.44
500.786	85.44
501.003	95.44
501.22	104.44
501.437	90.44
501.654	99.44
501.871	109.44
502.088	101.44
502.305	103.44
502.522	96.44
502.739	99.44
502.956	90.44
503.172	83.44
503.389	83.44
503.606	102.44
503.823	107.44
504.04	83.44
504.256	99.44
504.473	99.44
504.69	99.44
504.907	96.44
505.123	82.44
505.34	88.44
505.557	91.44
505.773	105.44
505.99	99.44
506.207	82.44
506.423	95.44
506.64	93.44
506.856	103.44
507.073	93.44
507.289	81.44
507.506	82.44
507.722	102.44
507.939	104.44
508.155	96.44
508.372	87.44
508.588	105.44
508.805	106.44
509.021	90.44
509.238	95.44
509.454	108.44
509.67	112.44
509.887	113.44
510.103	128.44
510.319	206.44
510.536	693.44
510.752	2154.44
510.968	610.44
511.184	172.44
511.401	118.44
511.617	99.44
511.833	94.44
512.049	91.44
512.265	101.44
512.481	89.44
512.698	90.44
512.914	84.44
513.13	93.44
513.346	95.44
513.562	95.44
513.778	106.44
513.994	95.44
514.21	89.44
514.426	124.44
514.642	109.44
514.858	109.44
