Data from Uncirc_1999_H10_HRD10591_00085.txt Node
Date: Wed Jan 03 11:22:22 EST 2024
User: Yrep
Spectrometer: HR+D1059
Trigger mode: 1
Integration Time (sec): 1.000000E-1
Scans to average: 1
Electric dark correction enabled: true
Nonlinearity correction enabled: false
Boxcar width: 0
XAxis mode: Wavelengths
Number of Pixels in Spectrum: 2048
>>>>>Begin Spectral Data<<<<<
223.165	-10.62
223.4	-10.62
223.635	-10.62
223.869	-14.62
224.104	-14.62
224.338	-17.62
224.573	-19.62
224.808	-17.62
225.042	2.38
225.277	-16.62
225.511	-2.62
225.746	4.38
225.98	-0.62
226.215	7.38
226.449	12.38
226.683	31.38
226.918	28.38
227.152	28.38
227.387	46.38
227.621	32.38
227.856	41.38
228.09	42.38
228.324	60.38
228.559	49.38
228.793	57.38
229.027	75.38
229.262	68.38
229.496	65.38
229.73	80.38
229.964	86.38
230.199	68.38
230.433	76.38
230.667	85.38
230.901	86.38
231.136	100.38
231.37	80.38
231.604	75.38
231.838	78.38
232.072	86.38
232.306	76.38
232.541	80.38
232.775	94.38
233.009	86.38
233.243	83.38
233.477	70.38
233.711	75.38
233.945	80.38
234.179	79.38
234.413	79.38
234.647	80.38
234.881	77.38
235.115	80.38
235.349	88.38
235.583	75.38
235.817	77.38
236.051	85.38
236.285	93.38
236.519	81.38
236.753	88.38
236.987	79.38
237.221	81.38
237.455	88.38
237.689	74.38
237.922	94.38
238.156	79.38
238.39	76.38
238.624	98.38
238.858	94.38
239.091	76.38
239.325	82.38
239.559	84.38
239.793	81.38
240.027	74.38
240.26	80.38
240.494	92.38
240.728	87.38
240.961	85.38
241.195	84.38
241.429	82.38
241.662	77.38
241.896	78.38
242.13	67.38
242.363	77.38
242.597	88.38
242.83	78.38
243.064	88.38
243.298	77.38
243.531	72.38
243.765	74.38
243.998	81.38
244.232	81.38
244.465	87.38
244.699	75.38
244.932	86.38
245.166	90.38
245.399	81.38
245.633	82.38
245.866	66.38
246.099	79.38
246.333	71.38
246.566	79.38
246.8	86.38
247.033	70.38
247.266	84.38
247.5	76.38
247.733	71.38
247.966	78.38
248.2	85.38
248.433	64.38
248.666	82.38
248.899	79.38
249.133	80.38
249.366	107.38
249.599	102.38
249.832	94.38
250.066	90.38
250.299	86.38
250.532	85.38
250.765	90.38
250.998	93.38
251.231	86.38
251.465	87.38
251.698	78.38
251.931	86.38
252.164	87.38
252.397	76.38
252.63	87.38
252.863	86.38
253.096	99.38
253.329	97.38
253.562	70.38
253.795	89.38
254.028	79.38
254.261	75.38
254.494	74.38
254.727	90.38
254.96	82.38
255.193	84.38
255.426	75.38
255.659	76.38
255.892	83.38
256.124	75.38
256.357	77.38
256.59	91.38
256.823	82.38
257.056	78.38
257.289	84.38
257.521	71.38
257.754	75.38
257.987	94.38
258.22	89.38
258.452	81.38
258.685	91.38
258.918	94.38
259.151	81.38
259.383	91.38
259.616	83.38
259.849	87.38
260.081	98.38
260.314	81.38
260.547	87.38
260.779	85.38
261.012	79.38
261.244	76.38
261.477	101.38
261.71	90.38
261.942	115.38
262.175	108.38
262.407	90.38
262.64	81.38
262.872	82.38
263.105	77.38
263.337	89.38
263.57	90.38
263.802	90.38
264.035	74.38
264.267	84.38
264.499	75.38
264.732	90.38
264.964	72.38
265.197	92.38
265.429	87.38
265.661	75.38
265.894	86.38
266.126	84.38
266.358	92.38
266.591	94.38
266.823	86.38
267.055	95.38
267.287	97.38
267.52	93.38
267.752	74.38
267.984	97.38
268.216	90.38
268.448	88.38
268.681	90.38
268.913	90.38
269.145	84.38
269.377	82.38
269.609	91.38
269.841	97.38
270.073	94.38
270.306	86.38
270.538	80.38
270.77	81.38
271.002	81.38
271.234	83.38
271.466	73.38
271.698	87.38
271.93	97.38
272.162	93.38
272.394	98.38
272.626	82.38
272.858	86.38
273.09	76.38
273.322	75.38
273.553	77.38
273.785	91.38
274.017	82.38
274.249	82.38
274.481	69.38
274.713	96.38
274.945	96.38
275.176	90.38
275.408	93.38
275.64	88.38
275.872	92.38
276.104	83.38
276.335	90.38
276.567	107.38
276.799	97.38
277.031	97.38
277.262	87.38
277.494	93.38
277.726	93.38
277.957	89.38
278.189	64.38
278.421	86.38
278.652	83.38
278.884	104.38
279.115	88.38
279.347	86.38
279.579	82.38
279.81	76.38
280.042	84.38
280.273	90.38
280.505	87.38
280.736	90.38
280.968	82.38
281.199	86.38
281.431	92.38
281.662	75.38
281.894	87.38
282.125	92.38
282.356	102.38
282.588	111.38
282.819	108.38
283.051	113.38
283.282	79.38
283.513	91.38
283.745	85.38
283.976	82.38
284.207	87.38
284.439	86.38
284.67	88.38
284.901	94.38
285.132	92.38
285.364	82.38
285.595	96.38
285.826	83.38
286.057	95.38
286.288	96.38
286.52	76.38
286.751	82.38
286.982	90.38
287.213	93.38
287.444	94.38
287.675	101.38
287.906	87.38
288.138	94.38
288.369	99.38
288.6	87.38
288.831	76.38
289.062	99.38
289.293	86.38
289.524	83.38
289.755	88.38
289.986	76.38
290.217	97.38
290.448	95.38
290.679	90.38
290.91	88.38
291.141	75.38
291.371	83.38
291.602	84.38
291.833	97.38
292.064	100.38
292.295	77.38
292.526	82.38
292.757	91.38
292.987	90.38
293.218	100.38
293.449	90.38
293.68	82.38
293.91	102.38
294.141	92.38
294.372	103.38
294.603	88.38
294.833	87.38
295.064	86.38
295.295	81.38
295.525	99.38
295.756	90.38
295.987	96.38
296.217	118.38
296.448	108.38
296.679	89.38
296.909	91.38
297.14	106.38
297.37	94.38
297.601	82.38
297.831	103.38
298.062	98.38
298.292	76.38
298.523	82.38
298.753	77.38
298.984	87.38
299.214	84.38
299.445	84.38
299.675	95.38
299.905	92.38
300.136	85.38
300.366	97.38
300.597	93.38
300.827	93.38
301.057	90.38
301.288	100.38
301.518	94.38
301.748	81.38
301.979	102.38
302.209	84.38
302.439	89.38
302.669	86.38
302.9	86.38
303.13	92.38
303.36	97.38
303.59	76.38
303.82	95.38
304.051	88.38
304.281	99.38
304.511	90.38
304.741	90.38
304.971	84.38
305.201	87.38
305.431	93.38
305.661	88.38
305.891	95.38
306.121	92.38
306.352	106.38
306.582	100.38
306.812	97.38
307.042	87.38
307.272	104.38
307.502	91.38
307.731	83.38
307.961	88.38
308.191	92.38
308.421	81.38
308.651	85.38
308.881	97.38
309.111	76.38
309.341	102.38
309.571	90.38
309.8	85.38
310.03	101.38
310.26	103.38
310.49	80.38
310.72	97.38
310.949	103.38
311.179	96.38
311.409	86.38
311.639	99.38
311.868	95.38
312.098	82.38
312.328	97.38
312.557	88.38
312.787	99.38
313.017	104.38
313.246	93.38
313.476	92.38
313.706	86.38
313.935	101.38
314.165	98.38
314.394	104.38
314.624	104.38
314.853	103.38
315.083	90.38
315.312	90.38
315.542	81.38
315.771	106.38
316.001	115.38
316.23	89.38
316.46	86.38
316.689	93.38
316.919	90.38
317.148	99.38
317.377	90.38
317.607	78.38
317.836	98.38
318.065	102.38
318.295	81.38
318.524	110.38
318.753	108.38
318.983	96.38
319.212	126.38
319.441	106.38
319.67	112.38
319.9	103.38
320.129	100.38
320.358	103.38
320.587	90.38
320.816	106.38
321.046	109.38
321.275	106.38
321.504	99.38
321.733	96.38
321.962	101.38
322.191	87.38
322.42	93.38
322.649	108.38
322.878	114.38
323.108	123.38
323.337	117.38
323.566	120.38
323.795	152.38
324.024	219.38
324.253	423.38
324.482	862.38
324.71	1726.38
324.939	2305.38
325.168	824.38
325.397	248.38
325.626	150.38
325.855	136.38
326.084	118.38
326.313	135.38
326.542	160.38
326.77	245.38
326.999	488.38
327.228	995.38
327.457	1784.38
327.686	1391.38
327.914	370.38
328.143	179.38
328.372	152.38
328.6	138.38
328.829	123.38
329.058	120.38
329.287	123.38
329.515	118.38
329.744	99.38
329.972	97.38
330.201	94.38
330.43	117.38
330.658	129.38
330.887	135.38
331.115	120.38
331.344	102.38
331.572	94.38
331.801	99.38
332.03	106.38
332.258	98.38
332.486	104.38
332.715	93.38
332.943	97.38
333.172	98.38
333.4	98.38
333.629	111.38
333.857	128.38
334.085	110.38
334.314	103.38
334.542	95.38
334.771	95.38
334.999	95.38
335.227	101.38
335.455	95.38
335.684	91.38
335.912	102.38
336.14	112.38
336.369	92.38
336.597	104.38
336.825	104.38
337.053	85.38
337.281	99.38
337.51	102.38
337.738	103.38
337.966	103.38
338.194	99.38
338.422	83.38
338.65	99.38
338.878	87.38
339.106	94.38
339.334	98.38
339.562	86.38
339.79	98.38
340.018	91.38
340.246	83.38
340.474	103.38
340.702	86.38
340.93	101.38
341.158	87.38
341.386	96.38
341.614	110.38
341.842	100.38
342.07	79.38
342.298	105.38
342.526	89.38
342.754	86.38
342.981	104.38
343.209	98.38
343.437	93.38
343.665	86.38
343.893	88.38
344.12	88.38
344.348	97.38
344.576	86.38
344.804	111.38
345.031	99.38
345.259	95.38
345.487	100.38
345.714	108.38
345.942	91.38
346.17	75.38
346.397	92.38
346.625	96.38
346.853	90.38
347.08	105.38
347.308	99.38
347.535	92.38
347.763	104.38
347.99	100.38
348.218	103.38
348.445	94.38
348.673	102.38
348.9	112.38
349.128	98.38
349.355	104.38
349.583	91.38
349.81	87.38
350.037	94.38
350.265	103.38
350.492	119.38
350.72	99.38
350.947	100.38
351.174	102.38
351.402	116.38
351.629	99.38
351.856	87.38
352.083	97.38
352.311	100.38
352.538	103.38
352.765	99.38
352.992	112.38
353.22	111.38
353.447	118.38
353.674	107.38
353.901	115.38
354.128	115.38
354.355	95.38
354.583	99.38
354.81	110.38
355.037	78.38
355.264	90.38
355.491	99.38
355.718	103.38
355.945	89.38
356.172	89.38
356.399	100.38
356.626	98.38
356.853	104.38
357.08	105.38
357.307	92.38
357.534	89.38
357.761	93.38
357.988	84.38
358.215	87.38
358.441	98.38
358.668	89.38
358.895	100.38
359.122	88.38
359.349	82.38
359.576	86.38
359.802	103.38
360.029	112.38
360.256	100.38
360.483	89.38
360.709	92.38
360.936	104.38
361.163	101.38
361.39	101.38
361.616	96.38
361.843	93.38
362.07	96.38
362.296	88.38
362.523	97.38
362.749	89.38
362.976	88.38
363.203	91.38
363.429	91.38
363.656	99.38
363.882	97.38
364.109	87.38
364.335	99.38
364.562	85.38
364.788	92.38
365.015	80.38
365.241	104.38
365.468	101.38
365.694	94.38
365.92	107.38
366.147	81.38
366.373	92.38
366.599	91.38
366.826	84.38
367.052	113.38
367.278	91.38
367.505	98.38
367.731	82.38
367.957	77.38
368.184	84.38
368.41	103.38
368.636	109.38
368.862	118.38
369.089	107.38
369.315	93.38
369.541	90.38
369.767	98.38
369.993	94.38
370.219	91.38
370.445	103.38
370.672	83.38
370.898	89.38
371.124	76.38
371.35	91.38
371.576	96.38
371.802	91.38
372.028	92.38
372.254	106.38
372.48	87.38
372.706	94.38
372.932	98.38
373.158	93.38
373.384	95.38
373.61	98.38
373.835	87.38
374.061	87.38
374.287	98.38
374.513	88.38
374.739	99.38
374.965	94.38
375.191	94.38
375.416	98.38
375.642	94.38
375.868	89.38
376.094	89.38
376.319	83.38
376.545	92.38
376.771	93.38
376.997	107.38
377.222	102.38
377.448	94.38
377.674	97.38
377.899	103.38
378.125	96.38
378.35	71.38
378.576	86.38
378.802	99.38
379.027	96.38
379.253	101.38
379.478	110.38
379.704	93.38
379.929	91.38
380.155	96.38
380.38	99.38
380.606	96.38
380.831	111.38
381.057	102.38
381.282	98.38
381.507	92.38
381.733	100.38
381.958	107.38
382.184	103.38
382.409	98.38
382.634	89.38
382.86	95.38
383.085	114.38
383.31	108.38
383.535	100.38
383.761	105.38
383.986	100.38
384.211	89.38
384.436	101.38
384.662	97.38
384.887	97.38
385.112	104.38
385.337	115.38
385.562	100.38
385.787	99.38
386.013	108.38
386.238	108.38
386.463	107.38
386.688	127.38
386.913	95.38
387.138	100.38
387.363	98.38
387.588	111.38
387.813	109.38
388.038	118.38
388.263	98.38
388.488	100.38
388.713	101.38
388.938	97.38
389.163	89.38
389.387	106.38
389.612	83.38
389.837	88.38
390.062	92.38
390.287	94.38
390.512	91.38
390.736	105.38
390.961	94.38
391.186	105.38
391.411	110.38
391.636	85.38
391.86	84.38
392.085	93.38
392.31	91.38
392.534	83.38
392.759	95.38
392.984	87.38
393.208	91.38
393.433	105.38
393.658	90.38
393.882	82.38
394.107	87.38
394.331	82.38
394.556	90.38
394.78	106.38
395.005	98.38
395.229	82.38
395.454	84.38
395.678	91.38
395.903	87.38
396.127	95.38
396.352	78.38
396.576	72.38
396.801	77.38
397.025	74.38
397.249	87.38
397.474	79.38
397.698	89.38
397.922	87.38
398.147	89.38
398.371	87.38
398.595	92.38
398.82	100.38
399.044	78.38
399.268	94.38
399.492	91.38
399.717	93.38
399.941	91.38
400.165	93.38
400.389	82.38
400.613	72.38
400.837	82.38
401.062	92.38
401.286	77.38
401.51	86.38
401.734	90.38
401.958	79.38
402.182	112.38
402.406	148.38
402.63	108.38
402.854	114.38
403.078	88.38
403.302	90.38
403.526	99.38
403.75	88.38
403.974	91.38
404.198	99.38
404.422	91.38
404.645	84.38
404.869	83.38
405.093	102.38
405.317	113.38
405.541	104.38
405.765	108.38
405.988	109.38
406.212	157.38
406.436	211.38
406.66	127.38
406.883	94.38
407.107	95.38
407.331	110.38
407.555	89.38
407.778	110.38
408.002	95.38
408.226	94.38
408.449	83.38
408.673	93.38
408.896	93.38
409.12	108.38
409.344	100.38
409.567	112.38
409.791	86.38
410.014	94.38
410.238	99.38
410.461	103.38
410.685	105.38
410.908	103.38
411.132	94.38
411.355	96.38
411.578	84.38
411.802	105.38
412.025	94.38
412.249	91.38
412.472	100.38
412.695	79.38
412.919	92.38
413.142	79.38
413.365	91.38
413.589	108.38
413.812	87.38
414.035	89.38
414.258	86.38
414.482	85.38
414.705	95.38
414.928	98.38
415.151	95.38
415.374	108.38
415.597	95.38
415.821	92.38
416.044	93.38
416.267	95.38
416.49	89.38
416.713	92.38
416.936	93.38
417.159	96.38
417.382	92.38
417.605	99.38
417.828	97.38
418.051	76.38
418.274	95.38
418.497	88.38
418.72	90.38
418.943	94.38
419.166	87.38
419.389	94.38
419.611	89.38
419.834	100.38
420.057	98.38
420.28	90.38
420.503	89.38
420.726	100.38
420.948	74.38
421.171	102.38
421.394	98.38
421.617	98.38
421.839	86.38
422.062	102.38
422.285	90.38
422.507	106.38
422.73	97.38
422.953	95.38
423.175	95.38
423.398	99.38
423.621	91.38
423.843	84.38
424.066	91.38
424.288	91.38
424.511	84.38
424.733	102.38
424.956	98.38
425.178	95.38
425.401	103.38
425.623	106.38
425.846	94.38
426.068	87.38
426.291	89.38
426.513	99.38
426.735	100.38
426.958	88.38
427.18	105.38
427.402	123.38
427.625	139.38
427.847	118.38
428.069	106.38
428.292	91.38
428.514	83.38
428.736	86.38
428.958	84.38
429.181	87.38
429.403	88.38
429.625	94.38
429.847	84.38
430.069	110.38
430.292	95.38
430.514	88.38
430.736	85.38
430.958	91.38
431.18	107.38
431.402	101.38
431.624	93.38
431.846	83.38
432.068	85.38
432.29	101.38
432.512	107.38
432.734	94.38
432.956	97.38
433.178	105.38
433.4	102.38
433.622	92.38
433.844	89.38
434.066	92.38
434.287	92.38
434.509	87.38
434.731	99.38
434.953	95.38
435.175	99.38
435.397	90.38
435.618	96.38
435.84	100.38
436.062	116.38
436.284	106.38
436.505	93.38
436.727	100.38
436.949	98.38
437.17	82.38
437.392	83.38
437.614	106.38
437.835	108.38
438.057	127.38
438.278	124.38
438.5	100.38
438.721	110.38
438.943	99.38
439.165	83.38
439.386	74.38
439.608	91.38
439.829	97.38
440.05	123.38
440.272	145.38
440.493	104.38
440.715	98.38
440.936	100.38
441.158	99.38
441.379	93.38
441.6	91.38
441.822	109.38
442.043	92.38
442.264	110.38
442.486	107.38
442.707	103.38
442.928	106.38
443.149	125.38
443.371	131.38
443.592	109.38
443.813	108.38
444.034	101.38
444.255	87.38
444.476	92.38
444.698	86.38
444.919	111.38
445.14	128.38
445.361	129.38
445.582	130.38
445.803	130.38
446.024	135.38
446.245	126.38
446.466	118.38
446.687	96.38
446.908	88.38
447.129	93.38
447.35	86.38
447.571	100.38
447.792	101.38
448.013	106.38
448.234	105.38
448.455	95.38
448.675	114.38
448.896	112.38
449.117	99.38
449.338	113.38
449.559	119.38
449.779	139.38
450	101.38
450.221	90.38
450.442	99.38
450.662	106.38
450.883	102.38
451.104	108.38
451.324	100.38
451.545	79.38
451.766	93.38
451.986	83.38
452.207	103.38
452.428	86.38
452.648	96.38
452.869	119.38
453.089	103.38
453.31	105.38
453.53	97.38
453.751	113.38
453.971	93.38
454.192	100.38
454.412	106.38
454.633	95.38
454.853	95.38
455.073	86.38
455.294	92.38
455.514	95.38
455.734	76.38
455.955	95.38
456.175	86.38
456.395	92.38
456.616	93.38
456.836	84.38
457.056	80.38
457.276	94.38
457.497	86.38
457.717	75.38
457.937	82.38
458.157	99.38
458.377	93.38
458.598	111.38
458.818	129.38
459.038	141.38
459.258	119.38
459.478	92.38
459.698	90.38
459.918	75.38
460.138	80.38
460.358	83.38
460.578	85.38
460.798	99.38
461.018	80.38
461.238	92.38
461.458	78.38
461.678	76.38
461.898	88.38
462.118	79.38
462.338	94.38
462.558	89.38
462.777	86.38
462.997	93.38
463.217	88.38
463.437	88.38
463.657	83.38
463.876	83.38
464.096	89.38
464.316	84.38
464.536	96.38
464.755	82.38
464.975	99.38
465.195	143.38
465.414	131.38
465.634	90.38
465.854	94.38
466.073	78.38
466.293	95.38
466.512	76.38
466.732	89.38
466.951	92.38
467.171	96.38
467.391	105.38
467.61	100.38
467.829	95.38
468.049	102.38
468.268	100.38
468.488	86.38
468.707	89.38
468.927	82.38
469.146	81.38
469.365	98.38
469.585	96.38
469.804	97.38
470.023	95.38
470.243	101.38
470.462	99.38
470.681	97.38
470.901	81.38
471.12	89.38
471.339	83.38
471.558	95.38
471.777	106.38
471.997	84.38
472.216	93.38
472.435	111.38
472.654	102.38
472.873	88.38
473.092	89.38
473.311	75.38
473.53	79.38
473.749	107.38
473.968	82.38
474.187	95.38
474.406	94.38
474.625	91.38
474.844	96.38
475.063	95.38
475.282	82.38
475.501	92.38
475.72	88.38
475.939	87.38
476.158	85.38
476.377	95.38
476.596	80.38
476.814	90.38
477.033	94.38
477.252	93.38
477.471	91.38
477.69	102.38
477.908	91.38
478.127	98.38
478.346	100.38
478.564	93.38
478.783	84.38
479.002	96.38
479.22	103.38
479.439	98.38
479.658	103.38
479.876	97.38
480.095	102.38
480.313	83.38
480.532	86.38
480.751	103.38
480.969	107.38
481.188	107.38
481.406	102.38
481.624	106.38
481.843	91.38
482.061	92.38
482.28	89.38
482.498	94.38
482.717	82.38
482.935	84.38
483.153	86.38
483.372	95.38
483.59	96.38
483.808	92.38
484.027	91.38
484.245	81.38
484.463	104.38
484.681	93.38
484.9	104.38
485.118	98.38
485.336	102.38
485.554	99.38
485.772	105.38
485.99	107.38
486.209	108.38
486.427	105.38
486.645	107.38
486.863	106.38
487.081	94.38
487.299	97.38
487.517	81.38
487.735	104.38
487.953	83.38
488.171	90.38
488.389	98.38
488.607	90.38
488.825	106.38
489.043	95.38
489.261	94.38
489.479	84.38
489.696	86.38
489.914	85.38
490.132	91.38
490.35	94.38
490.568	97.38
490.786	93.38
491.003	95.38
491.221	97.38
491.439	92.38
491.657	95.38
491.874	97.38
492.092	82.38
492.31	98.38
492.527	96.38
492.745	106.38
492.963	106.38
493.18	97.38
493.398	83.38
493.615	99.38
493.833	96.38
494.05	74.38
494.268	91.38
494.485	95.38
494.703	99.38
494.92	89.38
495.138	97.38
495.355	89.38
495.573	87.38
495.79	93.38
496.008	94.38
496.225	94.38
496.442	105.38
496.66	98.38
496.877	89.38
497.094	102.38
497.312	90.38
497.529	98.38
497.746	82.38
497.963	89.38
498.181	87.38
498.398	98.38
498.615	103.38
498.832	106.38
499.049	86.38
499.267	104.38
499.484	94.38
499.701	105.38
499.918	99.38
500.135	99.38
500.352	88.38
500.569	100.38
500.786	108.38
501.003	100.38
501.22	81.38
501.437	92.38
501.654	94.38
501.871	104.38
502.088	98.38
502.305	102.38
502.522	76.38
502.739	83.38
502.956	91.38
503.172	91.38
503.389	111.38
503.606	99.38
503.823	101.38
504.04	104.38
504.256	88.38
504.473	88.38
504.69	74.38
504.907	95.38
505.123	111.38
505.34	76.38
505.557	73.38
505.773	81.38
505.99	86.38
506.207	91.38
506.423	116.38
506.64	99.38
506.856	112.38
507.073	92.38
507.289	93.38
507.506	102.38
507.722	93.38
507.939	119.38
508.155	93.38
508.372	97.38
508.588	98.38
508.805	89.38
509.021	100.38
509.238	93.38
509.454	95.38
509.67	92.38
509.887	117.38
510.103	137.38
510.319	215.38
510.536	717.38
510.752	2120.38
510.968	618.38
511.184	148.38
511.401	95.38
511.617	94.38
511.833	96.38
512.049	97.38
512.265	92.38
512.481	88.38
512.698	96.38
512.914	110.38
513.13	96.38
513.346	88.38
513.562	94.38
513.778	94.38
513.994	98.38
514.21	92.38
514.426	107.38
514.642	120.38
514.858	101.38
515.074	152.38
