Data from Uncirc_1999_H10_HRD10591_00079.txt Node
Date: Wed Jan 03 11:22:21 EST 2024
User: Yrep
Spectrometer: HR+D1059
Trigger mode: 1
Integration Time (sec): 1.000000E-1
Scans to average: 1
Electric dark correction enabled: true
Nonlinearity correction enabled: false
Boxcar width: 0
XAxis mode: Wavelengths
Number of Pixels in Spectrum: 2048
>>>>>Begin Spectral Data<<<<<
223.165	-5.88
223.4	-5.88
223.635	-5.88
223.869	-24.88
224.104	-18.88
224.338	-18.88
224.573	-28.88
224.808	-19.88
225.042	0.12
225.277	-22.88
225.511	8.12
225.746	1.12
225.98	6.12
226.215	8.12
226.449	39.12
226.683	21.12
226.918	31.12
227.152	25.12
227.387	41.12
227.621	37.12
227.856	41.12
228.09	52.12
228.324	45.12
228.559	61.12
228.793	67.12
229.027	72.12
229.262	69.12
229.496	73.12
229.73	87.12
229.964	91.12
230.199	71.12
230.433	85.12
230.667	80.12
230.901	88.12
231.136	77.12
231.37	76.12
231.604	87.12
231.838	76.12
232.072	75.12
232.306	94.12
232.541	79.12
232.775	76.12
233.009	82.12
233.243	80.12
233.477	75.12
233.711	93.12
233.945	84.12
234.179	83.12
234.413	78.12
234.647	77.12
234.881	73.12
235.115	78.12
235.349	77.12
235.583	61.12
235.817	86.12
236.051	79.12
236.285	88.12
236.519	80.12
236.753	78.12
236.987	70.12
237.221	91.12
237.455	81.12
237.689	87.12
237.922	73.12
238.156	81.12
238.39	94.12
238.624	73.12
238.858	79.12
239.091	76.12
239.325	67.12
239.559	75.12
239.793	78.12
240.027	70.12
240.26	74.12
240.494	82.12
240.728	90.12
240.961	78.12
241.195	69.12
241.429	81.12
241.662	86.12
241.896	85.12
242.13	75.12
242.363	75.12
242.597	74.12
242.83	87.12
243.064	75.12
243.298	75.12
243.531	60.12
243.765	74.12
243.998	83.12
244.232	85.12
244.465	88.12
244.699	81.12
244.932	84.12
245.166	64.12
245.399	79.12
245.633	67.12
245.866	84.12
246.099	67.12
246.333	73.12
246.566	72.12
246.8	73.12
247.033	79.12
247.266	63.12
247.5	76.12
247.733	81.12
247.966	95.12
248.2	88.12
248.433	78.12
248.666	81.12
248.899	83.12
249.133	78.12
249.366	95.12
249.599	103.12
249.832	94.12
250.066	78.12
250.299	79.12
250.532	81.12
250.765	62.12
250.998	87.12
251.231	81.12
251.465	95.12
251.698	92.12
251.931	85.12
252.164	78.12
252.397	95.12
252.63	86.12
252.863	74.12
253.096	86.12
253.329	76.12
253.562	69.12
253.795	82.12
254.028	88.12
254.261	86.12
254.494	87.12
254.727	74.12
254.96	86.12
255.193	81.12
255.426	79.12
255.659	80.12
255.892	95.12
256.124	80.12
256.357	87.12
256.59	92.12
256.823	65.12
257.056	81.12
257.289	63.12
257.521	81.12
257.754	71.12
257.987	90.12
258.22	63.12
258.452	96.12
258.685	89.12
258.918	79.12
259.151	84.12
259.383	81.12
259.616	83.12
259.849	71.12
260.081	80.12
260.314	73.12
260.547	89.12
260.779	81.12
261.012	91.12
261.244	92.12
261.477	94.12
261.71	87.12
261.942	100.12
262.175	105.12
262.407	88.12
262.64	89.12
262.872	78.12
263.105	67.12
263.337	83.12
263.57	71.12
263.802	74.12
264.035	75.12
264.267	84.12
264.499	82.12
264.732	92.12
264.964	93.12
265.197	87.12
265.429	82.12
265.661	77.12
265.894	72.12
266.126	96.12
266.358	85.12
266.591	73.12
266.823	94.12
267.055	80.12
267.287	74.12
267.52	100.12
267.752	78.12
267.984	75.12
268.216	99.12
268.448	90.12
268.681	75.12
268.913	92.12
269.145	84.12
269.377	87.12
269.609	80.12
269.841	82.12
270.073	79.12
270.306	91.12
270.538	92.12
270.77	96.12
271.002	87.12
271.234	82.12
271.466	68.12
271.698	76.12
271.93	89.12
272.162	93.12
272.394	73.12
272.626	73.12
272.858	88.12
273.09	102.12
273.322	96.12
273.553	82.12
273.785	85.12
274.017	90.12
274.249	76.12
274.481	81.12
274.713	83.12
274.945	92.12
275.176	73.12
275.408	66.12
275.64	79.12
275.872	89.12
276.104	92.12
276.335	90.12
276.567	100.12
276.799	114.12
277.031	102.12
277.262	78.12
277.494	98.12
277.726	89.12
277.957	87.12
278.189	85.12
278.421	89.12
278.652	81.12
278.884	89.12
279.115	79.12
279.347	78.12
279.579	91.12
279.81	87.12
280.042	87.12
280.273	94.12
280.505	100.12
280.736	85.12
280.968	87.12
281.199	81.12
281.431	71.12
281.662	94.12
281.894	81.12
282.125	99.12
282.356	104.12
282.588	123.12
282.819	112.12
283.051	86.12
283.282	76.12
283.513	87.12
283.745	92.12
283.976	83.12
284.207	83.12
284.439	104.12
284.67	93.12
284.901	91.12
285.132	79.12
285.364	93.12
285.595	78.12
285.826	91.12
286.057	101.12
286.288	97.12
286.52	76.12
286.751	91.12
286.982	81.12
287.213	83.12
287.444	87.12
287.675	90.12
287.906	102.12
288.138	83.12
288.369	87.12
288.6	91.12
288.831	76.12
289.062	86.12
289.293	88.12
289.524	88.12
289.755	92.12
289.986	94.12
290.217	86.12
290.448	90.12
290.679	80.12
290.91	91.12
291.141	98.12
291.371	75.12
291.602	86.12
291.833	78.12
292.064	86.12
292.295	93.12
292.526	85.12
292.757	87.12
292.987	79.12
293.218	84.12
293.449	81.12
293.68	89.12
293.91	106.12
294.141	90.12
294.372	97.12
294.603	92.12
294.833	98.12
295.064	103.12
295.295	98.12
295.525	90.12
295.756	99.12
295.987	104.12
296.217	126.12
296.448	107.12
296.679	97.12
296.909	88.12
297.14	82.12
297.37	84.12
297.601	93.12
297.831	89.12
298.062	101.12
298.292	83.12
298.523	82.12
298.753	80.12
298.984	96.12
299.214	87.12
299.445	96.12
299.675	69.12
299.905	93.12
300.136	94.12
300.366	91.12
300.597	88.12
300.827	94.12
301.057	97.12
301.288	106.12
301.518	89.12
301.748	95.12
301.979	106.12
302.209	99.12
302.439	92.12
302.669	83.12
302.9	94.12
303.13	90.12
303.36	95.12
303.59	88.12
303.82	89.12
304.051	93.12
304.281	92.12
304.511	87.12
304.741	94.12
304.971	89.12
305.201	85.12
305.431	98.12
305.661	90.12
305.891	97.12
306.121	89.12
306.352	90.12
306.582	100.12
306.812	82.12
307.042	90.12
307.272	98.12
307.502	97.12
307.731	102.12
307.961	93.12
308.191	95.12
308.421	92.12
308.651	94.12
308.881	94.12
309.111	77.12
309.341	103.12
309.571	97.12
309.8	107.12
310.03	93.12
310.26	82.12
310.49	97.12
310.72	87.12
310.949	103.12
311.179	95.12
311.409	98.12
311.639	93.12
311.868	90.12
312.098	93.12
312.328	108.12
312.557	105.12
312.787	119.12
313.017	123.12
313.246	103.12
313.476	81.12
313.706	85.12
313.935	98.12
314.165	95.12
314.394	96.12
314.624	109.12
314.853	95.12
315.083	89.12
315.312	93.12
315.542	98.12
315.771	86.12
316.001	82.12
316.23	86.12
316.46	95.12
316.689	98.12
316.919	96.12
317.148	91.12
317.377	95.12
317.607	102.12
317.836	75.12
318.065	89.12
318.295	86.12
318.524	91.12
318.753	94.12
318.983	107.12
319.212	93.12
319.441	104.12
319.67	101.12
319.9	99.12
320.129	92.12
320.358	90.12
320.587	93.12
320.816	107.12
321.046	108.12
321.275	105.12
321.504	93.12
321.733	109.12
321.962	107.12
322.191	110.12
322.42	119.12
322.649	108.12
322.878	110.12
323.108	110.12
323.337	123.12
323.566	133.12
323.795	155.12
324.024	222.12
324.253	423.12
324.482	907.12
324.71	1901.12
324.939	2433.12
325.168	882.12
325.397	264.12
325.626	154.12
325.855	134.12
326.084	137.12
326.313	146.12
326.542	149.12
326.77	266.12
326.999	488.12
327.228	1035.12
327.457	1887.12
327.686	1469.12
327.914	392.12
328.143	193.12
328.372	142.12
328.6	126.12
328.829	123.12
329.058	120.12
329.287	124.12
329.515	104.12
329.744	99.12
329.972	97.12
330.201	100.12
330.43	113.12
330.658	124.12
330.887	125.12
331.115	117.12
331.344	104.12
331.572	98.12
331.801	81.12
332.03	96.12
332.258	102.12
332.486	98.12
332.715	97.12
332.943	98.12
333.172	92.12
333.4	105.12
333.629	104.12
333.857	105.12
334.085	104.12
334.314	97.12
334.542	105.12
334.771	99.12
334.999	98.12
335.227	102.12
335.455	106.12
335.684	93.12
335.912	95.12
336.14	93.12
336.369	102.12
336.597	101.12
336.825	107.12
337.053	98.12
337.281	86.12
337.51	92.12
337.738	92.12
337.966	98.12
338.194	109.12
338.422	105.12
338.65	88.12
338.878	98.12
339.106	96.12
339.334	90.12
339.562	93.12
339.79	78.12
340.018	90.12
340.246	89.12
340.474	99.12
340.702	90.12
340.93	84.12
341.158	96.12
341.386	99.12
341.614	84.12
341.842	94.12
342.07	87.12
342.298	91.12
342.526	102.12
342.754	87.12
342.981	88.12
343.209	86.12
343.437	99.12
343.665	82.12
343.893	98.12
344.12	98.12
344.348	93.12
344.576	95.12
344.804	90.12
345.031	93.12
345.259	98.12
345.487	87.12
345.714	95.12
345.942	103.12
346.17	99.12
346.397	90.12
346.625	83.12
346.853	72.12
347.08	81.12
347.308	96.12
347.535	102.12
347.763	104.12
347.99	91.12
348.218	103.12
348.445	103.12
348.673	97.12
348.9	95.12
349.128	99.12
349.355	94.12
349.583	85.12
349.81	97.12
350.037	92.12
350.265	93.12
350.492	98.12
350.72	107.12
350.947	113.12
351.174	105.12
351.402	94.12
351.629	113.12
351.856	81.12
352.083	109.12
352.311	107.12
352.538	104.12
352.765	115.12
352.992	112.12
353.22	126.12
353.447	90.12
353.674	98.12
353.901	99.12
354.128	80.12
354.355	103.12
354.583	101.12
354.81	113.12
355.037	99.12
355.264	99.12
355.491	81.12
355.718	88.12
355.945	99.12
356.172	98.12
356.399	95.12
356.626	101.12
356.853	90.12
357.08	88.12
357.307	87.12
357.534	89.12
357.761	97.12
357.988	84.12
358.215	105.12
358.441	99.12
358.668	94.12
358.895	84.12
359.122	76.12
359.349	75.12
359.576	62.12
359.802	97.12
360.029	104.12
360.256	104.12
360.483	97.12
360.709	85.12
360.936	90.12
361.163	106.12
361.39	93.12
361.616	85.12
361.843	92.12
362.07	96.12
362.296	105.12
362.523	89.12
362.749	101.12
362.976	98.12
363.203	85.12
363.429	91.12
363.656	85.12
363.882	97.12
364.109	86.12
364.335	73.12
364.562	95.12
364.788	85.12
365.015	89.12
365.241	109.12
365.468	99.12
365.694	102.12
365.92	103.12
366.147	97.12
366.373	90.12
366.599	89.12
366.826	102.12
367.052	89.12
367.278	78.12
367.505	99.12
367.731	108.12
367.957	87.12
368.184	97.12
368.41	100.12
368.636	117.12
368.862	109.12
369.089	109.12
369.315	90.12
369.541	89.12
369.767	81.12
369.993	83.12
370.219	90.12
370.445	89.12
370.672	85.12
370.898	97.12
371.124	90.12
371.35	90.12
371.576	95.12
371.802	107.12
372.028	89.12
372.254	87.12
372.48	89.12
372.706	101.12
372.932	81.12
373.158	82.12
373.384	70.12
373.61	82.12
373.835	92.12
374.061	88.12
374.287	95.12
374.513	91.12
374.739	94.12
374.965	90.12
375.191	91.12
375.416	102.12
375.642	91.12
375.868	82.12
376.094	95.12
376.319	97.12
376.545	94.12
376.771	101.12
376.997	88.12
377.222	93.12
377.448	92.12
377.674	96.12
377.899	91.12
378.125	94.12
378.35	84.12
378.576	74.12
378.802	96.12
379.027	102.12
379.253	95.12
379.478	93.12
379.704	84.12
379.929	90.12
380.155	73.12
380.38	99.12
380.606	100.12
380.831	93.12
381.057	101.12
381.282	97.12
381.507	99.12
381.733	97.12
381.958	93.12
382.184	113.12
382.409	99.12
382.634	94.12
382.86	110.12
383.085	90.12
383.31	99.12
383.535	89.12
383.761	102.12
383.986	97.12
384.211	101.12
384.436	97.12
384.662	99.12
384.887	95.12
385.112	94.12
385.337	104.12
385.562	117.12
385.787	94.12
386.013	110.12
386.238	132.12
386.463	109.12
386.688	115.12
386.913	94.12
387.138	98.12
387.363	94.12
387.588	97.12
387.813	94.12
388.038	118.12
388.263	133.12
388.488	111.12
388.713	92.12
388.938	104.12
389.163	99.12
389.387	107.12
389.612	94.12
389.837	103.12
390.062	103.12
390.287	102.12
390.512	86.12
390.736	82.12
390.961	85.12
391.186	83.12
391.411	89.12
391.636	86.12
391.86	80.12
392.085	92.12
392.31	87.12
392.534	87.12
392.759	89.12
392.984	72.12
393.208	94.12
393.433	88.12
393.658	86.12
393.882	89.12
394.107	96.12
394.331	86.12
394.556	87.12
394.78	98.12
395.005	83.12
395.229	78.12
395.454	98.12
395.678	72.12
395.903	99.12
396.127	91.12
396.352	97.12
396.576	90.12
396.801	82.12
397.025	83.12
397.249	75.12
397.474	85.12
397.698	80.12
397.922	89.12
398.147	85.12
398.371	81.12
398.595	94.12
398.82	88.12
399.044	92.12
399.268	85.12
399.492	74.12
399.717	92.12
399.941	94.12
400.165	96.12
400.389	105.12
400.613	96.12
400.837	77.12
401.062	78.12
401.286	101.12
401.51	81.12
401.734	85.12
401.958	96.12
402.182	125.12
402.406	147.12
402.63	106.12
402.854	94.12
403.078	105.12
403.302	97.12
403.526	94.12
403.75	86.12
403.974	104.12
404.198	75.12
404.422	90.12
404.645	92.12
404.869	83.12
405.093	107.12
405.317	99.12
405.541	95.12
405.765	98.12
405.988	96.12
406.212	176.12
406.436	215.12
406.66	126.12
406.883	103.12
407.107	95.12
407.331	89.12
407.555	104.12
407.778	97.12
408.002	99.12
408.226	82.12
408.449	87.12
408.673	105.12
408.896	98.12
409.12	98.12
409.344	90.12
409.567	90.12
409.791	94.12
410.014	110.12
410.238	99.12
410.461	77.12
410.685	109.12
410.908	108.12
411.132	105.12
411.355	99.12
411.578	99.12
411.802	97.12
412.025	99.12
412.249	89.12
412.472	86.12
412.695	95.12
412.919	86.12
413.142	85.12
413.365	102.12
413.589	99.12
413.812	99.12
414.035	94.12
414.258	91.12
414.482	84.12
414.705	81.12
414.928	101.12
415.151	90.12
415.374	94.12
415.597	84.12
415.821	98.12
416.044	90.12
416.267	99.12
416.49	98.12
416.713	90.12
416.936	102.12
417.159	93.12
417.382	102.12
417.605	91.12
417.828	101.12
418.051	105.12
418.274	84.12
418.497	63.12
418.72	75.12
418.943	83.12
419.166	98.12
419.389	107.12
419.611	90.12
419.834	103.12
420.057	82.12
420.28	89.12
420.503	82.12
420.726	85.12
420.948	82.12
421.171	85.12
421.394	92.12
421.617	106.12
421.839	90.12
422.062	92.12
422.285	89.12
422.507	103.12
422.73	106.12
422.953	89.12
423.175	88.12
423.398	95.12
423.621	110.12
423.843	95.12
424.066	75.12
424.288	102.12
424.511	97.12
424.733	97.12
424.956	121.12
425.178	90.12
425.401	93.12
425.623	105.12
425.846	95.12
426.068	84.12
426.291	82.12
426.513	105.12
426.735	99.12
426.958	90.12
427.18	110.12
427.402	127.12
427.625	143.12
427.847	129.12
428.069	96.12
428.292	99.12
428.514	92.12
428.736	90.12
428.958	81.12
429.181	90.12
429.403	95.12
429.625	83.12
429.847	103.12
430.069	88.12
430.292	79.12
430.514	89.12
430.736	75.12
430.958	83.12
431.18	84.12
431.402	89.12
431.624	88.12
431.846	94.12
432.068	74.12
432.29	96.12
432.512	93.12
432.734	101.12
432.956	87.12
433.178	125.12
433.4	101.12
433.622	85.12
433.844	91.12
434.066	107.12
434.287	92.12
434.509	98.12
434.731	85.12
434.953	90.12
435.175	86.12
435.397	101.12
435.618	82.12
435.84	100.12
436.062	110.12
436.284	127.12
436.505	93.12
436.727	107.12
436.949	98.12
437.17	91.12
437.392	73.12
437.614	99.12
437.835	110.12
438.057	113.12
438.278	122.12
438.5	114.12
438.721	122.12
438.943	106.12
439.165	99.12
439.386	89.12
439.608	105.12
439.829	101.12
440.05	115.12
440.272	133.12
440.493	86.12
440.715	87.12
440.936	84.12
441.158	104.12
441.379	87.12
441.6	81.12
441.822	98.12
442.043	97.12
442.264	99.12
442.486	107.12
442.707	82.12
442.928	106.12
443.149	123.12
443.371	130.12
443.592	98.12
443.813	107.12
444.034	108.12
444.255	97.12
444.476	103.12
444.698	78.12
444.919	98.12
445.14	122.12
445.361	130.12
445.582	117.12
445.803	139.12
446.024	126.12
446.245	121.12
446.466	109.12
446.687	87.12
446.908	83.12
447.129	100.12
447.35	108.12
447.571	102.12
447.792	109.12
448.013	87.12
448.234	104.12
448.455	98.12
448.675	114.12
448.896	125.12
449.117	104.12
449.338	113.12
449.559	134.12
449.779	129.12
450	100.12
450.221	83.12
450.442	86.12
450.662	95.12
450.883	118.12
451.104	113.12
451.324	88.12
451.545	73.12
451.766	80.12
451.986	81.12
452.207	82.12
452.428	95.12
452.648	95.12
452.869	101.12
453.089	112.12
453.31	124.12
453.53	113.12
453.751	93.12
453.971	105.12
454.192	106.12
454.412	97.12
454.633	89.12
454.853	73.12
455.073	82.12
455.294	98.12
455.514	95.12
455.734	91.12
455.955	87.12
456.175	79.12
456.395	93.12
456.616	80.12
456.836	87.12
457.056	80.12
457.276	80.12
457.497	83.12
457.717	82.12
457.937	91.12
458.157	98.12
458.377	98.12
458.598	108.12
458.818	149.12
459.038	149.12
459.258	105.12
459.478	98.12
459.698	85.12
459.918	85.12
460.138	94.12
460.358	100.12
460.578	84.12
460.798	95.12
461.018	90.12
461.238	79.12
461.458	90.12
461.678	85.12
461.898	82.12
462.118	93.12
462.338	91.12
462.558	85.12
462.777	79.12
462.997	67.12
463.217	77.12
463.437	87.12
463.657	92.12
463.876	85.12
464.096	100.12
464.316	96.12
464.536	95.12
464.755	95.12
464.975	103.12
465.195	153.12
465.414	144.12
465.634	90.12
465.854	79.12
466.073	94.12
466.293	83.12
466.512	79.12
466.732	85.12
466.951	83.12
467.171	80.12
467.391	93.12
467.61	86.12
467.829	93.12
468.049	103.12
468.268	90.12
468.488	98.12
468.707	96.12
468.927	91.12
469.146	87.12
469.365	96.12
469.585	84.12
469.804	102.12
470.023	89.12
470.243	94.12
470.462	92.12
470.681	105.12
470.901	88.12
471.12	83.12
471.339	82.12
471.558	86.12
471.777	85.12
471.997	93.12
472.216	113.12
472.435	87.12
472.654	96.12
472.873	82.12
473.092	77.12
473.311	83.12
473.53	89.12
473.749	91.12
473.968	96.12
474.187	93.12
474.406	84.12
474.625	95.12
474.844	98.12
475.063	84.12
475.282	73.12
475.501	89.12
475.72	91.12
475.939	78.12
476.158	85.12
476.377	94.12
476.596	85.12
476.814	81.12
477.033	83.12
477.252	90.12
477.471	101.12
477.69	90.12
477.908	89.12
478.127	99.12
478.346	77.12
478.564	102.12
478.783	105.12
479.002	113.12
479.22	101.12
479.439	99.12
479.658	90.12
479.876	105.12
480.095	84.12
480.313	89.12
480.532	82.12
480.751	93.12
480.969	106.12
481.188	129.12
481.406	109.12
481.624	88.12
481.843	92.12
482.061	86.12
482.28	88.12
482.498	81.12
482.717	105.12
482.935	93.12
483.153	96.12
483.372	99.12
483.59	95.12
483.808	109.12
484.027	97.12
484.245	102.12
484.463	74.12
484.681	113.12
484.9	91.12
485.118	95.12
485.336	77.12
485.554	96.12
485.772	95.12
485.99	93.12
486.209	111.12
486.427	111.12
486.645	102.12
486.863	119.12
487.081	106.12
487.299	85.12
487.517	91.12
487.735	99.12
487.953	97.12
488.171	99.12
488.389	95.12
488.607	89.12
488.825	89.12
489.043	114.12
489.261	83.12
489.479	76.12
489.696	93.12
489.914	93.12
490.132	76.12
490.35	93.12
490.568	100.12
490.786	99.12
491.003	89.12
491.221	94.12
491.439	98.12
491.657	90.12
491.874	91.12
492.092	94.12
492.31	101.12
492.527	93.12
492.745	87.12
492.963	97.12
493.18	102.12
493.398	110.12
493.615	104.12
493.833	102.12
494.05	91.12
494.268	99.12
494.485	93.12
494.703	93.12
494.92	92.12
495.138	82.12
495.355	96.12
495.573	91.12
495.79	99.12
496.008	89.12
496.225	101.12
496.442	80.12
496.66	97.12
496.877	90.12
497.094	85.12
497.312	91.12
497.529	96.12
497.746	80.12
497.963	98.12
498.181	88.12
498.398	98.12
498.615	114.12
498.832	99.12
499.049	89.12
499.267	93.12
499.484	89.12
499.701	100.12
499.918	84.12
500.135	87.12
500.352	86.12
500.569	99.12
500.786	79.12
501.003	91.12
501.22	90.12
501.437	93.12
501.654	96.12
501.871	95.12
502.088	95.12
502.305	82.12
502.522	86.12
502.739	95.12
502.956	81.12
503.172	104.12
503.389	90.12
503.606	82.12
503.823	106.12
504.04	99.12
504.256	93.12
504.473	93.12
504.69	78.12
504.907	85.12
505.123	93.12
505.34	89.12
505.557	89.12
505.773	90.12
505.99	93.12
506.207	86.12
506.423	83.12
506.64	95.12
506.856	83.12
507.073	84.12
507.289	95.12
507.506	97.12
507.722	103.12
507.939	114.12
508.155	93.12
508.372	87.12
508.588	92.12
508.805	95.12
509.021	105.12
509.238	94.12
509.454	99.12
509.67	106.12
509.887	118.12
510.103	144.12
510.319	231.12
510.536	817.12
510.752	2408.12
510.968	676.12
511.184	160.12
511.401	106.12
511.617	100.12
511.833	99.12
512.049	93.12
512.265	69.12
512.481	93.12
512.698	86.12
512.914	98.12
513.13	94.12
513.346	84.12
513.562	83.12
513.778	98.12
513.994	107.12
514.21	111.12
514.426	120.12
514.642	121.12
514.858	120.12
515.074	154.12
515.29	423.12
515.506	1403.12
515.721	515.12
