Data from Uncirc_1999_H10_HRD10591_00032.txt Node
Date: Wed Jan 03 11:22:11 EST 2024
User: Yrep
Spectrometer: HR+D1059
Trigger mode: 1
Integration Time (sec): 1.000000E-1
Scans to average: 1
Electric dark correction enabled: true
Nonlinearity correction enabled: false
Boxcar width: 0
XAxis mode: Wavelengths
Number of Pixels in Spectrum: 2048
>>>>>Begin Spectral Data<<<<<
223.165	-6.81
223.4	-6.81
223.635	-6.81
223.869	-24.81
224.104	-10.81
224.338	-1.81
224.573	-20.81
224.808	-4.81
225.042	-7.81
225.277	9.19
225.511	-2.81
225.746	-6.81
225.98	5.19
226.215	-1.81
226.449	5.19
226.683	24.19
226.918	17.19
227.152	28.19
227.387	33.19
227.621	34.19
227.856	36.19
228.09	49.19
228.324	49.19
228.559	62.19
228.793	70.19
229.027	55.19
229.262	72.19
229.496	66.19
229.73	77.19
229.964	73.19
230.199	69.19
230.433	64.19
230.667	89.19
230.901	75.19
231.136	89.19
231.37	95.19
231.604	78.19
231.838	80.19
232.072	83.19
232.306	81.19
232.541	92.19
232.775	75.19
233.009	72.19
233.243	74.19
233.477	75.19
233.711	76.19
233.945	83.19
234.179	82.19
234.413	81.19
234.647	77.19
234.881	80.19
235.115	72.19
235.349	84.19
235.583	86.19
235.817	82.19
236.051	80.19
236.285	77.19
236.519	80.19
236.753	82.19
236.987	94.19
237.221	83.19
237.455	69.19
237.689	70.19
237.922	85.19
238.156	76.19
238.39	54.19
238.624	70.19
238.858	66.19
239.091	77.19
239.325	76.19
239.559	76.19
239.793	78.19
240.027	80.19
240.26	74.19
240.494	73.19
240.728	80.19
240.961	90.19
241.195	87.19
241.429	83.19
241.662	70.19
241.896	64.19
242.13	77.19
242.363	82.19
242.597	80.19
242.83	82.19
243.064	80.19
243.298	68.19
243.531	83.19
243.765	76.19
243.998	80.19
244.232	83.19
244.465	79.19
244.699	82.19
244.932	71.19
245.166	81.19
245.399	72.19
245.633	78.19
245.866	77.19
246.099	93.19
246.333	89.19
246.566	95.19
246.8	72.19
247.033	82.19
247.266	76.19
247.5	67.19
247.733	75.19
247.966	79.19
248.2	85.19
248.433	80.19
248.666	75.19
248.899	90.19
249.133	89.19
249.366	94.19
249.599	96.19
249.832	83.19
250.066	84.19
250.299	75.19
250.532	77.19
250.765	78.19
250.998	73.19
251.231	93.19
251.465	77.19
251.698	73.19
251.931	75.19
252.164	71.19
252.397	89.19
252.63	93.19
252.863	95.19
253.096	98.19
253.329	74.19
253.562	83.19
253.795	66.19
254.028	79.19
254.261	75.19
254.494	83.19
254.727	83.19
254.96	91.19
255.193	89.19
255.426	84.19
255.659	77.19
255.892	82.19
256.124	68.19
256.357	87.19
256.59	87.19
256.823	84.19
257.056	85.19
257.289	82.19
257.521	69.19
257.754	88.19
257.987	82.19
258.22	78.19
258.452	96.19
258.685	81.19
258.918	82.19
259.151	69.19
259.383	75.19
259.616	77.19
259.849	88.19
260.081	78.19
260.314	77.19
260.547	91.19
260.779	76.19
261.012	90.19
261.244	81.19
261.477	83.19
261.71	89.19
261.942	94.19
262.175	88.19
262.407	78.19
262.64	94.19
262.872	64.19
263.105	77.19
263.337	82.19
263.57	81.19
263.802	75.19
264.035	89.19
264.267	95.19
264.499	80.19
264.732	87.19
264.964	87.19
265.197	94.19
265.429	83.19
265.661	85.19
265.894	77.19
266.126	81.19
266.358	72.19
266.591	94.19
266.823	80.19
267.055	60.19
267.287	82.19
267.52	79.19
267.752	80.19
267.984	92.19
268.216	79.19
268.448	97.19
268.681	83.19
268.913	85.19
269.145	95.19
269.377	90.19
269.609	97.19
269.841	82.19
270.073	91.19
270.306	80.19
270.538	76.19
270.77	96.19
271.002	90.19
271.234	86.19
271.466	81.19
271.698	85.19
271.93	91.19
272.162	93.19
272.394	80.19
272.626	81.19
272.858	88.19
273.09	81.19
273.322	93.19
273.553	78.19
273.785	92.19
274.017	79.19
274.249	80.19
274.481	76.19
274.713	98.19
274.945	88.19
275.176	87.19
275.408	103.19
275.64	81.19
275.872	89.19
276.104	72.19
276.335	89.19
276.567	91.19
276.799	114.19
277.031	102.19
277.262	98.19
277.494	85.19
277.726	81.19
277.957	78.19
278.189	85.19
278.421	87.19
278.652	85.19
278.884	83.19
279.115	90.19
279.347	96.19
279.579	88.19
279.81	80.19
280.042	96.19
280.273	98.19
280.505	99.19
280.736	70.19
280.968	70.19
281.199	81.19
281.431	77.19
281.662	93.19
281.894	91.19
282.125	100.19
282.356	100.19
282.588	126.19
282.819	96.19
283.051	85.19
283.282	87.19
283.513	87.19
283.745	90.19
283.976	74.19
284.207	80.19
284.439	73.19
284.67	91.19
284.901	89.19
285.132	81.19
285.364	104.19
285.595	82.19
285.826	90.19
286.057	86.19
286.288	81.19
286.52	80.19
286.751	96.19
286.982	83.19
287.213	80.19
287.444	87.19
287.675	73.19
287.906	92.19
288.138	81.19
288.369	79.19
288.6	88.19
288.831	92.19
289.062	92.19
289.293	96.19
289.524	92.19
289.755	69.19
289.986	88.19
290.217	85.19
290.448	86.19
290.679	75.19
290.91	99.19
291.141	95.19
291.371	90.19
291.602	89.19
291.833	87.19
292.064	74.19
292.295	85.19
292.526	93.19
292.757	90.19
292.987	91.19
293.218	99.19
293.449	80.19
293.68	85.19
293.91	87.19
294.141	75.19
294.372	87.19
294.603	88.19
294.833	80.19
295.064	81.19
295.295	81.19
295.525	81.19
295.756	93.19
295.987	102.19
296.217	119.19
296.448	104.19
296.679	88.19
296.909	83.19
297.14	89.19
297.37	81.19
297.601	77.19
297.831	93.19
298.062	92.19
298.292	102.19
298.523	112.19
298.753	93.19
298.984	103.19
299.214	91.19
299.445	97.19
299.675	89.19
299.905	81.19
300.136	91.19
300.366	91.19
300.597	77.19
300.827	86.19
301.057	98.19
301.288	95.19
301.518	89.19
301.748	104.19
301.979	112.19
302.209	94.19
302.439	98.19
302.669	89.19
302.9	86.19
303.13	91.19
303.36	98.19
303.59	103.19
303.82	104.19
304.051	97.19
304.281	79.19
304.511	85.19
304.741	96.19
304.971	85.19
305.201	91.19
305.431	87.19
305.661	93.19
305.891	102.19
306.121	84.19
306.352	112.19
306.582	111.19
306.812	89.19
307.042	94.19
307.272	109.19
307.502	92.19
307.731	100.19
307.961	94.19
308.191	90.19
308.421	90.19
308.651	89.19
308.881	89.19
309.111	108.19
309.341	103.19
309.571	88.19
309.8	87.19
310.03	94.19
310.26	91.19
310.49	89.19
310.72	95.19
310.949	98.19
311.179	97.19
311.409	94.19
311.639	81.19
311.868	77.19
312.098	99.19
312.328	96.19
312.557	86.19
312.787	91.19
313.017	88.19
313.246	95.19
313.476	93.19
313.706	91.19
313.935	91.19
314.165	111.19
314.394	95.19
314.624	89.19
314.853	80.19
315.083	98.19
315.312	95.19
315.542	93.19
315.771	107.19
316.001	91.19
316.23	97.19
316.46	85.19
316.689	86.19
316.919	95.19
317.148	90.19
317.377	88.19
317.607	111.19
317.836	98.19
318.065	90.19
318.295	89.19
318.524	94.19
318.753	100.19
318.983	101.19
319.212	97.19
319.441	109.19
319.67	117.19
319.9	92.19
320.129	82.19
320.358	100.19
320.587	107.19
320.816	92.19
321.046	114.19
321.275	114.19
321.504	105.19
321.733	98.19
321.962	106.19
322.191	104.19
322.42	103.19
322.649	113.19
322.878	112.19
323.108	115.19
323.337	116.19
323.566	125.19
323.795	141.19
324.024	205.19
324.253	372.19
324.482	783.19
324.71	1559.19
324.939	2074.19
325.168	774.19
325.397	234.19
325.626	145.19
325.855	124.19
326.084	115.19
326.313	121.19
326.542	140.19
326.77	218.19
326.999	443.19
327.228	882.19
327.457	1603.19
327.686	1312.19
327.914	354.19
328.143	167.19
328.372	145.19
328.6	112.19
328.829	107.19
329.058	118.19
329.287	129.19
329.515	104.19
329.744	92.19
329.972	94.19
330.201	110.19
330.43	99.19
330.658	126.19
330.887	119.19
331.115	124.19
331.344	111.19
331.572	120.19
331.801	105.19
332.03	89.19
332.258	94.19
332.486	95.19
332.715	99.19
332.943	111.19
333.172	98.19
333.4	98.19
333.629	112.19
333.857	97.19
334.085	104.19
334.314	108.19
334.542	105.19
334.771	104.19
334.999	109.19
335.227	88.19
335.455	104.19
335.684	105.19
335.912	98.19
336.14	98.19
336.369	91.19
336.597	109.19
336.825	102.19
337.053	116.19
337.281	94.19
337.51	103.19
337.738	94.19
337.966	95.19
338.194	85.19
338.422	96.19
338.65	94.19
338.878	92.19
339.106	82.19
339.334	96.19
339.562	104.19
339.79	92.19
340.018	97.19
340.246	103.19
340.474	85.19
340.702	74.19
340.93	97.19
341.158	101.19
341.386	104.19
341.614	81.19
341.842	85.19
342.07	89.19
342.298	109.19
342.526	91.19
342.754	97.19
342.981	103.19
343.209	97.19
343.437	102.19
343.665	91.19
343.893	87.19
344.12	96.19
344.348	98.19
344.576	91.19
344.804	93.19
345.031	99.19
345.259	93.19
345.487	105.19
345.714	92.19
345.942	105.19
346.17	97.19
346.397	105.19
346.625	99.19
346.853	95.19
347.08	79.19
347.308	97.19
347.535	102.19
347.763	104.19
347.99	88.19
348.218	95.19
348.445	103.19
348.673	102.19
348.9	116.19
349.128	105.19
349.355	102.19
349.583	106.19
349.81	106.19
350.037	90.19
350.265	103.19
350.492	108.19
350.72	85.19
350.947	94.19
351.174	103.19
351.402	100.19
351.629	105.19
351.856	115.19
352.083	99.19
352.311	98.19
352.538	109.19
352.765	101.19
352.992	107.19
353.22	127.19
353.447	109.19
353.674	115.19
353.901	98.19
354.128	105.19
354.355	105.19
354.583	103.19
354.81	98.19
355.037	95.19
355.264	102.19
355.491	97.19
355.718	91.19
355.945	110.19
356.172	87.19
356.399	102.19
356.626	97.19
356.853	98.19
357.08	67.19
357.307	102.19
357.534	97.19
357.761	94.19
357.988	88.19
358.215	95.19
358.441	91.19
358.668	95.19
358.895	80.19
359.122	92.19
359.349	98.19
359.576	98.19
359.802	85.19
360.029	107.19
360.256	109.19
360.483	94.19
360.709	101.19
360.936	96.19
361.163	99.19
361.39	111.19
361.616	114.19
361.843	91.19
362.07	91.19
362.296	94.19
362.523	100.19
362.749	102.19
362.976	83.19
363.203	104.19
363.429	98.19
363.656	87.19
363.882	86.19
364.109	87.19
364.335	84.19
364.562	102.19
364.788	94.19
365.015	103.19
365.241	105.19
365.468	107.19
365.694	87.19
365.92	91.19
366.147	93.19
366.373	92.19
366.599	89.19
366.826	91.19
367.052	89.19
367.278	90.19
367.505	91.19
367.731	101.19
367.957	67.19
368.184	107.19
368.41	96.19
368.636	104.19
368.862	113.19
369.089	110.19
369.315	85.19
369.541	92.19
369.767	88.19
369.993	87.19
370.219	101.19
370.445	87.19
370.672	98.19
370.898	80.19
371.124	99.19
371.35	89.19
371.576	72.19
371.802	87.19
372.028	87.19
372.254	87.19
372.48	99.19
372.706	92.19
372.932	89.19
373.158	102.19
373.384	91.19
373.61	89.19
373.835	93.19
374.061	109.19
374.287	95.19
374.513	98.19
374.739	99.19
374.965	81.19
375.191	85.19
375.416	87.19
375.642	91.19
375.868	94.19
376.094	85.19
376.319	87.19
376.545	85.19
376.771	94.19
376.997	93.19
377.222	103.19
377.448	88.19
377.674	98.19
377.899	96.19
378.125	94.19
378.35	95.19
378.576	103.19
378.802	102.19
379.027	91.19
379.253	74.19
379.478	88.19
379.704	101.19
379.929	98.19
380.155	107.19
380.38	94.19
380.606	97.19
380.831	103.19
381.057	114.19
381.282	99.19
381.507	91.19
381.733	106.19
381.958	85.19
382.184	81.19
382.409	108.19
382.634	103.19
382.86	106.19
383.085	105.19
383.31	100.19
383.535	94.19
383.761	100.19
383.986	116.19
384.211	96.19
384.436	105.19
384.662	99.19
384.887	106.19
385.112	109.19
385.337	102.19
385.562	109.19
385.787	111.19
386.013	119.19
386.238	117.19
386.463	113.19
386.688	102.19
386.913	102.19
387.138	108.19
387.363	105.19
387.588	110.19
387.813	97.19
388.038	121.19
388.263	115.19
388.488	120.19
388.713	84.19
388.938	112.19
389.163	104.19
389.387	100.19
389.612	90.19
389.837	86.19
390.062	95.19
390.287	75.19
390.512	106.19
390.736	102.19
390.961	89.19
391.186	89.19
391.411	94.19
391.636	83.19
391.86	85.19
392.085	72.19
392.31	88.19
392.534	87.19
392.759	90.19
392.984	91.19
393.208	100.19
393.433	79.19
393.658	93.19
393.882	93.19
394.107	64.19
394.331	87.19
394.556	88.19
394.78	88.19
395.005	96.19
395.229	90.19
395.454	78.19
395.678	78.19
395.903	94.19
396.127	86.19
396.352	99.19
396.576	86.19
396.801	85.19
397.025	86.19
397.249	87.19
397.474	69.19
397.698	75.19
397.922	76.19
398.147	101.19
398.371	81.19
398.595	88.19
398.82	90.19
399.044	78.19
399.268	78.19
399.492	79.19
399.717	88.19
399.941	109.19
400.165	99.19
400.389	88.19
400.613	99.19
400.837	84.19
401.062	89.19
401.286	82.19
401.51	86.19
401.734	88.19
401.958	105.19
402.182	109.19
402.406	150.19
402.63	118.19
402.854	103.19
403.078	81.19
403.302	75.19
403.526	94.19
403.75	79.19
403.974	82.19
404.198	71.19
404.422	82.19
404.645	90.19
404.869	94.19
405.093	82.19
405.317	101.19
405.541	101.19
405.765	107.19
405.988	110.19
406.212	143.19
406.436	201.19
406.66	122.19
406.883	91.19
407.107	78.19
407.331	114.19
407.555	98.19
407.778	90.19
408.002	92.19
408.226	89.19
408.449	85.19
408.673	90.19
408.896	86.19
409.12	104.19
409.344	98.19
409.567	90.19
409.791	99.19
410.014	92.19
410.238	95.19
410.461	101.19
410.685	101.19
410.908	102.19
411.132	113.19
411.355	106.19
411.578	99.19
411.802	96.19
412.025	84.19
412.249	87.19
412.472	92.19
412.695	93.19
412.919	97.19
413.142	87.19
413.365	87.19
413.589	65.19
413.812	90.19
414.035	103.19
414.258	95.19
414.482	90.19
414.705	87.19
414.928	102.19
415.151	83.19
415.374	95.19
415.597	82.19
415.821	92.19
416.044	93.19
416.267	100.19
416.49	80.19
416.713	93.19
416.936	98.19
417.159	97.19
417.382	103.19
417.605	93.19
417.828	77.19
418.051	85.19
418.274	98.19
418.497	83.19
418.72	88.19
418.943	94.19
419.166	92.19
419.389	100.19
419.611	88.19
419.834	83.19
420.057	93.19
420.28	82.19
420.503	73.19
420.726	85.19
420.948	88.19
421.171	93.19
421.394	89.19
421.617	100.19
421.839	88.19
422.062	91.19
422.285	93.19
422.507	93.19
422.73	106.19
422.953	92.19
423.175	81.19
423.398	97.19
423.621	101.19
423.843	83.19
424.066	86.19
424.288	86.19
424.511	95.19
424.733	93.19
424.956	91.19
425.178	94.19
425.401	91.19
425.623	99.19
425.846	88.19
426.068	102.19
426.291	89.19
426.513	75.19
426.735	86.19
426.958	82.19
427.18	107.19
427.402	118.19
427.625	148.19
427.847	121.19
428.069	96.19
428.292	90.19
428.514	82.19
428.736	79.19
428.958	91.19
429.181	82.19
429.403	91.19
429.625	80.19
429.847	99.19
430.069	95.19
430.292	87.19
430.514	91.19
430.736	88.19
430.958	95.19
431.18	80.19
431.402	77.19
431.624	75.19
431.846	89.19
432.068	84.19
432.29	74.19
432.512	77.19
432.734	83.19
432.956	89.19
433.178	96.19
433.4	91.19
433.622	86.19
433.844	89.19
434.066	103.19
434.287	94.19
434.509	97.19
434.731	94.19
434.953	91.19
435.175	103.19
435.397	89.19
435.618	85.19
435.84	99.19
436.062	112.19
436.284	108.19
436.505	103.19
436.727	100.19
436.949	101.19
437.17	101.19
437.392	79.19
437.614	89.19
437.835	102.19
438.057	107.19
438.278	107.19
438.5	110.19
438.721	114.19
438.943	102.19
439.165	93.19
439.386	94.19
439.608	95.19
439.829	107.19
440.05	114.19
440.272	128.19
440.493	111.19
440.715	92.19
440.936	98.19
441.158	77.19
441.379	85.19
441.6	103.19
441.822	92.19
442.043	99.19
442.264	114.19
442.486	101.19
442.707	91.19
442.928	93.19
443.149	121.19
443.371	93.19
443.592	88.19
443.813	103.19
444.034	85.19
444.255	89.19
444.476	90.19
444.698	89.19
444.919	86.19
445.14	137.19
445.361	115.19
445.582	90.19
445.803	124.19
446.024	126.19
446.245	126.19
446.466	93.19
446.687	91.19
446.908	103.19
447.129	90.19
447.35	83.19
447.571	92.19
447.792	90.19
448.013	88.19
448.234	107.19
448.455	88.19
448.675	110.19
448.896	105.19
449.117	96.19
449.338	108.19
449.559	120.19
449.779	125.19
450	106.19
450.221	93.19
450.442	89.19
450.662	88.19
450.883	99.19
451.104	104.19
451.324	99.19
451.545	81.19
451.766	91.19
451.986	87.19
452.207	86.19
452.428	95.19
452.648	90.19
452.869	103.19
453.089	112.19
453.31	126.19
453.53	93.19
453.751	85.19
453.971	99.19
454.192	96.19
454.412	77.19
454.633	89.19
454.853	93.19
455.073	81.19
455.294	81.19
455.514	96.19
455.734	99.19
455.955	82.19
456.175	89.19
456.395	74.19
456.616	84.19
456.836	90.19
457.056	85.19
457.276	69.19
457.497	83.19
457.717	92.19
457.937	76.19
458.157	95.19
458.377	93.19
458.598	103.19
458.818	135.19
459.038	143.19
459.258	113.19
459.478	97.19
459.698	89.19
459.918	75.19
460.138	97.19
460.358	81.19
460.578	91.19
460.798	90.19
461.018	101.19
461.238	83.19
461.458	77.19
461.678	83.19
461.898	84.19
462.118	100.19
462.338	88.19
462.558	89.19
462.777	93.19
462.997	94.19
463.217	97.19
463.437	73.19
463.657	78.19
463.876	80.19
464.096	99.19
464.316	90.19
464.536	96.19
464.755	98.19
464.975	102.19
465.195	130.19
465.414	144.19
465.634	85.19
465.854	85.19
466.073	100.19
466.293	85.19
466.512	89.19
466.732	86.19
466.951	86.19
467.171	92.19
467.391	94.19
467.61	107.19
467.829	97.19
468.049	89.19
468.268	88.19
468.488	95.19
468.707	67.19
468.927	90.19
469.146	75.19
469.365	84.19
469.585	87.19
469.804	101.19
470.023	95.19
470.243	94.19
470.462	98.19
470.681	102.19
470.901	107.19
471.12	87.19
471.339	81.19
471.558	91.19
471.777	85.19
471.997	100.19
472.216	106.19
472.435	110.19
472.654	110.19
472.873	93.19
473.092	100.19
473.311	94.19
473.53	82.19
473.749	98.19
473.968	107.19
474.187	87.19
474.406	99.19
474.625	88.19
474.844	97.19
475.063	85.19
475.282	81.19
475.501	81.19
475.72	98.19
475.939	81.19
476.158	75.19
476.377	95.19
476.596	84.19
476.814	81.19
477.033	90.19
477.252	88.19
477.471	85.19
477.69	63.19
477.908	100.19
478.127	95.19
478.346	77.19
478.564	92.19
478.783	95.19
479.002	77.19
479.22	76.19
479.439	99.19
479.658	81.19
479.876	86.19
480.095	92.19
480.313	94.19
480.532	91.19
480.751	88.19
480.969	89.19
481.188	115.19
481.406	118.19
481.624	73.19
481.843	94.19
482.061	94.19
482.28	90.19
482.498	95.19
482.717	90.19
482.935	94.19
483.153	104.19
483.372	103.19
483.59	96.19
483.808	79.19
484.027	96.19
484.245	95.19
484.463	80.19
484.681	90.19
484.9	94.19
485.118	86.19
485.336	92.19
485.554	93.19
485.772	103.19
485.99	102.19
486.209	108.19
486.427	97.19
486.645	90.19
486.863	121.19
487.081	101.19
487.299	95.19
487.517	100.19
487.735	97.19
487.953	109.19
488.171	98.19
488.389	92.19
488.607	97.19
488.825	78.19
489.043	83.19
489.261	75.19
489.479	88.19
489.696	89.19
489.914	82.19
490.132	93.19
490.35	90.19
490.568	98.19
490.786	93.19
491.003	96.19
491.221	75.19
491.439	110.19
491.657	93.19
491.874	99.19
492.092	97.19
492.31	99.19
492.527	92.19
492.745	81.19
492.963	101.19
493.18	86.19
493.398	88.19
493.615	118.19
493.833	94.19
494.05	83.19
494.268	89.19
494.485	88.19
494.703	99.19
494.92	101.19
495.138	90.19
495.355	87.19
495.573	85.19
495.79	91.19
496.008	103.19
496.225	96.19
496.442	94.19
496.66	84.19
496.877	89.19
497.094	83.19
497.312	93.19
497.529	84.19
497.746	93.19
497.963	82.19
498.181	84.19
498.398	113.19
498.615	103.19
498.832	93.19
499.049	90.19
499.267	92.19
499.484	103.19
499.701	111.19
499.918	86.19
500.135	95.19
500.352	83.19
500.569	75.19
500.786	88.19
501.003	103.19
501.22	85.19
501.437	99.19
501.654	92.19
501.871	98.19
502.088	99.19
502.305	100.19
502.522	86.19
502.739	88.19
502.956	94.19
503.172	97.19
503.389	103.19
503.606	96.19
503.823	95.19
504.04	97.19
504.256	72.19
504.473	85.19
504.69	102.19
504.907	99.19
505.123	106.19
505.34	96.19
505.557	81.19
505.773	86.19
505.99	74.19
506.207	77.19
506.423	79.19
506.64	87.19
506.856	95.19
507.073	91.19
507.289	85.19
507.506	96.19
507.722	98.19
507.939	106.19
508.155	97.19
508.372	101.19
508.588	98.19
508.805	107.19
509.021	110.19
509.238	104.19
509.454	83.19
509.67	89.19
509.887	119.19
510.103	127.19
510.319	205.19
510.536	677.19
510.752	2091.19
510.968	590.19
511.184	138.19
511.401	110.19
511.617	103.19
511.833	109.19
512.049	92.19
512.265	87.19
512.481	94.19
512.698	101.19
512.914	94.19
513.13	95.19
513.346	93.19
513.562	99.19
513.778	105.19
513.994	98.19
514.21	111.19
514.426	114.19
514.642	126.19
514.858	124.19
515.074	157.19
515.29	370.19
515.506	1179.19
