Data from Uncirc_1999_H10_HRD10591_00055.txt Node
Date: Wed Jan 03 11:22:16 EST 2024
User: Yrep
Spectrometer: HR+D1059
Trigger mode: 1
Integration Time (sec): 1.000000E-1
Scans to average: 1
Electric dark correction enabled: true
Nonlinearity correction enabled: false
Boxcar width: 0
XAxis mode: Wavelengths
Number of Pixels in Spectrum: 2048
>>>>>Begin Spectral Data<<<<<
223.165	-2.56
223.4	-2.56
223.635	-2.56
223.869	-14.56
224.104	-16.56
224.338	-10.56
224.573	-20.56
224.808	-22.56
225.042	-8.56
225.277	-6.56
225.511	6.44
225.746	-9.56
225.98	-2.56
226.215	15.44
226.449	20.44
226.683	9.44
226.918	30.44
227.152	32.44
227.387	32.44
227.621	28.44
227.856	39.44
228.09	44.44
228.324	50.44
228.559	60.44
228.793	57.44
229.027	56.44
229.262	71.44
229.496	52.44
229.73	72.44
229.964	82.44
230.199	75.44
230.433	84.44
230.667	79.44
230.901	79.44
231.136	95.44
231.37	83.44
231.604	81.44
231.838	86.44
232.072	93.44
232.306	82.44
232.541	95.44
232.775	90.44
233.009	75.44
233.243	80.44
233.477	94.44
233.711	76.44
233.945	80.44
234.179	88.44
234.413	82.44
234.647	70.44
234.881	96.44
235.115	83.44
235.349	81.44
235.583	86.44
235.817	80.44
236.051	91.44
236.285	84.44
236.519	80.44
236.753	81.44
236.987	77.44
237.221	76.44
237.455	86.44
237.689	76.44
237.922	74.44
238.156	83.44
238.39	70.44
238.624	75.44
238.858	79.44
239.091	92.44
239.325	81.44
239.559	95.44
239.793	83.44
240.027	84.44
240.26	95.44
240.494	88.44
240.728	69.44
240.961	86.44
241.195	86.44
241.429	72.44
241.662	83.44
241.896	65.44
242.13	87.44
242.363	82.44
242.597	79.44
242.83	74.44
243.064	71.44
243.298	64.44
243.531	82.44
243.765	66.44
243.998	75.44
244.232	73.44
244.465	76.44
244.699	73.44
244.932	66.44
245.166	88.44
245.399	78.44
245.633	81.44
245.866	80.44
246.099	85.44
246.333	87.44
246.566	79.44
246.8	82.44
247.033	93.44
247.266	71.44
247.5	87.44
247.733	98.44
247.966	92.44
248.2	100.44
248.433	89.44
248.666	71.44
248.899	84.44
249.133	89.44
249.366	94.44
249.599	91.44
249.832	78.44
250.066	76.44
250.299	87.44
250.532	88.44
250.765	79.44
250.998	73.44
251.231	88.44
251.465	76.44
251.698	75.44
251.931	82.44
252.164	72.44
252.397	74.44
252.63	82.44
252.863	73.44
253.096	74.44
253.329	86.44
253.562	83.44
253.795	84.44
254.028	90.44
254.261	77.44
254.494	83.44
254.727	91.44
254.96	72.44
255.193	81.44
255.426	73.44
255.659	91.44
255.892	83.44
256.124	86.44
256.357	72.44
256.59	88.44
256.823	89.44
257.056	80.44
257.289	87.44
257.521	76.44
257.754	87.44
257.987	89.44
258.22	63.44
258.452	91.44
258.685	89.44
258.918	72.44
259.151	72.44
259.383	86.44
259.616	96.44
259.849	72.44
260.081	82.44
260.314	90.44
260.547	89.44
260.779	89.44
261.012	82.44
261.244	99.44
261.477	89.44
261.71	89.44
261.942	111.44
262.175	102.44
262.407	94.44
262.64	83.44
262.872	76.44
263.105	86.44
263.337	87.44
263.57	78.44
263.802	91.44
264.035	76.44
264.267	70.44
264.499	88.44
264.732	78.44
264.964	97.44
265.197	72.44
265.429	83.44
265.661	101.44
265.894	74.44
266.126	68.44
266.358	80.44
266.591	64.44
266.823	84.44
267.055	82.44
267.287	82.44
267.52	92.44
267.752	88.44
267.984	80.44
268.216	89.44
268.448	94.44
268.681	90.44
268.913	89.44
269.145	92.44
269.377	104.44
269.609	74.44
269.841	86.44
270.073	77.44
270.306	83.44
270.538	85.44
270.77	77.44
271.002	83.44
271.234	84.44
271.466	74.44
271.698	73.44
271.93	84.44
272.162	89.44
272.394	77.44
272.626	84.44
272.858	90.44
273.09	88.44
273.322	87.44
273.553	79.44
273.785	74.44
274.017	81.44
274.249	85.44
274.481	83.44
274.713	82.44
274.945	90.44
275.176	92.44
275.408	86.44
275.64	81.44
275.872	84.44
276.104	100.44
276.335	77.44
276.567	100.44
276.799	98.44
277.031	96.44
277.262	90.44
277.494	91.44
277.726	103.44
277.957	90.44
278.189	87.44
278.421	79.44
278.652	92.44
278.884	101.44
279.115	79.44
279.347	88.44
279.579	82.44
279.81	90.44
280.042	89.44
280.273	88.44
280.505	93.44
280.736	92.44
280.968	87.44
281.199	93.44
281.431	68.44
281.662	82.44
281.894	87.44
282.125	105.44
282.356	118.44
282.588	123.44
282.819	105.44
283.051	79.44
283.282	96.44
283.513	95.44
283.745	91.44
283.976	82.44
284.207	80.44
284.439	85.44
284.67	99.44
284.901	90.44
285.132	87.44
285.364	102.44
285.595	78.44
285.826	76.44
286.057	97.44
286.288	80.44
286.52	81.44
286.751	96.44
286.982	93.44
287.213	94.44
287.444	91.44
287.675	95.44
287.906	90.44
288.138	92.44
288.369	92.44
288.6	88.44
288.831	96.44
289.062	87.44
289.293	92.44
289.524	103.44
289.755	88.44
289.986	83.44
290.217	78.44
290.448	83.44
290.679	90.44
290.91	93.44
291.141	79.44
291.371	75.44
291.602	91.44
291.833	75.44
292.064	89.44
292.295	99.44
292.526	87.44
292.757	94.44
292.987	86.44
293.218	84.44
293.449	85.44
293.68	108.44
293.91	91.44
294.141	88.44
294.372	92.44
294.603	90.44
294.833	77.44
295.064	85.44
295.295	72.44
295.525	95.44
295.756	96.44
295.987	111.44
296.217	135.44
296.448	116.44
296.679	96.44
296.909	88.44
297.14	79.44
297.37	90.44
297.601	85.44
297.831	89.44
298.062	78.44
298.292	96.44
298.523	87.44
298.753	90.44
298.984	91.44
299.214	78.44
299.445	88.44
299.675	102.44
299.905	91.44
300.136	86.44
300.366	94.44
300.597	90.44
300.827	90.44
301.057	102.44
301.288	105.44
301.518	86.44
301.748	85.44
301.979	103.44
302.209	99.44
302.439	94.44
302.669	91.44
302.9	103.44
303.13	95.44
303.36	98.44
303.59	95.44
303.82	104.44
304.051	97.44
304.281	93.44
304.511	93.44
304.741	91.44
304.971	96.44
305.201	88.44
305.431	82.44
305.661	87.44
305.891	84.44
306.121	95.44
306.352	90.44
306.582	109.44
306.812	103.44
307.042	106.44
307.272	90.44
307.502	89.44
307.731	99.44
307.961	101.44
308.191	83.44
308.421	106.44
308.651	88.44
308.881	98.44
309.111	78.44
309.341	98.44
309.571	80.44
309.8	93.44
310.03	92.44
310.26	91.44
310.49	97.44
310.72	92.44
310.949	107.44
311.179	91.44
311.409	84.44
311.639	98.44
311.868	82.44
312.098	87.44
312.328	98.44
312.557	106.44
312.787	111.44
313.017	95.44
313.246	90.44
313.476	90.44
313.706	101.44
313.935	90.44
314.165	91.44
314.394	109.44
314.624	102.44
314.853	101.44
315.083	95.44
315.312	93.44
315.542	94.44
315.771	92.44
316.001	93.44
316.23	98.44
316.46	96.44
316.689	90.44
316.919	90.44
317.148	98.44
317.377	100.44
317.607	116.44
317.836	95.44
318.065	87.44
318.295	100.44
318.524	106.44
318.753	94.44
318.983	88.44
319.212	104.44
319.441	107.44
319.67	97.44
319.9	82.44
320.129	76.44
320.358	103.44
320.587	101.44
320.816	96.44
321.046	106.44
321.275	109.44
321.504	104.44
321.733	93.44
321.962	110.44
322.191	90.44
322.42	102.44
322.649	105.44
322.878	116.44
323.108	125.44
323.337	125.44
323.566	141.44
323.795	154.44
324.024	209.44
324.253	394.44
324.482	870.44
324.71	1769.44
324.939	2314.44
325.168	818.44
325.397	251.44
325.626	157.44
325.855	131.44
326.084	118.44
326.313	139.44
326.542	165.44
326.77	239.44
326.999	474.44
327.228	1036.44
327.457	1818.44
327.686	1412.44
327.914	377.44
328.143	195.44
328.372	144.44
328.6	110.44
328.829	120.44
329.058	111.44
329.287	120.44
329.515	107.44
329.744	97.44
329.972	100.44
330.201	103.44
330.43	107.44
330.658	118.44
330.887	124.44
331.115	118.44
331.344	112.44
331.572	92.44
331.801	111.44
332.03	101.44
332.258	102.44
332.486	112.44
332.715	108.44
332.943	100.44
333.172	91.44
333.4	105.44
333.629	116.44
333.857	85.44
334.085	111.44
334.314	107.44
334.542	100.44
334.771	106.44
334.999	95.44
335.227	91.44
335.455	90.44
335.684	96.44
335.912	95.44
336.14	84.44
336.369	99.44
336.597	104.44
336.825	112.44
337.053	85.44
337.281	88.44
337.51	96.44
337.738	88.44
337.966	93.44
338.194	99.44
338.422	100.44
338.65	94.44
338.878	91.44
339.106	92.44
339.334	81.44
339.562	88.44
339.79	90.44
340.018	71.44
340.246	106.44
340.474	97.44
340.702	110.44
340.93	99.44
341.158	86.44
341.386	86.44
341.614	77.44
341.842	90.44
342.07	83.44
342.298	98.44
342.526	102.44
342.754	86.44
342.981	94.44
343.209	89.44
343.437	108.44
343.665	96.44
343.893	89.44
344.12	92.44
344.348	90.44
344.576	97.44
344.804	105.44
345.031	90.44
345.259	93.44
345.487	94.44
345.714	98.44
345.942	95.44
346.17	87.44
346.397	79.44
346.625	98.44
346.853	99.44
347.08	89.44
347.308	90.44
347.535	105.44
347.763	100.44
347.99	96.44
348.218	97.44
348.445	104.44
348.673	92.44
348.9	98.44
349.128	113.44
349.355	104.44
349.583	96.44
349.81	81.44
350.037	111.44
350.265	100.44
350.492	100.44
350.72	97.44
350.947	86.44
351.174	105.44
351.402	100.44
351.629	103.44
351.856	96.44
352.083	108.44
352.311	101.44
352.538	100.44
352.765	99.44
352.992	112.44
353.22	117.44
353.447	99.44
353.674	108.44
353.901	86.44
354.128	84.44
354.355	104.44
354.583	96.44
354.81	103.44
355.037	120.44
355.264	96.44
355.491	87.44
355.718	90.44
355.945	115.44
356.172	104.44
356.399	86.44
356.626	100.44
356.853	93.44
357.08	95.44
357.307	96.44
357.534	91.44
357.761	100.44
357.988	92.44
358.215	100.44
358.441	115.44
358.668	105.44
358.895	89.44
359.122	88.44
359.349	88.44
359.576	82.44
359.802	110.44
360.029	113.44
360.256	97.44
360.483	115.44
360.709	90.44
360.936	95.44
361.163	74.44
361.39	88.44
361.616	93.44
361.843	91.44
362.07	85.44
362.296	89.44
362.523	89.44
362.749	90.44
362.976	94.44
363.203	92.44
363.429	93.44
363.656	104.44
363.882	89.44
364.109	90.44
364.335	101.44
364.562	99.44
364.788	94.44
365.015	86.44
365.241	94.44
365.468	99.44
365.694	98.44
365.92	104.44
366.147	88.44
366.373	96.44
366.599	87.44
366.826	82.44
367.052	90.44
367.278	98.44
367.505	97.44
367.731	92.44
367.957	94.44
368.184	90.44
368.41	104.44
368.636	104.44
368.862	104.44
369.089	104.44
369.315	97.44
369.541	94.44
369.767	90.44
369.993	80.44
370.219	91.44
370.445	94.44
370.672	87.44
370.898	87.44
371.124	95.44
371.35	99.44
371.576	100.44
371.802	91.44
372.028	83.44
372.254	99.44
372.48	101.44
372.706	88.44
372.932	81.44
373.158	89.44
373.384	78.44
373.61	95.44
373.835	101.44
374.061	90.44
374.287	87.44
374.513	99.44
374.739	93.44
374.965	94.44
375.191	89.44
375.416	84.44
375.642	102.44
375.868	103.44
376.094	93.44
376.319	82.44
376.545	94.44
376.771	101.44
376.997	89.44
377.222	98.44
377.448	92.44
377.674	107.44
377.899	103.44
378.125	87.44
378.35	101.44
378.576	97.44
378.802	98.44
379.027	100.44
379.253	95.44
379.478	95.44
379.704	97.44
379.929	102.44
380.155	101.44
380.38	90.44
380.606	112.44
380.831	103.44
381.057	92.44
381.282	113.44
381.507	107.44
381.733	102.44
381.958	95.44
382.184	98.44
382.409	93.44
382.634	96.44
382.86	93.44
383.085	92.44
383.31	97.44
383.535	97.44
383.761	103.44
383.986	100.44
384.211	107.44
384.436	88.44
384.662	116.44
384.887	114.44
385.112	96.44
385.337	106.44
385.562	101.44
385.787	122.44
386.013	119.44
386.238	114.44
386.463	114.44
386.688	116.44
386.913	92.44
387.138	102.44
387.363	100.44
387.588	94.44
387.813	109.44
388.038	105.44
388.263	114.44
388.488	113.44
388.713	102.44
388.938	100.44
389.163	100.44
389.387	105.44
389.612	102.44
389.837	94.44
390.062	108.44
390.287	94.44
390.512	94.44
390.736	97.44
390.961	99.44
391.186	104.44
391.411	89.44
391.636	95.44
391.86	79.44
392.085	94.44
392.31	95.44
392.534	82.44
392.759	83.44
392.984	74.44
393.208	80.44
393.433	100.44
393.658	94.44
393.882	104.44
394.107	91.44
394.331	82.44
394.556	101.44
394.78	95.44
395.005	98.44
395.229	88.44
395.454	96.44
395.678	95.44
395.903	88.44
396.127	89.44
396.352	83.44
396.576	89.44
396.801	85.44
397.025	79.44
397.249	96.44
397.474	79.44
397.698	91.44
397.922	88.44
398.147	95.44
398.371	91.44
398.595	90.44
398.82	91.44
399.044	96.44
399.268	79.44
399.492	88.44
399.717	88.44
399.941	86.44
400.165	104.44
400.389	89.44
400.613	94.44
400.837	84.44
401.062	106.44
401.286	93.44
401.51	90.44
401.734	78.44
401.958	104.44
402.182	124.44
402.406	149.44
402.63	109.44
402.854	82.44
403.078	83.44
403.302	88.44
403.526	91.44
403.75	99.44
403.974	83.44
404.198	71.44
404.422	91.44
404.645	96.44
404.869	110.44
405.093	82.44
405.317	92.44
405.541	105.44
405.765	100.44
405.988	109.44
406.212	156.44
406.436	208.44
406.66	122.44
406.883	99.44
407.107	86.44
407.331	92.44
407.555	102.44
407.778	91.44
408.002	108.44
408.226	93.44
408.449	95.44
408.673	90.44
408.896	79.44
409.12	103.44
409.344	111.44
409.567	108.44
409.791	106.44
410.014	105.44
410.238	85.44
410.461	84.44
410.685	101.44
410.908	105.44
411.132	109.44
411.355	104.44
411.578	94.44
411.802	86.44
412.025	88.44
412.249	82.44
412.472	86.44
412.695	92.44
412.919	94.44
413.142	78.44
413.365	92.44
413.589	103.44
413.812	83.44
414.035	96.44
414.258	84.44
414.482	83.44
414.705	100.44
414.928	91.44
415.151	94.44
415.374	109.44
415.597	91.44
415.821	100.44
416.044	92.44
416.267	97.44
416.49	99.44
416.713	90.44
416.936	82.44
417.159	62.44
417.382	80.44
417.605	87.44
417.828	88.44
418.051	96.44
418.274	89.44
418.497	90.44
418.72	71.44
418.943	98.44
419.166	108.44
419.389	104.44
419.611	100.44
419.834	97.44
420.057	71.44
420.28	95.44
420.503	98.44
420.726	87.44
420.948	86.44
421.171	97.44
421.394	91.44
421.617	91.44
421.839	116.44
422.062	84.44
422.285	108.44
422.507	99.44
422.73	111.44
422.953	94.44
423.175	90.44
423.398	83.44
423.621	97.44
423.843	84.44
424.066	83.44
424.288	88.44
424.511	83.44
424.733	97.44
424.956	106.44
425.178	103.44
425.401	101.44
425.623	96.44
425.846	92.44
426.068	93.44
426.291	88.44
426.513	92.44
426.735	100.44
426.958	97.44
427.18	111.44
427.402	129.44
427.625	163.44
427.847	95.44
428.069	92.44
428.292	90.44
428.514	91.44
428.736	87.44
428.958	78.44
429.181	91.44
429.403	87.44
429.625	79.44
429.847	92.44
430.069	91.44
430.292	87.44
430.514	92.44
430.736	92.44
430.958	73.44
431.18	82.44
431.402	81.44
431.624	76.44
431.846	86.44
432.068	96.44
432.29	86.44
432.512	103.44
432.734	94.44
432.956	89.44
433.178	107.44
433.4	95.44
433.622	91.44
433.844	108.44
434.066	96.44
434.287	101.44
434.509	100.44
434.731	101.44
434.953	78.44
435.175	87.44
435.397	91.44
435.618	96.44
435.84	104.44
436.062	111.44
436.284	97.44
436.505	110.44
436.727	89.44
436.949	98.44
437.17	102.44
437.392	79.44
437.614	91.44
437.835	109.44
438.057	110.44
438.278	126.44
438.5	103.44
438.721	115.44
438.943	91.44
439.165	84.44
439.386	84.44
439.608	84.44
439.829	106.44
440.05	121.44
440.272	123.44
440.493	108.44
440.715	99.44
440.936	91.44
441.158	97.44
441.379	92.44
441.6	87.44
441.822	98.44
442.043	94.44
442.264	100.44
442.486	97.44
442.707	90.44
442.928	117.44
443.149	117.44
443.371	124.44
443.592	104.44
443.813	115.44
444.034	117.44
444.255	93.44
444.476	90.44
444.698	88.44
444.919	88.44
445.14	128.44
445.361	124.44
445.582	114.44
445.803	136.44
446.024	130.44
446.245	131.44
446.466	121.44
446.687	95.44
446.908	94.44
447.129	91.44
447.35	102.44
447.571	92.44
447.792	88.44
448.013	97.44
448.234	109.44
448.455	107.44
448.675	110.44
448.896	123.44
449.117	97.44
449.338	103.44
449.559	118.44
449.779	137.44
450	90.44
450.221	94.44
450.442	108.44
450.662	94.44
450.883	106.44
451.104	107.44
451.324	92.44
451.545	97.44
451.766	93.44
451.986	89.44
452.207	83.44
452.428	91.44
452.648	89.44
452.869	110.44
453.089	97.44
453.31	121.44
453.53	93.44
453.751	98.44
453.971	105.44
454.192	92.44
454.412	78.44
454.633	92.44
454.853	83.44
455.073	93.44
455.294	96.44
455.514	107.44
455.734	93.44
455.955	88.44
456.175	80.44
456.395	80.44
456.616	81.44
456.836	84.44
457.056	69.44
457.276	91.44
457.497	100.44
457.717	86.44
457.937	81.44
458.157	91.44
458.377	88.44
458.598	110.44
458.818	128.44
459.038	136.44
459.258	110.44
459.478	91.44
459.698	78.44
459.918	88.44
460.138	95.44
460.358	91.44
460.578	91.44
460.798	86.44
461.018	85.44
461.238	82.44
461.458	93.44
461.678	92.44
461.898	94.44
462.118	99.44
462.338	89.44
462.558	101.44
462.777	91.44
462.997	99.44
463.217	95.44
463.437	79.44
463.657	90.44
463.876	83.44
464.096	98.44
464.316	93.44
464.536	97.44
464.755	93.44
464.975	86.44
465.195	140.44
465.414	144.44
465.634	83.44
465.854	91.44
466.073	90.44
466.293	91.44
466.512	89.44
466.732	97.44
466.951	92.44
467.171	91.44
467.391	100.44
467.61	94.44
467.829	106.44
468.049	98.44
468.268	92.44
468.488	96.44
468.707	89.44
468.927	93.44
469.146	84.44
469.365	90.44
469.585	86.44
469.804	96.44
470.023	96.44
470.243	99.44
470.462	82.44
470.681	109.44
470.901	85.44
471.12	99.44
471.339	82.44
471.558	82.44
471.777	88.44
471.997	82.44
472.216	94.44
472.435	97.44
472.654	102.44
472.873	99.44
473.092	92.44
473.311	86.44
473.53	88.44
473.749	75.44
473.968	91.44
474.187	96.44
474.406	96.44
474.625	81.44
474.844	92.44
475.063	94.44
475.282	92.44
475.501	96.44
475.72	106.44
475.939	94.44
476.158	93.44
476.377	88.44
476.596	100.44
476.814	99.44
477.033	87.44
477.252	85.44
477.471	98.44
477.69	94.44
477.908	94.44
478.127	95.44
478.346	94.44
478.564	99.44
478.783	97.44
479.002	96.44
479.22	100.44
479.439	107.44
479.658	100.44
479.876	103.44
480.095	84.44
480.313	83.44
480.532	103.44
480.751	97.44
480.969	91.44
481.188	120.44
481.406	115.44
481.624	88.44
481.843	86.44
482.061	94.44
482.28	94.44
482.498	99.44
482.717	71.44
482.935	98.44
483.153	87.44
483.372	80.44
483.59	85.44
483.808	99.44
484.027	89.44
484.245	86.44
484.463	88.44
484.681	96.44
484.9	92.44
485.118	93.44
485.336	104.44
485.554	102.44
485.772	103.44
485.99	102.44
486.209	103.44
486.427	99.44
486.645	106.44
486.863	120.44
487.081	96.44
487.299	88.44
487.517	90.44
487.735	95.44
487.953	103.44
488.171	95.44
488.389	105.44
488.607	95.44
488.825	87.44
489.043	98.44
489.261	94.44
489.479	90.44
489.696	87.44
489.914	88.44
490.132	93.44
490.35	87.44
490.568	86.44
490.786	78.44
491.003	93.44
491.221	101.44
491.439	97.44
491.657	86.44
491.874	99.44
492.092	90.44
492.31	94.44
492.527	101.44
492.745	99.44
492.963	90.44
493.18	88.44
493.398	94.44
493.615	103.44
493.833	82.44
494.05	100.44
494.268	98.44
494.485	94.44
494.703	90.44
494.92	95.44
495.138	108.44
495.355	100.44
495.573	86.44
495.79	96.44
496.008	100.44
496.225	107.44
496.442	95.44
496.66	89.44
496.877	93.44
497.094	93.44
497.312	74.44
497.529	108.44
497.746	103.44
497.963	93.44
498.181	90.44
498.398	91.44
498.615	123.44
498.832	107.44
499.049	73.44
499.267	96.44
499.484	84.44
499.701	89.44
499.918	93.44
500.135	80.44
500.352	84.44
500.569	92.44
500.786	98.44
501.003	98.44
501.22	90.44
501.437	92.44
501.654	94.44
501.871	109.44
502.088	105.44
502.305	86.44
502.522	96.44
502.739	89.44
502.956	97.44
503.172	73.44
503.389	106.44
503.606	106.44
503.823	114.44
504.04	110.44
504.256	96.44
504.473	96.44
504.69	91.44
504.907	100.44
505.123	91.44
505.34	99.44
505.557	82.44
505.773	88.44
505.99	94.44
506.207	105.44
506.423	89.44
506.64	90.44
506.856	78.44
507.073	87.44
507.289	97.44
507.506	96.44
507.722	103.44
507.939	123.44
508.155	93.44
508.372	105.44
508.588	89.44
508.805	80.44
509.021	102.44
509.238	99.44
509.454	97.44
509.67	95.44
509.887	112.44
510.103	146.44
510.319	207.44
510.536	748.44
510.752	2237.44
510.968	604.44
511.184	159.44
511.401	107.44
511.617	101.44
511.833	101.44
512.049	97.44
512.265	95.44
512.481	96.44
512.698	99.44
512.914	98.44
513.13	96.44
513.346	100.44
513.562	100.44
513.778	91.44
513.994	108.44
514.21	107.44
514.426	122.44
514.642	118.44
514.858	113.44
515.074	144.44
