Data from Uncirc_1999_H10_HRD10591_00043.txt Node
Date: Wed Jan 03 11:22:13 EST 2024
User: Yrep
Spectrometer: HR+D1059
Trigger mode: 1
Integration Time (sec): 1.000000E-1
Scans to average: 1
Electric dark correction enabled: true
Nonlinearity correction enabled: false
Boxcar width: 0
XAxis mode: Wavelengths
Number of Pixels in Spectrum: 2048
>>>>>Begin Spectral Data<<<<<
223.165	-31
223.4	-31
223.635	-31
223.869	-23
224.104	-15
224.338	-2
224.573	-16
224.808	-22
225.042	-14
225.277	-2
225.511	12
225.746	17
225.98	8
226.215	-4
226.449	11
226.683	12
226.918	28
227.152	41
227.387	39
227.621	44
227.856	47
228.09	43
228.324	55
228.559	62
228.793	56
229.027	64
229.262	59
229.496	72
229.73	85
229.964	86
230.199	73
230.433	86
230.667	80
230.901	73
231.136	78
231.37	93
231.604	76
231.838	84
232.072	79
232.306	79
232.541	77
232.775	96
233.009	70
233.243	76
233.477	87
233.711	81
233.945	81
234.179	85
234.413	74
234.647	76
234.881	80
235.115	92
235.349	75
235.583	83
235.817	75
236.051	72
236.285	78
236.519	78
236.753	76
236.987	56
237.221	80
237.455	83
237.689	88
237.922	79
238.156	73
238.39	75
238.624	62
238.858	69
239.091	79
239.325	80
239.559	85
239.793	85
240.027	85
240.26	85
240.494	74
240.728	72
240.961	73
241.195	68
241.429	71
241.662	83
241.896	78
242.13	69
242.363	83
242.597	64
242.83	83
243.064	75
243.298	85
243.531	63
243.765	71
243.998	89
244.232	81
244.465	84
244.699	74
244.932	87
245.166	82
245.399	73
245.633	73
245.866	88
246.099	83
246.333	84
246.566	80
246.8	71
247.033	78
247.266	87
247.5	83
247.733	86
247.966	85
248.2	72
248.433	76
248.666	76
248.899	80
249.133	87
249.366	92
249.599	85
249.832	84
250.066	85
250.299	71
250.532	87
250.765	77
250.998	76
251.231	73
251.465	74
251.698	83
251.931	78
252.164	89
252.397	85
252.63	83
252.863	74
253.096	79
253.329	91
253.562	68
253.795	95
254.028	77
254.261	88
254.494	82
254.727	85
254.96	85
255.193	78
255.426	84
255.659	71
255.892	79
256.124	84
256.357	85
256.59	78
256.823	76
257.056	67
257.289	82
257.521	62
257.754	62
257.987	83
258.22	100
258.452	83
258.685	81
258.918	83
259.151	79
259.383	81
259.616	72
259.849	71
260.081	88
260.314	79
260.547	84
260.779	80
261.012	80
261.244	66
261.477	75
261.71	97
261.942	106
262.175	98
262.407	100
262.64	98
262.872	85
263.105	76
263.337	76
263.57	79
263.802	100
264.035	75
264.267	73
264.499	77
264.732	94
264.964	83
265.197	75
265.429	101
265.661	57
265.894	80
266.126	84
266.358	90
266.591	89
266.823	82
267.055	72
267.287	87
267.52	99
267.752	85
267.984	70
268.216	96
268.448	79
268.681	79
268.913	87
269.145	96
269.377	61
269.609	80
269.841	75
270.073	73
270.306	88
270.538	71
270.77	83
271.002	95
271.234	86
271.466	82
271.698	86
271.93	76
272.162	77
272.394	94
272.626	91
272.858	80
273.09	79
273.322	85
273.553	86
273.785	77
274.017	86
274.249	77
274.481	96
274.713	90
274.945	81
275.176	84
275.408	81
275.64	73
275.872	90
276.104	89
276.335	93
276.567	92
276.799	95
277.031	95
277.262	85
277.494	80
277.726	70
277.957	73
278.189	88
278.421	98
278.652	87
278.884	96
279.115	81
279.347	91
279.579	96
279.81	79
280.042	87
280.273	83
280.505	90
280.736	83
280.968	86
281.199	81
281.431	73
281.662	97
281.894	95
282.125	108
282.356	103
282.588	115
282.819	110
283.051	89
283.282	105
283.513	83
283.745	92
283.976	80
284.207	71
284.439	91
284.67	83
284.901	78
285.132	89
285.364	89
285.595	76
285.826	77
286.057	89
286.288	79
286.52	83
286.751	85
286.982	89
287.213	78
287.444	76
287.675	83
287.906	87
288.138	97
288.369	99
288.6	97
288.831	93
289.062	96
289.293	90
289.524	92
289.755	80
289.986	95
290.217	84
290.448	100
290.679	96
290.91	87
291.141	89
291.371	85
291.602	83
291.833	84
292.064	90
292.295	81
292.526	99
292.757	93
292.987	84
293.218	86
293.449	85
293.68	84
293.91	88
294.141	111
294.372	79
294.603	80
294.833	78
295.064	84
295.295	96
295.525	84
295.756	107
295.987	105
296.217	115
296.448	129
296.679	82
296.909	78
297.14	91
297.37	94
297.601	90
297.831	86
298.062	83
298.292	100
298.523	92
298.753	94
298.984	82
299.214	92
299.445	87
299.675	88
299.905	95
300.136	77
300.366	81
300.597	96
300.827	94
301.057	90
301.288	106
301.518	94
301.748	87
301.979	91
302.209	83
302.439	95
302.669	88
302.9	89
303.13	94
303.36	104
303.59	92
303.82	111
304.051	91
304.281	104
304.511	86
304.741	95
304.971	81
305.201	86
305.431	82
305.661	80
305.891	88
306.121	96
306.352	102
306.582	109
306.812	93
307.042	80
307.272	96
307.502	86
307.731	84
307.961	74
308.191	72
308.421	94
308.651	100
308.881	97
309.111	94
309.341	86
309.571	87
309.8	87
310.03	91
310.26	94
310.49	87
310.72	91
310.949	100
311.179	106
311.409	91
311.639	97
311.868	87
312.098	77
312.328	87
312.557	94
312.787	95
313.017	102
313.246	96
313.476	97
313.706	100
313.935	87
314.165	96
314.394	107
314.624	99
314.853	103
315.083	81
315.312	101
315.542	94
315.771	91
316.001	82
316.23	90
316.46	84
316.689	83
316.919	104
317.148	96
317.377	95
317.607	83
317.836	96
318.065	92
318.295	86
318.524	90
318.753	110
318.983	94
319.212	87
319.441	97
319.67	105
319.9	88
320.129	98
320.358	87
320.587	101
320.816	113
321.046	103
321.275	105
321.504	104
321.733	94
321.962	86
322.191	93
322.42	102
322.649	98
322.878	108
323.108	118
323.337	111
323.566	121
323.795	149
324.024	199
324.253	405
324.482	833
324.71	1712
324.939	2238
325.168	812
325.397	242
325.626	157
325.855	110
326.084	123
326.313	125
326.542	159
326.77	246
326.999	451
327.228	992
327.457	1739
327.686	1387
327.914	363
328.143	183
328.372	138
328.6	115
328.829	102
329.058	119
329.287	110
329.515	102
329.744	96
329.972	88
330.201	111
330.43	111
330.658	103
330.887	122
331.115	122
331.344	105
331.572	94
331.801	89
332.03	86
332.258	92
332.486	87
332.715	94
332.943	95
333.172	93
333.4	87
333.629	111
333.857	112
334.085	95
334.314	97
334.542	102
334.771	103
334.999	97
335.227	94
335.455	97
335.684	102
335.912	79
336.14	102
336.369	99
336.597	105
336.825	105
337.053	94
337.281	87
337.51	90
337.738	89
337.966	95
338.194	92
338.422	85
338.65	93
338.878	85
339.106	88
339.334	85
339.562	95
339.79	90
340.018	79
340.246	89
340.474	92
340.702	101
340.93	85
341.158	99
341.386	89
341.614	81
341.842	92
342.07	93
342.298	96
342.526	92
342.754	73
342.981	85
343.209	73
343.437	99
343.665	92
343.893	85
344.12	76
344.348	86
344.576	94
344.804	94
345.031	105
345.259	98
345.487	82
345.714	75
345.942	95
346.17	90
346.397	101
346.625	96
346.853	95
347.08	95
347.308	88
347.535	95
347.763	106
347.99	95
348.218	97
348.445	98
348.673	101
348.9	87
349.128	93
349.355	111
349.583	81
349.81	104
350.037	95
350.265	94
350.492	96
350.72	90
350.947	110
351.174	96
351.402	111
351.629	103
351.856	102
352.083	95
352.311	88
352.538	95
352.765	118
352.992	104
353.22	107
353.447	104
353.674	91
353.901	94
354.128	87
354.355	87
354.583	101
354.81	101
355.037	97
355.264	93
355.491	99
355.718	92
355.945	93
356.172	87
356.399	87
356.626	99
356.853	80
357.08	96
357.307	85
357.534	88
357.761	95
357.988	92
358.215	87
358.441	81
358.668	97
358.895	89
359.122	95
359.349	103
359.576	85
359.802	91
360.029	92
360.256	92
360.483	95
360.709	84
360.936	83
361.163	85
361.39	92
361.616	93
361.843	88
362.07	92
362.296	100
362.523	90
362.749	88
362.976	79
363.203	84
363.429	80
363.656	85
363.882	87
364.109	96
364.335	87
364.562	88
364.788	72
365.015	90
365.241	101
365.468	101
365.694	109
365.92	95
366.147	85
366.373	89
366.599	89
366.826	86
367.052	96
367.278	85
367.505	80
367.731	89
367.957	86
368.184	95
368.41	87
368.636	97
368.862	97
369.089	105
369.315	107
369.541	77
369.767	83
369.993	87
370.219	77
370.445	88
370.672	84
370.898	86
371.124	94
371.35	72
371.576	88
371.802	79
372.028	88
372.254	79
372.48	91
372.706	102
372.932	98
373.158	81
373.384	94
373.61	93
373.835	87
374.061	87
374.287	70
374.513	87
374.739	77
374.965	91
375.191	84
375.416	84
375.642	95
375.868	81
376.094	91
376.319	101
376.545	87
376.771	78
376.997	101
377.222	97
377.448	102
377.674	97
377.899	102
378.125	92
378.35	96
378.576	93
378.802	80
379.027	109
379.253	103
379.478	96
379.704	87
379.929	84
380.155	87
380.38	91
380.606	89
380.831	95
381.057	100
381.282	93
381.507	92
381.733	103
381.958	102
382.184	102
382.409	113
382.634	105
382.86	98
383.085	96
383.31	99
383.535	103
383.761	109
383.986	98
384.211	110
384.436	117
384.662	106
384.887	104
385.112	95
385.337	101
385.562	108
385.787	107
386.013	118
386.238	122
386.463	113
386.688	119
386.913	108
387.138	112
387.363	97
387.588	97
387.813	110
388.038	117
388.263	139
388.488	94
388.713	105
388.938	90
389.163	106
389.387	93
389.612	96
389.837	82
390.062	95
390.287	87
390.512	88
390.736	82
390.961	87
391.186	88
391.411	97
391.636	104
391.86	84
392.085	94
392.31	92
392.534	92
392.759	93
392.984	87
393.208	105
393.433	82
393.658	81
393.882	95
394.107	97
394.331	79
394.556	101
394.78	94
395.005	88
395.229	69
395.454	85
395.678	79
395.903	93
396.127	91
396.352	85
396.576	78
396.801	87
397.025	98
397.249	81
397.474	89
397.698	87
397.922	80
398.147	87
398.371	88
398.595	78
398.82	76
399.044	102
399.268	86
399.492	90
399.717	91
399.941	87
400.165	94
400.389	103
400.613	95
400.837	90
401.062	83
401.286	79
401.51	85
401.734	78
401.958	95
402.182	115
402.406	153
402.63	116
402.854	92
403.078	94
403.302	87
403.526	89
403.75	91
403.974	104
404.198	88
404.422	84
404.645	88
404.869	79
405.093	99
405.317	94
405.541	95
405.765	75
405.988	121
406.212	160
406.436	203
406.66	113
406.883	102
407.107	88
407.331	97
407.555	102
407.778	89
408.002	99
408.226	92
408.449	93
408.673	82
408.896	85
409.12	99
409.344	98
409.567	97
409.791	92
410.014	89
410.238	97
410.461	85
410.685	90
410.908	101
411.132	105
411.355	99
411.578	97
411.802	87
412.025	78
412.249	86
412.472	75
412.695	103
412.919	84
413.142	87
413.365	80
413.589	98
413.812	88
414.035	83
414.258	92
414.482	71
414.705	89
414.928	94
415.151	89
415.374	98
415.597	93
415.821	88
416.044	87
416.267	91
416.49	80
416.713	78
416.936	73
417.159	84
417.382	71
417.605	83
417.828	89
418.051	93
418.274	84
418.497	75
418.72	82
418.943	89
419.166	98
419.389	96
419.611	89
419.834	90
420.057	95
420.28	93
420.503	82
420.726	93
420.948	91
421.171	93
421.394	90
421.617	91
421.839	87
422.062	91
422.285	94
422.507	95
422.73	94
422.953	79
423.175	93
423.398	85
423.621	89
423.843	89
424.066	86
424.288	88
424.511	97
424.733	98
424.956	101
425.178	105
425.401	100
425.623	108
425.846	96
426.068	93
426.291	106
426.513	79
426.735	91
426.958	107
427.18	103
427.402	122
427.625	166
427.847	130
428.069	94
428.292	87
428.514	86
428.736	81
428.958	83
429.181	79
429.403	68
429.625	87
429.847	89
430.069	91
430.292	105
430.514	73
430.736	95
430.958	95
431.18	93
431.402	83
431.624	87
431.846	69
432.068	88
432.29	91
432.512	93
432.734	73
432.956	99
433.178	93
433.4	99
433.622	94
433.844	92
434.066	95
434.287	89
434.509	87
434.731	92
434.953	88
435.175	99
435.397	88
435.618	89
435.84	101
436.062	101
436.284	94
436.505	98
436.727	115
436.949	103
437.17	87
437.392	83
437.614	92
437.835	101
438.057	103
438.278	115
438.5	109
438.721	123
438.943	104
439.165	79
439.386	88
439.608	102
439.829	92
440.05	103
440.272	133
440.493	111
440.715	88
440.936	95
441.158	85
441.379	84
441.6	81
441.822	91
442.043	88
442.264	102
442.486	103
442.707	93
442.928	103
443.149	109
443.371	113
443.592	98
443.813	103
444.034	102
444.255	73
444.476	84
444.698	83
444.919	108
445.14	138
445.361	112
445.582	109
445.803	117
446.024	127
446.245	125
446.466	111
446.687	83
446.908	98
447.129	92
447.35	85
447.571	83
447.792	97
448.013	91
448.234	94
448.455	100
448.675	116
448.896	115
449.117	104
449.338	92
449.559	117
449.779	135
450	98
450.221	83
450.442	75
450.662	84
450.883	112
451.104	95
451.324	96
451.545	86
451.766	86
451.986	92
452.207	102
452.428	96
452.648	94
452.869	112
453.089	118
453.31	103
453.53	65
453.751	91
453.971	100
454.192	105
454.412	86
454.633	87
454.853	77
455.073	79
455.294	73
455.514	78
455.734	85
455.955	90
456.175	91
456.395	78
456.616	85
456.836	100
457.056	92
457.276	82
457.497	73
457.717	77
457.937	86
458.157	77
458.377	85
458.598	101
458.818	134
459.038	143
459.258	100
459.478	81
459.698	84
459.918	87
460.138	81
460.358	94
460.578	92
460.798	87
461.018	85
461.238	97
461.458	84
461.678	86
461.898	94
462.118	92
462.338	101
462.558	87
462.777	79
462.997	80
463.217	85
463.437	79
463.657	75
463.876	99
464.096	96
464.316	92
464.536	83
464.755	85
464.975	94
465.195	132
465.414	137
465.634	96
465.854	92
466.073	94
466.293	88
466.512	92
466.732	76
466.951	86
467.171	110
467.391	83
467.61	106
467.829	97
468.049	76
468.268	95
468.488	84
468.707	83
468.927	63
469.146	97
469.365	100
469.585	89
469.804	110
470.023	91
470.243	94
470.462	93
470.681	98
470.901	77
471.12	87
471.339	89
471.558	91
471.777	79
471.997	94
472.216	87
472.435	99
472.654	91
472.873	85
473.092	92
473.311	89
473.53	84
473.749	80
473.968	97
474.187	93
474.406	109
474.625	81
474.844	79
475.063	93
475.282	91
475.501	100
475.72	99
475.939	88
476.158	81
476.377	91
476.596	83
476.814	93
477.033	98
477.252	81
477.471	84
477.69	76
477.908	76
478.127	93
478.346	106
478.564	87
478.783	95
479.002	104
479.22	86
479.439	92
479.658	87
479.876	99
480.095	97
480.313	76
480.532	78
480.751	80
480.969	108
481.188	134
481.406	125
481.624	83
481.843	85
482.061	103
482.28	83
482.498	86
482.717	82
482.935	88
483.153	83
483.372	80
483.59	85
483.808	82
484.027	89
484.245	73
484.463	91
484.681	101
484.9	90
485.118	93
485.336	94
485.554	93
485.772	87
485.99	108
486.209	108
486.427	110
486.645	115
486.863	105
487.081	103
487.299	107
487.517	88
487.735	91
487.953	87
488.171	100
488.389	88
488.607	88
488.825	92
489.043	90
489.261	89
489.479	93
489.696	89
489.914	101
490.132	73
490.35	88
490.568	82
490.786	94
491.003	96
491.221	85
491.439	97
491.657	73
491.874	102
492.092	88
492.31	96
492.527	91
492.745	87
492.963	88
493.18	83
493.398	95
493.615	103
493.833	91
494.05	83
494.268	95
494.485	90
494.703	83
494.92	92
495.138	77
495.355	90
495.573	92
495.79	91
496.008	85
496.225	85
496.442	90
496.66	101
496.877	88
497.094	109
497.312	87
497.529	75
497.746	98
497.963	99
498.181	99
498.398	92
498.615	114
498.832	103
499.049	92
499.267	86
499.484	87
499.701	89
499.918	97
500.135	90
500.352	97
500.569	107
500.786	100
501.003	101
501.22	93
501.437	91
501.654	107
501.871	110
502.088	88
502.305	83
502.522	93
502.739	75
502.956	88
503.172	97
503.389	93
503.606	96
503.823	107
504.04	106
504.256	105
504.473	86
504.69	92
504.907	86
505.123	88
505.34	96
505.557	91
505.773	107
505.99	107
506.207	91
506.423	94
506.64	88
506.856	77
507.073	98
507.289	105
507.506	102
507.722	95
507.939	102
508.155	92
508.372	103
508.588	95
508.805	96
509.021	88
509.238	87
509.454	86
509.67	118
509.887	103
510.103	135
510.319	227
510.536	767
510.752	2391
510.968	634
511.184	151
511.401	99
511.617	91
511.833	91
512.049	77
512.265	102
512.481	86
512.698	77
512.914	96
513.13	93
513.346	94
513.562	94
513.778	80
513.994	94
514.21	105
514.426	116
514.642	128
514.858	128
515.074	145
515.29	434
515.506	1377
515.721	506
515.937	139
516.153	105
516.369	88
516.585	93
516.801	87
517.016	108
517.232	95
517.448	99
517.664	104
517.879	105
518.095	93
518.311	90
518.527	93
518.742	99
518.958	95
519.173	94
519.389	102
519.605	104
519.82	101
520.036	112
520.251	109
520.467	110
520.682	104
520.898	112
521.113	106
521.329	130
521.544	205
521.76	527
521.975	2293
522.19	1387
522.406	310
522.621	119
522.836	92
523.052	97
523.267	90
523.482	85
523.698	86
523.913	120
524.128	111
524.343	87
524.559	91
524.774	91
524.989	93
525.204	108
525.419	98
525.634	87
525.849	73
526.064	86
526.28	90
526.495	96
526.71	86
526.925	99
527.14	77
527.355	91
527.57	86
527.785	81
527.999	100
528.214	94
528.429	108
528.644	99
528.859	98
529.074	95
529.289	101
529.503	156
529.718	109
529.933	95
530.148	80
530.363	94
530.577	85
530.792	90
531.007	86
531.221	101
531.436	77
531.651	108
531.865	89
532.08	97
532.295	92
532.509	93
532.724	110
532.938	106
533.153	87
533.367	83
533.582	101
533.796	90
534.011	107
534.225	105
534.44	93
534.654	87
534.868	99
535.083	94
535.297	96
535.511	94
535.726	91
535.94	109
536.154	111
536.369	110
536.583	102
536.797	81
537.011	91
537.225	83
537.44	86
537.654	91
537.868	87
538.082	80
538.296	85
538.51	89
538.724	85
538.938	89
539.153	86
539.367	92
539.581	97
539.795	86
540.009	96
540.222	102
540.436	98
540.65	78
540.864	94
541.078	102
541.292	93
541.506	93
541.72	78
541.934	93
542.147	87
542.361	86
542.575	97
542.789	94
543.002	94
543.216	104
543.43	99
543.644	79
543.857	93
544.071	87
544.285	97
544.498	85
544.712	72
544.925	102
545.139	84
545.352	81
545.566	69
545.779	86
545.993	81
546.206	93
546.42	80
546.633	92
546.847	95
547.06	93
547.274	77
547.487	85
547.7	76
547.914	77
548.127	101
548.34	86
548.554	89
548.767	96
548.98	97
549.193	98
549.407	102
549.62	104
549.833	89
550.046	103
550.259	77
550.473	92
550.686	90
550.899	99
551.112	95
551.325	90
551.538	87
551.751	84
551.964	86
552.177	90
552.39	84
552.603	89
552.816	87
553.029	82
553.242	91
553.455	97
553.667	91
553.88	80
554.093	87
554.306	84
554.519	102
554.732	107
554.944	100
555.157	102
555.37	88
555.583	96
555.795	95
556.008	86
556.221	97
556.433	88
556.646	79
556.859	81
557.071	90
557.284	76
557.496	91
557.709	105
557.921	92
558.134	88
558.346	81
558.559	92
558.771	96
558.984	94
559.196	89
559.409	81
559.621	90
559.833	92
560.046	89
560.258	83
560.47	83
560.683	89
560.895	93
561.107	92
561.32	85
561.532	88
561.744	87
561.956	101
562.168	83
562.381	90
562.593	85
562.805	97
563.017	103
563.229	86
563.441	91
563.653	93
563.865	87
564.077	93
564.289	86
564.501	89
564.713	92
564.925	103
565.137	98
565.349	89
565.561	75
565.773	89
565.985	82
566.197	79
566.408	91
566.62	80
566.832	77
567.044	90
567.255	86
567.467	83
567.679	94
567.891	87
568.102	86
568.314	91
568.526	95
568.737	82
568.949	94
569.161	90
569.372	90
569.584	83
569.795	82
570.007	110
570.218	261
570.43	136
570.641	88
570.853	90
571.064	88
571.276	95
571.487	91
571.698	90
571.91	94
572.121	84
572.333	81
572.544	94
572.755	76
572.966	79
573.178	89
573.389	92
573.6	88
573.811	86
574.023	90
574.234	83
574.445	91
574.656	73
574.867	86
575.078	103
575.289	100
575.501	93
575.712	95
575.923	100
576.134	87
576.345	86
576.556	92
576.767	88
576.978	87
577.188	87
577.399	99
577.61	88
577.821	94
578.032	120
578.243	290
578.454	803
578.665	236
578.875	112
579.086	101
579.297	86
579.508	92
579.718	94
579.929	92
580.14	74
580.35	71
580.561	84
580.772	90
580.982	87
581.193	86
581.403	76
581.614	91
581.825	91
582.035	89
582.246	89
582.456	89
582.667	79
582.877	81
583.087	78
583.298	90
583.508	84
583.719	80
583.929	91
584.139	78
584.35	79
584.56	98
584.77	80
