Data from Uncirc_1999_H10_HRD10591_00024.txt Node
Date: Wed Jan 03 11:22:10 EST 2024
User: Yrep
Spectrometer: HR+D1059
Trigger mode: 1
Integration Time (sec): 1.000000E-1
Scans to average: 1
Electric dark correction enabled: true
Nonlinearity correction enabled: false
Boxcar width: 0
XAxis mode: Wavelengths
Number of Pixels in Spectrum: 2048
>>>>>Begin Spectral Data<<<<<
223.165	-16.5
223.4	-16.5
223.635	-16.5
223.869	-17.5
224.104	-11.5
224.338	-7.5
224.573	-7.5
224.808	-15.5
225.042	-8.5
225.277	-3.5
225.511	-2.5
225.746	-6.5
225.98	-3.5
226.215	16.5
226.449	17.5
226.683	15.5
226.918	26.5
227.152	24.5
227.387	14.5
227.621	26.5
227.856	50.5
228.09	58.5
228.324	55.5
228.559	46.5
228.793	49.5
229.027	82.5
229.262	68.5
229.496	80.5
229.73	64.5
229.964	86.5
230.199	71.5
230.433	77.5
230.667	88.5
230.901	76.5
231.136	75.5
231.37	84.5
231.604	91.5
231.838	95.5
232.072	91.5
232.306	86.5
232.541	92.5
232.775	98.5
233.009	80.5
233.243	78.5
233.477	78.5
233.711	71.5
233.945	91.5
234.179	77.5
234.413	83.5
234.647	85.5
234.881	67.5
235.115	81.5
235.349	74.5
235.583	90.5
235.817	76.5
236.051	79.5
236.285	76.5
236.519	76.5
236.753	71.5
236.987	77.5
237.221	85.5
237.455	83.5
237.689	70.5
237.922	74.5
238.156	64.5
238.39	74.5
238.624	72.5
238.858	84.5
239.091	78.5
239.325	93.5
239.559	79.5
239.793	90.5
240.027	73.5
240.26	80.5
240.494	99.5
240.728	90.5
240.961	77.5
241.195	71.5
241.429	49.5
241.662	81.5
241.896	82.5
242.13	82.5
242.363	92.5
242.597	70.5
242.83	86.5
243.064	72.5
243.298	78.5
243.531	90.5
243.765	84.5
243.998	83.5
244.232	92.5
244.465	79.5
244.699	94.5
244.932	80.5
245.166	73.5
245.399	85.5
245.633	79.5
245.866	82.5
246.099	86.5
246.333	90.5
246.566	88.5
246.8	73.5
247.033	80.5
247.266	74.5
247.5	80.5
247.733	83.5
247.966	78.5
248.2	77.5
248.433	77.5
248.666	75.5
248.899	80.5
249.133	80.5
249.366	110.5
249.599	99.5
249.832	74.5
250.066	87.5
250.299	76.5
250.532	82.5
250.765	89.5
250.998	80.5
251.231	83.5
251.465	88.5
251.698	92.5
251.931	88.5
252.164	82.5
252.397	82.5
252.63	88.5
252.863	75.5
253.096	78.5
253.329	99.5
253.562	64.5
253.795	74.5
254.028	74.5
254.261	74.5
254.494	90.5
254.727	88.5
254.96	89.5
255.193	74.5
255.426	72.5
255.659	77.5
255.892	81.5
256.124	73.5
256.357	75.5
256.59	77.5
256.823	95.5
257.056	75.5
257.289	98.5
257.521	80.5
257.754	85.5
257.987	78.5
258.22	99.5
258.452	93.5
258.685	74.5
258.918	90.5
259.151	91.5
259.383	94.5
259.616	68.5
259.849	79.5
260.081	76.5
260.314	90.5
260.547	87.5
260.779	91.5
261.012	92.5
261.244	80.5
261.477	98.5
261.71	90.5
261.942	104.5
262.175	114.5
262.407	97.5
262.64	96.5
262.872	92.5
263.105	70.5
263.337	71.5
263.57	84.5
263.802	77.5
264.035	90.5
264.267	98.5
264.499	88.5
264.732	79.5
264.964	84.5
265.197	70.5
265.429	93.5
265.661	80.5
265.894	73.5
266.126	77.5
266.358	92.5
266.591	89.5
266.823	94.5
267.055	73.5
267.287	96.5
267.52	82.5
267.752	81.5
267.984	87.5
268.216	97.5
268.448	89.5
268.681	89.5
268.913	85.5
269.145	96.5
269.377	84.5
269.609	82.5
269.841	87.5
270.073	97.5
270.306	86.5
270.538	70.5
270.77	77.5
271.002	70.5
271.234	82.5
271.466	80.5
271.698	89.5
271.93	84.5
272.162	87.5
272.394	97.5
272.626	67.5
272.858	84.5
273.09	90.5
273.322	95.5
273.553	85.5
273.785	89.5
274.017	97.5
274.249	90.5
274.481	82.5
274.713	84.5
274.945	109.5
275.176	90.5
275.408	92.5
275.64	82.5
275.872	101.5
276.104	89.5
276.335	98.5
276.567	91.5
276.799	100.5
277.031	94.5
277.262	100.5
277.494	89.5
277.726	89.5
277.957	86.5
278.189	84.5
278.421	80.5
278.652	87.5
278.884	79.5
279.115	91.5
279.347	90.5
279.579	79.5
279.81	82.5
280.042	90.5
280.273	90.5
280.505	90.5
280.736	73.5
280.968	100.5
281.199	74.5
281.431	92.5
281.662	92.5
281.894	92.5
282.125	85.5
282.356	104.5
282.588	122.5
282.819	108.5
283.051	91.5
283.282	75.5
283.513	86.5
283.745	87.5
283.976	91.5
284.207	103.5
284.439	78.5
284.67	86.5
284.901	78.5
285.132	80.5
285.364	89.5
285.595	96.5
285.826	92.5
286.057	91.5
286.288	79.5
286.52	97.5
286.751	86.5
286.982	91.5
287.213	99.5
287.444	82.5
287.675	92.5
287.906	100.5
288.138	103.5
288.369	86.5
288.6	93.5
288.831	82.5
289.062	94.5
289.293	76.5
289.524	98.5
289.755	89.5
289.986	85.5
290.217	85.5
290.448	89.5
290.679	84.5
290.91	91.5
291.141	88.5
291.371	87.5
291.602	87.5
291.833	83.5
292.064	94.5
292.295	83.5
292.526	92.5
292.757	92.5
292.987	89.5
293.218	81.5
293.449	75.5
293.68	109.5
293.91	96.5
294.141	102.5
294.372	74.5
294.603	79.5
294.833	92.5
295.064	100.5
295.295	72.5
295.525	86.5
295.756	115.5
295.987	115.5
296.217	118.5
296.448	107.5
296.679	85.5
296.909	86.5
297.14	91.5
297.37	110.5
297.601	91.5
297.831	78.5
298.062	86.5
298.292	93.5
298.523	84.5
298.753	79.5
298.984	79.5
299.214	92.5
299.445	80.5
299.675	86.5
299.905	93.5
300.136	80.5
300.366	84.5
300.597	86.5
300.827	83.5
301.057	91.5
301.288	102.5
301.518	88.5
301.748	92.5
301.979	112.5
302.209	76.5
302.439	87.5
302.669	86.5
302.9	102.5
303.13	97.5
303.36	78.5
303.59	96.5
303.82	104.5
304.051	91.5
304.281	101.5
304.511	91.5
304.741	92.5
304.971	81.5
305.201	90.5
305.431	100.5
305.661	81.5
305.891	93.5
306.121	91.5
306.352	99.5
306.582	103.5
306.812	99.5
307.042	90.5
307.272	109.5
307.502	96.5
307.731	110.5
307.961	112.5
308.191	118.5
308.421	89.5
308.651	93.5
308.881	90.5
309.111	95.5
309.341	91.5
309.571	91.5
309.8	94.5
310.03	82.5
310.26	93.5
310.49	87.5
310.72	100.5
310.949	99.5
311.179	88.5
311.409	98.5
311.639	91.5
311.868	92.5
312.098	114.5
312.328	80.5
312.557	95.5
312.787	90.5
313.017	100.5
313.246	88.5
313.476	106.5
313.706	96.5
313.935	105.5
314.165	100.5
314.394	106.5
314.624	103.5
314.853	112.5
315.083	110.5
315.312	101.5
315.542	106.5
315.771	98.5
316.001	98.5
316.23	103.5
316.46	105.5
316.689	91.5
316.919	99.5
317.148	91.5
317.377	96.5
317.607	95.5
317.836	90.5
318.065	74.5
318.295	88.5
318.524	105.5
318.753	95.5
318.983	94.5
319.212	92.5
319.441	111.5
319.67	102.5
319.9	99.5
320.129	112.5
320.358	93.5
320.587	101.5
320.816	97.5
321.046	104.5
321.275	110.5
321.504	101.5
321.733	104.5
321.962	101.5
322.191	98.5
322.42	108.5
322.649	106.5
322.878	112.5
323.108	125.5
323.337	121.5
323.566	117.5
323.795	144.5
324.024	202.5
324.253	368.5
324.482	778.5
324.71	1633.5
324.939	2076.5
325.168	792.5
325.397	240.5
325.626	152.5
325.855	136.5
326.084	119.5
326.313	128.5
326.542	143.5
326.77	224.5
326.999	475.5
327.228	906.5
327.457	1614.5
327.686	1288.5
327.914	361.5
328.143	166.5
328.372	123.5
328.6	115.5
328.829	128.5
329.058	108.5
329.287	126.5
329.515	111.5
329.744	98.5
329.972	99.5
330.201	108.5
330.43	103.5
330.658	125.5
330.887	121.5
331.115	135.5
331.344	104.5
331.572	98.5
331.801	95.5
332.03	107.5
332.258	91.5
332.486	81.5
332.715	105.5
332.943	100.5
333.172	101.5
333.4	118.5
333.629	113.5
333.857	110.5
334.085	106.5
334.314	102.5
334.542	115.5
334.771	115.5
334.999	114.5
335.227	108.5
335.455	107.5
335.684	103.5
335.912	107.5
336.14	90.5
336.369	92.5
336.597	93.5
336.825	110.5
337.053	92.5
337.281	91.5
337.51	99.5
337.738	101.5
337.966	88.5
338.194	107.5
338.422	95.5
338.65	97.5
338.878	98.5
339.106	92.5
339.334	96.5
339.562	115.5
339.79	91.5
340.018	90.5
340.246	94.5
340.474	96.5
340.702	110.5
340.93	86.5
341.158	105.5
341.386	116.5
341.614	97.5
341.842	92.5
342.07	94.5
342.298	88.5
342.526	96.5
342.754	84.5
342.981	80.5
343.209	100.5
343.437	98.5
343.665	105.5
343.893	105.5
344.12	104.5
344.348	81.5
344.576	81.5
344.804	76.5
345.031	103.5
345.259	97.5
345.487	90.5
345.714	103.5
345.942	82.5
346.17	87.5
346.397	100.5
346.625	95.5
346.853	95.5
347.08	87.5
347.308	96.5
347.535	95.5
347.763	115.5
347.99	107.5
348.218	88.5
348.445	106.5
348.673	98.5
348.9	113.5
349.128	104.5
349.355	83.5
349.583	101.5
349.81	98.5
350.037	89.5
350.265	92.5
350.492	89.5
350.72	95.5
350.947	102.5
351.174	106.5
351.402	114.5
351.629	107.5
351.856	118.5
352.083	109.5
352.311	103.5
352.538	94.5
352.765	109.5
352.992	115.5
353.22	95.5
353.447	99.5
353.674	96.5
353.901	121.5
354.128	100.5
354.355	114.5
354.583	82.5
354.81	91.5
355.037	95.5
355.264	102.5
355.491	106.5
355.718	88.5
355.945	80.5
356.172	94.5
356.399	101.5
356.626	92.5
356.853	93.5
357.08	88.5
357.307	99.5
357.534	97.5
357.761	91.5
357.988	101.5
358.215	90.5
358.441	98.5
358.668	99.5
358.895	102.5
359.122	89.5
359.349	86.5
359.576	90.5
359.802	97.5
360.029	106.5
360.256	113.5
360.483	90.5
360.709	90.5
360.936	95.5
361.163	102.5
361.39	96.5
361.616	87.5
361.843	97.5
362.07	92.5
362.296	100.5
362.523	97.5
362.749	110.5
362.976	88.5
363.203	110.5
363.429	90.5
363.656	101.5
363.882	106.5
364.109	100.5
364.335	100.5
364.562	104.5
364.788	98.5
365.015	107.5
365.241	88.5
365.468	101.5
365.694	94.5
365.92	85.5
366.147	103.5
366.373	90.5
366.599	81.5
366.826	97.5
367.052	97.5
367.278	105.5
367.505	81.5
367.731	86.5
367.957	100.5
368.184	107.5
368.41	106.5
368.636	120.5
368.862	124.5
369.089	115.5
369.315	83.5
369.541	95.5
369.767	98.5
369.993	97.5
370.219	105.5
370.445	95.5
370.672	96.5
370.898	110.5
371.124	85.5
371.35	88.5
371.576	84.5
371.802	98.5
372.028	100.5
372.254	90.5
372.48	95.5
372.706	84.5
372.932	92.5
373.158	94.5
373.384	84.5
373.61	90.5
373.835	97.5
374.061	88.5
374.287	86.5
374.513	89.5
374.739	91.5
374.965	86.5
375.191	85.5
375.416	110.5
375.642	96.5
375.868	89.5
376.094	88.5
376.319	94.5
376.545	96.5
376.771	105.5
376.997	95.5
377.222	95.5
377.448	106.5
377.674	96.5
377.899	94.5
378.125	92.5
378.35	98.5
378.576	95.5
378.802	110.5
379.027	93.5
379.253	106.5
379.478	85.5
379.704	97.5
379.929	92.5
380.155	98.5
380.38	89.5
380.606	102.5
380.831	105.5
381.057	92.5
381.282	101.5
381.507	104.5
381.733	96.5
381.958	95.5
382.184	101.5
382.409	117.5
382.634	106.5
382.86	87.5
383.085	107.5
383.31	107.5
383.535	98.5
383.761	83.5
383.986	81.5
384.211	106.5
384.436	104.5
384.662	102.5
384.887	99.5
385.112	130.5
385.337	111.5
385.562	120.5
385.787	123.5
386.013	115.5
386.238	122.5
386.463	115.5
386.688	120.5
386.913	118.5
387.138	116.5
387.363	106.5
387.588	103.5
387.813	111.5
388.038	112.5
388.263	121.5
388.488	114.5
388.713	96.5
388.938	112.5
389.163	100.5
389.387	98.5
389.612	100.5
389.837	99.5
390.062	98.5
390.287	101.5
390.512	99.5
390.736	97.5
390.961	96.5
391.186	92.5
391.411	90.5
391.636	93.5
391.86	79.5
392.085	82.5
392.31	93.5
392.534	84.5
392.759	86.5
392.984	101.5
393.208	93.5
393.433	79.5
393.658	87.5
393.882	79.5
394.107	67.5
394.331	76.5
394.556	88.5
394.78	82.5
395.005	91.5
395.229	92.5
395.454	88.5
395.678	83.5
395.903	96.5
396.127	98.5
396.352	83.5
396.576	88.5
396.801	87.5
397.025	102.5
397.249	92.5
397.474	98.5
397.698	70.5
397.922	92.5
398.147	94.5
398.371	80.5
398.595	94.5
398.82	81.5
399.044	77.5
399.268	92.5
399.492	98.5
399.717	91.5
399.941	87.5
400.165	92.5
400.389	80.5
400.613	86.5
400.837	87.5
401.062	84.5
401.286	76.5
401.51	75.5
401.734	92.5
401.958	92.5
402.182	127.5
402.406	156.5
402.63	123.5
402.854	94.5
403.078	87.5
403.302	87.5
403.526	84.5
403.75	92.5
403.974	93.5
404.198	95.5
404.422	90.5
404.645	79.5
404.869	86.5
405.093	99.5
405.317	90.5
405.541	100.5
405.765	101.5
405.988	110.5
406.212	139.5
406.436	196.5
406.66	126.5
406.883	99.5
407.107	91.5
407.331	91.5
407.555	96.5
407.778	89.5
408.002	99.5
408.226	87.5
408.449	89.5
408.673	89.5
408.896	89.5
409.12	100.5
409.344	98.5
409.567	87.5
409.791	86.5
410.014	100.5
410.238	108.5
410.461	96.5
410.685	95.5
410.908	108.5
411.132	107.5
411.355	105.5
411.578	103.5
411.802	81.5
412.025	96.5
412.249	99.5
412.472	76.5
412.695	87.5
412.919	105.5
413.142	88.5
413.365	77.5
413.589	92.5
413.812	101.5
414.035	86.5
414.258	101.5
414.482	94.5
414.705	96.5
414.928	88.5
415.151	89.5
415.374	80.5
415.597	88.5
415.821	94.5
416.044	89.5
416.267	85.5
416.49	93.5
416.713	91.5
416.936	94.5
417.159	88.5
417.382	102.5
417.605	90.5
417.828	73.5
418.051	98.5
418.274	85.5
418.497	89.5
418.72	90.5
418.943	96.5
419.166	110.5
419.389	90.5
419.611	104.5
419.834	85.5
420.057	95.5
420.28	82.5
420.503	98.5
420.726	82.5
420.948	84.5
421.171	95.5
421.394	86.5
421.617	96.5
421.839	112.5
422.062	102.5
422.285	95.5
422.507	104.5
422.73	95.5
422.953	98.5
423.175	95.5
423.398	94.5
423.621	97.5
423.843	96.5
424.066	93.5
424.288	89.5
424.511	86.5
424.733	86.5
424.956	95.5
425.178	88.5
425.401	102.5
425.623	104.5
425.846	98.5
426.068	87.5
426.291	107.5
426.513	100.5
426.735	97.5
426.958	97.5
427.18	97.5
427.402	115.5
427.625	160.5
427.847	123.5
428.069	103.5
428.292	93.5
428.514	88.5
428.736	92.5
428.958	79.5
429.181	97.5
429.403	96.5
429.625	83.5
429.847	86.5
430.069	88.5
430.292	99.5
430.514	99.5
430.736	88.5
430.958	94.5
431.18	83.5
431.402	92.5
431.624	74.5
431.846	94.5
432.068	96.5
432.29	88.5
432.512	89.5
432.734	84.5
432.956	90.5
433.178	98.5
433.4	94.5
433.622	103.5
433.844	92.5
434.066	88.5
434.287	77.5
434.509	92.5
434.731	88.5
434.953	109.5
435.175	84.5
435.397	97.5
435.618	91.5
435.84	96.5
436.062	111.5
436.284	122.5
436.505	99.5
436.727	95.5
436.949	102.5
437.17	92.5
437.392	100.5
437.614	106.5
437.835	96.5
438.057	103.5
438.278	106.5
438.5	99.5
438.721	99.5
438.943	88.5
439.165	100.5
439.386	86.5
439.608	90.5
439.829	93.5
440.05	119.5
440.272	126.5
440.493	89.5
440.715	105.5
440.936	83.5
441.158	87.5
441.379	95.5
441.6	91.5
441.822	89.5
442.043	97.5
442.264	101.5
442.486	96.5
442.707	85.5
442.928	104.5
443.149	124.5
443.371	110.5
443.592	97.5
443.813	99.5
444.034	107.5
444.255	83.5
444.476	100.5
444.698	91.5
444.919	85.5
445.14	125.5
445.361	125.5
445.582	108.5
445.803	123.5
446.024	114.5
446.245	123.5
446.466	96.5
446.687	95.5
446.908	83.5
447.129	93.5
447.35	86.5
447.571	97.5
447.792	92.5
448.013	106.5
448.234	86.5
448.455	100.5
448.675	104.5
448.896	105.5
449.117	104.5
449.338	86.5
449.559	115.5
449.779	122.5
450	93.5
450.221	79.5
450.442	98.5
450.662	104.5
450.883	92.5
451.104	111.5
451.324	99.5
451.545	95.5
451.766	99.5
451.986	97.5
452.207	93.5
452.428	94.5
452.648	89.5
452.869	114.5
453.089	110.5
453.31	106.5
453.53	90.5
453.751	105.5
453.971	93.5
454.192	104.5
454.412	83.5
454.633	89.5
454.853	103.5
455.073	86.5
455.294	96.5
455.514	109.5
455.734	98.5
455.955	83.5
456.175	84.5
456.395	79.5
456.616	81.5
456.836	100.5
457.056	86.5
457.276	88.5
457.497	81.5
457.717	89.5
457.937	81.5
458.157	78.5
458.377	88.5
458.598	97.5
458.818	139.5
459.038	148.5
459.258	112.5
459.478	92.5
459.698	81.5
459.918	65.5
460.138	87.5
460.358	78.5
460.578	81.5
460.798	94.5
461.018	88.5
461.238	74.5
461.458	70.5
461.678	82.5
461.898	83.5
462.118	77.5
462.338	92.5
462.558	87.5
462.777	88.5
462.997	80.5
463.217	92.5
463.437	80.5
463.657	94.5
463.876	82.5
464.096	95.5
464.316	88.5
464.536	90.5
464.755	91.5
464.975	90.5
465.195	139.5
465.414	131.5
465.634	93.5
465.854	91.5
466.073	81.5
466.293	98.5
466.512	82.5
466.732	81.5
466.951	78.5
467.171	93.5
467.391	93.5
467.61	107.5
467.829	93.5
468.049	102.5
468.268	83.5
468.488	83.5
468.707	91.5
468.927	79.5
469.146	82.5
469.365	82.5
469.585	87.5
469.804	102.5
470.023	105.5
470.243	95.5
470.462	104.5
470.681	94.5
470.901	94.5
471.12	91.5
471.339	93.5
471.558	95.5
471.777	96.5
471.997	87.5
472.216	92.5
472.435	100.5
472.654	89.5
472.873	94.5
473.092	78.5
473.311	82.5
473.53	88.5
473.749	99.5
473.968	102.5
474.187	96.5
474.406	78.5
474.625	92.5
474.844	81.5
475.063	77.5
475.282	79.5
475.501	83.5
475.72	89.5
475.939	86.5
476.158	89.5
476.377	87.5
476.596	109.5
476.814	100.5
477.033	91.5
477.252	94.5
477.471	76.5
477.69	76.5
477.908	94.5
478.127	104.5
478.346	91.5
478.564	89.5
478.783	99.5
479.002	106.5
479.22	96.5
479.439	108.5
479.658	110.5
479.876	86.5
480.095	94.5
480.313	85.5
480.532	102.5
480.751	87.5
480.969	91.5
481.188	128.5
481.406	91.5
481.624	85.5
481.843	87.5
482.061	76.5
482.28	90.5
482.498	82.5
482.717	97.5
482.935	89.5
483.153	90.5
483.372	92.5
483.59	95.5
483.808	97.5
484.027	96.5
484.245	98.5
484.463	86.5
484.681	108.5
484.9	94.5
485.118	103.5
485.336	105.5
485.554	99.5
485.772	98.5
485.99	103.5
486.209	121.5
486.427	114.5
486.645	104.5
486.863	119.5
487.081	98.5
487.299	88.5
487.517	96.5
487.735	107.5
487.953	80.5
488.171	92.5
488.389	82.5
488.607	105.5
488.825	82.5
489.043	93.5
489.261	100.5
489.479	80.5
489.696	95.5
489.914	94.5
490.132	94.5
490.35	88.5
490.568	79.5
490.786	86.5
491.003	88.5
491.221	103.5
491.439	90.5
491.657	85.5
491.874	89.5
492.092	90.5
492.31	83.5
492.527	82.5
492.745	83.5
492.963	94.5
493.18	98.5
493.398	113.5
493.615	108.5
493.833	102.5
494.05	94.5
494.268	96.5
494.485	84.5
494.703	97.5
494.92	92.5
495.138	95.5
495.355	91.5
495.573	98.5
495.79	99.5
496.008	86.5
496.225	98.5
496.442	95.5
496.66	106.5
496.877	97.5
497.094	104.5
497.312	104.5
497.529	95.5
497.746	98.5
497.963	86.5
498.181	109.5
498.398	96.5
498.615	104.5
498.832	95.5
499.049	98.5
499.267	95.5
499.484	106.5
499.701	92.5
499.918	95.5
500.135	90.5
500.352	89.5
500.569	104.5
500.786	86.5
501.003	92.5
501.22	90.5
501.437	87.5
501.654	85.5
501.871	100.5
502.088	81.5
502.305	88.5
502.522	89.5
502.739	79.5
502.956	82.5
503.172	99.5
503.389	102.5
503.606	99.5
503.823	78.5
504.04	94.5
504.256	89.5
504.473	101.5
504.69	94.5
504.907	108.5
505.123	88.5
505.34	86.5
505.557	79.5
505.773	83.5
505.99	66.5
506.207	99.5
506.423	100.5
506.64	87.5
506.856	97.5
507.073	96.5
507.289	86.5
507.506	92.5
507.722	102.5
507.939	118.5
508.155	101.5
508.372	100.5
508.588	102.5
508.805	88.5
509.021	92.5
509.238	109.5
509.454	97.5
509.67	100.5
509.887	103.5
510.103	123.5
510.319	206.5
510.536	721.5
510.752	2164.5
510.968	624.5
511.184	150.5
511.401	104.5
511.617	96.5
511.833	100.5
512.049	97.5
512.265	111.5
512.481	100.5
512.698	105.5
512.914	96.5
513.13	95.5
513.346	108.5
513.562	100.5
513.778	89.5
513.994	93.5
514.21	101.5
514.426	114.5
514.642	128.5
514.858	118.5
515.074	148.5
515.29	378.5
515.506	1220.5
515.721	452.5
515.937	147.5
516.153	113.5
516.369	96.5
516.585	94.5
516.801	83.5
517.016	88.5
517.232	86.5
517.448	98.5
517.664	88.5
517.879	116.5
518.095	86.5
518.311	82.5
518.527	102.5
518.742	105.5
518.958	89.5
519.173	90.5
519.389	100.5
519.605	102.5
519.82	112.5
520.036	109.5
520.251	110.5
520.467	98.5
520.682	103.5
520.898	101.5
521.113	114.5
521.329	134.5
521.544	180.5
521.76	494.5
521.975	2059.5
522.19	1228.5
522.406	264.5
522.621	129.5
522.836	96.5
523.052	90.5
523.267	90.5
523.482	81.5
523.698	93.5
523.913	135.5
524.128	98.5
524.343	87.5
524.559	96.5
524.774	83.5
524.989	105.5
525.204	106.5
525.419	101.5
525.634	104.5
525.849	91.5
526.064	98.5
526.28	83.5
526.495	78.5
526.71	94.5
526.925	87.5
527.14	79.5
527.355	84.5
527.57	89.5
527.785	97.5
527.999	110.5
528.214	86.5
528.429	84.5
528.644	98.5
528.859	84.5
529.074	110.5
529.289	111.5
529.503	159.5
529.718	110.5
529.933	79.5
530.148	86.5
530.363	100.5
530.577	91.5
530.792	88.5
531.007	100.5
531.221	93.5
531.436	95.5
531.651	75.5
531.865	91.5
532.08	72.5
532.295	90.5
532.509	82.5
532.724	85.5
532.938	95.5
533.153	92.5
533.367	88.5
533.582	99.5
533.796	81.5
534.011	87.5
534.225	79.5
534.44	93.5
