Data from Uncirc_1999_H10_HRD10591_00091.txt Node
Date: Wed Jan 03 11:22:23 EST 2024
User: Yrep
Spectrometer: HR+D1059
Trigger mode: 1
Integration Time (sec): 1.000000E-1
Scans to average: 1
Electric dark correction enabled: true
Nonlinearity correction enabled: false
Boxcar width: 0
XAxis mode: Wavelengths
Number of Pixels in Spectrum: 2048
>>>>>Begin Spectral Data<<<<<
223.165	-12.75
223.4	-12.75
223.635	-12.75
223.869	-20.75
224.104	-26.75
224.338	-1.75
224.573	-12.75
224.808	-25.75
225.042	-19.75
225.277	2.25
225.511	-3.75
225.746	16.25
225.98	19.25
226.215	18.25
226.449	14.25
226.683	17.25
226.918	9.25
227.152	27.25
227.387	38.25
227.621	51.25
227.856	42.25
228.09	47.25
228.324	59.25
228.559	46.25
228.793	61.25
229.027	59.25
229.262	68.25
229.496	73.25
229.73	89.25
229.964	82.25
230.199	71.25
230.433	77.25
230.667	80.25
230.901	80.25
231.136	94.25
231.37	75.25
231.604	74.25
231.838	79.25
232.072	84.25
232.306	85.25
232.541	62.25
232.775	73.25
233.009	90.25
233.243	84.25
233.477	79.25
233.711	69.25
233.945	81.25
234.179	79.25
234.413	84.25
234.647	91.25
234.881	76.25
235.115	75.25
235.349	77.25
235.583	82.25
235.817	88.25
236.051	80.25
236.285	82.25
236.519	87.25
236.753	84.25
236.987	79.25
237.221	96.25
237.455	85.25
237.689	77.25
237.922	97.25
238.156	74.25
238.39	74.25
238.624	76.25
238.858	80.25
239.091	50.25
239.325	70.25
239.559	70.25
239.793	72.25
240.027	87.25
240.26	85.25
240.494	69.25
240.728	80.25
240.961	78.25
241.195	71.25
241.429	78.25
241.662	72.25
241.896	52.25
242.13	63.25
242.363	79.25
242.597	82.25
242.83	86.25
243.064	82.25
243.298	84.25
243.531	83.25
243.765	74.25
243.998	74.25
244.232	79.25
244.465	101.25
244.699	66.25
244.932	57.25
245.166	83.25
245.399	69.25
245.633	94.25
245.866	73.25
246.099	86.25
246.333	93.25
246.566	73.25
246.8	72.25
247.033	91.25
247.266	73.25
247.5	86.25
247.733	81.25
247.966	85.25
248.2	82.25
248.433	79.25
248.666	87.25
248.899	88.25
249.133	93.25
249.366	89.25
249.599	101.25
249.832	77.25
250.066	90.25
250.299	56.25
250.532	69.25
250.765	89.25
250.998	69.25
251.231	76.25
251.465	65.25
251.698	77.25
251.931	79.25
252.164	86.25
252.397	76.25
252.63	74.25
252.863	81.25
253.096	69.25
253.329	65.25
253.562	89.25
253.795	94.25
254.028	91.25
254.261	81.25
254.494	85.25
254.727	79.25
254.96	89.25
255.193	60.25
255.426	74.25
255.659	73.25
255.892	69.25
256.124	81.25
256.357	80.25
256.59	80.25
256.823	75.25
257.056	85.25
257.289	89.25
257.521	80.25
257.754	85.25
257.987	77.25
258.22	76.25
258.452	88.25
258.685	74.25
258.918	78.25
259.151	91.25
259.383	81.25
259.616	80.25
259.849	80.25
260.081	83.25
260.314	68.25
260.547	83.25
260.779	88.25
261.012	81.25
261.244	96.25
261.477	90.25
261.71	94.25
261.942	102.25
262.175	107.25
262.407	87.25
262.64	86.25
262.872	76.25
263.105	71.25
263.337	75.25
263.57	91.25
263.802	86.25
264.035	89.25
264.267	83.25
264.499	83.25
264.732	79.25
264.964	82.25
265.197	93.25
265.429	82.25
265.661	86.25
265.894	79.25
266.126	87.25
266.358	99.25
266.591	89.25
266.823	79.25
267.055	80.25
267.287	90.25
267.52	89.25
267.752	87.25
267.984	75.25
268.216	86.25
268.448	99.25
268.681	73.25
268.913	78.25
269.145	88.25
269.377	73.25
269.609	66.25
269.841	88.25
270.073	93.25
270.306	86.25
270.538	88.25
270.77	76.25
271.002	89.25
271.234	79.25
271.466	80.25
271.698	74.25
271.93	78.25
272.162	84.25
272.394	89.25
272.626	97.25
272.858	85.25
273.09	81.25
273.322	81.25
273.553	89.25
273.785	99.25
274.017	77.25
274.249	92.25
274.481	84.25
274.713	81.25
274.945	78.25
275.176	83.25
275.408	92.25
275.64	96.25
275.872	83.25
276.104	79.25
276.335	89.25
276.567	101.25
276.799	110.25
277.031	105.25
277.262	94.25
277.494	78.25
277.726	90.25
277.957	89.25
278.189	82.25
278.421	79.25
278.652	86.25
278.884	81.25
279.115	80.25
279.347	86.25
279.579	87.25
279.81	90.25
280.042	87.25
280.273	83.25
280.505	98.25
280.736	90.25
280.968	88.25
281.199	90.25
281.431	90.25
281.662	79.25
281.894	80.25
282.125	105.25
282.356	122.25
282.588	128.25
282.819	109.25
283.051	86.25
283.282	97.25
283.513	76.25
283.745	101.25
283.976	79.25
284.207	89.25
284.439	87.25
284.67	103.25
284.901	103.25
285.132	83.25
285.364	78.25
285.595	83.25
285.826	63.25
286.057	77.25
286.288	77.25
286.52	86.25
286.751	82.25
286.982	93.25
287.213	81.25
287.444	92.25
287.675	93.25
287.906	94.25
288.138	85.25
288.369	95.25
288.6	98.25
288.831	91.25
289.062	97.25
289.293	102.25
289.524	90.25
289.755	85.25
289.986	86.25
290.217	73.25
290.448	82.25
290.679	85.25
290.91	85.25
291.141	75.25
291.371	95.25
291.602	75.25
291.833	83.25
292.064	88.25
292.295	78.25
292.526	83.25
292.757	88.25
292.987	82.25
293.218	85.25
293.449	90.25
293.68	86.25
293.91	89.25
294.141	77.25
294.372	95.25
294.603	100.25
294.833	90.25
295.064	90.25
295.295	94.25
295.525	80.25
295.756	95.25
295.987	112.25
296.217	136.25
296.448	127.25
296.679	83.25
296.909	89.25
297.14	75.25
297.37	101.25
297.601	90.25
297.831	87.25
298.062	91.25
298.292	82.25
298.523	94.25
298.753	73.25
298.984	89.25
299.214	90.25
299.445	88.25
299.675	111.25
299.905	93.25
300.136	94.25
300.366	99.25
300.597	89.25
300.827	83.25
301.057	103.25
301.288	107.25
301.518	86.25
301.748	95.25
301.979	101.25
302.209	112.25
302.439	102.25
302.669	82.25
302.9	88.25
303.13	101.25
303.36	111.25
303.59	93.25
303.82	114.25
304.051	93.25
304.281	91.25
304.511	76.25
304.741	85.25
304.971	98.25
305.201	95.25
305.431	94.25
305.661	83.25
305.891	85.25
306.121	103.25
306.352	94.25
306.582	92.25
306.812	102.25
307.042	89.25
307.272	98.25
307.502	101.25
307.731	82.25
307.961	102.25
308.191	100.25
308.421	84.25
308.651	106.25
308.881	73.25
309.111	85.25
309.341	80.25
309.571	85.25
309.8	83.25
310.03	92.25
310.26	92.25
310.49	88.25
310.72	92.25
310.949	107.25
311.179	95.25
311.409	85.25
311.639	90.25
311.868	96.25
312.098	101.25
312.328	99.25
312.557	91.25
312.787	95.25
313.017	114.25
313.246	93.25
313.476	90.25
313.706	89.25
313.935	74.25
314.165	105.25
314.394	95.25
314.624	104.25
314.853	113.25
315.083	97.25
315.312	94.25
315.542	82.25
315.771	93.25
316.001	96.25
316.23	91.25
316.46	93.25
316.689	87.25
316.919	84.25
317.148	103.25
317.377	87.25
317.607	80.25
317.836	82.25
318.065	99.25
318.295	95.25
318.524	89.25
318.753	99.25
318.983	93.25
319.212	92.25
319.441	111.25
319.67	105.25
319.9	95.25
320.129	83.25
320.358	91.25
320.587	95.25
320.816	108.25
321.046	98.25
321.275	92.25
321.504	97.25
321.733	91.25
321.962	114.25
322.191	100.25
322.42	104.25
322.649	118.25
322.878	103.25
323.108	122.25
323.337	122.25
323.566	134.25
323.795	142.25
324.024	207.25
324.253	430.25
324.482	865.25
324.71	1797.25
324.939	2345.25
325.168	841.25
325.397	254.25
325.626	143.25
325.855	146.25
326.084	136.25
326.313	131.25
326.542	169.25
326.77	239.25
326.999	487.25
327.228	992.25
327.457	1805.25
327.686	1454.25
327.914	383.25
328.143	197.25
328.372	129.25
328.6	132.25
328.829	115.25
329.058	125.25
329.287	139.25
329.515	108.25
329.744	95.25
329.972	92.25
330.201	105.25
330.43	111.25
330.658	136.25
330.887	100.25
331.115	113.25
331.344	110.25
331.572	107.25
331.801	119.25
332.03	107.25
332.258	124.25
332.486	93.25
332.715	74.25
332.943	85.25
333.172	97.25
333.4	86.25
333.629	106.25
333.857	97.25
334.085	95.25
334.314	106.25
334.542	108.25
334.771	90.25
334.999	105.25
335.227	97.25
335.455	97.25
335.684	85.25
335.912	95.25
336.14	101.25
336.369	104.25
336.597	98.25
336.825	102.25
337.053	92.25
337.281	108.25
337.51	84.25
337.738	89.25
337.966	85.25
338.194	83.25
338.422	81.25
338.65	117.25
338.878	103.25
339.106	93.25
339.334	95.25
339.562	78.25
339.79	103.25
340.018	89.25
340.246	82.25
340.474	88.25
340.702	99.25
340.93	107.25
341.158	96.25
341.386	103.25
341.614	92.25
341.842	85.25
342.07	93.25
342.298	101.25
342.526	91.25
342.754	81.25
342.981	97.25
343.209	85.25
343.437	76.25
343.665	87.25
343.893	101.25
344.12	83.25
344.348	85.25
344.576	88.25
344.804	83.25
345.031	90.25
345.259	92.25
345.487	98.25
345.714	102.25
345.942	105.25
346.17	94.25
346.397	93.25
346.625	94.25
346.853	93.25
347.08	94.25
347.308	92.25
347.535	88.25
347.763	104.25
347.99	96.25
348.218	110.25
348.445	102.25
348.673	102.25
348.9	101.25
349.128	97.25
349.355	86.25
349.583	80.25
349.81	99.25
350.037	99.25
350.265	98.25
350.492	94.25
350.72	108.25
350.947	104.25
351.174	109.25
351.402	107.25
351.629	98.25
351.856	102.25
352.083	101.25
352.311	96.25
352.538	96.25
352.765	112.25
352.992	111.25
353.22	114.25
353.447	112.25
353.674	99.25
353.901	110.25
354.128	106.25
354.355	90.25
354.583	88.25
354.81	107.25
355.037	98.25
355.264	88.25
355.491	101.25
355.718	93.25
355.945	90.25
356.172	103.25
356.399	98.25
356.626	99.25
356.853	93.25
357.08	94.25
357.307	90.25
357.534	102.25
357.761	95.25
357.988	96.25
358.215	114.25
358.441	108.25
358.668	77.25
358.895	94.25
359.122	80.25
359.349	98.25
359.576	88.25
359.802	81.25
360.029	101.25
360.256	107.25
360.483	94.25
360.709	79.25
360.936	90.25
361.163	95.25
361.39	81.25
361.616	89.25
361.843	88.25
362.07	83.25
362.296	94.25
362.523	95.25
362.749	94.25
362.976	87.25
363.203	90.25
363.429	95.25
363.656	94.25
363.882	84.25
364.109	85.25
364.335	88.25
364.562	82.25
364.788	90.25
365.015	83.25
365.241	90.25
365.468	120.25
365.694	109.25
365.92	90.25
366.147	88.25
366.373	82.25
366.599	75.25
366.826	92.25
367.052	90.25
367.278	76.25
367.505	95.25
367.731	100.25
367.957	89.25
368.184	89.25
368.41	96.25
368.636	101.25
368.862	119.25
369.089	102.25
369.315	97.25
369.541	93.25
369.767	100.25
369.993	94.25
370.219	82.25
370.445	97.25
370.672	88.25
370.898	99.25
371.124	85.25
371.35	91.25
371.576	79.25
371.802	97.25
372.028	98.25
372.254	90.25
372.48	104.25
372.706	92.25
372.932	82.25
373.158	89.25
373.384	99.25
373.61	103.25
373.835	91.25
374.061	99.25
374.287	104.25
374.513	90.25
374.739	86.25
374.965	105.25
375.191	91.25
375.416	95.25
375.642	94.25
375.868	108.25
376.094	96.25
376.319	98.25
376.545	86.25
376.771	99.25
376.997	95.25
377.222	78.25
377.448	91.25
377.674	86.25
377.899	93.25
378.125	102.25
378.35	115.25
378.576	96.25
378.802	86.25
379.027	79.25
379.253	92.25
379.478	102.25
379.704	79.25
379.929	95.25
380.155	87.25
380.38	98.25
380.606	87.25
380.831	105.25
381.057	104.25
381.282	103.25
381.507	85.25
381.733	91.25
381.958	105.25
382.184	106.25
382.409	85.25
382.634	114.25
382.86	97.25
383.085	109.25
383.31	105.25
383.535	105.25
383.761	106.25
383.986	104.25
384.211	99.25
384.436	94.25
384.662	97.25
384.887	96.25
385.112	99.25
385.337	104.25
385.562	97.25
385.787	105.25
386.013	104.25
386.238	122.25
386.463	109.25
386.688	104.25
386.913	111.25
387.138	105.25
387.363	87.25
387.588	92.25
387.813	89.25
388.038	117.25
388.263	103.25
388.488	119.25
388.713	97.25
388.938	93.25
389.163	103.25
389.387	95.25
389.612	107.25
389.837	111.25
390.062	91.25
390.287	94.25
390.512	97.25
390.736	96.25
390.961	90.25
391.186	95.25
391.411	96.25
391.636	94.25
391.86	84.25
392.085	90.25
392.31	86.25
392.534	80.25
392.759	76.25
392.984	81.25
393.208	83.25
393.433	86.25
393.658	84.25
393.882	85.25
394.107	82.25
394.331	85.25
394.556	91.25
394.78	99.25
395.005	65.25
395.229	82.25
395.454	86.25
395.678	88.25
395.903	93.25
396.127	105.25
396.352	97.25
396.576	89.25
396.801	79.25
397.025	83.25
397.249	85.25
397.474	78.25
397.698	92.25
397.922	80.25
398.147	85.25
398.371	94.25
398.595	74.25
398.82	79.25
399.044	87.25
399.268	104.25
399.492	96.25
399.717	97.25
399.941	92.25
400.165	98.25
400.389	85.25
400.613	97.25
400.837	96.25
401.062	86.25
401.286	85.25
401.51	88.25
401.734	78.25
401.958	97.25
402.182	126.25
402.406	156.25
402.63	109.25
402.854	90.25
403.078	93.25
403.302	87.25
403.526	90.25
403.75	97.25
403.974	98.25
404.198	94.25
404.422	108.25
404.645	95.25
404.869	87.25
405.093	102.25
405.317	93.25
405.541	90.25
405.765	102.25
405.988	114.25
406.212	148.25
406.436	197.25
406.66	123.25
406.883	99.25
407.107	93.25
407.331	91.25
407.555	107.25
407.778	87.25
408.002	83.25
408.226	92.25
408.449	86.25
408.673	108.25
408.896	98.25
409.12	87.25
409.344	104.25
409.567	102.25
409.791	86.25
410.014	92.25
410.238	104.25
410.461	98.25
410.685	81.25
410.908	95.25
411.132	82.25
411.355	100.25
411.578	89.25
411.802	96.25
412.025	88.25
412.249	95.25
412.472	106.25
412.695	83.25
412.919	93.25
413.142	92.25
413.365	82.25
413.589	97.25
413.812	102.25
414.035	96.25
414.258	95.25
414.482	83.25
414.705	90.25
414.928	75.25
415.151	73.25
415.374	96.25
415.597	93.25
415.821	90.25
416.044	93.25
416.267	80.25
416.49	86.25
416.713	88.25
416.936	85.25
417.159	81.25
417.382	78.25
417.605	90.25
417.828	98.25
418.051	94.25
418.274	80.25
418.497	78.25
418.72	86.25
418.943	94.25
419.166	94.25
419.389	85.25
419.611	77.25
419.834	101.25
420.057	81.25
420.28	88.25
420.503	89.25
420.726	74.25
420.948	96.25
421.171	91.25
421.394	101.25
421.617	82.25
421.839	75.25
422.062	91.25
422.285	104.25
422.507	101.25
422.73	99.25
422.953	86.25
423.175	90.25
423.398	92.25
423.621	92.25
423.843	85.25
424.066	77.25
424.288	80.25
424.511	98.25
424.733	111.25
424.956	111.25
425.178	106.25
425.401	98.25
425.623	92.25
425.846	78.25
426.068	84.25
426.291	86.25
426.513	111.25
426.735	96.25
426.958	91.25
427.18	102.25
427.402	130.25
427.625	144.25
427.847	118.25
428.069	106.25
428.292	78.25
428.514	105.25
428.736	90.25
428.958	92.25
429.181	80.25
429.403	96.25
429.625	85.25
429.847	87.25
430.069	89.25
430.292	87.25
430.514	95.25
430.736	83.25
430.958	79.25
431.18	97.25
431.402	91.25
431.624	90.25
431.846	89.25
432.068	83.25
432.29	77.25
432.512	91.25
432.734	89.25
432.956	88.25
433.178	105.25
433.4	113.25
433.622	86.25
433.844	107.25
434.066	92.25
434.287	81.25
434.509	89.25
434.731	89.25
434.953	82.25
435.175	81.25
435.397	106.25
435.618	95.25
435.84	108.25
436.062	118.25
436.284	106.25
436.505	99.25
436.727	108.25
436.949	95.25
437.17	96.25
437.392	99.25
437.614	86.25
437.835	90.25
438.057	127.25
438.278	113.25
438.5	101.25
438.721	112.25
438.943	89.25
439.165	93.25
439.386	102.25
439.608	82.25
439.829	93.25
440.05	109.25
440.272	156.25
440.493	90.25
440.715	101.25
440.936	88.25
441.158	93.25
441.379	81.25
441.6	90.25
441.822	91.25
442.043	95.25
442.264	96.25
442.486	101.25
442.707	106.25
442.928	93.25
443.149	120.25
443.371	118.25
443.592	98.25
443.813	107.25
444.034	102.25
444.255	99.25
444.476	101.25
444.698	92.25
444.919	89.25
445.14	120.25
445.361	112.25
445.582	117.25
445.803	114.25
446.024	108.25
446.245	121.25
446.466	121.25
446.687	104.25
446.908	95.25
447.129	78.25
447.35	102.25
447.571	91.25
447.792	83.25
448.013	89.25
448.234	104.25
448.455	87.25
448.675	99.25
448.896	120.25
449.117	92.25
449.338	83.25
449.559	126.25
449.779	133.25
450	105.25
450.221	90.25
450.442	79.25
450.662	72.25
450.883	97.25
451.104	106.25
451.324	81.25
451.545	86.25
451.766	93.25
451.986	93.25
452.207	98.25
452.428	94.25
452.648	98.25
452.869	95.25
453.089	100.25
453.31	99.25
453.53	93.25
453.751	83.25
453.971	94.25
454.192	103.25
454.412	90.25
454.633	84.25
454.853	93.25
455.073	82.25
455.294	82.25
455.514	95.25
455.734	90.25
455.955	77.25
456.175	99.25
456.395	69.25
456.616	81.25
456.836	83.25
457.056	87.25
457.276	97.25
457.497	95.25
457.717	90.25
457.937	72.25
458.157	86.25
458.377	89.25
458.598	105.25
458.818	144.25
459.038	147.25
459.258	112.25
459.478	94.25
459.698	85.25
459.918	102.25
460.138	85.25
460.358	92.25
460.578	83.25
460.798	106.25
461.018	98.25
461.238	82.25
461.458	81.25
461.678	84.25
461.898	87.25
462.118	95.25
462.338	88.25
462.558	90.25
462.777	88.25
462.997	103.25
463.217	89.25
463.437	86.25
463.657	79.25
463.876	83.25
464.096	88.25
464.316	94.25
464.536	96.25
464.755	98.25
464.975	112.25
465.195	155.25
465.414	144.25
465.634	94.25
465.854	88.25
466.073	99.25
466.293	102.25
466.512	85.25
466.732	92.25
466.951	90.25
467.171	99.25
467.391	105.25
467.61	104.25
467.829	110.25
468.049	86.25
468.268	77.25
468.488	94.25
468.707	95.25
468.927	93.25
469.146	87.25
469.365	81.25
469.585	87.25
469.804	111.25
470.023	88.25
470.243	93.25
470.462	106.25
470.681	107.25
470.901	86.25
471.12	106.25
471.339	81.25
471.558	87.25
471.777	88.25
471.997	89.25
472.216	88.25
472.435	104.25
472.654	96.25
472.873	83.25
473.092	87.25
473.311	94.25
473.53	95.25
473.749	87.25
473.968	97.25
474.187	114.25
474.406	101.25
474.625	97.25
474.844	88.25
475.063	81.25
475.282	89.25
475.501	69.25
475.72	104.25
475.939	90.25
476.158	93.25
476.377	94.25
476.596	96.25
476.814	98.25
477.033	85.25
477.252	96.25
477.471	111.25
477.69	82.25
477.908	95.25
478.127	73.25
478.346	91.25
478.564	90.25
478.783	92.25
479.002	81.25
479.22	92.25
479.439	93.25
479.658	106.25
479.876	85.25
480.095	81.25
480.313	87.25
480.532	93.25
480.751	90.25
480.969	97.25
481.188	120.25
481.406	105.25
481.624	79.25
481.843	95.25
482.061	86.25
482.28	83.25
482.498	88.25
482.717	89.25
482.935	85.25
483.153	87.25
483.372	85.25
483.59	85.25
483.808	89.25
484.027	86.25
484.245	80.25
484.463	90.25
484.681	103.25
484.9	93.25
485.118	99.25
485.336	100.25
485.554	110.25
485.772	99.25
485.99	92.25
486.209	97.25
486.427	97.25
486.645	107.25
486.863	107.25
487.081	102.25
487.299	102.25
487.517	96.25
487.735	105.25
487.953	99.25
488.171	95.25
488.389	93.25
488.607	110.25
488.825	97.25
489.043	85.25
489.261	93.25
489.479	79.25
489.696	79.25
489.914	94.25
490.132	83.25
490.35	83.25
490.568	94.25
490.786	91.25
491.003	91.25
491.221	102.25
491.439	94.25
491.657	108.25
491.874	102.25
492.092	94.25
492.31	86.25
492.527	91.25
492.745	93.25
492.963	91.25
493.18	98.25
493.398	101.25
493.615	121.25
493.833	95.25
494.05	90.25
494.268	106.25
494.485	97.25
494.703	77.25
494.92	92.25
495.138	80.25
495.355	85.25
495.573	95.25
495.79	104.25
496.008	99.25
496.225	95.25
496.442	96.25
496.66	96.25
496.877	88.25
497.094	85.25
497.312	98.25
497.529	82.25
497.746	92.25
497.963	96.25
498.181	96.25
498.398	96.25
498.615	110.25
498.832	108.25
499.049	89.25
499.267	88.25
499.484	94.25
499.701	89.25
499.918	99.25
500.135	83.25
500.352	97.25
500.569	91.25
500.786	89.25
501.003	93.25
501.22	87.25
501.437	89.25
501.654	97.25
501.871	121.25
502.088	97.25
502.305	89.25
502.522	99.25
502.739	90.25
502.956	103.25
503.172	89.25
503.389	88.25
503.606	114.25
503.823	106.25
504.04	99.25
504.256	91.25
504.473	81.25
504.69	94.25
504.907	98.25
505.123	82.25
505.34	106.25
505.557	96.25
505.773	93.25
505.99	74.25
506.207	95.25
506.423	94.25
506.64	102.25
506.856	89.25
507.073	91.25
507.289	104.25
507.506	103.25
507.722	112.25
507.939	105.25
508.155	96.25
508.372	92.25
508.588	95.25
508.805	94.25
509.021	112.25
509.238	106.25
509.454	99.25
509.67	107.25
509.887	102.25
510.103	124.25
510.319	218.25
510.536	753.25
510.752	2387.25
510.968	634.25
511.184	144.25
511.401	119.25
511.617	98.25
511.833	102.25
512.049	97.25
512.265	97.25
512.481	95.25
512.698	96.25
512.914	104.25
513.13	95.25
513.346	93.25
513.562	91.25
513.778	92.25
513.994	104.25
514.21	107.25
514.426	117.25
514.642	118.25
514.858	121.25
515.074	155.25
515.29	437.25
515.506	1384.25
