Data from Uncirc_1999_H10_HRD10591_00001.txt Node
Date: Wed Jan 03 11:22:05 EST 2024
User: Yrep
Spectrometer: HR+D1059
Trigger mode: 1
Integration Time (sec): 1.000000E-1
Scans to average: 1
Electric dark correction enabled: true
Nonlinearity correction enabled: false
Boxcar width: 0
XAxis mode: Wavelengths
Number of Pixels in Spectrum: 2048
>>>>>Begin Spectral Data<<<<<
223.165	-12.06
223.4	-12.06
223.635	-12.06
223.869	-18.06
224.104	-27.06
224.338	-27.06
224.573	-3.06
224.808	-9.06
225.042	-10.06
225.277	-19.06
225.511	15.94
225.746	4.94
225.98	2.94
226.215	13.94
226.449	15.94
226.683	10.94
226.918	36.94
227.152	23.94
227.387	45.94
227.621	41.94
227.856	51.94
228.09	26.94
228.324	49.94
228.559	44.94
228.793	63.94
229.027	64.94
229.262	63.94
229.496	72.94
229.73	74.94
229.964	74.94
230.199	79.94
230.433	78.94
230.667	65.94
230.901	80.94
231.136	76.94
231.37	73.94
231.604	80.94
231.838	69.94
232.072	87.94
232.306	83.94
232.541	76.94
232.775	73.94
233.009	77.94
233.243	84.94
233.477	93.94
233.711	87.94
233.945	87.94
234.179	75.94
234.413	78.94
234.647	80.94
234.881	82.94
235.115	89.94
235.349	82.94
235.583	83.94
235.817	80.94
236.051	80.94
236.285	73.94
236.519	91.94
236.753	92.94
236.987	71.94
237.221	82.94
237.455	91.94
237.689	81.94
237.922	81.94
238.156	92.94
238.39	75.94
238.624	85.94
238.858	86.94
239.091	77.94
239.325	69.94
239.559	94.94
239.793	69.94
240.027	90.94
240.26	78.94
240.494	87.94
240.728	60.94
240.961	73.94
241.195	85.94
241.429	73.94
241.662	83.94
241.896	75.94
242.13	61.94
242.363	82.94
242.597	74.94
242.83	78.94
243.064	66.94
243.298	79.94
243.531	73.94
243.765	72.94
243.998	87.94
244.232	77.94
244.465	92.94
244.699	73.94
244.932	66.94
245.166	81.94
245.399	83.94
245.633	79.94
245.866	82.94
246.099	84.94
246.333	97.94
246.566	104.94
246.8	96.94
247.033	87.94
247.266	94.94
247.5	82.94
247.733	74.94
247.966	86.94
248.2	88.94
248.433	82.94
248.666	91.94
248.899	82.94
249.133	77.94
249.366	93.94
249.599	82.94
249.832	81.94
250.066	82.94
250.299	77.94
250.532	100.94
250.765	79.94
250.998	80.94
251.231	91.94
251.465	90.94
251.698	86.94
251.931	69.94
252.164	77.94
252.397	76.94
252.63	81.94
252.863	82.94
253.096	72.94
253.329	68.94
253.562	81.94
253.795	91.94
254.028	83.94
254.261	85.94
254.494	80.94
254.727	99.94
254.96	74.94
255.193	72.94
255.426	79.94
255.659	94.94
255.892	79.94
256.124	70.94
256.357	81.94
256.59	82.94
256.823	76.94
257.056	79.94
257.289	90.94
257.521	69.94
257.754	86.94
257.987	68.94
258.22	81.94
258.452	87.94
258.685	76.94
258.918	85.94
259.151	90.94
259.383	62.94
259.616	78.94
259.849	73.94
260.081	83.94
260.314	72.94
260.547	87.94
260.779	80.94
261.012	91.94
261.244	79.94
261.477	87.94
261.71	80.94
261.942	106.94
262.175	90.94
262.407	79.94
262.64	90.94
262.872	88.94
263.105	81.94
263.337	92.94
263.57	82.94
263.802	98.94
264.035	79.94
264.267	83.94
264.499	76.94
264.732	90.94
264.964	83.94
265.197	97.94
265.429	89.94
265.661	82.94
265.894	85.94
266.126	80.94
266.358	89.94
266.591	93.94
266.823	81.94
267.055	96.94
267.287	86.94
267.52	90.94
267.752	87.94
267.984	97.94
268.216	87.94
268.448	81.94
268.681	80.94
268.913	78.94
269.145	91.94
269.377	86.94
269.609	82.94
269.841	88.94
270.073	80.94
270.306	79.94
270.538	81.94
270.77	91.94
271.002	87.94
271.234	82.94
271.466	89.94
271.698	90.94
271.93	82.94
272.162	89.94
272.394	92.94
272.626	78.94
272.858	106.94
273.09	109.94
273.322	82.94
273.553	91.94
273.785	71.94
274.017	85.94
274.249	71.94
274.481	84.94
274.713	82.94
274.945	80.94
275.176	86.94
275.408	93.94
275.64	85.94
275.872	91.94
276.104	86.94
276.335	72.94
276.567	95.94
276.799	71.94
277.031	98.94
277.262	103.94
277.494	80.94
277.726	83.94
277.957	81.94
278.189	85.94
278.421	77.94
278.652	85.94
278.884	81.94
279.115	80.94
279.347	87.94
279.579	79.94
279.81	89.94
280.042	96.94
280.273	77.94
280.505	79.94
280.736	93.94
280.968	88.94
281.199	80.94
281.431	77.94
281.662	107.94
281.894	93.94
282.125	91.94
282.356	103.94
282.588	118.94
282.819	99.94
283.051	87.94
283.282	91.94
283.513	84.94
283.745	84.94
283.976	74.94
284.207	95.94
284.439	84.94
284.67	83.94
284.901	90.94
285.132	85.94
285.364	87.94
285.595	85.94
285.826	85.94
286.057	88.94
286.288	81.94
286.52	83.94
286.751	95.94
286.982	91.94
287.213	97.94
287.444	83.94
287.675	79.94
287.906	72.94
288.138	72.94
288.369	85.94
288.6	77.94
288.831	88.94
289.062	89.94
289.293	77.94
289.524	74.94
289.755	85.94
289.986	91.94
290.217	93.94
290.448	92.94
290.679	91.94
290.91	90.94
291.141	91.94
291.371	99.94
291.602	74.94
291.833	82.94
292.064	90.94
292.295	92.94
292.526	90.94
292.757	95.94
292.987	80.94
293.218	81.94
293.449	96.94
293.68	104.94
293.91	93.94
294.141	80.94
294.372	90.94
294.603	95.94
294.833	91.94
295.064	81.94
295.295	98.94
295.525	95.94
295.756	94.94
295.987	97.94
296.217	113.94
296.448	97.94
296.679	75.94
296.909	103.94
297.14	94.94
297.37	80.94
297.601	97.94
297.831	94.94
298.062	88.94
298.292	83.94
298.523	75.94
298.753	74.94
298.984	80.94
299.214	96.94
299.445	98.94
299.675	95.94
299.905	79.94
300.136	72.94
300.366	81.94
300.597	91.94
300.827	99.94
301.057	89.94
301.288	76.94
301.518	87.94
301.748	91.94
301.979	101.94
302.209	88.94
302.439	93.94
302.669	112.94
302.9	93.94
303.13	90.94
303.36	91.94
303.59	90.94
303.82	92.94
304.051	96.94
304.281	93.94
304.511	79.94
304.741	88.94
304.971	78.94
305.201	96.94
305.431	85.94
305.661	86.94
305.891	84.94
306.121	85.94
306.352	86.94
306.582	99.94
306.812	88.94
307.042	91.94
307.272	93.94
307.502	89.94
307.731	95.94
307.961	100.94
308.191	93.94
308.421	93.94
308.651	81.94
308.881	88.94
309.111	103.94
309.341	94.94
309.571	94.94
309.8	87.94
310.03	86.94
310.26	109.94
310.49	102.94
310.72	101.94
310.949	102.94
311.179	96.94
311.409	84.94
311.639	101.94
311.868	95.94
312.098	98.94
312.328	90.94
312.557	81.94
312.787	73.94
313.017	113.94
313.246	89.94
313.476	77.94
313.706	84.94
313.935	85.94
314.165	90.94
314.394	89.94
314.624	88.94
314.853	89.94
315.083	106.94
315.312	95.94
315.542	90.94
315.771	101.94
316.001	97.94
316.23	87.94
316.46	89.94
316.689	98.94
316.919	91.94
317.148	94.94
317.377	88.94
317.607	92.94
317.836	89.94
318.065	98.94
318.295	96.94
318.524	83.94
318.753	97.94
318.983	79.94
319.212	90.94
319.441	91.94
319.67	100.94
319.9	107.94
320.129	86.94
320.358	93.94
320.587	110.94
320.816	88.94
321.046	105.94
321.275	74.94
321.504	89.94
321.733	88.94
321.962	89.94
322.191	99.94
322.42	87.94
322.649	91.94
322.878	116.94
323.108	101.94
323.337	110.94
323.566	115.94
323.795	125.94
324.024	186.94
324.253	329.94
324.482	667.94
324.71	1309.94
324.939	1720.94
325.168	642.94
325.397	207.94
325.626	139.94
325.855	111.94
326.084	124.94
326.313	119.94
326.542	133.94
326.77	170.94
326.999	385.94
327.228	746.94
327.457	1345.94
327.686	1083.94
327.914	292.94
328.143	153.94
328.372	123.94
328.6	110.94
328.829	113.94
329.058	119.94
329.287	112.94
329.515	103.94
329.744	95.94
329.972	99.94
330.201	88.94
330.43	102.94
330.658	110.94
330.887	101.94
331.115	113.94
331.344	95.94
331.572	118.94
331.801	125.94
332.03	94.94
332.258	97.94
332.486	98.94
332.715	94.94
332.943	96.94
333.172	85.94
333.4	102.94
333.629	101.94
333.857	102.94
334.085	114.94
334.314	90.94
334.542	103.94
334.771	107.94
334.999	97.94
335.227	93.94
335.455	90.94
335.684	98.94
335.912	105.94
336.14	100.94
336.369	81.94
336.597	82.94
336.825	93.94
337.053	95.94
337.281	95.94
337.51	93.94
337.738	90.94
337.966	88.94
338.194	97.94
338.422	93.94
338.65	99.94
338.878	102.94
339.106	100.94
339.334	85.94
339.562	94.94
339.79	103.94
340.018	91.94
340.246	95.94
340.474	93.94
340.702	78.94
340.93	91.94
341.158	102.94
341.386	84.94
341.614	99.94
341.842	94.94
342.07	91.94
342.298	104.94
342.526	100.94
342.754	87.94
342.981	88.94
343.209	92.94
343.437	90.94
343.665	86.94
343.893	85.94
344.12	98.94
344.348	87.94
344.576	87.94
344.804	92.94
345.031	95.94
345.259	86.94
345.487	106.94
345.714	101.94
345.942	95.94
346.17	92.94
346.397	90.94
346.625	92.94
346.853	106.94
347.08	92.94
347.308	98.94
347.535	98.94
347.763	107.94
347.99	110.94
348.218	102.94
348.445	98.94
348.673	93.94
348.9	79.94
349.128	92.94
349.355	111.94
349.583	93.94
349.81	76.94
350.037	96.94
350.265	90.94
350.492	95.94
350.72	99.94
350.947	104.94
351.174	102.94
351.402	104.94
351.629	102.94
351.856	102.94
352.083	115.94
352.311	104.94
352.538	112.94
352.765	117.94
352.992	112.94
353.22	109.94
353.447	116.94
353.674	101.94
353.901	97.94
354.128	111.94
354.355	108.94
354.583	91.94
354.81	113.94
355.037	119.94
355.264	105.94
355.491	103.94
355.718	95.94
355.945	111.94
356.172	104.94
356.399	106.94
356.626	91.94
356.853	107.94
357.08	101.94
357.307	103.94
357.534	98.94
357.761	106.94
357.988	107.94
358.215	120.94
358.441	131.94
358.668	116.94
358.895	106.94
359.122	103.94
359.349	99.94
359.576	95.94
359.802	114.94
360.029	90.94
360.256	99.94
360.483	87.94
360.709	100.94
360.936	109.94
361.163	90.94
361.39	90.94
361.616	92.94
361.843	88.94
362.07	90.94
362.296	114.94
362.523	93.94
362.749	88.94
362.976	95.94
363.203	84.94
363.429	95.94
363.656	97.94
363.882	82.94
364.109	83.94
364.335	87.94
364.562	87.94
364.788	82.94
365.015	77.94
365.241	97.94
365.468	96.94
365.694	105.94
365.92	99.94
366.147	86.94
366.373	95.94
366.599	87.94
366.826	84.94
367.052	90.94
367.278	104.94
367.505	85.94
367.731	103.94
367.957	104.94
368.184	90.94
368.41	79.94
368.636	108.94
368.862	105.94
369.089	105.94
369.315	94.94
369.541	93.94
369.767	74.94
369.993	105.94
370.219	87.94
370.445	89.94
370.672	92.94
370.898	83.94
371.124	90.94
371.35	94.94
371.576	81.94
371.802	88.94
372.028	106.94
372.254	85.94
372.48	88.94
372.706	85.94
372.932	101.94
373.158	92.94
373.384	103.94
373.61	108.94
373.835	100.94
374.061	107.94
374.287	91.94
374.513	102.94
374.739	99.94
374.965	95.94
375.191	102.94
375.416	92.94
375.642	103.94
375.868	99.94
376.094	105.94
376.319	88.94
376.545	112.94
376.771	116.94
376.997	107.94
377.222	108.94
377.448	99.94
377.674	104.94
377.899	106.94
378.125	104.94
378.35	96.94
378.576	107.94
378.802	105.94
379.027	108.94
379.253	121.94
379.478	106.94
379.704	126.94
379.929	108.94
380.155	122.94
380.38	112.94
380.606	129.94
380.831	125.94
381.057	136.94
381.282	135.94
381.507	110.94
381.733	135.94
381.958	126.94
382.184	130.94
382.409	136.94
382.634	139.94
382.86	154.94
383.085	147.94
383.31	143.94
383.535	137.94
383.761	133.94
383.986	131.94
384.211	129.94
384.436	157.94
384.662	163.94
384.887	171.94
385.112	187.94
385.337	188.94
385.562	189.94
385.787	177.94
386.013	181.94
386.238	178.94
386.463	165.94
386.688	184.94
386.913	178.94
387.138	200.94
387.363	178.94
387.588	129.94
387.813	153.94
388.038	171.94
388.263	213.94
388.488	207.94
388.713	125.94
388.938	95.94
389.163	107.94
389.387	110.94
389.612	99.94
389.837	101.94
390.062	92.94
390.287	94.94
390.512	99.94
390.736	99.94
390.961	90.94
391.186	97.94
391.411	110.94
391.636	97.94
391.86	79.94
392.085	98.94
392.31	95.94
392.534	86.94
392.759	88.94
392.984	98.94
393.208	92.94
393.433	88.94
393.658	99.94
393.882	87.94
394.107	94.94
394.331	87.94
394.556	93.94
394.78	102.94
395.005	86.94
395.229	95.94
395.454	98.94
395.678	91.94
395.903	75.94
396.127	99.94
396.352	89.94
396.576	94.94
396.801	86.94
397.025	91.94
397.249	85.94
397.474	92.94
397.698	88.94
397.922	80.94
398.147	89.94
398.371	89.94
398.595	88.94
398.82	101.94
399.044	92.94
399.268	85.94
399.492	95.94
399.717	84.94
399.941	90.94
400.165	89.94
400.389	92.94
400.613	79.94
400.837	105.94
401.062	101.94
401.286	86.94
401.51	82.94
401.734	96.94
401.958	94.94
402.182	96.94
402.406	133.94
402.63	107.94
402.854	103.94
403.078	81.94
403.302	86.94
403.526	94.94
403.75	101.94
403.974	96.94
404.198	97.94
404.422	92.94
404.645	91.94
404.869	94.94
405.093	101.94
405.317	102.94
405.541	83.94
405.765	95.94
405.988	96.94
406.212	140.94
406.436	150.94
406.66	119.94
406.883	92.94
407.107	91.94
407.331	93.94
407.555	90.94
407.778	95.94
408.002	90.94
408.226	95.94
408.449	98.94
408.673	92.94
408.896	89.94
409.12	91.94
409.344	105.94
409.567	95.94
409.791	97.94
410.014	102.94
410.238	93.94
410.461	91.94
410.685	99.94
410.908	95.94
411.132	117.94
411.355	104.94
411.578	104.94
411.802	106.94
412.025	85.94
412.249	94.94
412.472	81.94
412.695	89.94
412.919	91.94
413.142	90.94
413.365	86.94
413.589	95.94
413.812	97.94
414.035	83.94
414.258	115.94
414.482	99.94
414.705	92.94
414.928	97.94
415.151	105.94
415.374	106.94
415.597	98.94
415.821	106.94
416.044	86.94
416.267	90.94
416.49	108.94
416.713	95.94
416.936	97.94
417.159	101.94
417.382	99.94
417.605	87.94
417.828	90.94
418.051	106.94
418.274	86.94
418.497	95.94
418.72	100.94
418.943	83.94
419.166	98.94
419.389	96.94
419.611	107.94
419.834	107.94
420.057	93.94
420.28	87.94
420.503	90.94
420.726	92.94
420.948	86.94
421.171	74.94
421.394	109.94
421.617	93.94
421.839	97.94
422.062	93.94
422.285	96.94
422.507	109.94
422.73	97.94
422.953	85.94
423.175	77.94
423.398	97.94
423.621	98.94
423.843	93.94
424.066	91.94
424.288	87.94
424.511	73.94
424.733	89.94
424.956	107.94
425.178	95.94
425.401	97.94
425.623	100.94
425.846	89.94
426.068	91.94
426.291	87.94
426.513	98.94
426.735	103.94
426.958	95.94
427.18	89.94
427.402	118.94
427.625	148.94
427.847	103.94
428.069	112.94
428.292	82.94
428.514	86.94
428.736	101.94
428.958	94.94
429.181	67.94
429.403	92.94
429.625	95.94
429.847	92.94
430.069	99.94
430.292	84.94
430.514	79.94
430.736	85.94
430.958	85.94
431.18	83.94
431.402	84.94
431.624	92.94
431.846	85.94
432.068	86.94
432.29	92.94
432.512	85.94
432.734	100.94
432.956	96.94
433.178	104.94
433.4	104.94
433.622	95.94
433.844	92.94
434.066	97.94
434.287	94.94
434.509	97.94
434.731	94.94
434.953	99.94
435.175	91.94
435.397	80.94
435.618	103.94
435.84	97.94
436.062	128.94
436.284	103.94
436.505	118.94
436.727	87.94
436.949	87.94
437.17	82.94
437.392	72.94
437.614	98.94
437.835	122.94
438.057	98.94
438.278	94.94
438.5	86.94
438.721	114.94
438.943	110.94
439.165	81.94
439.386	85.94
439.608	87.94
439.829	104.94
440.05	112.94
440.272	129.94
440.493	91.94
440.715	89.94
440.936	84.94
441.158	93.94
441.379	84.94
441.6	86.94
441.822	85.94
442.043	84.94
442.264	109.94
442.486	97.94
442.707	96.94
442.928	93.94
443.149	113.94
443.371	123.94
443.592	98.94
443.813	105.94
444.034	105.94
444.255	93.94
444.476	81.94
444.698	83.94
444.919	87.94
445.14	111.94
445.361	115.94
445.582	95.94
445.803	137.94
446.024	113.94
446.245	135.94
446.466	97.94
446.687	105.94
446.908	94.94
447.129	103.94
447.35	95.94
447.571	86.94
447.792	80.94
448.013	110.94
448.234	107.94
448.455	88.94
448.675	102.94
448.896	104.94
449.117	106.94
449.338	105.94
449.559	118.94
449.779	127.94
450	87.94
450.221	91.94
450.442	82.94
450.662	86.94
450.883	88.94
451.104	92.94
451.324	106.94
451.545	95.94
451.766	98.94
451.986	87.94
452.207	78.94
452.428	86.94
452.648	91.94
452.869	81.94
453.089	98.94
453.31	103.94
453.53	103.94
453.751	99.94
453.971	91.94
454.192	87.94
454.412	93.94
454.633	104.94
454.853	96.94
455.073	88.94
455.294	96.94
455.514	97.94
455.734	96.94
455.955	83.94
456.175	96.94
456.395	76.94
456.616	67.94
456.836	74.94
457.056	82.94
457.276	93.94
457.497	79.94
457.717	91.94
457.937	90.94
458.157	93.94
458.377	106.94
458.598	100.94
458.818	121.94
459.038	102.94
459.258	104.94
459.478	86.94
459.698	90.94
459.918	86.94
460.138	95.94
460.358	99.94
460.578	97.94
460.798	105.94
461.018	88.94
461.238	93.94
461.458	87.94
461.678	81.94
461.898	91.94
462.118	82.94
462.338	95.94
462.558	89.94
462.777	85.94
462.997	92.94
463.217	93.94
463.437	87.94
463.657	84.94
463.876	79.94
464.096	84.94
464.316	93.94
464.536	79.94
464.755	91.94
464.975	98.94
465.195	129.94
465.414	130.94
465.634	87.94
465.854	86.94
466.073	97.94
466.293	86.94
466.512	96.94
466.732	91.94
466.951	102.94
467.171	110.94
467.391	99.94
467.61	87.94
467.829	82.94
468.049	90.94
468.268	90.94
468.488	79.94
468.707	95.94
468.927	74.94
469.146	95.94
469.365	95.94
469.585	97.94
469.804	95.94
470.023	93.94
470.243	88.94
470.462	94.94
470.681	108.94
470.901	95.94
471.12	82.94
471.339	88.94
471.558	82.94
471.777	76.94
471.997	89.94
472.216	108.94
472.435	99.94
472.654	92.94
472.873	83.94
473.092	88.94
473.311	89.94
473.53	94.94
473.749	82.94
473.968	81.94
474.187	94.94
474.406	80.94
474.625	88.94
474.844	93.94
475.063	86.94
475.282	89.94
475.501	82.94
475.72	86.94
475.939	88.94
476.158	86.94
476.377	93.94
476.596	89.94
476.814	95.94
477.033	73.94
477.252	73.94
477.471	84.94
477.69	89.94
477.908	83.94
478.127	93.94
478.346	98.94
478.564	88.94
478.783	86.94
479.002	85.94
479.22	88.94
479.439	82.94
479.658	97.94
479.876	99.94
480.095	96.94
480.313	83.94
480.532	76.94
480.751	96.94
480.969	106.94
481.188	108.94
481.406	107.94
481.624	87.94
481.843	94.94
482.061	91.94
482.28	90.94
482.498	89.94
482.717	87.94
482.935	81.94
483.153	89.94
483.372	89.94
483.59	90.94
483.808	88.94
484.027	97.94
484.245	94.94
484.463	87.94
484.681	93.94
484.9	89.94
485.118	103.94
485.336	109.94
485.554	109.94
485.772	110.94
485.99	120.94
486.209	107.94
486.427	91.94
486.645	108.94
486.863	118.94
487.081	101.94
487.299	101.94
487.517	97.94
487.735	92.94
487.953	97.94
488.171	99.94
488.389	85.94
488.607	107.94
488.825	96.94
489.043	93.94
489.261	102.94
489.479	94.94
489.696	96.94
489.914	87.94
490.132	87.94
490.35	83.94
490.568	82.94
490.786	83.94
491.003	73.94
491.221	93.94
491.439	96.94
491.657	100.94
491.874	91.94
492.092	107.94
492.31	98.94
492.527	89.94
492.745	96.94
492.963	78.94
493.18	90.94
493.398	96.94
493.615	91.94
493.833	92.94
494.05	103.94
494.268	81.94
494.485	92.94
494.703	85.94
494.92	93.94
495.138	99.94
495.355	91.94
495.573	94.94
495.79	102.94
496.008	117.94
496.225	88.94
496.442	98.94
496.66	96.94
496.877	80.94
497.094	92.94
497.312	93.94
497.529	91.94
497.746	94.94
497.963	86.94
498.181	94.94
498.398	89.94
498.615	101.94
498.832	105.94
499.049	98.94
499.267	96.94
499.484	88.94
499.701	99.94
499.918	86.94
500.135	71.94
500.352	93.94
500.569	96.94
500.786	105.94
501.003	96.94
501.22	85.94
501.437	84.94
501.654	90.94
501.871	111.94
502.088	96.94
502.305	85.94
502.522	87.94
502.739	85.94
502.956	98.94
503.172	95.94
503.389	87.94
503.606	88.94
503.823	102.94
504.04	103.94
504.256	89.94
504.473	86.94
504.69	100.94
504.907	84.94
505.123	103.94
505.34	94.94
505.557	72.94
505.773	86.94
505.99	76.94
506.207	96.94
506.423	98.94
506.64	89.94
506.856	99.94
507.073	108.94
507.289	89.94
507.506	93.94
507.722	93.94
507.939	86.94
508.155	85.94
508.372	95.94
508.588	87.94
508.805	86.94
509.021	90.94
509.238	88.94
509.454	83.94
509.67	86.94
509.887	111.94
510.103	119.94
510.319	170.94
510.536	481.94
510.752	1345.94
510.968	397.94
511.184	133.94
511.401	101.94
511.617	104.94
511.833	94.94
512.049	105.94
512.265	88.94
512.481	101.94
512.698	94.94
512.914	96.94
513.13	94.94
513.346	93.94
513.562	108.94
513.778	103.94
513.994	93.94
514.21	104.94
514.426	107.94
514.642	126.94
514.858	102.94
515.074	116.94
515.29	278.94
