Data from Uncirc_1999_H10_HRD10591_00076.txt Node
Date: Wed Jan 03 11:22:20 EST 2024
User: Yrep
Spectrometer: HR+D1059
Trigger mode: 1
Integration Time (sec): 1.000000E-1
Scans to average: 1
Electric dark correction enabled: true
Nonlinearity correction enabled: false
Boxcar width: 0
XAxis mode: Wavelengths
Number of Pixels in Spectrum: 2048
>>>>>Begin Spectral Data<<<<<
223.165	-15.81
223.4	-15.81
223.635	-15.81
223.869	-30.81
224.104	-21.81
224.338	-20.81
224.573	-12.81
224.808	-10.81
225.042	0.19
225.277	4.19
225.511	-2.81
225.746	-7.81
225.98	12.19
226.215	11.19
226.449	18.19
226.683	35.19
226.918	17.19
227.152	25.19
227.387	33.19
227.621	37.19
227.856	48.19
228.09	64.19
228.324	50.19
228.559	78.19
228.793	64.19
229.027	71.19
229.262	71.19
229.496	65.19
229.73	77.19
229.964	75.19
230.199	66.19
230.433	64.19
230.667	91.19
230.901	84.19
231.136	68.19
231.37	85.19
231.604	86.19
231.838	81.19
232.072	95.19
232.306	87.19
232.541	93.19
232.775	88.19
233.009	77.19
233.243	73.19
233.477	94.19
233.711	89.19
233.945	82.19
234.179	75.19
234.413	74.19
234.647	74.19
234.881	72.19
235.115	68.19
235.349	81.19
235.583	88.19
235.817	80.19
236.051	91.19
236.285	83.19
236.519	75.19
236.753	87.19
236.987	82.19
237.221	81.19
237.455	80.19
237.689	71.19
237.922	93.19
238.156	76.19
238.39	69.19
238.624	80.19
238.858	81.19
239.091	83.19
239.325	83.19
239.559	75.19
239.793	78.19
240.027	90.19
240.26	72.19
240.494	77.19
240.728	75.19
240.961	74.19
241.195	71.19
241.429	94.19
241.662	82.19
241.896	89.19
242.13	76.19
242.363	89.19
242.597	78.19
242.83	76.19
243.064	81.19
243.298	74.19
243.531	71.19
243.765	89.19
243.998	83.19
244.232	98.19
244.465	87.19
244.699	89.19
244.932	79.19
245.166	73.19
245.399	75.19
245.633	74.19
245.866	87.19
246.099	79.19
246.333	74.19
246.566	81.19
246.8	78.19
247.033	81.19
247.266	101.19
247.5	79.19
247.733	87.19
247.966	74.19
248.2	85.19
248.433	94.19
248.666	91.19
248.899	95.19
249.133	87.19
249.366	96.19
249.599	99.19
249.832	89.19
250.066	87.19
250.299	82.19
250.532	83.19
250.765	79.19
250.998	98.19
251.231	79.19
251.465	77.19
251.698	86.19
251.931	66.19
252.164	90.19
252.397	70.19
252.63	91.19
252.863	92.19
253.096	96.19
253.329	83.19
253.562	89.19
253.795	86.19
254.028	92.19
254.261	60.19
254.494	87.19
254.727	86.19
254.96	75.19
255.193	81.19
255.426	89.19
255.659	81.19
255.892	78.19
256.124	84.19
256.357	85.19
256.59	90.19
256.823	94.19
257.056	87.19
257.289	85.19
257.521	80.19
257.754	74.19
257.987	88.19
258.22	94.19
258.452	88.19
258.685	100.19
258.918	87.19
259.151	73.19
259.383	87.19
259.616	81.19
259.849	69.19
260.081	76.19
260.314	96.19
260.547	101.19
260.779	91.19
261.012	90.19
261.244	71.19
261.477	81.19
261.71	107.19
261.942	90.19
262.175	101.19
262.407	91.19
262.64	88.19
262.872	85.19
263.105	99.19
263.337	97.19
263.57	79.19
263.802	88.19
264.035	87.19
264.267	100.19
264.499	91.19
264.732	79.19
264.964	93.19
265.197	91.19
265.429	81.19
265.661	77.19
265.894	82.19
266.126	72.19
266.358	92.19
266.591	87.19
266.823	93.19
267.055	88.19
267.287	92.19
267.52	88.19
267.752	98.19
267.984	93.19
268.216	82.19
268.448	96.19
268.681	93.19
268.913	99.19
269.145	95.19
269.377	94.19
269.609	75.19
269.841	86.19
270.073	83.19
270.306	83.19
270.538	100.19
270.77	95.19
271.002	101.19
271.234	82.19
271.466	89.19
271.698	89.19
271.93	93.19
272.162	99.19
272.394	90.19
272.626	83.19
272.858	91.19
273.09	86.19
273.322	80.19
273.553	88.19
273.785	73.19
274.017	81.19
274.249	84.19
274.481	87.19
274.713	86.19
274.945	95.19
275.176	87.19
275.408	82.19
275.64	94.19
275.872	78.19
276.104	92.19
276.335	87.19
276.567	96.19
276.799	95.19
277.031	94.19
277.262	85.19
277.494	91.19
277.726	91.19
277.957	90.19
278.189	79.19
278.421	92.19
278.652	92.19
278.884	91.19
279.115	81.19
279.347	85.19
279.579	106.19
279.81	76.19
280.042	75.19
280.273	97.19
280.505	82.19
280.736	95.19
280.968	94.19
281.199	77.19
281.431	89.19
281.662	83.19
281.894	95.19
282.125	107.19
282.356	132.19
282.588	136.19
282.819	108.19
283.051	82.19
283.282	88.19
283.513	86.19
283.745	97.19
283.976	88.19
284.207	83.19
284.439	85.19
284.67	99.19
284.901	89.19
285.132	73.19
285.364	93.19
285.595	93.19
285.826	96.19
286.057	84.19
286.288	97.19
286.52	87.19
286.751	90.19
286.982	91.19
287.213	96.19
287.444	92.19
287.675	90.19
287.906	69.19
288.138	84.19
288.369	92.19
288.6	82.19
288.831	89.19
289.062	106.19
289.293	100.19
289.524	88.19
289.755	88.19
289.986	84.19
290.217	86.19
290.448	98.19
290.679	96.19
290.91	86.19
291.141	96.19
291.371	81.19
291.602	94.19
291.833	89.19
292.064	100.19
292.295	106.19
292.526	109.19
292.757	84.19
292.987	93.19
293.218	79.19
293.449	79.19
293.68	84.19
293.91	86.19
294.141	96.19
294.372	94.19
294.603	91.19
294.833	93.19
295.064	103.19
295.295	110.19
295.525	90.19
295.756	102.19
295.987	126.19
296.217	147.19
296.448	116.19
296.679	101.19
296.909	103.19
297.14	96.19
297.37	95.19
297.601	84.19
297.831	67.19
298.062	81.19
298.292	97.19
298.523	104.19
298.753	82.19
298.984	100.19
299.214	94.19
299.445	84.19
299.675	100.19
299.905	86.19
300.136	99.19
300.366	88.19
300.597	92.19
300.827	107.19
301.057	105.19
301.288	111.19
301.518	97.19
301.748	93.19
301.979	93.19
302.209	93.19
302.439	100.19
302.669	76.19
302.9	95.19
303.13	97.19
303.36	103.19
303.59	99.19
303.82	89.19
304.051	85.19
304.281	97.19
304.511	94.19
304.741	89.19
304.971	86.19
305.201	91.19
305.431	83.19
305.661	88.19
305.891	94.19
306.121	87.19
306.352	105.19
306.582	105.19
306.812	84.19
307.042	108.19
307.272	85.19
307.502	109.19
307.731	96.19
307.961	110.19
308.191	102.19
308.421	88.19
308.651	103.19
308.881	93.19
309.111	95.19
309.341	93.19
309.571	108.19
309.8	97.19
310.03	103.19
310.26	86.19
310.49	81.19
310.72	97.19
310.949	101.19
311.179	102.19
311.409	83.19
311.639	100.19
311.868	88.19
312.098	96.19
312.328	91.19
312.557	101.19
312.787	96.19
313.017	108.19
313.246	97.19
313.476	96.19
313.706	101.19
313.935	88.19
314.165	96.19
314.394	95.19
314.624	102.19
314.853	98.19
315.083	103.19
315.312	91.19
315.542	90.19
315.771	91.19
316.001	95.19
316.23	98.19
316.46	90.19
316.689	91.19
316.919	87.19
317.148	101.19
317.377	87.19
317.607	100.19
317.836	97.19
318.065	83.19
318.295	70.19
318.524	90.19
318.753	96.19
318.983	87.19
319.212	92.19
319.441	104.19
319.67	103.19
319.9	94.19
320.129	93.19
320.358	93.19
320.587	113.19
320.816	111.19
321.046	106.19
321.275	106.19
321.504	93.19
321.733	97.19
321.962	99.19
322.191	85.19
322.42	107.19
322.649	111.19
322.878	118.19
323.108	119.19
323.337	130.19
323.566	133.19
323.795	157.19
324.024	219.19
324.253	412.19
324.482	884.19
324.71	1858.19
324.939	2369.19
325.168	860.19
325.397	272.19
325.626	159.19
325.855	129.19
326.084	131.19
326.313	139.19
326.542	155.19
326.77	247.19
326.999	487.19
327.228	1018.19
327.457	1840.19
327.686	1475.19
327.914	406.19
328.143	196.19
328.372	159.19
328.6	132.19
328.829	108.19
329.058	128.19
329.287	124.19
329.515	113.19
329.744	105.19
329.972	98.19
330.201	113.19
330.43	106.19
330.658	128.19
330.887	119.19
331.115	116.19
331.344	97.19
331.572	109.19
331.801	105.19
332.03	111.19
332.258	101.19
332.486	94.19
332.715	108.19
332.943	104.19
333.172	98.19
333.4	100.19
333.629	108.19
333.857	106.19
334.085	96.19
334.314	99.19
334.542	110.19
334.771	125.19
334.999	98.19
335.227	93.19
335.455	90.19
335.684	107.19
335.912	102.19
336.14	88.19
336.369	95.19
336.597	101.19
336.825	100.19
337.053	99.19
337.281	91.19
337.51	84.19
337.738	89.19
337.966	82.19
338.194	81.19
338.422	99.19
338.65	103.19
338.878	78.19
339.106	105.19
339.334	95.19
339.562	102.19
339.79	105.19
340.018	95.19
340.246	100.19
340.474	107.19
340.702	96.19
340.93	91.19
341.158	94.19
341.386	87.19
341.614	112.19
341.842	90.19
342.07	94.19
342.298	89.19
342.526	93.19
342.754	101.19
342.981	89.19
343.209	79.19
343.437	97.19
343.665	98.19
343.893	91.19
344.12	95.19
344.348	89.19
344.576	97.19
344.804	97.19
345.031	101.19
345.259	92.19
345.487	96.19
345.714	98.19
345.942	100.19
346.17	85.19
346.397	94.19
346.625	92.19
346.853	103.19
347.08	102.19
347.308	98.19
347.535	89.19
347.763	99.19
347.99	112.19
348.218	104.19
348.445	115.19
348.673	97.19
348.9	98.19
349.128	91.19
349.355	105.19
349.583	97.19
349.81	107.19
350.037	102.19
350.265	101.19
350.492	89.19
350.72	97.19
350.947	96.19
351.174	106.19
351.402	121.19
351.629	109.19
351.856	105.19
352.083	105.19
352.311	94.19
352.538	109.19
352.765	110.19
352.992	122.19
353.22	100.19
353.447	108.19
353.674	95.19
353.901	78.19
354.128	100.19
354.355	105.19
354.583	104.19
354.81	97.19
355.037	112.19
355.264	101.19
355.491	108.19
355.718	90.19
355.945	109.19
356.172	112.19
356.399	101.19
356.626	105.19
356.853	101.19
357.08	94.19
357.307	94.19
357.534	100.19
357.761	93.19
357.988	109.19
358.215	101.19
358.441	98.19
358.668	97.19
358.895	90.19
359.122	90.19
359.349	105.19
359.576	84.19
359.802	105.19
360.029	116.19
360.256	112.19
360.483	104.19
360.709	107.19
360.936	95.19
361.163	99.19
361.39	89.19
361.616	110.19
361.843	93.19
362.07	107.19
362.296	92.19
362.523	101.19
362.749	93.19
362.976	92.19
363.203	104.19
363.429	89.19
363.656	86.19
363.882	101.19
364.109	93.19
364.335	91.19
364.562	93.19
364.788	92.19
365.015	88.19
365.241	95.19
365.468	103.19
365.694	98.19
365.92	77.19
366.147	89.19
366.373	91.19
366.599	93.19
366.826	122.19
367.052	109.19
367.278	111.19
367.505	86.19
367.731	102.19
367.957	89.19
368.184	92.19
368.41	95.19
368.636	103.19
368.862	107.19
369.089	101.19
369.315	97.19
369.541	83.19
369.767	98.19
369.993	94.19
370.219	97.19
370.445	81.19
370.672	86.19
370.898	83.19
371.124	93.19
371.35	91.19
371.576	72.19
371.802	100.19
372.028	93.19
372.254	91.19
372.48	91.19
372.706	108.19
372.932	83.19
373.158	84.19
373.384	98.19
373.61	89.19
373.835	85.19
374.061	99.19
374.287	107.19
374.513	95.19
374.739	90.19
374.965	91.19
375.191	92.19
375.416	91.19
375.642	85.19
375.868	98.19
376.094	107.19
376.319	93.19
376.545	92.19
376.771	103.19
376.997	101.19
377.222	81.19
377.448	93.19
377.674	83.19
377.899	117.19
378.125	98.19
378.35	99.19
378.576	86.19
378.802	94.19
379.027	89.19
379.253	110.19
379.478	79.19
379.704	102.19
379.929	100.19
380.155	103.19
380.38	101.19
380.606	110.19
380.831	95.19
381.057	85.19
381.282	105.19
381.507	106.19
381.733	95.19
381.958	86.19
382.184	95.19
382.409	100.19
382.634	99.19
382.86	95.19
383.085	87.19
383.31	104.19
383.535	100.19
383.761	101.19
383.986	109.19
384.211	109.19
384.436	91.19
384.662	110.19
384.887	110.19
385.112	121.19
385.337	91.19
385.562	113.19
385.787	111.19
386.013	123.19
386.238	117.19
386.463	113.19
386.688	122.19
386.913	93.19
387.138	115.19
387.363	104.19
387.588	100.19
387.813	103.19
388.038	101.19
388.263	113.19
388.488	94.19
388.713	110.19
388.938	92.19
389.163	101.19
389.387	92.19
389.612	100.19
389.837	99.19
390.062	86.19
390.287	101.19
390.512	116.19
390.736	89.19
390.961	93.19
391.186	103.19
391.411	102.19
391.636	104.19
391.86	93.19
392.085	84.19
392.31	89.19
392.534	91.19
392.759	101.19
392.984	83.19
393.208	86.19
393.433	94.19
393.658	95.19
393.882	83.19
394.107	90.19
394.331	80.19
394.556	75.19
394.78	89.19
395.005	93.19
395.229	93.19
395.454	92.19
395.678	95.19
395.903	106.19
396.127	92.19
396.352	85.19
396.576	95.19
396.801	91.19
397.025	86.19
397.249	94.19
397.474	93.19
397.698	83.19
397.922	93.19
398.147	89.19
398.371	92.19
398.595	76.19
398.82	86.19
399.044	89.19
399.268	85.19
399.492	97.19
399.717	94.19
399.941	90.19
400.165	98.19
400.389	91.19
400.613	88.19
400.837	108.19
401.062	100.19
401.286	89.19
401.51	96.19
401.734	99.19
401.958	96.19
402.182	123.19
402.406	151.19
402.63	119.19
402.854	112.19
403.078	72.19
403.302	96.19
403.526	96.19
403.75	96.19
403.974	94.19
404.198	94.19
404.422	82.19
404.645	98.19
404.869	103.19
405.093	110.19
405.317	100.19
405.541	102.19
405.765	93.19
405.988	98.19
406.212	163.19
406.436	200.19
406.66	131.19
406.883	107.19
407.107	83.19
407.331	107.19
407.555	98.19
407.778	97.19
408.002	91.19
408.226	114.19
408.449	90.19
408.673	93.19
408.896	91.19
409.12	92.19
409.344	92.19
409.567	96.19
409.791	105.19
410.014	98.19
410.238	99.19
410.461	98.19
410.685	99.19
410.908	102.19
411.132	94.19
411.355	93.19
411.578	114.19
411.802	92.19
412.025	86.19
412.249	90.19
412.472	69.19
412.695	89.19
412.919	96.19
413.142	90.19
413.365	92.19
413.589	83.19
413.812	89.19
414.035	98.19
414.258	98.19
414.482	105.19
414.705	98.19
414.928	98.19
415.151	98.19
415.374	93.19
415.597	84.19
415.821	92.19
416.044	100.19
416.267	89.19
416.49	93.19
416.713	101.19
416.936	95.19
417.159	96.19
417.382	103.19
417.605	95.19
417.828	109.19
418.051	110.19
418.274	96.19
418.497	87.19
418.72	81.19
418.943	99.19
419.166	96.19
419.389	101.19
419.611	91.19
419.834	95.19
420.057	96.19
420.28	83.19
420.503	84.19
420.726	79.19
420.948	91.19
421.171	97.19
421.394	99.19
421.617	99.19
421.839	94.19
422.062	96.19
422.285	98.19
422.507	89.19
422.73	97.19
422.953	97.19
423.175	98.19
423.398	87.19
423.621	88.19
423.843	93.19
424.066	81.19
424.288	86.19
424.511	97.19
424.733	100.19
424.956	104.19
425.178	83.19
425.401	105.19
425.623	94.19
425.846	84.19
426.068	81.19
426.291	99.19
426.513	97.19
426.735	90.19
426.958	89.19
427.18	102.19
427.402	128.19
427.625	162.19
427.847	135.19
428.069	108.19
428.292	92.19
428.514	79.19
428.736	92.19
428.958	79.19
429.181	87.19
429.403	83.19
429.625	92.19
429.847	100.19
430.069	89.19
430.292	106.19
430.514	89.19
430.736	79.19
430.958	80.19
431.18	98.19
431.402	97.19
431.624	82.19
431.846	96.19
432.068	105.19
432.29	87.19
432.512	81.19
432.734	87.19
432.956	92.19
433.178	108.19
433.4	95.19
433.622	104.19
433.844	91.19
434.066	91.19
434.287	85.19
434.509	85.19
434.731	85.19
434.953	90.19
435.175	85.19
435.397	108.19
435.618	104.19
435.84	104.19
436.062	121.19
436.284	127.19
436.505	119.19
436.727	97.19
436.949	92.19
437.17	89.19
437.392	84.19
437.614	101.19
437.835	103.19
438.057	100.19
438.278	96.19
438.5	98.19
438.721	129.19
438.943	100.19
439.165	91.19
439.386	94.19
439.608	93.19
439.829	95.19
440.05	129.19
440.272	151.19
440.493	111.19
440.715	80.19
440.936	92.19
441.158	93.19
441.379	97.19
441.6	107.19
441.822	85.19
442.043	97.19
442.264	100.19
442.486	74.19
442.707	96.19
442.928	112.19
443.149	121.19
443.371	115.19
443.592	100.19
443.813	121.19
444.034	106.19
444.255	98.19
444.476	111.19
444.698	96.19
444.919	91.19
445.14	123.19
445.361	111.19
445.582	115.19
445.803	120.19
446.024	131.19
446.245	136.19
446.466	100.19
446.687	87.19
446.908	89.19
447.129	88.19
447.35	100.19
447.571	88.19
447.792	91.19
448.013	97.19
448.234	99.19
448.455	99.19
448.675	103.19
448.896	117.19
449.117	98.19
449.338	109.19
449.559	124.19
449.779	130.19
450	106.19
450.221	93.19
450.442	95.19
450.662	110.19
450.883	97.19
451.104	109.19
451.324	103.19
451.545	86.19
451.766	72.19
451.986	105.19
452.207	79.19
452.428	95.19
452.648	103.19
452.869	102.19
453.089	107.19
453.31	117.19
453.53	94.19
453.751	84.19
453.971	107.19
454.192	109.19
454.412	83.19
454.633	93.19
454.853	87.19
455.073	76.19
455.294	92.19
455.514	106.19
455.734	87.19
455.955	81.19
456.175	81.19
456.395	88.19
456.616	83.19
456.836	99.19
457.056	85.19
457.276	87.19
457.497	93.19
457.717	87.19
457.937	91.19
458.157	95.19
458.377	97.19
458.598	105.19
458.818	137.19
459.038	144.19
459.258	102.19
459.478	90.19
459.698	81.19
459.918	100.19
460.138	112.19
460.358	92.19
460.578	86.19
460.798	95.19
461.018	91.19
461.238	90.19
461.458	92.19
461.678	94.19
461.898	75.19
462.118	107.19
462.338	100.19
462.558	77.19
462.777	85.19
462.997	91.19
463.217	91.19
463.437	82.19
463.657	93.19
463.876	85.19
464.096	79.19
464.316	92.19
464.536	99.19
464.755	98.19
464.975	105.19
465.195	154.19
465.414	155.19
465.634	94.19
465.854	74.19
466.073	82.19
466.293	87.19
466.512	89.19
466.732	88.19
466.951	79.19
467.171	85.19
467.391	88.19
467.61	101.19
467.829	114.19
468.049	106.19
468.268	76.19
468.488	94.19
468.707	101.19
468.927	101.19
469.146	92.19
469.365	83.19
469.585	95.19
469.804	105.19
470.023	105.19
470.243	108.19
470.462	109.19
470.681	97.19
470.901	76.19
471.12	88.19
471.339	92.19
471.558	88.19
471.777	84.19
471.997	82.19
472.216	93.19
472.435	109.19
472.654	100.19
472.873	87.19
473.092	89.19
473.311	88.19
473.53	95.19
473.749	93.19
473.968	99.19
474.187	109.19
474.406	92.19
474.625	91.19
474.844	71.19
475.063	94.19
475.282	91.19
475.501	76.19
475.72	89.19
475.939	89.19
476.158	89.19
476.377	99.19
476.596	84.19
476.814	100.19
477.033	93.19
477.252	83.19
477.471	90.19
477.69	105.19
477.908	84.19
478.127	95.19
478.346	77.19
478.564	94.19
478.783	99.19
479.002	86.19
479.22	98.19
479.439	84.19
479.658	104.19
479.876	103.19
480.095	91.19
480.313	86.19
480.532	98.19
480.751	92.19
480.969	92.19
481.188	118.19
481.406	102.19
481.624	99.19
481.843	109.19
482.061	90.19
482.28	89.19
482.498	91.19
482.717	99.19
482.935	94.19
483.153	92.19
483.372	95.19
483.59	92.19
483.808	86.19
484.027	88.19
484.245	102.19
484.463	82.19
484.681	92.19
484.9	97.19
485.118	95.19
485.336	97.19
485.554	95.19
485.772	104.19
485.99	112.19
486.209	97.19
486.427	107.19
486.645	108.19
486.863	116.19
487.081	102.19
487.299	103.19
487.517	98.19
487.735	91.19
487.953	89.19
488.171	102.19
488.389	105.19
488.607	96.19
488.825	101.19
489.043	100.19
489.261	101.19
489.479	96.19
489.696	103.19
489.914	102.19
490.132	91.19
490.35	108.19
490.568	94.19
490.786	99.19
491.003	107.19
491.221	98.19
491.439	93.19
491.657	93.19
491.874	79.19
492.092	89.19
492.31	90.19
492.527	93.19
492.745	104.19
492.963	98.19
493.18	101.19
493.398	105.19
493.615	105.19
493.833	105.19
494.05	96.19
494.268	100.19
494.485	103.19
494.703	78.19
494.92	107.19
495.138	103.19
495.355	93.19
495.573	84.19
495.79	80.19
496.008	96.19
496.225	97.19
496.442	100.19
496.66	105.19
496.877	104.19
497.094	94.19
497.312	87.19
497.529	98.19
497.746	95.19
497.963	84.19
498.181	95.19
498.398	81.19
498.615	97.19
498.832	99.19
499.049	107.19
499.267	97.19
499.484	92.19
499.701	91.19
499.918	101.19
500.135	85.19
500.352	98.19
500.569	82.19
500.786	84.19
501.003	84.19
501.22	91.19
501.437	90.19
501.654	100.19
501.871	96.19
502.088	100.19
502.305	96.19
502.522	86.19
502.739	100.19
502.956	90.19
503.172	99.19
503.389	91.19
503.606	100.19
503.823	94.19
504.04	99.19
504.256	101.19
504.473	91.19
504.69	106.19
504.907	97.19
505.123	75.19
505.34	91.19
505.557	101.19
505.773	101.19
505.99	108.19
506.207	95.19
506.423	80.19
506.64	100.19
506.856	105.19
507.073	97.19
507.289	93.19
507.506	91.19
507.722	120.19
507.939	101.19
508.155	97.19
508.372	95.19
508.588	96.19
508.805	95.19
509.021	99.19
509.238	107.19
509.454	108.19
509.67	108.19
509.887	116.19
510.103	136.19
510.319	220.19
510.536	755.19
510.752	2290.19
510.968	636.19
511.184	150.19
511.401	103.19
511.617	110.19
511.833	85.19
512.049	92.19
512.265	87.19
512.481	97.19
512.698	105.19
512.914	88.19
513.13	79.19
513.346	89.19
513.562	97.19
513.778	111.19
513.994	92.19
514.21	106.19
514.426	112.19
