Data from Uncirc_1999_H10_HRD10591_00045.txt Node
Date: Wed Jan 03 11:22:14 EST 2024
User: Yrep
Spectrometer: HR+D1059
Trigger mode: 1
Integration Time (sec): 1.000000E-1
Scans to average: 1
Electric dark correction enabled: true
Nonlinearity correction enabled: false
Boxcar width: 0
XAxis mode: Wavelengths
Number of Pixels in Spectrum: 2048
>>>>>Begin Spectral Data<<<<<
223.165	-23.25
223.4	-23.25
223.635	-23.25
223.869	-18.25
224.104	-24.25
224.338	-11.25
224.573	-13.25
224.808	-17.25
225.042	2.75
225.277	-6.25
225.511	-11.25
225.746	1.75
225.98	11.75
226.215	17.75
226.449	18.75
226.683	15.75
226.918	17.75
227.152	38.75
227.387	57.75
227.621	45.75
227.856	53.75
228.09	54.75
228.324	50.75
228.559	64.75
228.793	53.75
229.027	65.75
229.262	74.75
229.496	62.75
229.73	90.75
229.964	79.75
230.199	82.75
230.433	73.75
230.667	80.75
230.901	75.75
231.136	70.75
231.37	78.75
231.604	92.75
231.838	82.75
232.072	88.75
232.306	77.75
232.541	74.75
232.775	74.75
233.009	79.75
233.243	86.75
233.477	79.75
233.711	97.75
233.945	83.75
234.179	82.75
234.413	80.75
234.647	67.75
234.881	79.75
235.115	74.75
235.349	89.75
235.583	73.75
235.817	78.75
236.051	80.75
236.285	82.75
236.519	76.75
236.753	81.75
236.987	83.75
237.221	92.75
237.455	82.75
237.689	96.75
237.922	75.75
238.156	83.75
238.39	80.75
238.624	74.75
238.858	79.75
239.091	66.75
239.325	72.75
239.559	83.75
239.793	93.75
240.027	90.75
240.26	78.75
240.494	62.75
240.728	60.75
240.961	80.75
241.195	73.75
241.429	83.75
241.662	78.75
241.896	74.75
242.13	80.75
242.363	72.75
242.597	58.75
242.83	77.75
243.064	78.75
243.298	74.75
243.531	77.75
243.765	79.75
243.998	86.75
244.232	86.75
244.465	86.75
244.699	77.75
244.932	71.75
245.166	76.75
245.399	72.75
245.633	81.75
245.866	79.75
246.099	78.75
246.333	91.75
246.566	61.75
246.8	79.75
247.033	99.75
247.266	82.75
247.5	79.75
247.733	83.75
247.966	82.75
248.2	80.75
248.433	91.75
248.666	64.75
248.899	86.75
249.133	104.75
249.366	97.75
249.599	94.75
249.832	86.75
250.066	87.75
250.299	80.75
250.532	95.75
250.765	88.75
250.998	68.75
251.231	81.75
251.465	68.75
251.698	100.75
251.931	88.75
252.164	86.75
252.397	77.75
252.63	78.75
252.863	80.75
253.096	83.75
253.329	76.75
253.562	91.75
253.795	78.75
254.028	80.75
254.261	89.75
254.494	81.75
254.727	76.75
254.96	83.75
255.193	80.75
255.426	99.75
255.659	89.75
255.892	90.75
256.124	90.75
256.357	78.75
256.59	78.75
256.823	80.75
257.056	80.75
257.289	76.75
257.521	82.75
257.754	89.75
257.987	86.75
258.22	71.75
258.452	78.75
258.685	93.75
258.918	83.75
259.151	72.75
259.383	71.75
259.616	83.75
259.849	99.75
260.081	93.75
260.314	94.75
260.547	93.75
260.779	71.75
261.012	95.75
261.244	83.75
261.477	85.75
261.71	85.75
261.942	98.75
262.175	97.75
262.407	90.75
262.64	80.75
262.872	86.75
263.105	79.75
263.337	92.75
263.57	84.75
263.802	92.75
264.035	90.75
264.267	91.75
264.499	84.75
264.732	91.75
264.964	94.75
265.197	65.75
265.429	93.75
265.661	91.75
265.894	83.75
266.126	82.75
266.358	83.75
266.591	77.75
266.823	83.75
267.055	80.75
267.287	90.75
267.52	97.75
267.752	81.75
267.984	91.75
268.216	82.75
268.448	92.75
268.681	81.75
268.913	94.75
269.145	95.75
269.377	88.75
269.609	76.75
269.841	91.75
270.073	74.75
270.306	91.75
270.538	84.75
270.77	99.75
271.002	101.75
271.234	99.75
271.466	86.75
271.698	93.75
271.93	88.75
272.162	91.75
272.394	81.75
272.626	84.75
272.858	81.75
273.09	88.75
273.322	91.75
273.553	89.75
273.785	86.75
274.017	91.75
274.249	100.75
274.481	81.75
274.713	92.75
274.945	88.75
275.176	86.75
275.408	87.75
275.64	90.75
275.872	88.75
276.104	88.75
276.335	85.75
276.567	96.75
276.799	98.75
277.031	96.75
277.262	82.75
277.494	81.75
277.726	89.75
277.957	99.75
278.189	92.75
278.421	88.75
278.652	99.75
278.884	93.75
279.115	92.75
279.347	85.75
279.579	91.75
279.81	83.75
280.042	83.75
280.273	87.75
280.505	91.75
280.736	98.75
280.968	91.75
281.199	85.75
281.431	89.75
281.662	88.75
281.894	86.75
282.125	103.75
282.356	94.75
282.588	124.75
282.819	106.75
283.051	94.75
283.282	74.75
283.513	78.75
283.745	98.75
283.976	91.75
284.207	90.75
284.439	81.75
284.67	89.75
284.901	86.75
285.132	81.75
285.364	102.75
285.595	91.75
285.826	88.75
286.057	103.75
286.288	88.75
286.52	91.75
286.751	83.75
286.982	95.75
287.213	91.75
287.444	91.75
287.675	79.75
287.906	88.75
288.138	99.75
288.369	95.75
288.6	106.75
288.831	100.75
289.062	88.75
289.293	95.75
289.524	94.75
289.755	87.75
289.986	74.75
290.217	94.75
290.448	82.75
290.679	90.75
290.91	88.75
291.141	87.75
291.371	88.75
291.602	79.75
291.833	83.75
292.064	83.75
292.295	98.75
292.526	97.75
292.757	97.75
292.987	81.75
293.218	100.75
293.449	91.75
293.68	98.75
293.91	100.75
294.141	89.75
294.372	88.75
294.603	79.75
294.833	89.75
295.064	81.75
295.295	93.75
295.525	100.75
295.756	106.75
295.987	119.75
296.217	125.75
296.448	114.75
296.679	97.75
296.909	95.75
297.14	78.75
297.37	81.75
297.601	78.75
297.831	92.75
298.062	81.75
298.292	103.75
298.523	84.75
298.753	78.75
298.984	79.75
299.214	88.75
299.445	103.75
299.675	91.75
299.905	102.75
300.136	91.75
300.366	73.75
300.597	94.75
300.827	86.75
301.057	87.75
301.288	101.75
301.518	95.75
301.748	92.75
301.979	97.75
302.209	93.75
302.439	94.75
302.669	86.75
302.9	90.75
303.13	85.75
303.36	91.75
303.59	104.75
303.82	85.75
304.051	83.75
304.281	100.75
304.511	87.75
304.741	98.75
304.971	98.75
305.201	99.75
305.431	98.75
305.661	93.75
305.891	89.75
306.121	95.75
306.352	88.75
306.582	91.75
306.812	97.75
307.042	86.75
307.272	85.75
307.502	87.75
307.731	92.75
307.961	74.75
308.191	91.75
308.421	92.75
308.651	98.75
308.881	92.75
309.111	91.75
309.341	92.75
309.571	121.75
309.8	93.75
310.03	99.75
310.26	95.75
310.49	99.75
310.72	99.75
310.949	106.75
311.179	92.75
311.409	92.75
311.639	89.75
311.868	100.75
312.098	97.75
312.328	85.75
312.557	105.75
312.787	118.75
313.017	108.75
313.246	108.75
313.476	82.75
313.706	99.75
313.935	95.75
314.165	88.75
314.394	100.75
314.624	96.75
314.853	90.75
315.083	94.75
315.312	100.75
315.542	98.75
315.771	87.75
316.001	89.75
316.23	79.75
316.46	89.75
316.689	94.75
316.919	94.75
317.148	84.75
317.377	97.75
317.607	98.75
317.836	86.75
318.065	77.75
318.295	93.75
318.524	87.75
318.753	87.75
318.983	94.75
319.212	102.75
319.441	108.75
319.67	118.75
319.9	90.75
320.129	91.75
320.358	99.75
320.587	88.75
320.816	97.75
321.046	102.75
321.275	108.75
321.504	92.75
321.733	94.75
321.962	85.75
322.191	98.75
322.42	103.75
322.649	108.75
322.878	117.75
323.108	120.75
323.337	111.75
323.566	131.75
323.795	134.75
324.024	207.75
324.253	408.75
324.482	790.75
324.71	1649.75
324.939	2148.75
325.168	783.75
325.397	230.75
325.626	142.75
325.855	139.75
326.084	145.75
326.313	142.75
326.542	161.75
326.77	234.75
326.999	465.75
327.228	957.75
327.457	1709.75
327.686	1331.75
327.914	377.75
328.143	184.75
328.372	136.75
328.6	116.75
328.829	112.75
329.058	120.75
329.287	118.75
329.515	97.75
329.744	104.75
329.972	103.75
330.201	112.75
330.43	117.75
330.658	121.75
330.887	113.75
331.115	108.75
331.344	109.75
331.572	96.75
331.801	92.75
332.03	110.75
332.258	86.75
332.486	92.75
332.715	99.75
332.943	98.75
333.172	98.75
333.4	102.75
333.629	107.75
333.857	115.75
334.085	108.75
334.314	93.75
334.542	111.75
334.771	102.75
334.999	109.75
335.227	95.75
335.455	93.75
335.684	96.75
335.912	97.75
336.14	104.75
336.369	84.75
336.597	104.75
336.825	97.75
337.053	97.75
337.281	90.75
337.51	99.75
337.738	102.75
337.966	76.75
338.194	84.75
338.422	105.75
338.65	106.75
338.878	102.75
339.106	108.75
339.334	85.75
339.562	94.75
339.79	94.75
340.018	75.75
340.246	82.75
340.474	87.75
340.702	79.75
340.93	92.75
341.158	96.75
341.386	89.75
341.614	102.75
341.842	93.75
342.07	105.75
342.298	97.75
342.526	102.75
342.754	74.75
342.981	94.75
343.209	91.75
343.437	93.75
343.665	93.75
343.893	70.75
344.12	90.75
344.348	87.75
344.576	85.75
344.804	90.75
345.031	105.75
345.259	100.75
345.487	91.75
345.714	93.75
345.942	104.75
346.17	99.75
346.397	83.75
346.625	96.75
346.853	102.75
347.08	84.75
347.308	84.75
347.535	99.75
347.763	98.75
347.99	97.75
348.218	110.75
348.445	99.75
348.673	110.75
348.9	95.75
349.128	92.75
349.355	92.75
349.583	110.75
349.81	99.75
350.037	87.75
350.265	104.75
350.492	102.75
350.72	90.75
350.947	106.75
351.174	105.75
351.402	103.75
351.629	105.75
351.856	110.75
352.083	100.75
352.311	96.75
352.538	107.75
352.765	109.75
352.992	137.75
353.22	109.75
353.447	102.75
353.674	116.75
353.901	89.75
354.128	94.75
354.355	99.75
354.583	97.75
354.81	96.75
355.037	110.75
355.264	94.75
355.491	88.75
355.718	87.75
355.945	87.75
356.172	98.75
356.399	98.75
356.626	106.75
356.853	90.75
357.08	92.75
357.307	90.75
357.534	77.75
357.761	91.75
357.988	98.75
358.215	99.75
358.441	94.75
358.668	99.75
358.895	97.75
359.122	95.75
359.349	94.75
359.576	93.75
359.802	117.75
360.029	113.75
360.256	97.75
360.483	98.75
360.709	82.75
360.936	97.75
361.163	82.75
361.39	111.75
361.616	95.75
361.843	85.75
362.07	99.75
362.296	107.75
362.523	95.75
362.749	103.75
362.976	85.75
363.203	105.75
363.429	98.75
363.656	88.75
363.882	88.75
364.109	87.75
364.335	91.75
364.562	103.75
364.788	112.75
365.015	96.75
365.241	94.75
365.468	98.75
365.694	107.75
365.92	96.75
366.147	109.75
366.373	109.75
366.599	88.75
366.826	86.75
367.052	77.75
367.278	94.75
367.505	100.75
367.731	82.75
367.957	81.75
368.184	91.75
368.41	111.75
368.636	112.75
368.862	116.75
369.089	94.75
369.315	103.75
369.541	96.75
369.767	84.75
369.993	96.75
370.219	88.75
370.445	96.75
370.672	91.75
370.898	84.75
371.124	82.75
371.35	87.75
371.576	90.75
371.802	104.75
372.028	95.75
372.254	104.75
372.48	80.75
372.706	97.75
372.932	85.75
373.158	95.75
373.384	98.75
373.61	105.75
373.835	96.75
374.061	75.75
374.287	89.75
374.513	102.75
374.739	94.75
374.965	86.75
375.191	95.75
375.416	65.75
375.642	104.75
375.868	89.75
376.094	90.75
376.319	92.75
376.545	95.75
376.771	97.75
376.997	79.75
377.222	94.75
377.448	110.75
377.674	90.75
377.899	102.75
378.125	104.75
378.35	94.75
378.576	96.75
378.802	98.75
379.027	96.75
379.253	91.75
379.478	90.75
379.704	96.75
379.929	102.75
380.155	99.75
380.38	90.75
380.606	92.75
380.831	100.75
381.057	118.75
381.282	108.75
381.507	106.75
381.733	102.75
381.958	103.75
382.184	91.75
382.409	108.75
382.634	113.75
382.86	109.75
383.085	100.75
383.31	110.75
383.535	108.75
383.761	111.75
383.986	102.75
384.211	127.75
384.436	106.75
384.662	102.75
384.887	108.75
385.112	115.75
385.337	89.75
385.562	92.75
385.787	96.75
386.013	98.75
386.238	116.75
386.463	104.75
386.688	105.75
386.913	96.75
387.138	122.75
387.363	107.75
387.588	102.75
387.813	108.75
388.038	112.75
388.263	126.75
388.488	119.75
388.713	94.75
388.938	97.75
389.163	97.75
389.387	99.75
389.612	97.75
389.837	102.75
390.062	102.75
390.287	78.75
390.512	98.75
390.736	91.75
390.961	86.75
391.186	79.75
391.411	94.75
391.636	110.75
391.86	90.75
392.085	93.75
392.31	94.75
392.534	79.75
392.759	101.75
392.984	87.75
393.208	83.75
393.433	86.75
393.658	97.75
393.882	100.75
394.107	92.75
394.331	86.75
394.556	74.75
394.78	93.75
395.005	76.75
395.229	80.75
395.454	100.75
395.678	91.75
395.903	99.75
396.127	99.75
396.352	82.75
396.576	107.75
396.801	95.75
397.025	97.75
397.249	83.75
397.474	83.75
397.698	86.75
397.922	93.75
398.147	87.75
398.371	81.75
398.595	80.75
398.82	88.75
399.044	78.75
399.268	89.75
399.492	87.75
399.717	88.75
399.941	88.75
400.165	78.75
400.389	87.75
400.613	84.75
400.837	82.75
401.062	73.75
401.286	102.75
401.51	99.75
401.734	78.75
401.958	88.75
402.182	127.75
402.406	153.75
402.63	126.75
402.854	89.75
403.078	99.75
403.302	99.75
403.526	86.75
403.75	82.75
403.974	91.75
404.198	82.75
404.422	100.75
404.645	97.75
404.869	85.75
405.093	86.75
405.317	94.75
405.541	105.75
405.765	97.75
405.988	109.75
406.212	147.75
406.436	193.75
406.66	131.75
406.883	94.75
407.107	97.75
407.331	103.75
407.555	106.75
407.778	103.75
408.002	89.75
408.226	88.75
408.449	102.75
408.673	91.75
408.896	97.75
409.12	104.75
409.344	100.75
409.567	98.75
409.791	92.75
410.014	105.75
410.238	101.75
410.461	87.75
410.685	82.75
410.908	98.75
411.132	99.75
411.355	115.75
411.578	85.75
411.802	102.75
412.025	88.75
412.249	88.75
412.472	84.75
412.695	100.75
412.919	92.75
413.142	87.75
413.365	91.75
413.589	89.75
413.812	79.75
414.035	94.75
414.258	83.75
414.482	110.75
414.705	95.75
414.928	97.75
415.151	87.75
415.374	98.75
415.597	82.75
415.821	92.75
416.044	86.75
416.267	87.75
416.49	72.75
416.713	94.75
416.936	90.75
417.159	91.75
417.382	79.75
417.605	88.75
417.828	102.75
418.051	86.75
418.274	83.75
418.497	78.75
418.72	85.75
418.943	92.75
419.166	83.75
419.389	87.75
419.611	94.75
419.834	88.75
420.057	93.75
420.28	80.75
420.503	88.75
420.726	88.75
420.948	92.75
421.171	111.75
421.394	105.75
421.617	107.75
421.839	85.75
422.062	83.75
422.285	84.75
422.507	91.75
422.73	104.75
422.953	86.75
423.175	89.75
423.398	92.75
423.621	108.75
423.843	70.75
424.066	97.75
424.288	86.75
424.511	98.75
424.733	107.75
424.956	113.75
425.178	96.75
425.401	99.75
425.623	96.75
425.846	100.75
426.068	78.75
426.291	96.75
426.513	80.75
426.735	103.75
426.958	88.75
427.18	109.75
427.402	124.75
427.625	148.75
427.847	108.75
428.069	106.75
428.292	94.75
428.514	83.75
428.736	81.75
428.958	93.75
429.181	99.75
429.403	91.75
429.625	87.75
429.847	82.75
430.069	93.75
430.292	90.75
430.514	90.75
430.736	82.75
430.958	100.75
431.18	80.75
431.402	85.75
431.624	76.75
431.846	86.75
432.068	95.75
432.29	94.75
432.512	91.75
432.734	89.75
432.956	95.75
433.178	97.75
433.4	91.75
433.622	95.75
433.844	81.75
434.066	84.75
434.287	96.75
434.509	98.75
434.731	93.75
434.953	92.75
435.175	94.75
435.397	77.75
435.618	84.75
435.84	106.75
436.062	112.75
436.284	113.75
436.505	92.75
436.727	102.75
436.949	99.75
437.17	90.75
437.392	90.75
437.614	76.75
437.835	114.75
438.057	121.75
438.278	98.75
438.5	102.75
438.721	99.75
438.943	102.75
439.165	81.75
439.386	93.75
439.608	89.75
439.829	93.75
440.05	112.75
440.272	123.75
440.493	105.75
440.715	91.75
440.936	100.75
441.158	100.75
441.379	102.75
441.6	98.75
441.822	104.75
442.043	90.75
442.264	93.75
442.486	86.75
442.707	91.75
442.928	100.75
443.149	105.75
443.371	108.75
443.592	107.75
443.813	87.75
444.034	83.75
444.255	103.75
444.476	82.75
444.698	93.75
444.919	86.75
445.14	128.75
445.361	138.75
445.582	108.75
445.803	113.75
446.024	130.75
446.245	135.75
446.466	114.75
446.687	91.75
446.908	97.75
447.129	95.75
447.35	84.75
447.571	99.75
447.792	91.75
448.013	103.75
448.234	103.75
448.455	99.75
448.675	105.75
448.896	97.75
449.117	96.75
449.338	105.75
449.559	114.75
449.779	130.75
450	99.75
450.221	100.75
450.442	92.75
450.662	92.75
450.883	103.75
451.104	106.75
451.324	98.75
451.545	88.75
451.766	94.75
451.986	93.75
452.207	84.75
452.428	101.75
452.648	101.75
452.869	112.75
453.089	115.75
453.31	114.75
453.53	84.75
453.751	86.75
453.971	98.75
454.192	97.75
454.412	98.75
454.633	100.75
454.853	98.75
455.073	88.75
455.294	102.75
455.514	111.75
455.734	92.75
455.955	92.75
456.175	100.75
456.395	89.75
456.616	84.75
456.836	97.75
457.056	77.75
457.276	83.75
457.497	95.75
457.717	84.75
457.937	91.75
458.157	102.75
458.377	90.75
458.598	103.75
458.818	129.75
459.038	145.75
459.258	99.75
459.478	94.75
459.698	77.75
459.918	76.75
460.138	99.75
460.358	90.75
460.578	94.75
460.798	87.75
461.018	106.75
461.238	88.75
461.458	87.75
461.678	72.75
461.898	97.75
462.118	92.75
462.338	95.75
462.558	80.75
462.777	88.75
462.997	82.75
463.217	81.75
463.437	83.75
463.657	98.75
463.876	82.75
464.096	83.75
464.316	92.75
464.536	100.75
464.755	78.75
464.975	95.75
465.195	146.75
465.414	129.75
465.634	91.75
465.854	84.75
466.073	100.75
466.293	96.75
466.512	82.75
466.732	74.75
466.951	88.75
467.171	102.75
467.391	105.75
467.61	104.75
467.829	101.75
468.049	97.75
468.268	84.75
468.488	101.75
468.707	81.75
468.927	81.75
469.146	91.75
469.365	92.75
469.585	90.75
469.804	96.75
470.023	100.75
470.243	93.75
470.462	79.75
470.681	107.75
470.901	94.75
471.12	81.75
471.339	93.75
471.558	88.75
471.777	88.75
471.997	85.75
472.216	100.75
472.435	91.75
472.654	92.75
472.873	89.75
473.092	95.75
473.311	89.75
473.53	91.75
473.749	91.75
473.968	88.75
474.187	98.75
474.406	89.75
474.625	84.75
474.844	79.75
475.063	94.75
475.282	95.75
475.501	99.75
475.72	78.75
475.939	83.75
476.158	86.75
476.377	92.75
476.596	87.75
476.814	97.75
477.033	91.75
477.252	103.75
477.471	99.75
477.69	92.75
477.908	89.75
478.127	90.75
478.346	116.75
478.564	73.75
478.783	94.75
479.002	90.75
479.22	95.75
479.439	109.75
479.658	93.75
479.876	96.75
480.095	80.75
480.313	88.75
480.532	78.75
480.751	91.75
480.969	98.75
481.188	131.75
481.406	107.75
481.624	91.75
481.843	78.75
482.061	91.75
482.28	84.75
482.498	102.75
482.717	87.75
482.935	82.75
483.153	92.75
483.372	82.75
483.59	103.75
483.808	77.75
484.027	93.75
484.245	90.75
484.463	96.75
484.681	104.75
484.9	98.75
485.118	97.75
485.336	90.75
485.554	97.75
485.772	95.75
485.99	109.75
486.209	97.75
486.427	114.75
486.645	113.75
486.863	112.75
487.081	103.75
487.299	105.75
487.517	102.75
487.735	104.75
487.953	88.75
488.171	90.75
488.389	89.75
488.607	96.75
488.825	95.75
489.043	87.75
489.261	72.75
489.479	85.75
489.696	83.75
489.914	88.75
490.132	94.75
490.35	92.75
490.568	86.75
490.786	103.75
491.003	94.75
491.221	83.75
491.439	106.75
491.657	106.75
491.874	93.75
492.092	100.75
492.31	84.75
492.527	83.75
492.745	94.75
492.963	89.75
493.18	86.75
493.398	103.75
493.615	99.75
493.833	97.75
494.05	93.75
494.268	94.75
494.485	91.75
494.703	97.75
494.92	99.75
495.138	88.75
495.355	90.75
495.573	87.75
495.79	83.75
496.008	122.75
496.225	89.75
496.442	81.75
496.66	96.75
496.877	95.75
497.094	90.75
497.312	85.75
497.529	90.75
497.746	94.75
497.963	76.75
498.181	91.75
498.398	102.75
498.615	109.75
498.832	108.75
499.049	86.75
499.267	91.75
499.484	86.75
499.701	96.75
499.918	88.75
500.135	106.75
500.352	93.75
500.569	113.75
500.786	83.75
501.003	76.75
501.22	84.75
501.437	88.75
501.654	94.75
501.871	101.75
502.088	94.75
502.305	98.75
502.522	89.75
502.739	100.75
502.956	92.75
503.172	100.75
503.389	85.75
503.606	94.75
503.823	82.75
504.04	88.75
504.256	101.75
504.473	111.75
504.69	94.75
504.907	98.75
505.123	72.75
505.34	82.75
505.557	88.75
505.773	90.75
505.99	94.75
506.207	63.75
506.423	83.75
506.64	82.75
506.856	100.75
507.073	92.75
507.289	88.75
507.506	92.75
507.722	112.75
507.939	121.75
508.155	102.75
508.372	92.75
508.588	100.75
508.805	106.75
509.021	108.75
509.238	100.75
509.454	106.75
509.67	103.75
509.887	107.75
510.103	125.75
510.319	200.75
510.536	712.75
510.752	2154.75
510.968	584.75
511.184	151.75
511.401	112.75
511.617	102.75
511.833	100.75
512.049	93.75
512.265	90.75
512.481	104.75
512.698	96.75
512.914	92.75
513.13	95.75
513.346	102.75
513.562	94.75
513.778	108.75
513.994	96.75
514.21	86.75
514.426	108.75
514.642	136.75
514.858	108.75
515.074	166.75
515.29	414.75
