Data from Uncirc_1999_H10_HRD10591_00005.txt Node
Date: Wed Jan 03 11:22:06 EST 2024
User: Yrep
Spectrometer: HR+D1059
Trigger mode: 1
Integration Time (sec): 1.000000E-1
Scans to average: 1
Electric dark correction enabled: true
Nonlinearity correction enabled: false
Boxcar width: 0
XAxis mode: Wavelengths
Number of Pixels in Spectrum: 2048
>>>>>Begin Spectral Data<<<<<
223.165	-27.62
223.4	-27.62
223.635	-27.62
223.869	-17.62
224.104	-7.62
224.338	0.38
224.573	-19.62
224.808	-26.62
225.042	-23.62
225.277	-13.62
225.511	-3.62
225.746	9.38
225.98	17.38
226.215	14.38
226.449	25.38
226.683	15.38
226.918	29.38
227.152	28.38
227.387	34.38
227.621	46.38
227.856	45.38
228.09	48.38
228.324	63.38
228.559	55.38
228.793	62.38
229.027	63.38
229.262	75.38
229.496	61.38
229.73	71.38
229.964	70.38
230.199	81.38
230.433	62.38
230.667	73.38
230.901	72.38
231.136	83.38
231.37	85.38
231.604	81.38
231.838	74.38
232.072	84.38
232.306	73.38
232.541	71.38
232.775	81.38
233.009	86.38
233.243	81.38
233.477	94.38
233.711	75.38
233.945	82.38
234.179	72.38
234.413	80.38
234.647	81.38
234.881	81.38
235.115	87.38
235.349	79.38
235.583	72.38
235.817	75.38
236.051	78.38
236.285	84.38
236.519	80.38
236.753	75.38
236.987	82.38
237.221	81.38
237.455	75.38
237.689	66.38
237.922	66.38
238.156	77.38
238.39	85.38
238.624	90.38
238.858	74.38
239.091	77.38
239.325	76.38
239.559	88.38
239.793	71.38
240.027	71.38
240.26	79.38
240.494	80.38
240.728	74.38
240.961	65.38
241.195	64.38
241.429	86.38
241.662	77.38
241.896	75.38
242.13	82.38
242.363	80.38
242.597	67.38
242.83	78.38
243.064	85.38
243.298	79.38
243.531	78.38
243.765	81.38
243.998	69.38
244.232	81.38
244.465	78.38
244.699	81.38
244.932	90.38
245.166	73.38
245.399	82.38
245.633	86.38
245.866	68.38
246.099	65.38
246.333	75.38
246.566	87.38
246.8	89.38
247.033	78.38
247.266	82.38
247.5	78.38
247.733	78.38
247.966	81.38
248.2	79.38
248.433	77.38
248.666	85.38
248.899	74.38
249.133	89.38
249.366	89.38
249.599	82.38
249.832	93.38
250.066	99.38
250.299	102.38
250.532	82.38
250.765	81.38
250.998	97.38
251.231	73.38
251.465	66.38
251.698	87.38
251.931	82.38
252.164	77.38
252.397	83.38
252.63	86.38
252.863	72.38
253.096	91.38
253.329	79.38
253.562	85.38
253.795	88.38
254.028	78.38
254.261	96.38
254.494	76.38
254.727	90.38
254.96	84.38
255.193	94.38
255.426	87.38
255.659	79.38
255.892	78.38
256.124	82.38
256.357	91.38
256.59	78.38
256.823	62.38
257.056	78.38
257.289	90.38
257.521	78.38
257.754	81.38
257.987	72.38
258.22	85.38
258.452	77.38
258.685	92.38
258.918	83.38
259.151	78.38
259.383	83.38
259.616	99.38
259.849	91.38
260.081	78.38
260.314	75.38
260.547	74.38
260.779	71.38
261.012	79.38
261.244	79.38
261.477	90.38
261.71	92.38
261.942	92.38
262.175	111.38
262.407	84.38
262.64	73.38
262.872	86.38
263.105	87.38
263.337	86.38
263.57	91.38
263.802	83.38
264.035	90.38
264.267	77.38
264.499	81.38
264.732	95.38
264.964	83.38
265.197	79.38
265.429	92.38
265.661	90.38
265.894	91.38
266.126	77.38
266.358	78.38
266.591	74.38
266.823	91.38
267.055	76.38
267.287	82.38
267.52	87.38
267.752	77.38
267.984	77.38
268.216	83.38
268.448	84.38
268.681	72.38
268.913	88.38
269.145	76.38
269.377	92.38
269.609	88.38
269.841	88.38
270.073	73.38
270.306	83.38
270.538	78.38
270.77	83.38
271.002	77.38
271.234	75.38
271.466	91.38
271.698	87.38
271.93	86.38
272.162	85.38
272.394	87.38
272.626	86.38
272.858	78.38
273.09	96.38
273.322	91.38
273.553	80.38
273.785	79.38
274.017	82.38
274.249	86.38
274.481	71.38
274.713	76.38
274.945	91.38
275.176	90.38
275.408	95.38
275.64	66.38
275.872	82.38
276.104	86.38
276.335	89.38
276.567	88.38
276.799	97.38
277.031	97.38
277.262	93.38
277.494	90.38
277.726	89.38
277.957	75.38
278.189	87.38
278.421	83.38
278.652	99.38
278.884	96.38
279.115	82.38
279.347	87.38
279.579	84.38
279.81	91.38
280.042	85.38
280.273	95.38
280.505	78.38
280.736	97.38
280.968	96.38
281.199	87.38
281.431	92.38
281.662	98.38
281.894	92.38
282.125	94.38
282.356	111.38
282.588	107.38
282.819	87.38
283.051	83.38
283.282	79.38
283.513	90.38
283.745	90.38
283.976	91.38
284.207	97.38
284.439	93.38
284.67	87.38
284.901	77.38
285.132	80.38
285.364	78.38
285.595	92.38
285.826	104.38
286.057	110.38
286.288	96.38
286.52	98.38
286.751	98.38
286.982	94.38
287.213	81.38
287.444	93.38
287.675	94.38
287.906	88.38
288.138	88.38
288.369	88.38
288.6	99.38
288.831	94.38
289.062	79.38
289.293	93.38
289.524	101.38
289.755	85.38
289.986	93.38
290.217	91.38
290.448	75.38
290.679	88.38
290.91	96.38
291.141	81.38
291.371	105.38
291.602	90.38
291.833	86.38
292.064	101.38
292.295	83.38
292.526	88.38
292.757	103.38
292.987	90.38
293.218	89.38
293.449	95.38
293.68	95.38
293.91	87.38
294.141	91.38
294.372	83.38
294.603	93.38
294.833	83.38
295.064	96.38
295.295	79.38
295.525	108.38
295.756	105.38
295.987	109.38
296.217	120.38
296.448	106.38
296.679	89.38
296.909	86.38
297.14	74.38
297.37	77.38
297.601	73.38
297.831	76.38
298.062	95.38
298.292	75.38
298.523	85.38
298.753	90.38
298.984	95.38
299.214	90.38
299.445	89.38
299.675	96.38
299.905	93.38
300.136	91.38
300.366	87.38
300.597	87.38
300.827	87.38
301.057	85.38
301.288	93.38
301.518	90.38
301.748	86.38
301.979	95.38
302.209	85.38
302.439	93.38
302.669	82.38
302.9	85.38
303.13	77.38
303.36	99.38
303.59	88.38
303.82	87.38
304.051	74.38
304.281	81.38
304.511	95.38
304.741	72.38
304.971	81.38
305.201	92.38
305.431	83.38
305.661	94.38
305.891	89.38
306.121	98.38
306.352	94.38
306.582	110.38
306.812	88.38
307.042	93.38
307.272	84.38
307.502	93.38
307.731	82.38
307.961	78.38
308.191	85.38
308.421	91.38
308.651	94.38
308.881	93.38
309.111	93.38
309.341	95.38
309.571	100.38
309.8	98.38
310.03	98.38
310.26	104.38
310.49	100.38
310.72	113.38
310.949	103.38
311.179	89.38
311.409	84.38
311.639	98.38
311.868	89.38
312.098	81.38
312.328	89.38
312.557	89.38
312.787	94.38
313.017	86.38
313.246	108.38
313.476	97.38
313.706	96.38
313.935	90.38
314.165	103.38
314.394	99.38
314.624	88.38
314.853	95.38
315.083	76.38
315.312	92.38
315.542	102.38
315.771	89.38
316.001	97.38
316.23	99.38
316.46	90.38
316.689	86.38
316.919	93.38
317.148	93.38
317.377	104.38
317.607	99.38
317.836	95.38
318.065	103.38
318.295	105.38
318.524	103.38
318.753	99.38
318.983	106.38
319.212	98.38
319.441	94.38
319.67	112.38
319.9	77.38
320.129	83.38
320.358	100.38
320.587	105.38
320.816	99.38
321.046	103.38
321.275	91.38
321.504	84.38
321.733	97.38
321.962	98.38
322.191	97.38
322.42	93.38
322.649	92.38
322.878	97.38
323.108	95.38
323.337	108.38
323.566	117.38
323.795	167.38
324.024	189.38
324.253	352.38
324.482	674.38
324.71	1447.38
324.939	1845.38
325.168	677.38
325.397	202.38
325.626	140.38
325.855	127.38
326.084	109.38
326.313	128.38
326.542	137.38
326.77	208.38
326.999	395.38
327.228	807.38
327.457	1447.38
327.686	1177.38
327.914	328.38
328.143	163.38
328.372	129.38
328.6	120.38
328.829	116.38
329.058	118.38
329.287	110.38
329.515	111.38
329.744	105.38
329.972	115.38
330.201	101.38
330.43	105.38
330.658	98.38
330.887	120.38
331.115	118.38
331.344	94.38
331.572	97.38
331.801	97.38
332.03	94.38
332.258	98.38
332.486	92.38
332.715	90.38
332.943	105.38
333.172	91.38
333.4	98.38
333.629	107.38
333.857	97.38
334.085	104.38
334.314	103.38
334.542	108.38
334.771	99.38
334.999	104.38
335.227	92.38
335.455	97.38
335.684	100.38
335.912	97.38
336.14	96.38
336.369	87.38
336.597	108.38
336.825	101.38
337.053	101.38
337.281	93.38
337.51	88.38
337.738	94.38
337.966	94.38
338.194	93.38
338.422	82.38
338.65	98.38
338.878	85.38
339.106	98.38
339.334	98.38
339.562	83.38
339.79	102.38
340.018	98.38
340.246	77.38
340.474	108.38
340.702	83.38
340.93	99.38
341.158	101.38
341.386	98.38
341.614	109.38
341.842	100.38
342.07	98.38
342.298	91.38
342.526	98.38
342.754	102.38
342.981	88.38
343.209	106.38
343.437	103.38
343.665	93.38
343.893	97.38
344.12	99.38
344.348	86.38
344.576	108.38
344.804	101.38
345.031	97.38
345.259	101.38
345.487	95.38
345.714	103.38
345.942	90.38
346.17	78.38
346.397	95.38
346.625	85.38
346.853	93.38
347.08	92.38
347.308	95.38
347.535	106.38
347.763	88.38
347.99	95.38
348.218	89.38
348.445	110.38
348.673	96.38
348.9	99.38
349.128	96.38
349.355	96.38
349.583	97.38
349.81	96.38
350.037	108.38
350.265	107.38
350.492	105.38
350.72	94.38
350.947	99.38
351.174	106.38
351.402	104.38
351.629	97.38
351.856	106.38
352.083	102.38
352.311	120.38
352.538	122.38
352.765	103.38
352.992	107.38
353.22	113.38
353.447	87.38
353.674	107.38
353.901	93.38
354.128	121.38
354.355	120.38
354.583	112.38
354.81	107.38
355.037	104.38
355.264	101.38
355.491	105.38
355.718	98.38
355.945	95.38
356.172	92.38
356.399	94.38
356.626	95.38
356.853	102.38
357.08	82.38
357.307	101.38
357.534	96.38
357.761	95.38
357.988	103.38
358.215	117.38
358.441	118.38
358.668	118.38
358.895	97.38
359.122	114.38
359.349	81.38
359.576	96.38
359.802	106.38
360.029	105.38
360.256	99.38
360.483	79.38
360.709	86.38
360.936	98.38
361.163	110.38
361.39	95.38
361.616	88.38
361.843	85.38
362.07	107.38
362.296	106.38
362.523	80.38
362.749	92.38
362.976	87.38
363.203	93.38
363.429	95.38
363.656	82.38
363.882	96.38
364.109	104.38
364.335	113.38
364.562	90.38
364.788	95.38
365.015	93.38
365.241	108.38
365.468	100.38
365.694	92.38
365.92	82.38
366.147	102.38
366.373	79.38
366.599	97.38
366.826	93.38
367.052	88.38
367.278	83.38
367.505	95.38
367.731	107.38
367.957	113.38
368.184	90.38
368.41	109.38
368.636	119.38
368.862	96.38
369.089	91.38
369.315	95.38
369.541	98.38
369.767	96.38
369.993	93.38
370.219	98.38
370.445	82.38
370.672	101.38
370.898	96.38
371.124	91.38
371.35	88.38
371.576	90.38
371.802	90.38
372.028	84.38
372.254	93.38
372.48	98.38
372.706	89.38
372.932	78.38
373.158	96.38
373.384	102.38
373.61	95.38
373.835	94.38
374.061	90.38
374.287	89.38
374.513	97.38
374.739	94.38
374.965	100.38
375.191	101.38
375.416	85.38
375.642	106.38
375.868	94.38
376.094	102.38
376.319	108.38
376.545	81.38
376.771	91.38
376.997	98.38
377.222	102.38
377.448	92.38
377.674	87.38
377.899	106.38
378.125	99.38
378.35	96.38
378.576	88.38
378.802	106.38
379.027	95.38
379.253	129.38
379.478	106.38
379.704	115.38
379.929	110.38
380.155	100.38
380.38	124.38
380.606	121.38
380.831	105.38
381.057	108.38
381.282	97.38
381.507	124.38
381.733	118.38
381.958	126.38
382.184	124.38
382.409	124.38
382.634	130.38
382.86	132.38
383.085	137.38
383.31	126.38
383.535	130.38
383.761	131.38
383.986	137.38
384.211	143.38
384.436	135.38
384.662	150.38
384.887	148.38
385.112	167.38
385.337	177.38
385.562	153.38
385.787	173.38
386.013	167.38
386.238	170.38
386.463	138.38
386.688	153.38
386.913	152.38
387.138	175.38
387.363	146.38
387.588	130.38
387.813	129.38
388.038	169.38
388.263	198.38
388.488	181.38
388.713	113.38
388.938	104.38
389.163	104.38
389.387	103.38
389.612	83.38
389.837	94.38
390.062	82.38
390.287	93.38
390.512	87.38
390.736	102.38
390.961	102.38
391.186	100.38
391.411	105.38
391.636	111.38
391.86	82.38
392.085	93.38
392.31	105.38
392.534	85.38
392.759	75.38
392.984	81.38
393.208	93.38
393.433	83.38
393.658	93.38
393.882	71.38
394.107	88.38
394.331	88.38
394.556	95.38
394.78	91.38
395.005	104.38
395.229	97.38
395.454	97.38
395.678	87.38
395.903	91.38
396.127	96.38
396.352	87.38
396.576	104.38
396.801	89.38
397.025	94.38
397.249	94.38
397.474	79.38
397.698	91.38
397.922	84.38
398.147	97.38
398.371	94.38
398.595	95.38
398.82	88.38
399.044	83.38
399.268	88.38
399.492	96.38
399.717	91.38
399.941	99.38
400.165	102.38
400.389	95.38
400.613	76.38
400.837	88.38
401.062	99.38
401.286	91.38
401.51	85.38
401.734	94.38
401.958	97.38
402.182	110.38
402.406	128.38
402.63	103.38
402.854	79.38
403.078	101.38
403.302	89.38
403.526	97.38
403.75	89.38
403.974	79.38
404.198	87.38
404.422	96.38
404.645	89.38
404.869	94.38
405.093	97.38
405.317	107.38
405.541	92.38
405.765	73.38
405.988	102.38
406.212	140.38
406.436	181.38
406.66	124.38
406.883	94.38
407.107	89.38
407.331	83.38
407.555	98.38
407.778	99.38
408.002	96.38
408.226	100.38
408.449	90.38
408.673	86.38
408.896	116.38
409.12	97.38
409.344	107.38
409.567	86.38
409.791	96.38
410.014	95.38
410.238	98.38
410.461	108.38
410.685	106.38
410.908	95.38
411.132	119.38
411.355	90.38
411.578	103.38
411.802	90.38
412.025	95.38
412.249	98.38
412.472	86.38
412.695	100.38
412.919	82.38
413.142	93.38
413.365	105.38
413.589	94.38
413.812	96.38
414.035	95.38
414.258	97.38
414.482	95.38
414.705	92.38
414.928	103.38
415.151	104.38
415.374	104.38
415.597	109.38
415.821	87.38
416.044	90.38
416.267	102.38
416.49	106.38
416.713	85.38
416.936	114.38
417.159	108.38
417.382	89.38
417.605	80.38
417.828	82.38
418.051	106.38
418.274	104.38
418.497	86.38
418.72	77.38
418.943	79.38
419.166	85.38
419.389	98.38
419.611	101.38
419.834	86.38
420.057	83.38
420.28	92.38
420.503	78.38
420.726	90.38
420.948	104.38
421.171	95.38
421.394	87.38
421.617	83.38
421.839	97.38
422.062	75.38
422.285	80.38
422.507	107.38
422.73	108.38
422.953	88.38
423.175	109.38
423.398	103.38
423.621	101.38
423.843	103.38
424.066	91.38
424.288	96.38
424.511	85.38
424.733	85.38
424.956	107.38
425.178	106.38
425.401	93.38
425.623	88.38
425.846	90.38
426.068	96.38
426.291	105.38
426.513	103.38
426.735	90.38
426.958	91.38
427.18	78.38
427.402	115.38
427.625	136.38
427.847	114.38
428.069	89.38
428.292	88.38
428.514	91.38
428.736	77.38
428.958	90.38
429.181	87.38
429.403	75.38
429.625	87.38
429.847	105.38
430.069	97.38
430.292	94.38
430.514	89.38
430.736	103.38
430.958	83.38
431.18	86.38
431.402	79.38
431.624	97.38
431.846	94.38
432.068	98.38
432.29	95.38
432.512	87.38
432.734	92.38
432.956	84.38
433.178	105.38
433.4	105.38
433.622	81.38
433.844	95.38
434.066	103.38
434.287	89.38
434.509	86.38
434.731	89.38
434.953	83.38
435.175	94.38
435.397	97.38
435.618	94.38
435.84	103.38
436.062	108.38
436.284	104.38
436.505	93.38
436.727	103.38
436.949	88.38
437.17	93.38
437.392	70.38
437.614	92.38
437.835	90.38
438.057	105.38
438.278	92.38
438.5	95.38
438.721	105.38
438.943	97.38
439.165	95.38
439.386	78.38
439.608	88.38
439.829	100.38
440.05	115.38
440.272	108.38
440.493	96.38
440.715	95.38
440.936	91.38
441.158	96.38
441.379	75.38
441.6	106.38
441.822	91.38
442.043	104.38
442.264	96.38
442.486	100.38
442.707	85.38
442.928	99.38
443.149	94.38
443.371	107.38
443.592	102.38
443.813	113.38
444.034	99.38
444.255	85.38
444.476	97.38
444.698	89.38
444.919	78.38
445.14	122.38
445.361	129.38
445.582	114.38
445.803	123.38
446.024	101.38
446.245	124.38
446.466	104.38
446.687	88.38
446.908	80.38
447.129	100.38
447.35	98.38
447.571	85.38
447.792	99.38
448.013	107.38
448.234	100.38
448.455	96.38
448.675	109.38
448.896	112.38
449.117	92.38
449.338	113.38
449.559	103.38
449.779	128.38
450	99.38
450.221	80.38
450.442	83.38
450.662	106.38
450.883	93.38
451.104	99.38
451.324	118.38
451.545	95.38
451.766	81.38
451.986	96.38
452.207	94.38
452.428	93.38
452.648	99.38
452.869	94.38
453.089	99.38
453.31	114.38
453.53	101.38
453.751	106.38
453.971	87.38
454.192	89.38
454.412	72.38
454.633	96.38
454.853	79.38
455.073	82.38
455.294	96.38
455.514	100.38
455.734	71.38
455.955	87.38
456.175	95.38
456.395	82.38
456.616	88.38
456.836	82.38
457.056	89.38
457.276	99.38
457.497	91.38
457.717	85.38
457.937	85.38
458.157	94.38
458.377	95.38
458.598	104.38
458.818	105.38
459.038	123.38
459.258	108.38
459.478	82.38
459.698	99.38
459.918	98.38
460.138	94.38
460.358	85.38
460.578	98.38
460.798	95.38
461.018	73.38
461.238	75.38
461.458	96.38
461.678	104.38
461.898	86.38
462.118	85.38
462.338	83.38
462.558	77.38
462.777	78.38
462.997	83.38
463.217	95.38
463.437	80.38
463.657	78.38
463.876	82.38
464.096	92.38
464.316	87.38
464.536	95.38
464.755	91.38
464.975	100.38
465.195	126.38
465.414	133.38
465.634	98.38
465.854	81.38
466.073	93.38
466.293	95.38
466.512	95.38
466.732	82.38
466.951	90.38
467.171	88.38
467.391	92.38
467.61	93.38
467.829	91.38
468.049	89.38
468.268	93.38
468.488	81.38
468.707	93.38
468.927	78.38
469.146	80.38
469.365	87.38
469.585	95.38
469.804	100.38
470.023	98.38
470.243	83.38
470.462	90.38
470.681	93.38
470.901	86.38
471.12	98.38
471.339	81.38
471.558	92.38
471.777	79.38
471.997	79.38
472.216	94.38
472.435	113.38
472.654	106.38
472.873	90.38
473.092	87.38
473.311	103.38
473.53	95.38
473.749	78.38
473.968	96.38
474.187	92.38
474.406	92.38
474.625	77.38
474.844	82.38
475.063	93.38
475.282	99.38
475.501	95.38
475.72	95.38
475.939	89.38
476.158	84.38
476.377	90.38
476.596	88.38
476.814	89.38
477.033	95.38
477.252	86.38
477.471	95.38
477.69	90.38
477.908	107.38
478.127	90.38
478.346	92.38
478.564	82.38
478.783	96.38
479.002	100.38
479.22	90.38
479.439	94.38
479.658	96.38
479.876	82.38
480.095	88.38
480.313	103.38
480.532	77.38
480.751	106.38
480.969	89.38
481.188	122.38
481.406	121.38
481.624	94.38
481.843	95.38
482.061	84.38
482.28	88.38
482.498	95.38
482.717	98.38
482.935	84.38
483.153	84.38
483.372	89.38
483.59	93.38
483.808	93.38
484.027	106.38
484.245	99.38
484.463	93.38
484.681	97.38
484.9	97.38
485.118	104.38
485.336	103.38
485.554	88.38
485.772	110.38
485.99	106.38
486.209	110.38
486.427	108.38
486.645	107.38
486.863	115.38
487.081	104.38
487.299	86.38
487.517	91.38
487.735	107.38
487.953	98.38
488.171	110.38
488.389	109.38
488.607	115.38
488.825	110.38
489.043	89.38
489.261	94.38
489.479	86.38
489.696	84.38
489.914	97.38
490.132	85.38
490.35	95.38
490.568	98.38
490.786	104.38
491.003	81.38
491.221	89.38
491.439	99.38
491.657	80.38
491.874	81.38
492.092	86.38
492.31	101.38
492.527	89.38
492.745	93.38
492.963	104.38
493.18	101.38
493.398	90.38
493.615	106.38
493.833	105.38
494.05	83.38
494.268	99.38
494.485	88.38
494.703	98.38
494.92	80.38
495.138	95.38
495.355	95.38
495.573	98.38
495.79	91.38
496.008	98.38
496.225	74.38
496.442	81.38
496.66	91.38
496.877	103.38
497.094	87.38
497.312	76.38
497.529	96.38
497.746	81.38
497.963	96.38
498.181	96.38
498.398	87.38
498.615	96.38
498.832	98.38
499.049	86.38
499.267	98.38
499.484	84.38
499.701	101.38
499.918	98.38
500.135	87.38
500.352	72.38
500.569	96.38
500.786	106.38
501.003	95.38
501.22	93.38
501.437	107.38
501.654	93.38
501.871	99.38
502.088	85.38
502.305	90.38
502.522	93.38
502.739	107.38
502.956	83.38
503.172	95.38
503.389	94.38
503.606	90.38
503.823	82.38
504.04	98.38
504.256	97.38
504.473	98.38
504.69	83.38
504.907	118.38
505.123	94.38
505.34	102.38
505.557	105.38
505.773	91.38
505.99	81.38
506.207	79.38
506.423	102.38
506.64	91.38
506.856	77.38
507.073	102.38
507.289	113.38
507.506	93.38
507.722	97.38
507.939	102.38
508.155	84.38
508.372	103.38
508.588	94.38
508.805	94.38
509.021	93.38
509.238	92.38
509.454	104.38
509.67	94.38
509.887	120.38
510.103	111.38
510.319	181.38
510.536	528.38
510.752	1500.38
510.968	445.38
511.184	151.38
511.401	112.38
511.617	107.38
511.833	99.38
512.049	93.38
512.265	92.38
512.481	115.38
512.698	82.38
512.914	91.38
513.13	83.38
513.346	79.38
513.562	84.38
513.778	90.38
513.994	105.38
514.21	86.38
514.426	119.38
514.642	119.38
514.858	116.38
515.074	125.38
