Data from Uncirc_1999_H10_HRD10591_00070.txt Node
Date: Wed Jan 03 11:22:19 EST 2024
User: Yrep
Spectrometer: HR+D1059
Trigger mode: 1
Integration Time (sec): 1.000000E-1
Scans to average: 1
Electric dark correction enabled: true
Nonlinearity correction enabled: false
Boxcar width: 0
XAxis mode: Wavelengths
Number of Pixels in Spectrum: 2048
>>>>>Begin Spectral Data<<<<<
223.165	-21.38
223.4	-21.38
223.635	-21.38
223.869	-22.38
224.104	-21.38
224.338	-8.38
224.573	-12.38
224.808	-6.38
225.042	-0.38
225.277	-19.38
225.511	5.62
225.746	0.62
225.98	8.62
226.215	5.62
226.449	14.62
226.683	16.62
226.918	29.62
227.152	30.62
227.387	31.62
227.621	34.62
227.856	42.62
228.09	55.62
228.324	46.62
228.559	54.62
228.793	54.62
229.027	56.62
229.262	69.62
229.496	67.62
229.73	89.62
229.964	70.62
230.199	63.62
230.433	79.62
230.667	86.62
230.901	76.62
231.136	91.62
231.37	75.62
231.604	82.62
231.838	69.62
232.072	63.62
232.306	76.62
232.541	76.62
232.775	82.62
233.009	92.62
233.243	78.62
233.477	85.62
233.711	63.62
233.945	88.62
234.179	74.62
234.413	84.62
234.647	72.62
234.881	95.62
235.115	56.62
235.349	73.62
235.583	74.62
235.817	67.62
236.051	75.62
236.285	80.62
236.519	84.62
236.753	75.62
236.987	73.62
237.221	80.62
237.455	79.62
237.689	72.62
237.922	83.62
238.156	77.62
238.39	82.62
238.624	71.62
238.858	83.62
239.091	63.62
239.325	59.62
239.559	71.62
239.793	74.62
240.027	80.62
240.26	77.62
240.494	71.62
240.728	73.62
240.961	69.62
241.195	74.62
241.429	76.62
241.662	78.62
241.896	72.62
242.13	81.62
242.363	86.62
242.597	88.62
242.83	71.62
243.064	64.62
243.298	61.62
243.531	69.62
243.765	69.62
243.998	73.62
244.232	75.62
244.465	82.62
244.699	55.62
244.932	64.62
245.166	80.62
245.399	47.62
245.633	78.62
245.866	66.62
246.099	82.62
246.333	70.62
246.566	86.62
246.8	73.62
247.033	57.62
247.266	77.62
247.5	51.62
247.733	63.62
247.966	78.62
248.2	76.62
248.433	67.62
248.666	83.62
248.899	76.62
249.133	90.62
249.366	94.62
249.599	80.62
249.832	91.62
250.066	81.62
250.299	74.62
250.532	87.62
250.765	90.62
250.998	85.62
251.231	83.62
251.465	66.62
251.698	72.62
251.931	72.62
252.164	70.62
252.397	89.62
252.63	76.62
252.863	67.62
253.096	71.62
253.329	70.62
253.562	83.62
253.795	74.62
254.028	75.62
254.261	81.62
254.494	76.62
254.727	68.62
254.96	93.62
255.193	70.62
255.426	89.62
255.659	80.62
255.892	76.62
256.124	69.62
256.357	86.62
256.59	78.62
256.823	74.62
257.056	81.62
257.289	78.62
257.521	91.62
257.754	79.62
257.987	76.62
258.22	83.62
258.452	80.62
258.685	70.62
258.918	69.62
259.151	67.62
259.383	84.62
259.616	68.62
259.849	82.62
260.081	75.62
260.314	78.62
260.547	77.62
260.779	85.62
261.012	80.62
261.244	80.62
261.477	88.62
261.71	84.62
261.942	103.62
262.175	122.62
262.407	92.62
262.64	86.62
262.872	84.62
263.105	83.62
263.337	84.62
263.57	75.62
263.802	76.62
264.035	90.62
264.267	78.62
264.499	70.62
264.732	90.62
264.964	81.62
265.197	87.62
265.429	82.62
265.661	83.62
265.894	83.62
266.126	83.62
266.358	82.62
266.591	93.62
266.823	88.62
267.055	90.62
267.287	79.62
267.52	78.62
267.752	82.62
267.984	85.62
268.216	79.62
268.448	66.62
268.681	74.62
268.913	75.62
269.145	79.62
269.377	85.62
269.609	81.62
269.841	90.62
270.073	69.62
270.306	86.62
270.538	86.62
270.77	75.62
271.002	72.62
271.234	78.62
271.466	90.62
271.698	81.62
271.93	83.62
272.162	74.62
272.394	78.62
272.626	90.62
272.858	87.62
273.09	92.62
273.322	94.62
273.553	64.62
273.785	77.62
274.017	88.62
274.249	80.62
274.481	75.62
274.713	88.62
274.945	87.62
275.176	75.62
275.408	85.62
275.64	71.62
275.872	86.62
276.104	82.62
276.335	88.62
276.567	95.62
276.799	106.62
277.031	100.62
277.262	91.62
277.494	82.62
277.726	83.62
277.957	70.62
278.189	84.62
278.421	82.62
278.652	73.62
278.884	76.62
279.115	89.62
279.347	90.62
279.579	83.62
279.81	79.62
280.042	84.62
280.273	82.62
280.505	85.62
280.736	80.62
280.968	88.62
281.199	79.62
281.431	90.62
281.662	76.62
281.894	89.62
282.125	93.62
282.356	98.62
282.588	133.62
282.819	117.62
283.051	83.62
283.282	84.62
283.513	74.62
283.745	89.62
283.976	82.62
284.207	88.62
284.439	88.62
284.67	88.62
284.901	91.62
285.132	91.62
285.364	91.62
285.595	79.62
285.826	75.62
286.057	72.62
286.288	78.62
286.52	82.62
286.751	84.62
286.982	76.62
287.213	95.62
287.444	80.62
287.675	78.62
287.906	84.62
288.138	89.62
288.369	84.62
288.6	73.62
288.831	84.62
289.062	79.62
289.293	81.62
289.524	81.62
289.755	85.62
289.986	74.62
290.217	89.62
290.448	68.62
290.679	74.62
290.91	93.62
291.141	89.62
291.371	93.62
291.602	77.62
291.833	74.62
292.064	86.62
292.295	80.62
292.526	87.62
292.757	82.62
292.987	86.62
293.218	82.62
293.449	64.62
293.68	88.62
293.91	78.62
294.141	90.62
294.372	89.62
294.603	84.62
294.833	87.62
295.064	83.62
295.295	79.62
295.525	84.62
295.756	79.62
295.987	119.62
296.217	144.62
296.448	111.62
296.679	88.62
296.909	90.62
297.14	77.62
297.37	85.62
297.601	80.62
297.831	86.62
298.062	74.62
298.292	80.62
298.523	76.62
298.753	82.62
298.984	84.62
299.214	89.62
299.445	83.62
299.675	96.62
299.905	82.62
300.136	93.62
300.366	92.62
300.597	94.62
300.827	87.62
301.057	99.62
301.288	99.62
301.518	88.62
301.748	79.62
301.979	100.62
302.209	95.62
302.439	76.62
302.669	94.62
302.9	90.62
303.13	102.62
303.36	92.62
303.59	98.62
303.82	104.62
304.051	81.62
304.281	88.62
304.511	84.62
304.741	93.62
304.971	95.62
305.201	94.62
305.431	64.62
305.661	103.62
305.891	85.62
306.121	90.62
306.352	102.62
306.582	103.62
306.812	86.62
307.042	86.62
307.272	87.62
307.502	89.62
307.731	79.62
307.961	79.62
308.191	90.62
308.421	84.62
308.651	91.62
308.881	87.62
309.111	92.62
309.341	79.62
309.571	94.62
309.8	97.62
310.03	103.62
310.26	86.62
310.49	90.62
310.72	87.62
310.949	95.62
311.179	92.62
311.409	95.62
311.639	92.62
311.868	95.62
312.098	115.62
312.328	89.62
312.557	89.62
312.787	107.62
313.017	104.62
313.246	91.62
313.476	108.62
313.706	75.62
313.935	93.62
314.165	102.62
314.394	87.62
314.624	87.62
314.853	84.62
315.083	99.62
315.312	91.62
315.542	84.62
315.771	86.62
316.001	93.62
316.23	86.62
316.46	96.62
316.689	102.62
316.919	89.62
317.148	94.62
317.377	102.62
317.607	78.62
317.836	103.62
318.065	68.62
318.295	68.62
318.524	85.62
318.753	77.62
318.983	107.62
319.212	102.62
319.441	94.62
319.67	99.62
319.9	99.62
320.129	98.62
320.358	98.62
320.587	97.62
320.816	99.62
321.046	95.62
321.275	100.62
321.504	89.62
321.733	87.62
321.962	99.62
322.191	113.62
322.42	96.62
322.649	111.62
322.878	106.62
323.108	104.62
323.337	132.62
323.566	137.62
323.795	152.62
324.024	223.62
324.253	440.62
324.482	912.62
324.71	1932.62
324.939	2492.62
325.168	894.62
325.397	272.62
325.626	167.62
325.855	110.62
326.084	134.62
326.313	141.62
326.542	179.62
326.77	251.62
326.999	517.62
327.228	1046.62
327.457	1977.62
327.686	1503.62
327.914	389.62
328.143	211.62
328.372	147.62
328.6	123.62
328.829	123.62
329.058	114.62
329.287	114.62
329.515	105.62
329.744	97.62
329.972	115.62
330.201	108.62
330.43	111.62
330.658	114.62
330.887	126.62
331.115	107.62
331.344	102.62
331.572	95.62
331.801	111.62
332.03	100.62
332.258	106.62
332.486	87.62
332.715	96.62
332.943	98.62
333.172	102.62
333.4	114.62
333.629	111.62
333.857	98.62
334.085	118.62
334.314	97.62
334.542	102.62
334.771	100.62
334.999	100.62
335.227	95.62
335.455	99.62
335.684	81.62
335.912	97.62
336.14	96.62
336.369	95.62
336.597	86.62
336.825	90.62
337.053	96.62
337.281	77.62
337.51	90.62
337.738	84.62
337.966	97.62
338.194	98.62
338.422	96.62
338.65	96.62
338.878	86.62
339.106	75.62
339.334	102.62
339.562	93.62
339.79	66.62
340.018	84.62
340.246	86.62
340.474	95.62
340.702	87.62
340.93	90.62
341.158	81.62
341.386	93.62
341.614	90.62
341.842	79.62
342.07	80.62
342.298	78.62
342.526	105.62
342.754	85.62
342.981	93.62
343.209	78.62
343.437	108.62
343.665	93.62
343.893	99.62
344.12	84.62
344.348	81.62
344.576	71.62
344.804	97.62
345.031	100.62
345.259	91.62
345.487	90.62
345.714	89.62
345.942	80.62
346.17	90.62
346.397	84.62
346.625	98.62
346.853	82.62
347.08	84.62
347.308	91.62
347.535	96.62
347.763	95.62
347.99	106.62
348.218	88.62
348.445	95.62
348.673	95.62
348.9	100.62
349.128	86.62
349.355	78.62
349.583	87.62
349.81	91.62
350.037	94.62
350.265	99.62
350.492	88.62
350.72	93.62
350.947	94.62
351.174	100.62
351.402	109.62
351.629	110.62
351.856	111.62
352.083	88.62
352.311	103.62
352.538	108.62
352.765	113.62
352.992	108.62
353.22	101.62
353.447	91.62
353.674	87.62
353.901	100.62
354.128	93.62
354.355	97.62
354.583	90.62
354.81	88.62
355.037	106.62
355.264	91.62
355.491	85.62
355.718	73.62
355.945	86.62
356.172	84.62
356.399	89.62
356.626	95.62
356.853	91.62
357.08	93.62
357.307	89.62
357.534	87.62
357.761	93.62
357.988	93.62
358.215	107.62
358.441	85.62
358.668	95.62
358.895	76.62
359.122	83.62
359.349	76.62
359.576	89.62
359.802	94.62
360.029	103.62
360.256	110.62
360.483	100.62
360.709	92.62
360.936	95.62
361.163	69.62
361.39	85.62
361.616	90.62
361.843	92.62
362.07	84.62
362.296	97.62
362.523	79.62
362.749	77.62
362.976	91.62
363.203	93.62
363.429	102.62
363.656	95.62
363.882	79.62
364.109	88.62
364.335	89.62
364.562	98.62
364.788	94.62
365.015	84.62
365.241	87.62
365.468	111.62
365.694	96.62
365.92	99.62
366.147	82.62
366.373	78.62
366.599	89.62
366.826	87.62
367.052	96.62
367.278	87.62
367.505	78.62
367.731	85.62
367.957	73.62
368.184	84.62
368.41	83.62
368.636	105.62
368.862	123.62
369.089	107.62
369.315	100.62
369.541	96.62
369.767	93.62
369.993	75.62
370.219	90.62
370.445	80.62
370.672	82.62
370.898	91.62
371.124	78.62
371.35	79.62
371.576	89.62
371.802	84.62
372.028	80.62
372.254	92.62
372.48	79.62
372.706	75.62
372.932	86.62
373.158	84.62
373.384	100.62
373.61	75.62
373.835	92.62
374.061	92.62
374.287	102.62
374.513	92.62
374.739	95.62
374.965	88.62
375.191	95.62
375.416	82.62
375.642	66.62
375.868	96.62
376.094	89.62
376.319	91.62
376.545	84.62
376.771	88.62
376.997	95.62
377.222	86.62
377.448	84.62
377.674	102.62
377.899	87.62
378.125	85.62
378.35	92.62
378.576	102.62
378.802	99.62
379.027	84.62
379.253	95.62
379.478	95.62
379.704	91.62
379.929	86.62
380.155	95.62
380.38	87.62
380.606	86.62
380.831	92.62
381.057	88.62
381.282	84.62
381.507	86.62
381.733	90.62
381.958	93.62
382.184	82.62
382.409	101.62
382.634	100.62
382.86	106.62
383.085	107.62
383.31	83.62
383.535	108.62
383.761	97.62
383.986	102.62
384.211	95.62
384.436	96.62
384.662	98.62
384.887	92.62
385.112	102.62
385.337	93.62
385.562	109.62
385.787	106.62
386.013	102.62
386.238	123.62
386.463	86.62
386.688	111.62
386.913	101.62
387.138	100.62
387.363	101.62
387.588	90.62
387.813	95.62
388.038	105.62
388.263	115.62
388.488	95.62
388.713	105.62
388.938	92.62
389.163	88.62
389.387	92.62
389.612	96.62
389.837	101.62
390.062	94.62
390.287	94.62
390.512	90.62
390.736	88.62
390.961	90.62
391.186	87.62
391.411	106.62
391.636	79.62
391.86	75.62
392.085	88.62
392.31	85.62
392.534	96.62
392.759	90.62
392.984	98.62
393.208	96.62
393.433	74.62
393.658	91.62
393.882	92.62
394.107	77.62
394.331	83.62
394.556	79.62
394.78	98.62
395.005	90.62
395.229	90.62
395.454	70.62
395.678	81.62
395.903	92.62
396.127	80.62
396.352	63.62
396.576	89.62
396.801	78.62
397.025	96.62
397.249	91.62
397.474	84.62
397.698	101.62
397.922	93.62
398.147	80.62
398.371	64.62
398.595	95.62
398.82	79.62
399.044	96.62
399.268	89.62
399.492	86.62
399.717	84.62
399.941	79.62
400.165	110.62
400.389	88.62
400.613	82.62
400.837	90.62
401.062	94.62
401.286	106.62
401.51	94.62
401.734	99.62
401.958	108.62
402.182	112.62
402.406	166.62
402.63	109.62
402.854	90.62
403.078	89.62
403.302	79.62
403.526	87.62
403.75	77.62
403.974	81.62
404.198	99.62
404.422	72.62
404.645	77.62
404.869	80.62
405.093	83.62
405.317	91.62
405.541	94.62
405.765	93.62
405.988	108.62
406.212	178.62
406.436	219.62
406.66	131.62
406.883	91.62
407.107	83.62
407.331	80.62
407.555	96.62
407.778	84.62
408.002	73.62
408.226	91.62
408.449	85.62
408.673	95.62
408.896	110.62
409.12	87.62
409.344	95.62
409.567	100.62
409.791	92.62
410.014	104.62
410.238	91.62
410.461	112.62
410.685	82.62
410.908	86.62
411.132	93.62
411.355	100.62
411.578	87.62
411.802	106.62
412.025	80.62
412.249	100.62
412.472	91.62
412.695	90.62
412.919	79.62
413.142	75.62
413.365	105.62
413.589	91.62
413.812	102.62
414.035	85.62
414.258	88.62
414.482	90.62
414.705	78.62
414.928	79.62
415.151	101.62
415.374	79.62
415.597	93.62
415.821	88.62
416.044	86.62
416.267	88.62
416.49	92.62
416.713	84.62
416.936	91.62
417.159	76.62
417.382	79.62
417.605	90.62
417.828	91.62
418.051	94.62
418.274	96.62
418.497	88.62
418.72	87.62
418.943	82.62
419.166	100.62
419.389	76.62
419.611	78.62
419.834	96.62
420.057	78.62
420.28	90.62
420.503	89.62
420.726	82.62
420.948	91.62
421.171	80.62
421.394	85.62
421.617	85.62
421.839	97.62
422.062	88.62
422.285	89.62
422.507	96.62
422.73	90.62
422.953	88.62
423.175	91.62
423.398	82.62
423.621	83.62
423.843	86.62
424.066	74.62
424.288	76.62
424.511	108.62
424.733	102.62
424.956	93.62
425.178	103.62
425.401	86.62
425.623	94.62
425.846	85.62
426.068	85.62
426.291	79.62
426.513	91.62
426.735	92.62
426.958	94.62
427.18	109.62
427.402	120.62
427.625	163.62
427.847	116.62
428.069	95.62
428.292	96.62
428.514	85.62
428.736	96.62
428.958	93.62
429.181	101.62
429.403	74.62
429.625	83.62
429.847	70.62
430.069	79.62
430.292	89.62
430.514	95.62
430.736	98.62
430.958	80.62
431.18	75.62
431.402	71.62
431.624	88.62
431.846	82.62
432.068	87.62
432.29	67.62
432.512	100.62
432.734	66.62
432.956	83.62
433.178	96.62
433.4	94.62
433.622	89.62
433.844	88.62
434.066	81.62
434.287	88.62
434.509	90.62
434.731	93.62
434.953	76.62
435.175	76.62
435.397	82.62
435.618	87.62
435.84	97.62
436.062	108.62
436.284	114.62
436.505	101.62
436.727	103.62
436.949	76.62
437.17	86.62
437.392	94.62
437.614	92.62
437.835	104.62
438.057	107.62
438.278	108.62
438.5	102.62
438.721	115.62
438.943	108.62
439.165	96.62
439.386	87.62
439.608	82.62
439.829	93.62
440.05	118.62
440.272	130.62
440.493	102.62
440.715	77.62
440.936	73.62
441.158	86.62
441.379	95.62
441.6	80.62
441.822	89.62
442.043	94.62
442.264	99.62
442.486	90.62
442.707	100.62
442.928	89.62
443.149	123.62
443.371	120.62
443.592	101.62
443.813	112.62
444.034	111.62
444.255	90.62
444.476	76.62
444.698	89.62
444.919	91.62
445.14	116.62
445.361	110.62
445.582	104.62
445.803	108.62
446.024	123.62
446.245	128.62
446.466	99.62
446.687	76.62
446.908	79.62
447.129	76.62
447.35	82.62
447.571	93.62
447.792	90.62
448.013	94.62
448.234	106.62
448.455	97.62
448.675	96.62
448.896	112.62
449.117	99.62
449.338	96.62
449.559	125.62
449.779	125.62
450	95.62
450.221	87.62
450.442	82.62
450.662	80.62
450.883	120.62
451.104	92.62
451.324	106.62
451.545	82.62
451.766	94.62
451.986	83.62
452.207	95.62
452.428	93.62
452.648	101.62
452.869	95.62
453.089	108.62
453.31	117.62
453.53	87.62
453.751	87.62
453.971	107.62
454.192	105.62
454.412	97.62
454.633	102.62
454.853	91.62
455.073	77.62
455.294	85.62
455.514	92.62
455.734	90.62
455.955	87.62
456.175	87.62
456.395	87.62
456.616	80.62
456.836	81.62
457.056	78.62
457.276	65.62
457.497	83.62
457.717	80.62
457.937	90.62
458.157	92.62
458.377	96.62
458.598	115.62
458.818	132.62
459.038	148.62
459.258	103.62
459.478	89.62
459.698	78.62
459.918	77.62
460.138	85.62
460.358	93.62
460.578	101.62
460.798	84.62
461.018	72.62
461.238	72.62
461.458	79.62
461.678	80.62
461.898	94.62
462.118	87.62
462.338	82.62
462.558	89.62
462.777	78.62
462.997	83.62
463.217	87.62
463.437	80.62
463.657	79.62
463.876	67.62
464.096	91.62
464.316	87.62
464.536	82.62
464.755	91.62
464.975	106.62
465.195	165.62
465.414	160.62
465.634	94.62
465.854	85.62
466.073	76.62
466.293	90.62
466.512	80.62
466.732	96.62
466.951	84.62
467.171	90.62
467.391	92.62
467.61	98.62
467.829	95.62
468.049	76.62
468.268	86.62
468.488	93.62
468.707	78.62
468.927	84.62
469.146	91.62
469.365	79.62
469.585	67.62
469.804	84.62
470.023	105.62
470.243	98.62
470.462	87.62
470.681	109.62
470.901	90.62
471.12	73.62
471.339	95.62
471.558	84.62
471.777	91.62
471.997	84.62
472.216	94.62
472.435	94.62
472.654	86.62
472.873	85.62
473.092	78.62
473.311	82.62
473.53	82.62
473.749	83.62
473.968	88.62
474.187	112.62
474.406	98.62
474.625	80.62
474.844	92.62
475.063	86.62
475.282	80.62
475.501	87.62
475.72	83.62
475.939	84.62
476.158	77.62
476.377	95.62
476.596	80.62
476.814	80.62
477.033	92.62
477.252	88.62
477.471	76.62
477.69	98.62
477.908	91.62
478.127	71.62
478.346	82.62
478.564	96.62
478.783	96.62
479.002	104.62
479.22	95.62
479.439	94.62
479.658	99.62
479.876	90.62
480.095	86.62
480.313	85.62
480.532	67.62
480.751	87.62
480.969	84.62
481.188	117.62
481.406	102.62
481.624	100.62
481.843	72.62
482.061	80.62
482.28	96.62
482.498	84.62
482.717	90.62
482.935	97.62
483.153	69.62
483.372	83.62
483.59	87.62
483.808	96.62
484.027	89.62
484.245	92.62
484.463	94.62
484.681	99.62
484.9	94.62
485.118	94.62
485.336	77.62
485.554	79.62
485.772	93.62
485.99	93.62
486.209	102.62
486.427	95.62
486.645	106.62
486.863	104.62
487.081	108.62
487.299	84.62
487.517	90.62
487.735	94.62
487.953	91.62
488.171	91.62
488.389	92.62
488.607	93.62
488.825	82.62
489.043	80.62
489.261	92.62
489.479	91.62
489.696	94.62
489.914	83.62
490.132	95.62
490.35	90.62
490.568	78.62
490.786	75.62
491.003	87.62
491.221	100.62
491.439	88.62
491.657	91.62
491.874	95.62
492.092	90.62
492.31	79.62
492.527	78.62
492.745	86.62
492.963	99.62
493.18	92.62
493.398	86.62
493.615	100.62
493.833	85.62
494.05	84.62
494.268	69.62
494.485	92.62
494.703	94.62
494.92	92.62
495.138	75.62
495.355	95.62
495.573	78.62
495.79	79.62
496.008	102.62
496.225	109.62
496.442	94.62
496.66	85.62
496.877	78.62
497.094	98.62
497.312	87.62
497.529	85.62
497.746	87.62
497.963	77.62
498.181	71.62
498.398	92.62
498.615	106.62
498.832	100.62
499.049	90.62
499.267	96.62
499.484	91.62
499.701	86.62
499.918	78.62
500.135	74.62
500.352	88.62
500.569	95.62
500.786	81.62
501.003	79.62
501.22	86.62
501.437	95.62
501.654	98.62
501.871	114.62
502.088	98.62
502.305	82.62
502.522	88.62
502.739	85.62
502.956	88.62
503.172	74.62
503.389	77.62
503.606	110.62
503.823	91.62
504.04	90.62
504.256	97.62
504.473	88.62
504.69	74.62
504.907	73.62
505.123	75.62
505.34	83.62
505.557	95.62
505.773	96.62
505.99	88.62
506.207	93.62
506.423	103.62
506.64	86.62
506.856	86.62
507.073	83.62
507.289	86.62
507.506	109.62
507.722	109.62
507.939	105.62
508.155	86.62
508.372	81.62
508.588	93.62
508.805	91.62
509.021	89.62
509.238	92.62
509.454	111.62
509.67	101.62
509.887	107.62
510.103	143.62
510.319	228.62
510.536	855.62
510.752	2702.62
510.968	710.62
511.184	169.62
511.401	101.62
511.617	92.62
511.833	95.62
512.049	84.62
512.265	103.62
512.481	96.62
512.698	94.62
512.914	96.62
513.13	100.62
513.346	86.62
513.562	93.62
513.778	82.62
513.994	97.62
514.21	102.62
514.426	121.62
514.642	134.62
514.858	134.62
515.074	179.62
515.29	478.62
515.506	1529.62
515.721	551.62
515.937	159.62
516.153	102.62
516.369	85.62
516.585	101.62
