Data from Uncirc_1999_H10_HRD10591_00054.txt Node
Date: Wed Jan 03 11:22:16 EST 2024
User: Yrep
Spectrometer: HR+D1059
Trigger mode: 1
Integration Time (sec): 1.000000E-1
Scans to average: 1
Electric dark correction enabled: true
Nonlinearity correction enabled: false
Boxcar width: 0
XAxis mode: Wavelengths
Number of Pixels in Spectrum: 2048
>>>>>Begin Spectral Data<<<<<
223.165	-17.94
223.4	-17.94
223.635	-17.94
223.869	-29.94
224.104	-34.94
224.338	-15.94
224.573	-11.94
224.808	-2.94
225.042	4.06
225.277	-4.94
225.511	-3.94
225.746	1.06
225.98	7.06
226.215	15.06
226.449	20.06
226.683	20.06
226.918	26.06
227.152	29.06
227.387	27.06
227.621	46.06
227.856	47.06
228.09	44.06
228.324	52.06
228.559	65.06
228.793	64.06
229.027	79.06
229.262	73.06
229.496	81.06
229.73	77.06
229.964	87.06
230.199	75.06
230.433	79.06
230.667	82.06
230.901	97.06
231.136	79.06
231.37	68.06
231.604	87.06
231.838	67.06
232.072	73.06
232.306	81.06
232.541	70.06
232.775	91.06
233.009	89.06
233.243	76.06
233.477	91.06
233.711	81.06
233.945	74.06
234.179	75.06
234.413	96.06
234.647	94.06
234.881	88.06
235.115	75.06
235.349	96.06
235.583	80.06
235.817	84.06
236.051	79.06
236.285	75.06
236.519	87.06
236.753	89.06
236.987	95.06
237.221	79.06
237.455	79.06
237.689	62.06
237.922	75.06
238.156	88.06
238.39	81.06
238.624	76.06
238.858	78.06
239.091	77.06
239.325	88.06
239.559	91.06
239.793	82.06
240.027	85.06
240.26	92.06
240.494	93.06
240.728	77.06
240.961	82.06
241.195	91.06
241.429	83.06
241.662	87.06
241.896	67.06
242.13	73.06
242.363	72.06
242.597	79.06
242.83	87.06
243.064	95.06
243.298	68.06
243.531	85.06
243.765	95.06
243.998	78.06
244.232	85.06
244.465	88.06
244.699	87.06
244.932	75.06
245.166	93.06
245.399	88.06
245.633	84.06
245.866	80.06
246.099	82.06
246.333	93.06
246.566	88.06
246.8	83.06
247.033	77.06
247.266	97.06
247.5	73.06
247.733	73.06
247.966	84.06
248.2	84.06
248.433	88.06
248.666	76.06
248.899	75.06
249.133	96.06
249.366	93.06
249.599	100.06
249.832	88.06
250.066	81.06
250.299	68.06
250.532	79.06
250.765	79.06
250.998	92.06
251.231	79.06
251.465	75.06
251.698	82.06
251.931	84.06
252.164	92.06
252.397	77.06
252.63	89.06
252.863	87.06
253.096	66.06
253.329	83.06
253.562	64.06
253.795	85.06
254.028	73.06
254.261	94.06
254.494	87.06
254.727	85.06
254.96	86.06
255.193	87.06
255.426	82.06
255.659	83.06
255.892	87.06
256.124	92.06
256.357	78.06
256.59	82.06
256.823	100.06
257.056	84.06
257.289	76.06
257.521	92.06
257.754	93.06
257.987	93.06
258.22	76.06
258.452	91.06
258.685	91.06
258.918	91.06
259.151	88.06
259.383	71.06
259.616	83.06
259.849	90.06
260.081	89.06
260.314	74.06
260.547	78.06
260.779	84.06
261.012	89.06
261.244	92.06
261.477	87.06
261.71	84.06
261.942	117.06
262.175	118.06
262.407	77.06
262.64	94.06
262.872	83.06
263.105	83.06
263.337	84.06
263.57	76.06
263.802	89.06
264.035	87.06
264.267	84.06
264.499	81.06
264.732	87.06
264.964	99.06
265.197	94.06
265.429	87.06
265.661	101.06
265.894	90.06
266.126	69.06
266.358	79.06
266.591	80.06
266.823	73.06
267.055	80.06
267.287	79.06
267.52	106.06
267.752	79.06
267.984	70.06
268.216	86.06
268.448	93.06
268.681	79.06
268.913	96.06
269.145	100.06
269.377	87.06
269.609	91.06
269.841	93.06
270.073	87.06
270.306	84.06
270.538	95.06
270.77	86.06
271.002	88.06
271.234	78.06
271.466	84.06
271.698	94.06
271.93	104.06
272.162	101.06
272.394	106.06
272.626	85.06
272.858	101.06
273.09	91.06
273.322	87.06
273.553	92.06
273.785	84.06
274.017	81.06
274.249	80.06
274.481	68.06
274.713	92.06
274.945	92.06
275.176	85.06
275.408	76.06
275.64	92.06
275.872	90.06
276.104	87.06
276.335	90.06
276.567	117.06
276.799	100.06
277.031	104.06
277.262	99.06
277.494	91.06
277.726	90.06
277.957	82.06
278.189	83.06
278.421	80.06
278.652	89.06
278.884	90.06
279.115	88.06
279.347	84.06
279.579	93.06
279.81	93.06
280.042	91.06
280.273	87.06
280.505	89.06
280.736	97.06
280.968	91.06
281.199	84.06
281.431	84.06
281.662	81.06
281.894	99.06
282.125	107.06
282.356	107.06
282.588	123.06
282.819	112.06
283.051	92.06
283.282	77.06
283.513	90.06
283.745	85.06
283.976	110.06
284.207	80.06
284.439	93.06
284.67	90.06
284.901	93.06
285.132	76.06
285.364	94.06
285.595	85.06
285.826	90.06
286.057	102.06
286.288	82.06
286.52	89.06
286.751	91.06
286.982	85.06
287.213	94.06
287.444	92.06
287.675	93.06
287.906	93.06
288.138	80.06
288.369	87.06
288.6	92.06
288.831	81.06
289.062	77.06
289.293	92.06
289.524	89.06
289.755	95.06
289.986	89.06
290.217	108.06
290.448	90.06
290.679	97.06
290.91	97.06
291.141	92.06
291.371	94.06
291.602	90.06
291.833	93.06
292.064	95.06
292.295	85.06
292.526	97.06
292.757	93.06
292.987	94.06
293.218	83.06
293.449	89.06
293.68	98.06
293.91	106.06
294.141	83.06
294.372	78.06
294.603	83.06
294.833	91.06
295.064	102.06
295.295	104.06
295.525	84.06
295.756	95.06
295.987	128.06
296.217	133.06
296.448	115.06
296.679	90.06
296.909	99.06
297.14	92.06
297.37	101.06
297.601	87.06
297.831	99.06
298.062	105.06
298.292	101.06
298.523	88.06
298.753	96.06
298.984	87.06
299.214	85.06
299.445	90.06
299.675	102.06
299.905	92.06
300.136	97.06
300.366	87.06
300.597	80.06
300.827	92.06
301.057	105.06
301.288	100.06
301.518	107.06
301.748	89.06
301.979	110.06
302.209	93.06
302.439	83.06
302.669	89.06
302.9	101.06
303.13	81.06
303.36	100.06
303.59	122.06
303.82	107.06
304.051	89.06
304.281	83.06
304.511	91.06
304.741	91.06
304.971	104.06
305.201	94.06
305.431	101.06
305.661	85.06
305.891	95.06
306.121	99.06
306.352	95.06
306.582	102.06
306.812	87.06
307.042	111.06
307.272	96.06
307.502	96.06
307.731	89.06
307.961	97.06
308.191	101.06
308.421	96.06
308.651	100.06
308.881	88.06
309.111	102.06
309.341	92.06
309.571	96.06
309.8	96.06
310.03	100.06
310.26	88.06
310.49	100.06
310.72	105.06
310.949	90.06
311.179	105.06
311.409	83.06
311.639	100.06
311.868	113.06
312.098	96.06
312.328	100.06
312.557	108.06
312.787	99.06
313.017	105.06
313.246	109.06
313.476	103.06
313.706	114.06
313.935	93.06
314.165	107.06
314.394	111.06
314.624	104.06
314.853	97.06
315.083	89.06
315.312	97.06
315.542	105.06
315.771	111.06
316.001	98.06
316.23	92.06
316.46	91.06
316.689	90.06
316.919	95.06
317.148	83.06
317.377	105.06
317.607	108.06
317.836	102.06
318.065	80.06
318.295	90.06
318.524	95.06
318.753	94.06
318.983	92.06
319.212	100.06
319.441	105.06
319.67	117.06
319.9	109.06
320.129	90.06
320.358	85.06
320.587	87.06
320.816	110.06
321.046	108.06
321.275	93.06
321.504	98.06
321.733	88.06
321.962	112.06
322.191	103.06
322.42	98.06
322.649	104.06
322.878	119.06
323.108	106.06
323.337	119.06
323.566	135.06
323.795	139.06
324.024	201.06
324.253	392.06
324.482	847.06
324.71	1746.06
324.939	2264.06
325.168	849.06
325.397	235.06
325.626	153.06
325.855	137.06
326.084	124.06
326.313	130.06
326.542	145.06
326.77	227.06
326.999	485.06
327.228	999.06
327.457	1723.06
327.686	1397.06
327.914	375.06
328.143	205.06
328.372	159.06
328.6	121.06
328.829	118.06
329.058	116.06
329.287	125.06
329.515	103.06
329.744	105.06
329.972	100.06
330.201	111.06
330.43	121.06
330.658	113.06
330.887	142.06
331.115	125.06
331.344	98.06
331.572	104.06
331.801	103.06
332.03	98.06
332.258	104.06
332.486	95.06
332.715	99.06
332.943	93.06
333.172	109.06
333.4	93.06
333.629	106.06
333.857	114.06
334.085	104.06
334.314	105.06
334.542	96.06
334.771	99.06
334.999	92.06
335.227	100.06
335.455	105.06
335.684	120.06
335.912	99.06
336.14	114.06
336.369	100.06
336.597	93.06
336.825	102.06
337.053	93.06
337.281	76.06
337.51	91.06
337.738	95.06
337.966	107.06
338.194	100.06
338.422	104.06
338.65	89.06
338.878	92.06
339.106	84.06
339.334	88.06
339.562	94.06
339.79	96.06
340.018	97.06
340.246	95.06
340.474	93.06
340.702	104.06
340.93	91.06
341.158	83.06
341.386	104.06
341.614	108.06
341.842	99.06
342.07	110.06
342.298	82.06
342.526	101.06
342.754	92.06
342.981	95.06
343.209	88.06
343.437	106.06
343.665	85.06
343.893	89.06
344.12	88.06
344.348	90.06
344.576	92.06
344.804	89.06
345.031	104.06
345.259	100.06
345.487	90.06
345.714	96.06
345.942	94.06
346.17	96.06
346.397	92.06
346.625	96.06
346.853	105.06
347.08	100.06
347.308	100.06
347.535	118.06
347.763	103.06
347.99	93.06
348.218	106.06
348.445	88.06
348.673	100.06
348.9	106.06
349.128	98.06
349.355	83.06
349.583	95.06
349.81	105.06
350.037	100.06
350.265	104.06
350.492	73.06
350.72	99.06
350.947	102.06
351.174	106.06
351.402	108.06
351.629	100.06
351.856	114.06
352.083	108.06
352.311	103.06
352.538	113.06
352.765	109.06
352.992	128.06
353.22	122.06
353.447	122.06
353.674	92.06
353.901	96.06
354.128	101.06
354.355	101.06
354.583	92.06
354.81	115.06
355.037	102.06
355.264	115.06
355.491	90.06
355.718	99.06
355.945	101.06
356.172	104.06
356.399	108.06
356.626	100.06
356.853	97.06
357.08	89.06
357.307	100.06
357.534	104.06
357.761	97.06
357.988	99.06
358.215	103.06
358.441	93.06
358.668	90.06
358.895	98.06
359.122	96.06
359.349	83.06
359.576	99.06
359.802	103.06
360.029	115.06
360.256	112.06
360.483	85.06
360.709	100.06
360.936	98.06
361.163	96.06
361.39	98.06
361.616	109.06
361.843	90.06
362.07	83.06
362.296	106.06
362.523	84.06
362.749	85.06
362.976	105.06
363.203	95.06
363.429	91.06
363.656	89.06
363.882	100.06
364.109	87.06
364.335	96.06
364.562	99.06
364.788	105.06
365.015	91.06
365.241	104.06
365.468	126.06
365.694	102.06
365.92	95.06
366.147	89.06
366.373	99.06
366.599	90.06
366.826	97.06
367.052	93.06
367.278	89.06
367.505	99.06
367.731	111.06
367.957	90.06
368.184	94.06
368.41	95.06
368.636	109.06
368.862	137.06
369.089	91.06
369.315	91.06
369.541	101.06
369.767	86.06
369.993	86.06
370.219	101.06
370.445	91.06
370.672	89.06
370.898	95.06
371.124	88.06
371.35	93.06
371.576	96.06
371.802	92.06
372.028	89.06
372.254	97.06
372.48	95.06
372.706	90.06
372.932	98.06
373.158	88.06
373.384	104.06
373.61	107.06
373.835	89.06
374.061	92.06
374.287	97.06
374.513	93.06
374.739	105.06
374.965	90.06
375.191	105.06
375.416	95.06
375.642	101.06
375.868	109.06
376.094	94.06
376.319	85.06
376.545	97.06
376.771	106.06
376.997	92.06
377.222	107.06
377.448	87.06
377.674	83.06
377.899	95.06
378.125	81.06
378.35	100.06
378.576	86.06
378.802	96.06
379.027	99.06
379.253	103.06
379.478	90.06
379.704	95.06
379.929	93.06
380.155	94.06
380.38	84.06
380.606	95.06
380.831	92.06
381.057	124.06
381.282	95.06
381.507	96.06
381.733	99.06
381.958	88.06
382.184	109.06
382.409	105.06
382.634	110.06
382.86	102.06
383.085	110.06
383.31	122.06
383.535	109.06
383.761	108.06
383.986	114.06
384.211	99.06
384.436	99.06
384.662	101.06
384.887	92.06
385.112	104.06
385.337	111.06
385.562	113.06
385.787	106.06
386.013	104.06
386.238	120.06
386.463	110.06
386.688	106.06
386.913	95.06
387.138	109.06
387.363	116.06
387.588	111.06
387.813	107.06
388.038	102.06
388.263	104.06
388.488	111.06
388.713	96.06
388.938	100.06
389.163	91.06
389.387	96.06
389.612	94.06
389.837	95.06
390.062	90.06
390.287	88.06
390.512	102.06
390.736	104.06
390.961	107.06
391.186	91.06
391.411	91.06
391.636	89.06
391.86	73.06
392.085	68.06
392.31	95.06
392.534	79.06
392.759	90.06
392.984	93.06
393.208	94.06
393.433	90.06
393.658	79.06
393.882	90.06
394.107	79.06
394.331	88.06
394.556	80.06
394.78	92.06
395.005	93.06
395.229	92.06
395.454	90.06
395.678	93.06
395.903	90.06
396.127	96.06
396.352	90.06
396.576	97.06
396.801	93.06
397.025	82.06
397.249	95.06
397.474	89.06
397.698	111.06
397.922	103.06
398.147	100.06
398.371	89.06
398.595	87.06
398.82	92.06
399.044	91.06
399.268	92.06
399.492	92.06
399.717	88.06
399.941	97.06
400.165	106.06
400.389	84.06
400.613	78.06
400.837	84.06
401.062	99.06
401.286	90.06
401.51	74.06
401.734	87.06
401.958	105.06
402.182	109.06
402.406	135.06
402.63	119.06
402.854	98.06
403.078	83.06
403.302	91.06
403.526	74.06
403.75	80.06
403.974	81.06
404.198	93.06
404.422	101.06
404.645	98.06
404.869	75.06
405.093	83.06
405.317	91.06
405.541	93.06
405.765	105.06
405.988	107.06
406.212	163.06
406.436	207.06
406.66	135.06
406.883	115.06
407.107	103.06
407.331	99.06
407.555	98.06
407.778	78.06
408.002	95.06
408.226	85.06
408.449	82.06
408.673	98.06
408.896	87.06
409.12	101.06
409.344	87.06
409.567	99.06
409.791	107.06
410.014	83.06
410.238	91.06
410.461	91.06
410.685	109.06
410.908	113.06
411.132	113.06
411.355	111.06
411.578	95.06
411.802	87.06
412.025	96.06
412.249	81.06
412.472	94.06
412.695	100.06
412.919	99.06
413.142	77.06
413.365	97.06
413.589	100.06
413.812	90.06
414.035	97.06
414.258	89.06
414.482	89.06
414.705	92.06
414.928	82.06
415.151	98.06
415.374	92.06
415.597	89.06
415.821	77.06
416.044	89.06
416.267	91.06
416.49	97.06
416.713	89.06
416.936	113.06
417.159	92.06
417.382	79.06
417.605	88.06
417.828	100.06
418.051	91.06
418.274	87.06
418.497	84.06
418.72	83.06
418.943	86.06
419.166	94.06
419.389	116.06
419.611	99.06
419.834	80.06
420.057	89.06
420.28	102.06
420.503	93.06
420.726	88.06
420.948	95.06
421.171	101.06
421.394	80.06
421.617	88.06
421.839	84.06
422.062	100.06
422.285	93.06
422.507	93.06
422.73	102.06
422.953	95.06
423.175	87.06
423.398	88.06
423.621	92.06
423.843	82.06
424.066	100.06
424.288	82.06
424.511	103.06
424.733	95.06
424.956	100.06
425.178	92.06
425.401	98.06
425.623	114.06
425.846	90.06
426.068	94.06
426.291	97.06
426.513	114.06
426.735	88.06
426.958	96.06
427.18	103.06
427.402	122.06
427.625	164.06
427.847	130.06
428.069	120.06
428.292	101.06
428.514	107.06
428.736	81.06
428.958	93.06
429.181	97.06
429.403	87.06
429.625	90.06
429.847	96.06
430.069	89.06
430.292	83.06
430.514	79.06
430.736	90.06
430.958	90.06
431.18	88.06
431.402	82.06
431.624	91.06
431.846	84.06
432.068	92.06
432.29	90.06
432.512	88.06
432.734	92.06
432.956	83.06
433.178	108.06
433.4	102.06
433.622	92.06
433.844	94.06
434.066	96.06
434.287	89.06
434.509	90.06
434.731	98.06
434.953	87.06
435.175	84.06
435.397	89.06
435.618	102.06
435.84	97.06
436.062	125.06
436.284	107.06
436.505	104.06
436.727	103.06
436.949	101.06
437.17	97.06
437.392	76.06
437.614	94.06
437.835	106.06
438.057	115.06
438.278	98.06
438.5	101.06
438.721	111.06
438.943	102.06
439.165	95.06
439.386	82.06
439.608	89.06
439.829	114.06
440.05	121.06
440.272	131.06
440.493	111.06
440.715	93.06
440.936	79.06
441.158	93.06
441.379	89.06
441.6	100.06
441.822	98.06
442.043	82.06
442.264	104.06
442.486	112.06
442.707	88.06
442.928	115.06
443.149	116.06
443.371	125.06
443.592	102.06
443.813	104.06
444.034	109.06
444.255	94.06
444.476	105.06
444.698	76.06
444.919	85.06
445.14	140.06
445.361	121.06
445.582	118.06
445.803	133.06
446.024	127.06
446.245	130.06
446.466	100.06
446.687	83.06
446.908	96.06
447.129	89.06
447.35	85.06
447.571	92.06
447.792	100.06
448.013	93.06
448.234	108.06
448.455	112.06
448.675	113.06
448.896	117.06
449.117	90.06
449.338	112.06
449.559	142.06
449.779	155.06
450	113.06
450.221	88.06
450.442	90.06
450.662	96.06
450.883	101.06
451.104	97.06
451.324	93.06
451.545	85.06
451.766	90.06
451.986	102.06
452.207	92.06
452.428	71.06
452.648	88.06
452.869	98.06
453.089	113.06
453.31	125.06
453.53	108.06
453.751	89.06
453.971	107.06
454.192	111.06
454.412	92.06
454.633	91.06
454.853	94.06
455.073	97.06
455.294	89.06
455.514	80.06
455.734	100.06
455.955	93.06
456.175	94.06
456.395	81.06
456.616	94.06
456.836	96.06
457.056	98.06
457.276	75.06
457.497	87.06
457.717	100.06
457.937	93.06
458.157	95.06
458.377	80.06
458.598	101.06
458.818	135.06
459.038	147.06
459.258	109.06
459.478	81.06
459.698	89.06
459.918	83.06
460.138	77.06
460.358	90.06
460.578	88.06
460.798	95.06
461.018	96.06
461.238	89.06
461.458	95.06
461.678	72.06
461.898	87.06
462.118	87.06
462.338	78.06
462.558	81.06
462.777	96.06
462.997	89.06
463.217	90.06
463.437	89.06
463.657	91.06
463.876	90.06
464.096	90.06
464.316	99.06
464.536	96.06
464.755	100.06
464.975	104.06
465.195	158.06
465.414	152.06
465.634	100.06
465.854	94.06
466.073	97.06
466.293	94.06
466.512	98.06
466.732	104.06
466.951	99.06
467.171	90.06
467.391	101.06
467.61	94.06
467.829	94.06
468.049	90.06
468.268	100.06
468.488	103.06
468.707	89.06
468.927	81.06
469.146	95.06
469.365	81.06
469.585	85.06
469.804	98.06
470.023	108.06
470.243	101.06
470.462	97.06
470.681	90.06
470.901	86.06
471.12	92.06
471.339	90.06
471.558	79.06
471.777	93.06
471.997	84.06
472.216	98.06
472.435	96.06
472.654	98.06
472.873	100.06
473.092	98.06
473.311	91.06
473.53	97.06
473.749	87.06
473.968	98.06
474.187	105.06
474.406	100.06
474.625	104.06
474.844	88.06
475.063	82.06
475.282	106.06
475.501	98.06
475.72	75.06
475.939	90.06
476.158	84.06
476.377	90.06
476.596	100.06
476.814	86.06
477.033	81.06
477.252	98.06
477.471	96.06
477.69	82.06
477.908	86.06
478.127	90.06
478.346	96.06
478.564	92.06
478.783	93.06
479.002	94.06
479.22	78.06
479.439	96.06
479.658	115.06
479.876	100.06
480.095	88.06
480.313	89.06
480.532	85.06
480.751	84.06
480.969	112.06
481.188	128.06
481.406	112.06
481.624	94.06
481.843	83.06
482.061	91.06
482.28	88.06
482.498	92.06
482.717	88.06
482.935	88.06
483.153	98.06
483.372	96.06
483.59	98.06
483.808	94.06
484.027	95.06
484.245	97.06
484.463	99.06
484.681	104.06
484.9	97.06
485.118	93.06
485.336	109.06
485.554	100.06
485.772	110.06
485.99	115.06
486.209	109.06
486.427	106.06
486.645	108.06
486.863	118.06
487.081	103.06
487.299	104.06
487.517	104.06
487.735	97.06
487.953	98.06
488.171	99.06
488.389	100.06
488.607	102.06
488.825	111.06
489.043	84.06
489.261	93.06
489.479	104.06
489.696	107.06
489.914	99.06
490.132	99.06
490.35	103.06
490.568	81.06
490.786	87.06
491.003	85.06
491.221	110.06
491.439	100.06
491.657	93.06
491.874	96.06
492.092	114.06
492.31	104.06
492.527	82.06
492.745	91.06
492.963	88.06
493.18	85.06
493.398	100.06
493.615	87.06
493.833	89.06
494.05	87.06
494.268	96.06
494.485	98.06
494.703	99.06
494.92	88.06
495.138	91.06
495.355	83.06
495.573	99.06
495.79	111.06
496.008	90.06
496.225	87.06
496.442	102.06
496.66	100.06
496.877	101.06
497.094	95.06
497.312	91.06
497.529	90.06
497.746	99.06
497.963	95.06
498.181	92.06
498.398	95.06
498.615	108.06
498.832	102.06
499.049	98.06
499.267	82.06
499.484	95.06
499.701	95.06
499.918	84.06
500.135	85.06
500.352	105.06
500.569	89.06
500.786	84.06
501.003	102.06
501.22	100.06
501.437	87.06
501.654	97.06
501.871	106.06
502.088	95.06
502.305	98.06
502.522	91.06
502.739	85.06
502.956	97.06
503.172	111.06
503.389	93.06
503.606	95.06
503.823	95.06
504.04	96.06
504.256	105.06
504.473	86.06
504.69	98.06
504.907	97.06
505.123	91.06
505.34	79.06
505.557	84.06
505.773	79.06
505.99	80.06
506.207	85.06
506.423	102.06
506.64	89.06
506.856	95.06
507.073	101.06
507.289	101.06
507.506	92.06
507.722	123.06
507.939	123.06
508.155	107.06
508.372	96.06
508.588	92.06
508.805	91.06
509.021	100.06
509.238	99.06
509.454	107.06
509.67	101.06
509.887	101.06
510.103	146.06
510.319	235.06
510.536	800.06
510.752	2367.06
510.968	650.06
511.184	153.06
511.401	114.06
511.617	83.06
511.833	101.06
512.049	94.06
512.265	101.06
512.481	96.06
512.698	108.06
512.914	102.06
513.13	99.06
513.346	98.06
513.562	98.06
513.778	90.06
513.994	107.06
514.21	99.06
