Data from Uncirc_1999_H10_HRD10591_00016.txt Node
Date: Wed Jan 03 11:22:08 EST 2024
User: Yrep
Spectrometer: HR+D1059
Trigger mode: 1
Integration Time (sec): 1.000000E-1
Scans to average: 1
Electric dark correction enabled: true
Nonlinearity correction enabled: false
Boxcar width: 0
XAxis mode: Wavelengths
Number of Pixels in Spectrum: 2048
>>>>>Begin Spectral Data<<<<<
223.165	-16.56
223.4	-16.56
223.635	-16.56
223.869	-11.56
224.104	-14.56
224.338	-18.56
224.573	-17.56
224.808	-12.56
225.042	-9.56
225.277	-5.56
225.511	-3.56
225.746	-3.56
225.98	1.44
226.215	24.44
226.449	24.44
226.683	23.44
226.918	21.44
227.152	18.44
227.387	35.44
227.621	37.44
227.856	47.44
228.09	43.44
228.324	57.44
228.559	51.44
228.793	70.44
229.027	58.44
229.262	66.44
229.496	72.44
229.73	66.44
229.964	83.44
230.199	78.44
230.433	69.44
230.667	81.44
230.901	79.44
231.136	95.44
231.37	82.44
231.604	78.44
231.838	84.44
232.072	79.44
232.306	82.44
232.541	81.44
232.775	81.44
233.009	89.44
233.243	81.44
233.477	75.44
233.711	82.44
233.945	86.44
234.179	85.44
234.413	72.44
234.647	78.44
234.881	90.44
235.115	71.44
235.349	83.44
235.583	76.44
235.817	85.44
236.051	92.44
236.285	81.44
236.519	83.44
236.753	80.44
236.987	68.44
237.221	102.44
237.455	104.44
237.689	86.44
237.922	89.44
238.156	90.44
238.39	77.44
238.624	71.44
238.858	66.44
239.091	73.44
239.325	90.44
239.559	86.44
239.793	89.44
240.027	98.44
240.26	84.44
240.494	88.44
240.728	88.44
240.961	77.44
241.195	81.44
241.429	77.44
241.662	82.44
241.896	75.44
242.13	78.44
242.363	71.44
242.597	71.44
242.83	72.44
243.064	76.44
243.298	77.44
243.531	70.44
243.765	82.44
243.998	70.44
244.232	81.44
244.465	80.44
244.699	86.44
244.932	83.44
245.166	79.44
245.399	81.44
245.633	101.44
245.866	91.44
246.099	68.44
246.333	71.44
246.566	74.44
246.8	85.44
247.033	90.44
247.266	84.44
247.5	77.44
247.733	92.44
247.966	83.44
248.2	91.44
248.433	86.44
248.666	82.44
248.899	74.44
249.133	92.44
249.366	108.44
249.599	97.44
249.832	91.44
250.066	83.44
250.299	72.44
250.532	72.44
250.765	79.44
250.998	84.44
251.231	78.44
251.465	93.44
251.698	77.44
251.931	75.44
252.164	79.44
252.397	73.44
252.63	76.44
252.863	71.44
253.096	60.44
253.329	78.44
253.562	77.44
253.795	73.44
254.028	92.44
254.261	84.44
254.494	91.44
254.727	83.44
254.96	84.44
255.193	85.44
255.426	73.44
255.659	80.44
255.892	70.44
256.124	90.44
256.357	77.44
256.59	78.44
256.823	88.44
257.056	88.44
257.289	90.44
257.521	75.44
257.754	79.44
257.987	77.44
258.22	72.44
258.452	72.44
258.685	89.44
258.918	75.44
259.151	96.44
259.383	76.44
259.616	93.44
259.849	88.44
260.081	83.44
260.314	64.44
260.547	98.44
260.779	80.44
261.012	87.44
261.244	92.44
261.477	85.44
261.71	100.44
261.942	109.44
262.175	105.44
262.407	80.44
262.64	86.44
262.872	87.44
263.105	89.44
263.337	83.44
263.57	82.44
263.802	89.44
264.035	97.44
264.267	91.44
264.499	64.44
264.732	92.44
264.964	79.44
265.197	87.44
265.429	95.44
265.661	87.44
265.894	76.44
266.126	75.44
266.358	112.44
266.591	82.44
266.823	88.44
267.055	82.44
267.287	89.44
267.52	80.44
267.752	87.44
267.984	81.44
268.216	95.44
268.448	85.44
268.681	67.44
268.913	86.44
269.145	86.44
269.377	83.44
269.609	91.44
269.841	93.44
270.073	101.44
270.306	86.44
270.538	88.44
270.77	82.44
271.002	59.44
271.234	83.44
271.466	87.44
271.698	93.44
271.93	90.44
272.162	94.44
272.394	85.44
272.626	89.44
272.858	94.44
273.09	84.44
273.322	83.44
273.553	91.44
273.785	84.44
274.017	97.44
274.249	93.44
274.481	102.44
274.713	84.44
274.945	96.44
275.176	94.44
275.408	99.44
275.64	89.44
275.872	88.44
276.104	79.44
276.335	97.44
276.567	93.44
276.799	101.44
277.031	107.44
277.262	91.44
277.494	95.44
277.726	88.44
277.957	92.44
278.189	89.44
278.421	86.44
278.652	87.44
278.884	91.44
279.115	76.44
279.347	94.44
279.579	79.44
279.81	85.44
280.042	90.44
280.273	90.44
280.505	83.44
280.736	93.44
280.968	84.44
281.199	94.44
281.431	88.44
281.662	86.44
281.894	90.44
282.125	103.44
282.356	106.44
282.588	114.44
282.819	106.44
283.051	80.44
283.282	93.44
283.513	82.44
283.745	84.44
283.976	87.44
284.207	72.44
284.439	74.44
284.67	88.44
284.901	78.44
285.132	87.44
285.364	72.44
285.595	92.44
285.826	90.44
286.057	90.44
286.288	107.44
286.52	85.44
286.751	87.44
286.982	89.44
287.213	92.44
287.444	92.44
287.675	89.44
287.906	93.44
288.138	92.44
288.369	98.44
288.6	98.44
288.831	92.44
289.062	87.44
289.293	99.44
289.524	98.44
289.755	93.44
289.986	102.44
290.217	91.44
290.448	99.44
290.679	85.44
290.91	88.44
291.141	96.44
291.371	87.44
291.602	101.44
291.833	84.44
292.064	91.44
292.295	98.44
292.526	95.44
292.757	76.44
292.987	79.44
293.218	80.44
293.449	82.44
293.68	88.44
293.91	102.44
294.141	93.44
294.372	89.44
294.603	99.44
294.833	77.44
295.064	83.44
295.295	84.44
295.525	93.44
295.756	102.44
295.987	118.44
296.217	118.44
296.448	108.44
296.679	100.44
296.909	84.44
297.14	94.44
297.37	87.44
297.601	93.44
297.831	96.44
298.062	99.44
298.292	98.44
298.523	87.44
298.753	89.44
298.984	89.44
299.214	88.44
299.445	90.44
299.675	96.44
299.905	104.44
300.136	101.44
300.366	79.44
300.597	98.44
300.827	96.44
301.057	93.44
301.288	96.44
301.518	102.44
301.748	97.44
301.979	111.44
302.209	95.44
302.439	99.44
302.669	92.44
302.9	101.44
303.13	89.44
303.36	89.44
303.59	87.44
303.82	99.44
304.051	104.44
304.281	99.44
304.511	86.44
304.741	99.44
304.971	89.44
305.201	102.44
305.431	80.44
305.661	94.44
305.891	94.44
306.121	99.44
306.352	94.44
306.582	92.44
306.812	87.44
307.042	95.44
307.272	90.44
307.502	86.44
307.731	90.44
307.961	104.44
308.191	98.44
308.421	82.44
308.651	91.44
308.881	100.44
309.111	94.44
309.341	89.44
309.571	106.44
309.8	97.44
310.03	101.44
310.26	96.44
310.49	93.44
310.72	89.44
310.949	97.44
311.179	90.44
311.409	96.44
311.639	106.44
311.868	114.44
312.098	100.44
312.328	109.44
312.557	101.44
312.787	93.44
313.017	86.44
313.246	109.44
313.476	86.44
313.706	99.44
313.935	83.44
314.165	118.44
314.394	107.44
314.624	91.44
314.853	105.44
315.083	96.44
315.312	91.44
315.542	88.44
315.771	97.44
316.001	93.44
316.23	95.44
316.46	84.44
316.689	90.44
316.919	101.44
317.148	89.44
317.377	90.44
317.607	86.44
317.836	92.44
318.065	101.44
318.295	102.44
318.524	109.44
318.753	95.44
318.983	93.44
319.212	114.44
319.441	92.44
319.67	106.44
319.9	102.44
320.129	108.44
320.358	105.44
320.587	103.44
320.816	94.44
321.046	92.44
321.275	103.44
321.504	107.44
321.733	96.44
321.962	89.44
322.191	96.44
322.42	102.44
322.649	102.44
322.878	115.44
323.108	112.44
323.337	135.44
323.566	122.44
323.795	162.44
324.024	188.44
324.253	348.44
324.482	806.44
324.71	1586.44
324.939	2047.44
325.168	748.44
325.397	231.44
325.626	144.44
325.855	132.44
326.084	123.44
326.313	106.44
326.542	149.44
326.77	224.44
326.999	437.44
327.228	891.44
327.457	1652.44
327.686	1287.44
327.914	352.44
328.143	181.44
328.372	135.44
328.6	121.44
328.829	114.44
329.058	109.44
329.287	121.44
329.515	104.44
329.744	110.44
329.972	105.44
330.201	105.44
330.43	111.44
330.658	127.44
330.887	120.44
331.115	114.44
331.344	101.44
331.572	97.44
331.801	90.44
332.03	109.44
332.258	94.44
332.486	99.44
332.715	84.44
332.943	104.44
333.172	99.44
333.4	97.44
333.629	94.44
333.857	107.44
334.085	100.44
334.314	100.44
334.542	102.44
334.771	110.44
334.999	89.44
335.227	87.44
335.455	94.44
335.684	109.44
335.912	96.44
336.14	94.44
336.369	95.44
336.597	99.44
336.825	98.44
337.053	99.44
337.281	102.44
337.51	94.44
337.738	88.44
337.966	95.44
338.194	102.44
338.422	109.44
338.65	88.44
338.878	83.44
339.106	90.44
339.334	112.44
339.562	100.44
339.79	100.44
340.018	104.44
340.246	97.44
340.474	97.44
340.702	107.44
340.93	94.44
341.158	106.44
341.386	84.44
341.614	102.44
341.842	93.44
342.07	99.44
342.298	105.44
342.526	71.44
342.754	84.44
342.981	98.44
343.209	84.44
343.437	95.44
343.665	92.44
343.893	95.44
344.12	112.44
344.348	105.44
344.576	96.44
344.804	106.44
345.031	88.44
345.259	92.44
345.487	94.44
345.714	90.44
345.942	95.44
346.17	90.44
346.397	88.44
346.625	92.44
346.853	86.44
347.08	82.44
347.308	100.44
347.535	90.44
347.763	98.44
347.99	93.44
348.218	107.44
348.445	98.44
348.673	99.44
348.9	90.44
349.128	100.44
349.355	105.44
349.583	97.44
349.81	116.44
350.037	94.44
350.265	104.44
350.492	97.44
350.72	97.44
350.947	88.44
351.174	100.44
351.402	118.44
351.629	120.44
351.856	108.44
352.083	122.44
352.311	114.44
352.538	98.44
352.765	100.44
352.992	126.44
353.22	109.44
353.447	118.44
353.674	117.44
353.901	118.44
354.128	99.44
354.355	109.44
354.583	114.44
354.81	110.44
355.037	103.44
355.264	98.44
355.491	107.44
355.718	94.44
355.945	103.44
356.172	89.44
356.399	104.44
356.626	106.44
356.853	72.44
357.08	98.44
357.307	108.44
357.534	109.44
357.761	100.44
357.988	107.44
358.215	110.44
358.441	113.44
358.668	111.44
358.895	100.44
359.122	94.44
359.349	89.44
359.576	93.44
359.802	105.44
360.029	95.44
360.256	94.44
360.483	102.44
360.709	94.44
360.936	103.44
361.163	96.44
361.39	86.44
361.616	100.44
361.843	104.44
362.07	88.44
362.296	99.44
362.523	95.44
362.749	95.44
362.976	106.44
363.203	88.44
363.429	100.44
363.656	87.44
363.882	90.44
364.109	96.44
364.335	94.44
364.562	78.44
364.788	85.44
365.015	106.44
365.241	95.44
365.468	99.44
365.694	104.44
365.92	100.44
366.147	95.44
366.373	83.44
366.599	82.44
366.826	95.44
367.052	91.44
367.278	95.44
367.505	82.44
367.731	105.44
367.957	79.44
368.184	89.44
368.41	90.44
368.636	103.44
368.862	121.44
369.089	117.44
369.315	102.44
369.541	88.44
369.767	83.44
369.993	100.44
370.219	92.44
370.445	96.44
370.672	96.44
370.898	81.44
371.124	98.44
371.35	82.44
371.576	98.44
371.802	116.44
372.028	85.44
372.254	91.44
372.48	85.44
372.706	98.44
372.932	96.44
373.158	96.44
373.384	94.44
373.61	86.44
373.835	104.44
374.061	90.44
374.287	90.44
374.513	98.44
374.739	94.44
374.965	78.44
375.191	92.44
375.416	85.44
375.642	98.44
375.868	86.44
376.094	83.44
376.319	95.44
376.545	105.44
376.771	97.44
376.997	105.44
377.222	107.44
377.448	88.44
377.674	100.44
377.899	106.44
378.125	108.44
378.35	113.44
378.576	98.44
378.802	93.44
379.027	95.44
379.253	103.44
379.478	96.44
379.704	111.44
379.929	104.44
380.155	90.44
380.38	101.44
380.606	104.44
380.831	112.44
381.057	110.44
381.282	98.44
381.507	102.44
381.733	99.44
381.958	97.44
382.184	98.44
382.409	100.44
382.634	100.44
382.86	105.44
383.085	100.44
383.31	127.44
383.535	123.44
383.761	114.44
383.986	104.44
384.211	105.44
384.436	116.44
384.662	106.44
384.887	113.44
385.112	124.44
385.337	134.44
385.562	132.44
385.787	115.44
386.013	127.44
386.238	138.44
386.463	130.44
386.688	141.44
386.913	123.44
387.138	139.44
387.363	109.44
387.588	121.44
387.813	110.44
388.038	122.44
388.263	151.44
388.488	135.44
388.713	98.44
388.938	98.44
389.163	96.44
389.387	106.44
389.612	105.44
389.837	95.44
390.062	104.44
390.287	95.44
390.512	82.44
390.736	94.44
390.961	94.44
391.186	96.44
391.411	91.44
391.636	96.44
391.86	76.44
392.085	83.44
392.31	93.44
392.534	93.44
392.759	95.44
392.984	87.44
393.208	89.44
393.433	98.44
393.658	102.44
393.882	102.44
394.107	90.44
394.331	93.44
394.556	89.44
394.78	82.44
395.005	83.44
395.229	100.44
395.454	98.44
395.678	85.44
395.903	92.44
396.127	97.44
396.352	79.44
396.576	97.44
396.801	88.44
397.025	108.44
397.249	88.44
397.474	85.44
397.698	89.44
397.922	100.44
398.147	81.44
398.371	101.44
398.595	97.44
398.82	90.44
399.044	90.44
399.268	97.44
399.492	96.44
399.717	98.44
399.941	80.44
400.165	93.44
400.389	87.44
400.613	87.44
400.837	73.44
401.062	89.44
401.286	83.44
401.51	96.44
401.734	77.44
401.958	119.44
402.182	111.44
402.406	123.44
402.63	110.44
402.854	99.44
403.078	99.44
403.302	82.44
403.526	90.44
403.75	66.44
403.974	97.44
404.198	79.44
404.422	94.44
404.645	81.44
404.869	94.44
405.093	100.44
405.317	107.44
405.541	90.44
405.765	99.44
405.988	128.44
406.212	153.44
406.436	181.44
406.66	130.44
406.883	105.44
407.107	99.44
407.331	104.44
407.555	106.44
407.778	94.44
408.002	95.44
408.226	91.44
408.449	86.44
408.673	85.44
408.896	103.44
409.12	95.44
409.344	99.44
409.567	86.44
409.791	87.44
410.014	100.44
410.238	99.44
410.461	92.44
410.685	99.44
410.908	104.44
411.132	122.44
411.355	105.44
411.578	98.44
411.802	90.44
412.025	96.44
412.249	92.44
412.472	95.44
412.695	91.44
412.919	83.44
413.142	91.44
413.365	99.44
413.589	107.44
413.812	99.44
414.035	106.44
414.258	92.44
414.482	89.44
414.705	87.44
414.928	103.44
415.151	95.44
415.374	100.44
415.597	104.44
415.821	81.44
416.044	91.44
416.267	100.44
416.49	94.44
416.713	103.44
416.936	102.44
417.159	88.44
417.382	81.44
417.605	96.44
417.828	96.44
418.051	103.44
418.274	86.44
418.497	80.44
418.72	91.44
418.943	111.44
419.166	97.44
419.389	109.44
419.611	99.44
419.834	91.44
420.057	105.44
420.28	99.44
420.503	89.44
420.726	100.44
420.948	101.44
421.171	93.44
421.394	95.44
421.617	100.44
421.839	88.44
422.062	111.44
422.285	91.44
422.507	105.44
422.73	90.44
422.953	82.44
423.175	109.44
423.398	115.44
423.621	99.44
423.843	91.44
424.066	79.44
424.288	104.44
424.511	97.44
424.733	104.44
424.956	107.44
425.178	103.44
425.401	94.44
425.623	94.44
425.846	92.44
426.068	107.44
426.291	93.44
426.513	89.44
426.735	100.44
426.958	95.44
427.18	98.44
427.402	114.44
427.625	154.44
427.847	118.44
428.069	89.44
428.292	106.44
428.514	91.44
428.736	88.44
428.958	99.44
429.181	95.44
429.403	82.44
429.625	91.44
429.847	106.44
430.069	110.44
430.292	83.44
430.514	87.44
430.736	81.44
430.958	83.44
431.18	92.44
431.402	90.44
431.624	107.44
431.846	85.44
432.068	76.44
432.29	79.44
432.512	89.44
432.734	96.44
432.956	91.44
433.178	106.44
433.4	105.44
433.622	101.44
433.844	97.44
434.066	106.44
434.287	86.44
434.509	88.44
434.731	90.44
434.953	84.44
435.175	91.44
435.397	83.44
435.618	92.44
435.84	102.44
436.062	110.44
436.284	98.44
436.505	104.44
436.727	105.44
436.949	93.44
437.17	83.44
437.392	78.44
437.614	108.44
437.835	108.44
438.057	94.44
438.278	104.44
438.5	111.44
438.721	118.44
438.943	109.44
439.165	88.44
439.386	80.44
439.608	91.44
439.829	111.44
440.05	132.44
440.272	130.44
440.493	96.44
440.715	82.44
440.936	92.44
441.158	86.44
441.379	99.44
441.6	82.44
441.822	92.44
442.043	93.44
442.264	100.44
442.486	94.44
442.707	98.44
442.928	106.44
443.149	107.44
443.371	112.44
443.592	92.44
443.813	98.44
444.034	107.44
444.255	94.44
444.476	100.44
444.698	86.44
444.919	93.44
445.14	141.44
445.361	121.44
445.582	100.44
445.803	117.44
446.024	137.44
446.245	121.44
446.466	99.44
446.687	90.44
446.908	96.44
447.129	92.44
447.35	86.44
447.571	95.44
447.792	99.44
448.013	106.44
448.234	114.44
448.455	85.44
448.675	105.44
448.896	114.44
449.117	99.44
449.338	99.44
449.559	115.44
449.779	117.44
450	104.44
450.221	79.44
450.442	86.44
450.662	96.44
450.883	104.44
451.104	108.44
451.324	102.44
451.545	102.44
451.766	87.44
451.986	93.44
452.207	84.44
452.428	78.44
452.648	104.44
452.869	98.44
453.089	113.44
453.31	118.44
453.53	95.44
453.751	98.44
453.971	108.44
454.192	108.44
454.412	87.44
454.633	100.44
454.853	95.44
455.073	74.44
455.294	94.44
455.514	97.44
455.734	85.44
455.955	86.44
456.175	89.44
456.395	75.44
456.616	87.44
456.836	96.44
457.056	87.44
457.276	81.44
457.497	87.44
457.717	90.44
457.937	90.44
458.157	94.44
458.377	81.44
458.598	98.44
458.818	128.44
459.038	118.44
459.258	103.44
459.478	99.44
459.698	102.44
459.918	93.44
460.138	84.44
460.358	87.44
460.578	88.44
460.798	79.44
461.018	84.44
461.238	90.44
461.458	86.44
461.678	84.44
461.898	93.44
462.118	88.44
462.338	98.44
462.558	82.44
462.777	79.44
462.997	82.44
463.217	92.44
463.437	94.44
463.657	100.44
463.876	98.44
464.096	90.44
464.316	81.44
464.536	104.44
464.755	91.44
464.975	114.44
465.195	134.44
465.414	132.44
465.634	82.44
465.854	86.44
466.073	90.44
466.293	90.44
466.512	94.44
466.732	86.44
466.951	95.44
467.171	98.44
467.391	103.44
467.61	96.44
467.829	94.44
468.049	96.44
468.268	93.44
468.488	73.44
468.707	92.44
468.927	87.44
469.146	92.44
469.365	92.44
469.585	85.44
469.804	88.44
470.023	99.44
470.243	98.44
470.462	103.44
470.681	100.44
470.901	95.44
471.12	82.44
471.339	98.44
471.558	94.44
471.777	82.44
471.997	90.44
472.216	105.44
472.435	112.44
472.654	74.44
472.873	88.44
473.092	97.44
473.311	85.44
473.53	78.44
473.749	80.44
473.968	103.44
474.187	102.44
474.406	97.44
474.625	90.44
474.844	86.44
475.063	88.44
475.282	95.44
475.501	98.44
475.72	106.44
475.939	90.44
476.158	89.44
476.377	85.44
476.596	97.44
476.814	84.44
477.033	89.44
477.252	101.44
477.471	86.44
477.69	78.44
477.908	86.44
478.127	81.44
478.346	94.44
478.564	84.44
478.783	110.44
479.002	88.44
479.22	81.44
479.439	110.44
479.658	91.44
479.876	90.44
480.095	99.44
480.313	100.44
480.532	104.44
480.751	95.44
480.969	96.44
481.188	136.44
481.406	105.44
481.624	87.44
481.843	94.44
482.061	95.44
482.28	84.44
482.498	84.44
482.717	94.44
482.935	91.44
483.153	98.44
483.372	92.44
483.59	77.44
483.808	96.44
484.027	103.44
484.245	106.44
484.463	100.44
484.681	100.44
484.9	93.44
485.118	98.44
485.336	99.44
485.554	98.44
485.772	104.44
485.99	109.44
486.209	97.44
486.427	115.44
486.645	101.44
486.863	97.44
487.081	94.44
487.299	94.44
487.517	81.44
487.735	99.44
487.953	108.44
488.171	95.44
488.389	95.44
488.607	111.44
488.825	88.44
489.043	88.44
489.261	84.44
489.479	89.44
489.696	87.44
489.914	88.44
490.132	89.44
490.35	101.44
490.568	99.44
490.786	84.44
491.003	78.44
491.221	103.44
491.439	100.44
491.657	101.44
491.874	94.44
492.092	98.44
492.31	93.44
492.527	99.44
492.745	88.44
492.963	88.44
493.18	94.44
493.398	98.44
493.615	101.44
493.833	101.44
494.05	102.44
494.268	88.44
494.485	95.44
494.703	94.44
494.92	91.44
495.138	89.44
495.355	89.44
495.573	100.44
495.79	94.44
496.008	105.44
496.225	89.44
496.442	89.44
496.66	101.44
496.877	100.44
497.094	99.44
497.312	103.44
497.529	105.44
497.746	108.44
497.963	98.44
498.181	93.44
498.398	96.44
498.615	102.44
498.832	99.44
499.049	80.44
499.267	103.44
499.484	95.44
499.701	103.44
499.918	109.44
500.135	98.44
500.352	87.44
500.569	87.44
500.786	90.44
501.003	97.44
501.22	106.44
501.437	96.44
501.654	91.44
501.871	89.44
502.088	88.44
502.305	94.44
502.522	95.44
502.739	100.44
502.956	97.44
503.172	93.44
503.389	87.44
503.606	90.44
503.823	103.44
504.04	82.44
504.256	98.44
504.473	95.44
504.69	94.44
504.907	102.44
505.123	95.44
505.34	98.44
505.557	84.44
505.773	87.44
505.99	102.44
506.207	87.44
506.423	88.44
506.64	88.44
506.856	107.44
507.073	99.44
507.289	108.44
507.506	98.44
507.722	107.44
507.939	102.44
508.155	99.44
508.372	86.44
508.588	95.44
508.805	98.44
509.021	97.44
509.238	94.44
509.454	95.44
509.67	91.44
509.887	98.44
510.103	138.44
510.319	190.44
510.536	646.44
510.752	1822.44
510.968	534.44
511.184	131.44
511.401	108.44
511.617	96.44
511.833	94.44
512.049	102.44
512.265	97.44
512.481	91.44
512.698	93.44
512.914	105.44
513.13	92.44
513.346	99.44
513.562	91.44
513.778	89.44
513.994	96.44
514.21	98.44
514.426	115.44
