Data from Uncirc_1999_H10_HRD10591_00073.txt Node
Date: Wed Jan 03 11:22:19 EST 2024
User: Yrep
Spectrometer: HR+D1059
Trigger mode: 1
Integration Time (sec): 1.000000E-1
Scans to average: 1
Electric dark correction enabled: true
Nonlinearity correction enabled: false
Boxcar width: 0
XAxis mode: Wavelengths
Number of Pixels in Spectrum: 2048
>>>>>Begin Spectral Data<<<<<
223.165	-25.44
223.4	-25.44
223.635	-25.44
223.869	-25.44
224.104	-13.44
224.338	-13.44
224.573	-7.44
224.808	-21.44
225.042	-10.44
225.277	5.56
225.511	-1.44
225.746	7.56
225.98	12.56
226.215	10.56
226.449	13.56
226.683	9.56
226.918	31.56
227.152	27.56
227.387	34.56
227.621	43.56
227.856	69.56
228.09	47.56
228.324	53.56
228.559	58.56
228.793	71.56
229.027	52.56
229.262	63.56
229.496	64.56
229.73	75.56
229.964	72.56
230.199	79.56
230.433	66.56
230.667	71.56
230.901	84.56
231.136	76.56
231.37	66.56
231.604	92.56
231.838	80.56
232.072	91.56
232.306	92.56
232.541	82.56
232.775	84.56
233.009	76.56
233.243	62.56
233.477	76.56
233.711	79.56
233.945	73.56
234.179	91.56
234.413	85.56
234.647	78.56
234.881	70.56
235.115	88.56
235.349	80.56
235.583	83.56
235.817	81.56
236.051	70.56
236.285	73.56
236.519	71.56
236.753	74.56
236.987	73.56
237.221	78.56
237.455	72.56
237.689	101.56
237.922	81.56
238.156	96.56
238.39	73.56
238.624	67.56
238.858	92.56
239.091	72.56
239.325	87.56
239.559	89.56
239.793	78.56
240.027	83.56
240.26	87.56
240.494	83.56
240.728	84.56
240.961	75.56
241.195	71.56
241.429	85.56
241.662	67.56
241.896	77.56
242.13	69.56
242.363	76.56
242.597	85.56
242.83	88.56
243.064	78.56
243.298	74.56
243.531	66.56
243.765	91.56
243.998	84.56
244.232	87.56
244.465	89.56
244.699	79.56
244.932	83.56
245.166	71.56
245.399	81.56
245.633	75.56
245.866	79.56
246.099	61.56
246.333	82.56
246.566	82.56
246.8	76.56
247.033	73.56
247.266	67.56
247.5	77.56
247.733	82.56
247.966	82.56
248.2	93.56
248.433	90.56
248.666	92.56
248.899	89.56
249.133	84.56
249.366	98.56
249.599	102.56
249.832	72.56
250.066	75.56
250.299	79.56
250.532	76.56
250.765	76.56
250.998	83.56
251.231	92.56
251.465	69.56
251.698	78.56
251.931	86.56
252.164	81.56
252.397	71.56
252.63	86.56
252.863	88.56
253.096	82.56
253.329	77.56
253.562	82.56
253.795	83.56
254.028	74.56
254.261	78.56
254.494	72.56
254.727	78.56
254.96	85.56
255.193	75.56
255.426	84.56
255.659	70.56
255.892	73.56
256.124	88.56
256.357	69.56
256.59	73.56
256.823	77.56
257.056	88.56
257.289	73.56
257.521	70.56
257.754	81.56
257.987	67.56
258.22	81.56
258.452	79.56
258.685	89.56
258.918	88.56
259.151	88.56
259.383	97.56
259.616	77.56
259.849	102.56
260.081	90.56
260.314	69.56
260.547	92.56
260.779	84.56
261.012	77.56
261.244	91.56
261.477	95.56
261.71	86.56
261.942	104.56
262.175	119.56
262.407	86.56
262.64	88.56
262.872	102.56
263.105	71.56
263.337	90.56
263.57	78.56
263.802	71.56
264.035	87.56
264.267	94.56
264.499	75.56
264.732	91.56
264.964	99.56
265.197	89.56
265.429	84.56
265.661	79.56
265.894	94.56
266.126	94.56
266.358	81.56
266.591	89.56
266.823	82.56
267.055	77.56
267.287	87.56
267.52	72.56
267.752	84.56
267.984	83.56
268.216	81.56
268.448	89.56
268.681	75.56
268.913	90.56
269.145	81.56
269.377	77.56
269.609	88.56
269.841	90.56
270.073	86.56
270.306	79.56
270.538	74.56
270.77	99.56
271.002	80.56
271.234	94.56
271.466	89.56
271.698	80.56
271.93	87.56
272.162	81.56
272.394	99.56
272.626	86.56
272.858	89.56
273.09	83.56
273.322	91.56
273.553	81.56
273.785	104.56
274.017	95.56
274.249	85.56
274.481	95.56
274.713	98.56
274.945	96.56
275.176	83.56
275.408	93.56
275.64	90.56
275.872	93.56
276.104	93.56
276.335	71.56
276.567	121.56
276.799	104.56
277.031	98.56
277.262	88.56
277.494	80.56
277.726	78.56
277.957	85.56
278.189	83.56
278.421	85.56
278.652	81.56
278.884	83.56
279.115	99.56
279.347	99.56
279.579	78.56
279.81	73.56
280.042	73.56
280.273	81.56
280.505	99.56
280.736	91.56
280.968	85.56
281.199	99.56
281.431	93.56
281.662	104.56
281.894	94.56
282.125	102.56
282.356	125.56
282.588	131.56
282.819	113.56
283.051	83.56
283.282	98.56
283.513	86.56
283.745	83.56
283.976	94.56
284.207	97.56
284.439	90.56
284.67	80.56
284.901	89.56
285.132	92.56
285.364	81.56
285.595	85.56
285.826	86.56
286.057	73.56
286.288	92.56
286.52	98.56
286.751	78.56
286.982	96.56
287.213	83.56
287.444	81.56
287.675	97.56
287.906	89.56
288.138	89.56
288.369	88.56
288.6	86.56
288.831	103.56
289.062	85.56
289.293	89.56
289.524	94.56
289.755	89.56
289.986	89.56
290.217	85.56
290.448	83.56
290.679	87.56
290.91	94.56
291.141	84.56
291.371	90.56
291.602	89.56
291.833	83.56
292.064	85.56
292.295	87.56
292.526	89.56
292.757	89.56
292.987	94.56
293.218	75.56
293.449	98.56
293.68	91.56
293.91	86.56
294.141	85.56
294.372	91.56
294.603	92.56
294.833	100.56
295.064	95.56
295.295	87.56
295.525	94.56
295.756	107.56
295.987	123.56
296.217	131.56
296.448	117.56
296.679	92.56
296.909	90.56
297.14	95.56
297.37	92.56
297.601	89.56
297.831	89.56
298.062	82.56
298.292	83.56
298.523	93.56
298.753	77.56
298.984	86.56
299.214	100.56
299.445	93.56
299.675	83.56
299.905	95.56
300.136	98.56
300.366	98.56
300.597	83.56
300.827	111.56
301.057	93.56
301.288	102.56
301.518	81.56
301.748	76.56
301.979	111.56
302.209	85.56
302.439	92.56
302.669	98.56
302.9	106.56
303.13	103.56
303.36	96.56
303.59	107.56
303.82	99.56
304.051	86.56
304.281	93.56
304.511	79.56
304.741	99.56
304.971	78.56
305.201	92.56
305.431	91.56
305.661	90.56
305.891	88.56
306.121	94.56
306.352	102.56
306.582	105.56
306.812	102.56
307.042	97.56
307.272	87.56
307.502	103.56
307.731	90.56
307.961	87.56
308.191	90.56
308.421	83.56
308.651	94.56
308.881	78.56
309.111	97.56
309.341	102.56
309.571	101.56
309.8	112.56
310.03	110.56
310.26	92.56
310.49	102.56
310.72	95.56
310.949	106.56
311.179	94.56
311.409	94.56
311.639	94.56
311.868	92.56
312.098	83.56
312.328	85.56
312.557	97.56
312.787	95.56
313.017	113.56
313.246	89.56
313.476	89.56
313.706	103.56
313.935	90.56
314.165	98.56
314.394	104.56
314.624	106.56
314.853	102.56
315.083	98.56
315.312	95.56
315.542	98.56
315.771	114.56
316.001	103.56
316.23	107.56
316.46	94.56
316.689	99.56
316.919	104.56
317.148	99.56
317.377	91.56
317.607	99.56
317.836	104.56
318.065	97.56
318.295	92.56
318.524	102.56
318.753	107.56
318.983	93.56
319.212	103.56
319.441	101.56
319.67	113.56
319.9	111.56
320.129	107.56
320.358	94.56
320.587	97.56
320.816	109.56
321.046	102.56
321.275	108.56
321.504	103.56
321.733	98.56
321.962	94.56
322.191	89.56
322.42	117.56
322.649	112.56
322.878	115.56
323.108	116.56
323.337	126.56
323.566	135.56
323.795	160.56
324.024	215.56
324.253	427.56
324.482	943.56
324.71	1899.56
324.939	2496.56
325.168	895.56
325.397	266.56
325.626	153.56
325.855	137.56
326.084	124.56
326.313	130.56
326.542	145.56
326.77	231.56
326.999	490.56
327.228	1057.56
327.457	1911.56
327.686	1517.56
327.914	376.56
328.143	197.56
328.372	142.56
328.6	139.56
328.829	104.56
329.058	127.56
329.287	125.56
329.515	126.56
329.744	113.56
329.972	90.56
330.201	96.56
330.43	109.56
330.658	112.56
330.887	130.56
331.115	140.56
331.344	113.56
331.572	83.56
331.801	95.56
332.03	90.56
332.258	98.56
332.486	81.56
332.715	99.56
332.943	83.56
333.172	89.56
333.4	95.56
333.629	105.56
333.857	102.56
334.085	85.56
334.314	97.56
334.542	96.56
334.771	95.56
334.999	108.56
335.227	93.56
335.455	89.56
335.684	97.56
335.912	98.56
336.14	86.56
336.369	105.56
336.597	87.56
336.825	92.56
337.053	91.56
337.281	86.56
337.51	91.56
337.738	99.56
337.966	85.56
338.194	103.56
338.422	102.56
338.65	87.56
338.878	97.56
339.106	85.56
339.334	93.56
339.562	96.56
339.79	98.56
340.018	96.56
340.246	96.56
340.474	89.56
340.702	91.56
340.93	103.56
341.158	97.56
341.386	96.56
341.614	81.56
341.842	89.56
342.07	91.56
342.298	89.56
342.526	96.56
342.754	85.56
342.981	86.56
343.209	86.56
343.437	117.56
343.665	94.56
343.893	97.56
344.12	79.56
344.348	85.56
344.576	75.56
344.804	81.56
345.031	86.56
345.259	93.56
345.487	103.56
345.714	84.56
345.942	85.56
346.17	80.56
346.397	96.56
346.625	91.56
346.853	97.56
347.08	81.56
347.308	99.56
347.535	93.56
347.763	91.56
347.99	103.56
348.218	96.56
348.445	95.56
348.673	111.56
348.9	103.56
349.128	98.56
349.355	89.56
349.583	96.56
349.81	100.56
350.037	93.56
350.265	96.56
350.492	76.56
350.72	93.56
350.947	106.56
351.174	96.56
351.402	114.56
351.629	97.56
351.856	103.56
352.083	91.56
352.311	103.56
352.538	108.56
352.765	98.56
352.992	102.56
353.22	106.56
353.447	105.56
353.674	115.56
353.901	106.56
354.128	90.56
354.355	87.56
354.583	114.56
354.81	99.56
355.037	103.56
355.264	78.56
355.491	99.56
355.718	104.56
355.945	106.56
356.172	109.56
356.399	86.56
356.626	89.56
356.853	88.56
357.08	92.56
357.307	82.56
357.534	99.56
357.761	95.56
357.988	97.56
358.215	101.56
358.441	96.56
358.668	96.56
358.895	89.56
359.122	101.56
359.349	88.56
359.576	96.56
359.802	87.56
360.029	112.56
360.256	96.56
360.483	107.56
360.709	91.56
360.936	95.56
361.163	91.56
361.39	100.56
361.616	102.56
361.843	82.56
362.07	104.56
362.296	116.56
362.523	98.56
362.749	107.56
362.976	90.56
363.203	99.56
363.429	93.56
363.656	81.56
363.882	82.56
364.109	87.56
364.335	88.56
364.562	94.56
364.788	93.56
365.015	83.56
365.241	94.56
365.468	111.56
365.694	104.56
365.92	99.56
366.147	87.56
366.373	91.56
366.599	109.56
366.826	93.56
367.052	90.56
367.278	96.56
367.505	95.56
367.731	97.56
367.957	82.56
368.184	88.56
368.41	81.56
368.636	102.56
368.862	117.56
369.089	113.56
369.315	97.56
369.541	89.56
369.767	102.56
369.993	88.56
370.219	87.56
370.445	85.56
370.672	95.56
370.898	84.56
371.124	94.56
371.35	88.56
371.576	96.56
371.802	86.56
372.028	105.56
372.254	92.56
372.48	92.56
372.706	93.56
372.932	83.56
373.158	95.56
373.384	89.56
373.61	89.56
373.835	90.56
374.061	87.56
374.287	101.56
374.513	83.56
374.739	99.56
374.965	98.56
375.191	100.56
375.416	75.56
375.642	91.56
375.868	84.56
376.094	86.56
376.319	93.56
376.545	88.56
376.771	95.56
376.997	103.56
377.222	97.56
377.448	80.56
377.674	91.56
377.899	88.56
378.125	90.56
378.35	104.56
378.576	108.56
378.802	92.56
379.027	96.56
379.253	82.56
379.478	87.56
379.704	72.56
379.929	90.56
380.155	90.56
380.38	85.56
380.606	86.56
380.831	97.56
381.057	107.56
381.282	97.56
381.507	98.56
381.733	97.56
381.958	99.56
382.184	103.56
382.409	94.56
382.634	102.56
382.86	102.56
383.085	93.56
383.31	106.56
383.535	97.56
383.761	99.56
383.986	92.56
384.211	110.56
384.436	94.56
384.662	116.56
384.887	97.56
385.112	104.56
385.337	114.56
385.562	102.56
385.787	96.56
386.013	117.56
386.238	107.56
386.463	108.56
386.688	107.56
386.913	112.56
387.138	102.56
387.363	112.56
387.588	109.56
387.813	104.56
388.038	110.56
388.263	102.56
388.488	113.56
388.713	87.56
388.938	109.56
389.163	99.56
389.387	89.56
389.612	110.56
389.837	98.56
390.062	104.56
390.287	81.56
390.512	97.56
390.736	96.56
390.961	96.56
391.186	86.56
391.411	91.56
391.636	83.56
391.86	89.56
392.085	87.56
392.31	87.56
392.534	88.56
392.759	90.56
392.984	89.56
393.208	79.56
393.433	71.56
393.658	87.56
393.882	88.56
394.107	85.56
394.331	86.56
394.556	88.56
394.78	84.56
395.005	88.56
395.229	74.56
395.454	78.56
395.678	88.56
395.903	81.56
396.127	105.56
396.352	92.56
396.576	90.56
396.801	89.56
397.025	94.56
397.249	73.56
397.474	94.56
397.698	97.56
397.922	94.56
398.147	83.56
398.371	88.56
398.595	85.56
398.82	90.56
399.044	85.56
399.268	80.56
399.492	86.56
399.717	88.56
399.941	89.56
400.165	86.56
400.389	89.56
400.613	87.56
400.837	88.56
401.062	77.56
401.286	93.56
401.51	82.56
401.734	91.56
401.958	107.56
402.182	120.56
402.406	154.56
402.63	123.56
402.854	93.56
403.078	91.56
403.302	89.56
403.526	82.56
403.75	90.56
403.974	93.56
404.198	107.56
404.422	86.56
404.645	87.56
404.869	91.56
405.093	93.56
405.317	112.56
405.541	82.56
405.765	84.56
405.988	129.56
406.212	167.56
406.436	207.56
406.66	142.56
406.883	105.56
407.107	92.56
407.331	97.56
407.555	99.56
407.778	91.56
408.002	95.56
408.226	105.56
408.449	104.56
408.673	94.56
408.896	115.56
409.12	96.56
409.344	102.56
409.567	96.56
409.791	102.56
410.014	97.56
410.238	106.56
410.461	73.56
410.685	96.56
410.908	97.56
411.132	102.56
411.355	89.56
411.578	94.56
411.802	88.56
412.025	86.56
412.249	95.56
412.472	103.56
412.695	95.56
412.919	98.56
413.142	79.56
413.365	91.56
413.589	88.56
413.812	84.56
414.035	102.56
414.258	79.56
414.482	97.56
414.705	88.56
414.928	97.56
415.151	98.56
415.374	95.56
415.597	89.56
415.821	90.56
416.044	80.56
416.267	94.56
416.49	95.56
416.713	86.56
416.936	95.56
417.159	90.56
417.382	83.56
417.605	74.56
417.828	93.56
418.051	95.56
418.274	98.56
418.497	93.56
418.72	81.56
418.943	91.56
419.166	82.56
419.389	94.56
419.611	85.56
419.834	88.56
420.057	86.56
420.28	106.56
420.503	89.56
420.726	81.56
420.948	76.56
421.171	98.56
421.394	93.56
421.617	95.56
421.839	115.56
422.062	78.56
422.285	99.56
422.507	88.56
422.73	105.56
422.953	101.56
423.175	92.56
423.398	94.56
423.621	95.56
423.843	83.56
424.066	93.56
424.288	83.56
424.511	89.56
424.733	102.56
424.956	106.56
425.178	104.56
425.401	97.56
425.623	92.56
425.846	84.56
426.068	98.56
426.291	93.56
426.513	91.56
426.735	104.56
426.958	79.56
427.18	104.56
427.402	136.56
427.625	180.56
427.847	127.56
428.069	113.56
428.292	103.56
428.514	80.56
428.736	88.56
428.958	86.56
429.181	96.56
429.403	86.56
429.625	94.56
429.847	97.56
430.069	110.56
430.292	101.56
430.514	90.56
430.736	86.56
430.958	90.56
431.18	83.56
431.402	93.56
431.624	93.56
431.846	91.56
432.068	73.56
432.29	90.56
432.512	97.56
432.734	83.56
432.956	95.56
433.178	96.56
433.4	103.56
433.622	70.56
433.844	74.56
434.066	92.56
434.287	85.56
434.509	93.56
434.731	83.56
434.953	83.56
435.175	86.56
435.397	106.56
435.618	95.56
435.84	113.56
436.062	124.56
436.284	113.56
436.505	97.56
436.727	105.56
436.949	95.56
437.17	93.56
437.392	89.56
437.614	91.56
437.835	102.56
438.057	117.56
438.278	103.56
438.5	101.56
438.721	131.56
438.943	98.56
439.165	84.56
439.386	100.56
439.608	84.56
439.829	98.56
440.05	130.56
440.272	140.56
440.493	100.56
440.715	89.56
440.936	90.56
441.158	86.56
441.379	98.56
441.6	106.56
441.822	85.56
442.043	86.56
442.264	100.56
442.486	91.56
442.707	100.56
442.928	103.56
443.149	126.56
443.371	127.56
443.592	99.56
443.813	118.56
444.034	108.56
444.255	99.56
444.476	80.56
444.698	91.56
444.919	82.56
445.14	115.56
445.361	112.56
445.582	99.56
445.803	119.56
446.024	120.56
446.245	136.56
446.466	110.56
446.687	84.56
446.908	94.56
447.129	92.56
447.35	79.56
447.571	91.56
447.792	90.56
448.013	91.56
448.234	104.56
448.455	101.56
448.675	110.56
448.896	120.56
449.117	99.56
449.338	117.56
449.559	126.56
449.779	146.56
450	102.56
450.221	94.56
450.442	84.56
450.662	96.56
450.883	109.56
451.104	121.56
451.324	110.56
451.545	93.56
451.766	89.56
451.986	92.56
452.207	87.56
452.428	85.56
452.648	91.56
452.869	112.56
453.089	135.56
453.31	117.56
453.53	98.56
453.751	84.56
453.971	101.56
454.192	97.56
454.412	93.56
454.633	81.56
454.853	90.56
455.073	87.56
455.294	97.56
455.514	111.56
455.734	91.56
455.955	73.56
456.175	76.56
456.395	93.56
456.616	93.56
456.836	90.56
457.056	87.56
457.276	93.56
457.497	93.56
457.717	94.56
457.937	87.56
458.157	85.56
458.377	90.56
458.598	98.56
458.818	128.56
459.038	142.56
459.258	108.56
459.478	87.56
459.698	102.56
459.918	82.56
460.138	85.56
460.358	83.56
460.578	99.56
460.798	84.56
461.018	86.56
461.238	84.56
461.458	85.56
461.678	102.56
461.898	86.56
462.118	75.56
462.338	98.56
462.558	95.56
462.777	73.56
462.997	88.56
463.217	96.56
463.437	85.56
463.657	69.56
463.876	76.56
464.096	92.56
464.316	91.56
464.536	96.56
464.755	103.56
464.975	101.56
465.195	173.56
465.414	151.56
465.634	101.56
465.854	89.56
466.073	107.56
466.293	98.56
466.512	71.56
466.732	78.56
466.951	96.56
467.171	75.56
467.391	89.56
467.61	99.56
467.829	99.56
468.049	96.56
468.268	83.56
468.488	83.56
468.707	92.56
468.927	76.56
469.146	81.56
469.365	88.56
469.585	80.56
469.804	91.56
470.023	95.56
470.243	80.56
470.462	89.56
470.681	99.56
470.901	104.56
471.12	93.56
471.339	87.56
471.558	88.56
471.777	88.56
471.997	105.56
472.216	91.56
472.435	89.56
472.654	104.56
472.873	94.56
473.092	80.56
473.311	89.56
473.53	75.56
473.749	91.56
473.968	79.56
474.187	97.56
474.406	97.56
474.625	96.56
474.844	89.56
475.063	74.56
475.282	86.56
475.501	84.56
475.72	100.56
475.939	105.56
476.158	82.56
476.377	89.56
476.596	82.56
476.814	96.56
477.033	92.56
477.252	88.56
477.471	88.56
477.69	91.56
477.908	96.56
478.127	90.56
478.346	99.56
478.564	98.56
478.783	101.56
479.002	100.56
479.22	94.56
479.439	113.56
479.658	112.56
479.876	107.56
480.095	82.56
480.313	99.56
480.532	85.56
480.751	109.56
480.969	106.56
481.188	107.56
481.406	106.56
481.624	99.56
481.843	89.56
482.061	75.56
482.28	95.56
482.498	93.56
482.717	83.56
482.935	91.56
483.153	98.56
483.372	81.56
483.59	75.56
483.808	96.56
484.027	89.56
484.245	94.56
484.463	95.56
484.681	101.56
484.9	95.56
485.118	83.56
485.336	90.56
485.554	108.56
485.772	103.56
485.99	100.56
486.209	99.56
486.427	110.56
486.645	116.56
486.863	118.56
487.081	93.56
487.299	97.56
487.517	107.56
487.735	109.56
487.953	102.56
488.171	99.56
488.389	103.56
488.607	100.56
488.825	104.56
489.043	98.56
489.261	90.56
489.479	93.56
489.696	86.56
489.914	94.56
490.132	77.56
490.35	90.56
490.568	94.56
490.786	90.56
491.003	89.56
491.221	89.56
491.439	98.56
491.657	100.56
491.874	96.56
492.092	94.56
492.31	88.56
492.527	88.56
492.745	101.56
492.963	99.56
493.18	116.56
493.398	101.56
493.615	92.56
493.833	91.56
494.05	93.56
494.268	100.56
494.485	103.56
494.703	96.56
494.92	93.56
495.138	73.56
495.355	95.56
495.573	77.56
495.79	83.56
496.008	92.56
496.225	92.56
496.442	94.56
496.66	97.56
496.877	91.56
497.094	98.56
497.312	100.56
497.529	94.56
497.746	85.56
497.963	93.56
498.181	96.56
498.398	94.56
498.615	115.56
498.832	93.56
499.049	97.56
499.267	87.56
499.484	105.56
499.701	91.56
499.918	97.56
500.135	82.56
500.352	83.56
500.569	90.56
500.786	93.56
501.003	96.56
501.22	89.56
501.437	95.56
501.654	80.56
501.871	111.56
502.088	101.56
502.305	85.56
502.522	92.56
502.739	67.56
502.956	95.56
503.172	87.56
503.389	87.56
503.606	115.56
503.823	97.56
504.04	99.56
504.256	97.56
504.473	90.56
504.69	98.56
504.907	89.56
505.123	93.56
505.34	96.56
505.557	96.56
505.773	94.56
505.99	95.56
506.207	86.56
506.423	100.56
506.64	90.56
506.856	90.56
507.073	81.56
507.289	100.56
507.506	97.56
507.722	96.56
507.939	118.56
508.155	91.56
508.372	90.56
508.588	100.56
508.805	95.56
509.021	94.56
509.238	103.56
509.454	99.56
509.67	95.56
509.887	119.56
510.103	130.56
510.319	209.56
510.536	774.56
510.752	2409.56
510.968	656.56
511.184	155.56
511.401	100.56
511.617	95.56
511.833	90.56
512.049	99.56
512.265	79.56
512.481	101.56
512.698	79.56
512.914	92.56
513.13	106.56
513.346	94.56
513.562	94.56
513.778	101.56
513.994	109.56
514.21	105.56
514.426	113.56
514.642	133.56
514.858	123.56
515.074	156.56
515.29	447.56
