Data from Uncirc_1999_H10_HRD10591_00010.txt Node
Date: Wed Jan 03 11:22:07 EST 2024
User: Yrep
Spectrometer: HR+D1059
Trigger mode: 1
Integration Time (sec): 1.000000E-1
Scans to average: 1
Electric dark correction enabled: true
Nonlinearity correction enabled: false
Boxcar width: 0
XAxis mode: Wavelengths
Number of Pixels in Spectrum: 2048
>>>>>Begin Spectral Data<<<<<
223.165	-7.38
223.4	-7.38
223.635	-7.38
223.869	-26.38
224.104	-11.38
224.338	-19.38
224.573	-13.38
224.808	-10.38
225.042	-3.38
225.277	-3.38
225.511	-12.38
225.746	3.62
225.98	18.62
226.215	9.62
226.449	16.62
226.683	26.62
226.918	13.62
227.152	18.62
227.387	42.62
227.621	38.62
227.856	53.62
228.09	58.62
228.324	50.62
228.559	44.62
228.793	54.62
229.027	65.62
229.262	73.62
229.496	74.62
229.73	89.62
229.964	80.62
230.199	72.62
230.433	81.62
230.667	70.62
230.901	77.62
231.136	73.62
231.37	82.62
231.604	70.62
231.838	71.62
232.072	80.62
232.306	84.62
232.541	74.62
232.775	86.62
233.009	69.62
233.243	78.62
233.477	94.62
233.711	75.62
233.945	86.62
234.179	81.62
234.413	81.62
234.647	80.62
234.881	91.62
235.115	86.62
235.349	94.62
235.583	81.62
235.817	84.62
236.051	96.62
236.285	90.62
236.519	75.62
236.753	75.62
236.987	88.62
237.221	76.62
237.455	86.62
237.689	83.62
237.922	86.62
238.156	79.62
238.39	83.62
238.624	79.62
238.858	74.62
239.091	72.62
239.325	74.62
239.559	87.62
239.793	66.62
240.027	56.62
240.26	82.62
240.494	82.62
240.728	61.62
240.961	81.62
241.195	55.62
241.429	77.62
241.662	90.62
241.896	75.62
242.13	77.62
242.363	76.62
242.597	81.62
242.83	74.62
243.064	77.62
243.298	71.62
243.531	76.62
243.765	89.62
243.998	85.62
244.232	87.62
244.465	80.62
244.699	77.62
244.932	80.62
245.166	80.62
245.399	75.62
245.633	82.62
245.866	77.62
246.099	76.62
246.333	81.62
246.566	100.62
246.8	75.62
247.033	70.62
247.266	84.62
247.5	80.62
247.733	97.62
247.966	86.62
248.2	83.62
248.433	87.62
248.666	81.62
248.899	94.62
249.133	88.62
249.366	102.62
249.599	96.62
249.832	81.62
250.066	87.62
250.299	80.62
250.532	75.62
250.765	64.62
250.998	74.62
251.231	78.62
251.465	74.62
251.698	80.62
251.931	82.62
252.164	86.62
252.397	80.62
252.63	78.62
252.863	76.62
253.096	76.62
253.329	84.62
253.562	79.62
253.795	79.62
254.028	84.62
254.261	93.62
254.494	82.62
254.727	85.62
254.96	77.62
255.193	80.62
255.426	69.62
255.659	78.62
255.892	88.62
256.124	85.62
256.357	79.62
256.59	83.62
256.823	83.62
257.056	84.62
257.289	90.62
257.521	78.62
257.754	79.62
257.987	74.62
258.22	82.62
258.452	78.62
258.685	78.62
258.918	92.62
259.151	86.62
259.383	82.62
259.616	71.62
259.849	86.62
260.081	94.62
260.314	85.62
260.547	75.62
260.779	85.62
261.012	72.62
261.244	88.62
261.477	85.62
261.71	86.62
261.942	103.62
262.175	102.62
262.407	91.62
262.64	72.62
262.872	81.62
263.105	86.62
263.337	80.62
263.57	80.62
263.802	93.62
264.035	84.62
264.267	86.62
264.499	87.62
264.732	85.62
264.964	79.62
265.197	70.62
265.429	76.62
265.661	75.62
265.894	80.62
266.126	88.62
266.358	102.62
266.591	89.62
266.823	80.62
267.055	88.62
267.287	80.62
267.52	86.62
267.752	92.62
267.984	83.62
268.216	79.62
268.448	98.62
268.681	80.62
268.913	74.62
269.145	87.62
269.377	75.62
269.609	69.62
269.841	80.62
270.073	78.62
270.306	81.62
270.538	75.62
270.77	78.62
271.002	86.62
271.234	83.62
271.466	79.62
271.698	80.62
271.93	81.62
272.162	78.62
272.394	74.62
272.626	86.62
272.858	80.62
273.09	93.62
273.322	94.62
273.553	80.62
273.785	79.62
274.017	82.62
274.249	85.62
274.481	86.62
274.713	77.62
274.945	87.62
275.176	79.62
275.408	72.62
275.64	77.62
275.872	87.62
276.104	97.62
276.335	85.62
276.567	103.62
276.799	97.62
277.031	80.62
277.262	91.62
277.494	83.62
277.726	81.62
277.957	76.62
278.189	70.62
278.421	87.62
278.652	87.62
278.884	92.62
279.115	85.62
279.347	72.62
279.579	80.62
279.81	81.62
280.042	86.62
280.273	93.62
280.505	89.62
280.736	99.62
280.968	79.62
281.199	83.62
281.431	87.62
281.662	73.62
281.894	104.62
282.125	94.62
282.356	105.62
282.588	127.62
282.819	110.62
283.051	87.62
283.282	88.62
283.513	93.62
283.745	94.62
283.976	93.62
284.207	88.62
284.439	83.62
284.67	83.62
284.901	84.62
285.132	89.62
285.364	91.62
285.595	87.62
285.826	92.62
286.057	90.62
286.288	80.62
286.52	89.62
286.751	77.62
286.982	81.62
287.213	91.62
287.444	81.62
287.675	92.62
287.906	86.62
288.138	76.62
288.369	101.62
288.6	87.62
288.831	85.62
289.062	83.62
289.293	73.62
289.524	93.62
289.755	89.62
289.986	81.62
290.217	95.62
290.448	76.62
290.679	93.62
290.91	93.62
291.141	93.62
291.371	92.62
291.602	81.62
291.833	84.62
292.064	79.62
292.295	99.62
292.526	84.62
292.757	90.62
292.987	78.62
293.218	98.62
293.449	75.62
293.68	76.62
293.91	81.62
294.141	94.62
294.372	88.62
294.603	92.62
294.833	77.62
295.064	92.62
295.295	105.62
295.525	94.62
295.756	97.62
295.987	105.62
296.217	127.62
296.448	112.62
296.679	94.62
296.909	80.62
297.14	81.62
297.37	103.62
297.601	89.62
297.831	93.62
298.062	94.62
298.292	100.62
298.523	90.62
298.753	77.62
298.984	82.62
299.214	92.62
299.445	87.62
299.675	79.62
299.905	91.62
300.136	82.62
300.366	80.62
300.597	74.62
300.827	85.62
301.057	86.62
301.288	92.62
301.518	99.62
301.748	79.62
301.979	90.62
302.209	96.62
302.439	92.62
302.669	84.62
302.9	89.62
303.13	98.62
303.36	103.62
303.59	102.62
303.82	97.62
304.051	93.62
304.281	95.62
304.511	97.62
304.741	96.62
304.971	90.62
305.201	90.62
305.431	82.62
305.661	89.62
305.891	77.62
306.121	89.62
306.352	94.62
306.582	88.62
306.812	98.62
307.042	95.62
307.272	92.62
307.502	94.62
307.731	90.62
307.961	90.62
308.191	84.62
308.421	97.62
308.651	88.62
308.881	87.62
309.111	103.62
309.341	99.62
309.571	89.62
309.8	83.62
310.03	95.62
310.26	98.62
310.49	88.62
310.72	101.62
310.949	103.62
311.179	97.62
311.409	88.62
311.639	98.62
311.868	92.62
312.098	83.62
312.328	96.62
312.557	108.62
312.787	99.62
313.017	100.62
313.246	91.62
313.476	93.62
313.706	95.62
313.935	98.62
314.165	84.62
314.394	109.62
314.624	106.62
314.853	85.62
315.083	92.62
315.312	106.62
315.542	91.62
315.771	94.62
316.001	73.62
316.23	97.62
316.46	90.62
316.689	89.62
316.919	107.62
317.148	76.62
317.377	102.62
317.607	86.62
317.836	97.62
318.065	85.62
318.295	85.62
318.524	84.62
318.753	95.62
318.983	82.62
319.212	96.62
319.441	97.62
319.67	96.62
319.9	89.62
320.129	83.62
320.358	84.62
320.587	85.62
320.816	90.62
321.046	110.62
321.275	110.62
321.504	101.62
321.733	108.62
321.962	103.62
322.191	103.62
322.42	91.62
322.649	108.62
322.878	97.62
323.108	106.62
323.337	124.62
323.566	128.62
323.795	149.62
324.024	207.62
324.253	376.62
324.482	815.62
324.71	1650.62
324.939	2136.62
325.168	793.62
325.397	239.62
325.626	158.62
325.855	117.62
326.084	122.62
326.313	123.62
326.542	150.62
326.77	232.62
326.999	449.62
327.228	901.62
327.457	1706.62
327.686	1356.62
327.914	376.62
328.143	182.62
328.372	149.62
328.6	113.62
328.829	108.62
329.058	106.62
329.287	111.62
329.515	102.62
329.744	113.62
329.972	94.62
330.201	102.62
330.43	114.62
330.658	120.62
330.887	121.62
331.115	117.62
331.344	100.62
331.572	97.62
331.801	108.62
332.03	93.62
332.258	107.62
332.486	93.62
332.715	84.62
332.943	101.62
333.172	78.62
333.4	94.62
333.629	93.62
333.857	95.62
334.085	101.62
334.314	106.62
334.542	110.62
334.771	102.62
334.999	89.62
335.227	98.62
335.455	97.62
335.684	84.62
335.912	92.62
336.14	96.62
336.369	90.62
336.597	100.62
336.825	96.62
337.053	92.62
337.281	86.62
337.51	85.62
337.738	98.62
337.966	87.62
338.194	85.62
338.422	98.62
338.65	100.62
338.878	100.62
339.106	88.62
339.334	104.62
339.562	91.62
339.79	88.62
340.018	90.62
340.246	96.62
340.474	92.62
340.702	79.62
340.93	91.62
341.158	96.62
341.386	93.62
341.614	104.62
341.842	79.62
342.07	85.62
342.298	81.62
342.526	87.62
342.754	98.62
342.981	94.62
343.209	105.62
343.437	97.62
343.665	83.62
343.893	83.62
344.12	91.62
344.348	90.62
344.576	95.62
344.804	92.62
345.031	89.62
345.259	91.62
345.487	90.62
345.714	99.62
345.942	94.62
346.17	72.62
346.397	77.62
346.625	90.62
346.853	88.62
347.08	81.62
347.308	96.62
347.535	100.62
347.763	79.62
347.99	107.62
348.218	99.62
348.445	98.62
348.673	89.62
348.9	94.62
349.128	95.62
349.355	89.62
349.583	89.62
349.81	108.62
350.037	92.62
350.265	103.62
350.492	92.62
350.72	106.62
350.947	97.62
351.174	105.62
351.402	97.62
351.629	94.62
351.856	109.62
352.083	99.62
352.311	105.62
352.538	113.62
352.765	104.62
352.992	112.62
353.22	116.62
353.447	115.62
353.674	106.62
353.901	109.62
354.128	99.62
354.355	102.62
354.583	109.62
354.81	95.62
355.037	86.62
355.264	93.62
355.491	88.62
355.718	81.62
355.945	93.62
356.172	105.62
356.399	101.62
356.626	95.62
356.853	108.62
357.08	110.62
357.307	97.62
357.534	116.62
357.761	86.62
357.988	117.62
358.215	99.62
358.441	92.62
358.668	97.62
358.895	94.62
359.122	92.62
359.349	85.62
359.576	98.62
359.802	93.62
360.029	103.62
360.256	112.62
360.483	96.62
360.709	94.62
360.936	87.62
361.163	97.62
361.39	87.62
361.616	97.62
361.843	85.62
362.07	85.62
362.296	91.62
362.523	81.62
362.749	96.62
362.976	80.62
363.203	97.62
363.429	85.62
363.656	95.62
363.882	76.62
364.109	75.62
364.335	93.62
364.562	90.62
364.788	90.62
365.015	96.62
365.241	93.62
365.468	100.62
365.694	85.62
365.92	80.62
366.147	80.62
366.373	98.62
366.599	94.62
366.826	89.62
367.052	82.62
367.278	100.62
367.505	80.62
367.731	83.62
367.957	88.62
368.184	91.62
368.41	108.62
368.636	112.62
368.862	119.62
369.089	97.62
369.315	89.62
369.541	103.62
369.767	79.62
369.993	96.62
370.219	91.62
370.445	103.62
370.672	95.62
370.898	87.62
371.124	96.62
371.35	91.62
371.576	81.62
371.802	92.62
372.028	73.62
372.254	84.62
372.48	81.62
372.706	70.62
372.932	81.62
373.158	91.62
373.384	100.62
373.61	76.62
373.835	99.62
374.061	99.62
374.287	85.62
374.513	96.62
374.739	98.62
374.965	94.62
375.191	90.62
375.416	100.62
375.642	86.62
375.868	99.62
376.094	88.62
376.319	89.62
376.545	92.62
376.771	96.62
376.997	90.62
377.222	106.62
377.448	88.62
377.674	101.62
377.899	102.62
378.125	86.62
378.35	101.62
378.576	92.62
378.802	91.62
379.027	103.62
379.253	103.62
379.478	101.62
379.704	85.62
379.929	121.62
380.155	99.62
380.38	100.62
380.606	95.62
380.831	112.62
381.057	99.62
381.282	106.62
381.507	119.62
381.733	116.62
381.958	98.62
382.184	109.62
382.409	108.62
382.634	120.62
382.86	118.62
383.085	105.62
383.31	107.62
383.535	118.62
383.761	111.62
383.986	111.62
384.211	111.62
384.436	117.62
384.662	132.62
384.887	140.62
385.112	141.62
385.337	133.62
385.562	132.62
385.787	131.62
386.013	148.62
386.238	157.62
386.463	131.62
386.688	118.62
386.913	126.62
387.138	118.62
387.363	117.62
387.588	122.62
387.813	114.62
388.038	119.62
388.263	155.62
388.488	140.62
388.713	111.62
388.938	96.62
389.163	94.62
389.387	102.62
389.612	93.62
389.837	90.62
390.062	90.62
390.287	104.62
390.512	86.62
390.736	88.62
390.961	86.62
391.186	105.62
391.411	105.62
391.636	99.62
391.86	81.62
392.085	76.62
392.31	84.62
392.534	85.62
392.759	88.62
392.984	89.62
393.208	87.62
393.433	90.62
393.658	96.62
393.882	89.62
394.107	92.62
394.331	101.62
394.556	102.62
394.78	96.62
395.005	102.62
395.229	86.62
395.454	94.62
395.678	92.62
395.903	92.62
396.127	86.62
396.352	76.62
396.576	92.62
396.801	80.62
397.025	84.62
397.249	91.62
397.474	94.62
397.698	85.62
397.922	93.62
398.147	82.62
398.371	76.62
398.595	85.62
398.82	94.62
399.044	81.62
399.268	83.62
399.492	88.62
399.717	89.62
399.941	96.62
400.165	93.62
400.389	92.62
400.613	95.62
400.837	86.62
401.062	103.62
401.286	77.62
401.51	87.62
401.734	90.62
401.958	84.62
402.182	127.62
402.406	161.62
402.63	118.62
402.854	95.62
403.078	75.62
403.302	93.62
403.526	103.62
403.75	90.62
403.974	85.62
404.198	93.62
404.422	98.62
404.645	90.62
404.869	89.62
405.093	100.62
405.317	99.62
405.541	106.62
405.765	112.62
405.988	123.62
406.212	137.62
406.436	213.62
406.66	118.62
406.883	86.62
407.107	87.62
407.331	99.62
407.555	89.62
407.778	97.62
408.002	98.62
408.226	89.62
408.449	81.62
408.673	78.62
408.896	104.62
409.12	104.62
409.344	86.62
409.567	99.62
409.791	101.62
410.014	98.62
410.238	95.62
410.461	86.62
410.685	99.62
410.908	113.62
411.132	114.62
411.355	103.62
411.578	106.62
411.802	92.62
412.025	97.62
412.249	115.62
412.472	96.62
412.695	109.62
412.919	72.62
413.142	85.62
413.365	101.62
413.589	91.62
413.812	93.62
414.035	93.62
414.258	98.62
414.482	95.62
414.705	93.62
414.928	91.62
415.151	89.62
415.374	118.62
415.597	78.62
415.821	101.62
416.044	91.62
416.267	87.62
416.49	90.62
416.713	95.62
416.936	87.62
417.159	90.62
417.382	77.62
417.605	90.62
417.828	110.62
418.051	87.62
418.274	108.62
418.497	90.62
418.72	97.62
418.943	89.62
419.166	102.62
419.389	87.62
419.611	98.62
419.834	95.62
420.057	99.62
420.28	89.62
420.503	94.62
420.726	79.62
420.948	91.62
421.171	104.62
421.394	108.62
421.617	98.62
421.839	93.62
422.062	87.62
422.285	86.62
422.507	117.62
422.73	99.62
422.953	102.62
423.175	77.62
423.398	93.62
423.621	91.62
423.843	92.62
424.066	76.62
424.288	97.62
424.511	102.62
424.733	89.62
424.956	114.62
425.178	104.62
425.401	91.62
425.623	102.62
425.846	94.62
426.068	95.62
426.291	92.62
426.513	92.62
426.735	97.62
426.958	85.62
427.18	104.62
427.402	138.62
427.625	155.62
427.847	127.62
428.069	88.62
428.292	82.62
428.514	78.62
428.736	91.62
428.958	88.62
429.181	97.62
429.403	96.62
429.625	84.62
429.847	94.62
430.069	90.62
430.292	81.62
430.514	82.62
430.736	88.62
430.958	86.62
431.18	80.62
431.402	89.62
431.624	97.62
431.846	97.62
432.068	87.62
432.29	95.62
432.512	85.62
432.734	97.62
432.956	103.62
433.178	109.62
433.4	89.62
433.622	95.62
433.844	86.62
434.066	86.62
434.287	81.62
434.509	91.62
434.731	102.62
434.953	84.62
435.175	84.62
435.397	96.62
435.618	103.62
435.84	101.62
436.062	123.62
436.284	108.62
436.505	101.62
436.727	107.62
436.949	91.62
437.17	83.62
437.392	92.62
437.614	90.62
437.835	94.62
438.057	107.62
438.278	108.62
438.5	104.62
438.721	118.62
438.943	109.62
439.165	100.62
439.386	93.62
439.608	84.62
439.829	107.62
440.05	103.62
440.272	141.62
440.493	103.62
440.715	99.62
440.936	98.62
441.158	96.62
441.379	104.62
441.6	90.62
441.822	99.62
442.043	91.62
442.264	98.62
442.486	97.62
442.707	90.62
442.928	95.62
443.149	118.62
443.371	127.62
443.592	110.62
443.813	113.62
444.034	98.62
444.255	101.62
444.476	81.62
444.698	79.62
444.919	77.62
445.14	119.62
445.361	106.62
445.582	103.62
445.803	122.62
446.024	116.62
446.245	137.62
446.466	108.62
446.687	79.62
446.908	84.62
447.129	79.62
447.35	90.62
447.571	100.62
447.792	88.62
448.013	95.62
448.234	100.62
448.455	87.62
448.675	109.62
448.896	126.62
449.117	88.62
449.338	121.62
449.559	119.62
449.779	122.62
450	100.62
450.221	80.62
450.442	86.62
450.662	85.62
450.883	118.62
451.104	103.62
451.324	85.62
451.545	91.62
451.766	93.62
451.986	84.62
452.207	80.62
452.428	88.62
452.648	90.62
452.869	98.62
453.089	113.62
453.31	92.62
453.53	77.62
453.751	84.62
453.971	92.62
454.192	102.62
454.412	91.62
454.633	79.62
454.853	84.62
455.073	84.62
455.294	93.62
455.514	89.62
455.734	71.62
455.955	85.62
456.175	94.62
456.395	85.62
456.616	74.62
456.836	93.62
457.056	84.62
457.276	100.62
457.497	95.62
457.717	86.62
457.937	84.62
458.157	88.62
458.377	95.62
458.598	98.62
458.818	137.62
459.038	139.62
459.258	105.62
459.478	97.62
459.698	86.62
459.918	85.62
460.138	90.62
460.358	79.62
460.578	76.62
460.798	80.62
461.018	75.62
461.238	97.62
461.458	94.62
461.678	82.62
461.898	92.62
462.118	85.62
462.338	98.62
462.558	84.62
462.777	78.62
462.997	82.62
463.217	90.62
463.437	95.62
463.657	105.62
463.876	87.62
464.096	94.62
464.316	84.62
464.536	90.62
464.755	79.62
464.975	100.62
465.195	126.62
465.414	140.62
465.634	81.62
465.854	80.62
466.073	86.62
466.293	93.62
466.512	92.62
466.732	96.62
466.951	73.62
467.171	95.62
467.391	100.62
467.61	98.62
467.829	104.62
468.049	95.62
468.268	102.62
468.488	85.62
468.707	86.62
468.927	96.62
469.146	78.62
469.365	86.62
469.585	103.62
469.804	97.62
470.023	94.62
470.243	69.62
470.462	100.62
470.681	106.62
470.901	95.62
471.12	93.62
471.339	82.62
471.558	93.62
471.777	86.62
471.997	88.62
472.216	106.62
472.435	102.62
472.654	74.62
472.873	99.62
473.092	99.62
473.311	84.62
473.53	91.62
473.749	75.62
473.968	101.62
474.187	81.62
474.406	102.62
474.625	92.62
474.844	88.62
475.063	87.62
475.282	89.62
475.501	90.62
475.72	90.62
475.939	83.62
476.158	95.62
476.377	69.62
476.596	86.62
476.814	77.62
477.033	92.62
477.252	76.62
477.471	90.62
477.69	81.62
477.908	89.62
478.127	88.62
478.346	96.62
478.564	85.62
478.783	88.62
479.002	81.62
479.22	80.62
479.439	86.62
479.658	87.62
479.876	83.62
480.095	88.62
480.313	94.62
480.532	83.62
480.751	79.62
480.969	92.62
481.188	144.62
481.406	108.62
481.624	83.62
481.843	90.62
482.061	84.62
482.28	86.62
482.498	84.62
482.717	85.62
482.935	102.62
483.153	82.62
483.372	90.62
483.59	85.62
483.808	87.62
484.027	98.62
484.245	108.62
484.463	94.62
484.681	109.62
484.9	81.62
485.118	84.62
485.336	96.62
485.554	109.62
485.772	105.62
485.99	95.62
486.209	114.62
486.427	110.62
486.645	111.62
486.863	115.62
487.081	101.62
487.299	92.62
487.517	92.62
487.735	92.62
487.953	94.62
488.171	94.62
488.389	98.62
488.607	109.62
488.825	90.62
489.043	80.62
489.261	92.62
489.479	89.62
489.696	100.62
489.914	83.62
490.132	91.62
490.35	91.62
490.568	92.62
490.786	92.62
491.003	86.62
491.221	91.62
491.439	87.62
491.657	101.62
491.874	89.62
492.092	93.62
492.31	92.62
492.527	82.62
492.745	98.62
492.963	97.62
493.18	81.62
493.398	90.62
493.615	104.62
493.833	94.62
494.05	89.62
494.268	96.62
494.485	81.62
494.703	75.62
494.92	81.62
495.138	107.62
495.355	94.62
495.573	102.62
495.79	95.62
496.008	90.62
496.225	101.62
496.442	86.62
496.66	90.62
496.877	87.62
497.094	90.62
497.312	91.62
497.529	86.62
497.746	91.62
497.963	77.62
498.181	93.62
498.398	93.62
498.615	108.62
498.832	107.62
499.049	90.62
499.267	72.62
499.484	92.62
499.701	100.62
499.918	94.62
500.135	90.62
500.352	90.62
500.569	86.62
500.786	93.62
501.003	89.62
501.22	83.62
501.437	76.62
501.654	100.62
501.871	93.62
502.088	101.62
502.305	84.62
502.522	82.62
502.739	95.62
502.956	87.62
503.172	98.62
503.389	82.62
503.606	100.62
503.823	96.62
504.04	97.62
504.256	88.62
504.473	88.62
504.69	96.62
504.907	103.62
505.123	92.62
505.34	93.62
505.557	97.62
505.773	97.62
505.99	84.62
506.207	96.62
506.423	99.62
506.64	98.62
506.856	95.62
507.073	80.62
507.289	94.62
507.506	90.62
507.722	117.62
507.939	104.62
508.155	94.62
508.372	96.62
508.588	91.62
508.805	94.62
509.021	103.62
509.238	85.62
509.454	92.62
509.67	90.62
509.887	110.62
510.103	129.62
510.319	180.62
510.536	680.62
510.752	2005.62
510.968	578.62
511.184	151.62
511.401	107.62
511.617	106.62
511.833	100.62
512.049	99.62
512.265	88.62
512.481	70.62
512.698	94.62
512.914	96.62
513.13	98.62
513.346	86.62
513.562	94.62
513.778	89.62
513.994	82.62
514.21	100.62
514.426	112.62
514.642	123.62
514.858	111.62
515.074	138.62
515.29	390.62
515.506	1247.62
