Data from Uncirc_1999_H10_HRD10591_00037.txt Node
Date: Wed Jan 03 11:22:12 EST 2024
User: Yrep
Spectrometer: HR+D1059
Trigger mode: 1
Integration Time (sec): 1.000000E-1
Scans to average: 1
Electric dark correction enabled: true
Nonlinearity correction enabled: false
Boxcar width: 0
XAxis mode: Wavelengths
Number of Pixels in Spectrum: 2048
>>>>>Begin Spectral Data<<<<<
223.165	-21.81
223.4	-21.81
223.635	-21.81
223.869	-38.81
224.104	-26.81
224.338	-4.81
224.573	-8.81
224.808	-1.81
225.042	-17.81
225.277	-13.81
225.511	-1.81
225.746	20.19
225.98	23.19
226.215	16.19
226.449	20.19
226.683	5.19
226.918	20.19
227.152	31.19
227.387	30.19
227.621	46.19
227.856	52.19
228.09	45.19
228.324	59.19
228.559	67.19
228.793	62.19
229.027	56.19
229.262	59.19
229.496	84.19
229.73	84.19
229.964	95.19
230.199	79.19
230.433	79.19
230.667	73.19
230.901	73.19
231.136	77.19
231.37	87.19
231.604	78.19
231.838	78.19
232.072	88.19
232.306	82.19
232.541	85.19
232.775	101.19
233.009	78.19
233.243	94.19
233.477	99.19
233.711	61.19
233.945	96.19
234.179	71.19
234.413	92.19
234.647	83.19
234.881	89.19
235.115	87.19
235.349	74.19
235.583	90.19
235.817	83.19
236.051	94.19
236.285	69.19
236.519	89.19
236.753	85.19
236.987	90.19
237.221	78.19
237.455	89.19
237.689	85.19
237.922	92.19
238.156	69.19
238.39	83.19
238.624	89.19
238.858	80.19
239.091	72.19
239.325	80.19
239.559	78.19
239.793	83.19
240.027	80.19
240.26	80.19
240.494	67.19
240.728	81.19
240.961	81.19
241.195	79.19
241.429	78.19
241.662	83.19
241.896	85.19
242.13	65.19
242.363	67.19
242.597	81.19
242.83	80.19
243.064	73.19
243.298	69.19
243.531	80.19
243.765	71.19
243.998	93.19
244.232	89.19
244.465	95.19
244.699	82.19
244.932	82.19
245.166	75.19
245.399	85.19
245.633	89.19
245.866	88.19
246.099	85.19
246.333	78.19
246.566	80.19
246.8	79.19
247.033	74.19
247.266	80.19
247.5	73.19
247.733	75.19
247.966	72.19
248.2	88.19
248.433	87.19
248.666	88.19
248.899	89.19
249.133	94.19
249.366	93.19
249.599	98.19
249.832	79.19
250.066	82.19
250.299	84.19
250.532	89.19
250.765	77.19
250.998	90.19
251.231	75.19
251.465	86.19
251.698	76.19
251.931	86.19
252.164	79.19
252.397	86.19
252.63	75.19
252.863	78.19
253.096	77.19
253.329	85.19
253.562	85.19
253.795	81.19
254.028	87.19
254.261	87.19
254.494	86.19
254.727	77.19
254.96	81.19
255.193	80.19
255.426	85.19
255.659	80.19
255.892	84.19
256.124	82.19
256.357	81.19
256.59	87.19
256.823	96.19
257.056	79.19
257.289	85.19
257.521	81.19
257.754	71.19
257.987	72.19
258.22	88.19
258.452	86.19
258.685	72.19
258.918	87.19
259.151	89.19
259.383	75.19
259.616	89.19
259.849	88.19
260.081	91.19
260.314	89.19
260.547	77.19
260.779	86.19
261.012	73.19
261.244	81.19
261.477	71.19
261.71	85.19
261.942	109.19
262.175	113.19
262.407	82.19
262.64	77.19
262.872	94.19
263.105	83.19
263.337	82.19
263.57	64.19
263.802	82.19
264.035	80.19
264.267	75.19
264.499	89.19
264.732	102.19
264.964	76.19
265.197	89.19
265.429	87.19
265.661	71.19
265.894	100.19
266.126	91.19
266.358	89.19
266.591	81.19
266.823	76.19
267.055	74.19
267.287	74.19
267.52	76.19
267.752	86.19
267.984	90.19
268.216	83.19
268.448	85.19
268.681	83.19
268.913	82.19
269.145	80.19
269.377	87.19
269.609	97.19
269.841	79.19
270.073	99.19
270.306	75.19
270.538	79.19
270.77	77.19
271.002	88.19
271.234	86.19
271.466	96.19
271.698	93.19
271.93	81.19
272.162	92.19
272.394	82.19
272.626	78.19
272.858	82.19
273.09	89.19
273.322	86.19
273.553	79.19
273.785	90.19
274.017	78.19
274.249	81.19
274.481	85.19
274.713	85.19
274.945	102.19
275.176	81.19
275.408	86.19
275.64	93.19
275.872	82.19
276.104	90.19
276.335	101.19
276.567	105.19
276.799	104.19
277.031	96.19
277.262	85.19
277.494	75.19
277.726	71.19
277.957	95.19
278.189	89.19
278.421	103.19
278.652	90.19
278.884	85.19
279.115	83.19
279.347	88.19
279.579	91.19
279.81	90.19
280.042	88.19
280.273	82.19
280.505	79.19
280.736	82.19
280.968	82.19
281.199	80.19
281.431	91.19
281.662	94.19
281.894	95.19
282.125	97.19
282.356	107.19
282.588	129.19
282.819	114.19
283.051	89.19
283.282	84.19
283.513	89.19
283.745	87.19
283.976	88.19
284.207	86.19
284.439	87.19
284.67	90.19
284.901	77.19
285.132	87.19
285.364	91.19
285.595	80.19
285.826	90.19
286.057	80.19
286.288	90.19
286.52	92.19
286.751	81.19
286.982	83.19
287.213	93.19
287.444	84.19
287.675	86.19
287.906	97.19
288.138	90.19
288.369	98.19
288.6	85.19
288.831	90.19
289.062	98.19
289.293	91.19
289.524	92.19
289.755	84.19
289.986	90.19
290.217	93.19
290.448	87.19
290.679	90.19
290.91	99.19
291.141	102.19
291.371	96.19
291.602	94.19
291.833	85.19
292.064	94.19
292.295	71.19
292.526	75.19
292.757	99.19
292.987	87.19
293.218	89.19
293.449	91.19
293.68	84.19
293.91	81.19
294.141	90.19
294.372	90.19
294.603	90.19
294.833	78.19
295.064	107.19
295.295	98.19
295.525	91.19
295.756	91.19
295.987	105.19
296.217	127.19
296.448	120.19
296.679	101.19
296.909	95.19
297.14	94.19
297.37	93.19
297.601	97.19
297.831	103.19
298.062	88.19
298.292	84.19
298.523	80.19
298.753	101.19
298.984	96.19
299.214	94.19
299.445	69.19
299.675	85.19
299.905	98.19
300.136	86.19
300.366	80.19
300.597	79.19
300.827	88.19
301.057	101.19
301.288	109.19
301.518	93.19
301.748	90.19
301.979	91.19
302.209	88.19
302.439	94.19
302.669	75.19
302.9	84.19
303.13	96.19
303.36	96.19
303.59	97.19
303.82	110.19
304.051	87.19
304.281	96.19
304.511	90.19
304.741	95.19
304.971	90.19
305.201	93.19
305.431	85.19
305.661	82.19
305.891	69.19
306.121	85.19
306.352	89.19
306.582	87.19
306.812	98.19
307.042	85.19
307.272	88.19
307.502	99.19
307.731	87.19
307.961	87.19
308.191	87.19
308.421	95.19
308.651	92.19
308.881	95.19
309.111	84.19
309.341	85.19
309.571	109.19
309.8	82.19
310.03	95.19
310.26	79.19
310.49	89.19
310.72	88.19
310.949	93.19
311.179	96.19
311.409	96.19
311.639	93.19
311.868	94.19
312.098	92.19
312.328	112.19
312.557	89.19
312.787	109.19
313.017	105.19
313.246	113.19
313.476	97.19
313.706	95.19
313.935	105.19
314.165	98.19
314.394	105.19
314.624	93.19
314.853	94.19
315.083	98.19
315.312	99.19
315.542	104.19
315.771	99.19
316.001	102.19
316.23	83.19
316.46	90.19
316.689	103.19
316.919	91.19
317.148	90.19
317.377	103.19
317.607	118.19
317.836	91.19
318.065	91.19
318.295	91.19
318.524	105.19
318.753	96.19
318.983	90.19
319.212	107.19
319.441	102.19
319.67	106.19
319.9	105.19
320.129	103.19
320.358	103.19
320.587	101.19
320.816	86.19
321.046	91.19
321.275	111.19
321.504	113.19
321.733	113.19
321.962	96.19
322.191	106.19
322.42	95.19
322.649	95.19
322.878	112.19
323.108	121.19
323.337	123.19
323.566	122.19
323.795	151.19
324.024	203.19
324.253	418.19
324.482	890.19
324.71	1853.19
324.939	2442.19
325.168	889.19
325.397	252.19
325.626	149.19
325.855	129.19
326.084	115.19
326.313	140.19
326.542	179.19
326.77	234.19
326.999	507.19
327.228	1017.19
327.457	1886.19
327.686	1494.19
327.914	410.19
328.143	189.19
328.372	152.19
328.6	133.19
328.829	114.19
329.058	125.19
329.287	123.19
329.515	100.19
329.744	102.19
329.972	94.19
330.201	101.19
330.43	116.19
330.658	112.19
330.887	132.19
331.115	121.19
331.344	104.19
331.572	111.19
331.801	108.19
332.03	108.19
332.258	92.19
332.486	93.19
332.715	94.19
332.943	103.19
333.172	104.19
333.4	103.19
333.629	98.19
333.857	94.19
334.085	86.19
334.314	106.19
334.542	94.19
334.771	109.19
334.999	89.19
335.227	97.19
335.455	104.19
335.684	102.19
335.912	88.19
336.14	98.19
336.369	105.19
336.597	96.19
336.825	83.19
337.053	96.19
337.281	105.19
337.51	89.19
337.738	94.19
337.966	90.19
338.194	89.19
338.422	95.19
338.65	87.19
338.878	83.19
339.106	93.19
339.334	104.19
339.562	90.19
339.79	100.19
340.018	87.19
340.246	89.19
340.474	89.19
340.702	87.19
340.93	91.19
341.158	97.19
341.386	95.19
341.614	95.19
341.842	98.19
342.07	90.19
342.298	84.19
342.526	75.19
342.754	95.19
342.981	97.19
343.209	93.19
343.437	91.19
343.665	85.19
343.893	84.19
344.12	78.19
344.348	106.19
344.576	97.19
344.804	101.19
345.031	101.19
345.259	101.19
345.487	102.19
345.714	93.19
345.942	96.19
346.17	91.19
346.397	94.19
346.625	99.19
346.853	98.19
347.08	95.19
347.308	109.19
347.535	111.19
347.763	98.19
347.99	92.19
348.218	105.19
348.445	87.19
348.673	87.19
348.9	96.19
349.128	103.19
349.355	97.19
349.583	84.19
349.81	99.19
350.037	102.19
350.265	92.19
350.492	94.19
350.72	95.19
350.947	101.19
351.174	106.19
351.402	119.19
351.629	102.19
351.856	89.19
352.083	101.19
352.311	100.19
352.538	105.19
352.765	108.19
352.992	121.19
353.22	103.19
353.447	107.19
353.674	104.19
353.901	104.19
354.128	97.19
354.355	86.19
354.583	89.19
354.81	98.19
355.037	110.19
355.264	97.19
355.491	98.19
355.718	80.19
355.945	94.19
356.172	98.19
356.399	95.19
356.626	99.19
356.853	94.19
357.08	97.19
357.307	101.19
357.534	86.19
357.761	104.19
357.988	101.19
358.215	100.19
358.441	109.19
358.668	87.19
358.895	92.19
359.122	93.19
359.349	86.19
359.576	90.19
359.802	95.19
360.029	105.19
360.256	93.19
360.483	85.19
360.709	99.19
360.936	98.19
361.163	94.19
361.39	93.19
361.616	96.19
361.843	82.19
362.07	90.19
362.296	95.19
362.523	99.19
362.749	96.19
362.976	78.19
363.203	94.19
363.429	82.19
363.656	96.19
363.882	95.19
364.109	93.19
364.335	90.19
364.562	98.19
364.788	98.19
365.015	89.19
365.241	103.19
365.468	112.19
365.694	115.19
365.92	102.19
366.147	93.19
366.373	92.19
366.599	94.19
366.826	94.19
367.052	90.19
367.278	97.19
367.505	94.19
367.731	76.19
367.957	82.19
368.184	106.19
368.41	95.19
368.636	101.19
368.862	118.19
369.089	111.19
369.315	94.19
369.541	99.19
369.767	85.19
369.993	85.19
370.219	97.19
370.445	97.19
370.672	93.19
370.898	101.19
371.124	103.19
371.35	92.19
371.576	99.19
371.802	89.19
372.028	86.19
372.254	98.19
372.48	93.19
372.706	88.19
372.932	90.19
373.158	88.19
373.384	106.19
373.61	86.19
373.835	82.19
374.061	93.19
374.287	95.19
374.513	92.19
374.739	97.19
374.965	99.19
375.191	87.19
375.416	87.19
375.642	98.19
375.868	67.19
376.094	86.19
376.319	87.19
376.545	92.19
376.771	88.19
376.997	104.19
377.222	98.19
377.448	106.19
377.674	99.19
377.899	109.19
378.125	96.19
378.35	89.19
378.576	102.19
378.802	98.19
379.027	98.19
379.253	95.19
379.478	71.19
379.704	111.19
379.929	99.19
380.155	114.19
380.38	105.19
380.606	105.19
380.831	98.19
381.057	99.19
381.282	100.19
381.507	86.19
381.733	90.19
381.958	96.19
382.184	90.19
382.409	102.19
382.634	112.19
382.86	109.19
383.085	106.19
383.31	97.19
383.535	92.19
383.761	106.19
383.986	95.19
384.211	109.19
384.436	114.19
384.662	99.19
384.887	105.19
385.112	108.19
385.337	95.19
385.562	109.19
385.787	98.19
386.013	110.19
386.238	133.19
386.463	124.19
386.688	115.19
386.913	118.19
387.138	114.19
387.363	102.19
387.588	102.19
387.813	94.19
388.038	115.19
388.263	122.19
388.488	124.19
388.713	119.19
388.938	98.19
389.163	92.19
389.387	96.19
389.612	94.19
389.837	99.19
390.062	99.19
390.287	93.19
390.512	95.19
390.736	89.19
390.961	101.19
391.186	88.19
391.411	91.19
391.636	97.19
391.86	82.19
392.085	89.19
392.31	95.19
392.534	102.19
392.759	95.19
392.984	85.19
393.208	78.19
393.433	94.19
393.658	89.19
393.882	89.19
394.107	91.19
394.331	91.19
394.556	98.19
394.78	97.19
395.005	79.19
395.229	92.19
395.454	93.19
395.678	94.19
395.903	96.19
396.127	89.19
396.352	81.19
396.576	82.19
396.801	75.19
397.025	92.19
397.249	89.19
397.474	83.19
397.698	93.19
397.922	90.19
398.147	90.19
398.371	92.19
398.595	82.19
398.82	83.19
399.044	87.19
399.268	98.19
399.492	89.19
399.717	92.19
399.941	86.19
400.165	93.19
400.389	96.19
400.613	80.19
400.837	86.19
401.062	96.19
401.286	97.19
401.51	88.19
401.734	93.19
401.958	110.19
402.182	118.19
402.406	158.19
402.63	109.19
402.854	87.19
403.078	85.19
403.302	85.19
403.526	82.19
403.75	87.19
403.974	77.19
404.198	83.19
404.422	98.19
404.645	86.19
404.869	105.19
405.093	101.19
405.317	94.19
405.541	106.19
405.765	104.19
405.988	101.19
406.212	161.19
406.436	223.19
406.66	124.19
406.883	92.19
407.107	96.19
407.331	96.19
407.555	92.19
407.778	90.19
408.002	105.19
408.226	98.19
408.449	85.19
408.673	91.19
408.896	89.19
409.12	101.19
409.344	96.19
409.567	93.19
409.791	93.19
410.014	86.19
410.238	96.19
410.461	90.19
410.685	102.19
410.908	95.19
411.132	116.19
411.355	97.19
411.578	90.19
411.802	85.19
412.025	97.19
412.249	90.19
412.472	82.19
412.695	81.19
412.919	94.19
413.142	97.19
413.365	88.19
413.589	108.19
413.812	100.19
414.035	90.19
414.258	93.19
414.482	92.19
414.705	91.19
414.928	92.19
415.151	98.19
415.374	91.19
415.597	92.19
415.821	98.19
416.044	106.19
416.267	90.19
416.49	92.19
416.713	83.19
416.936	90.19
417.159	84.19
417.382	87.19
417.605	93.19
417.828	89.19
418.051	90.19
418.274	96.19
418.497	85.19
418.72	83.19
418.943	102.19
419.166	107.19
419.389	95.19
419.611	87.19
419.834	82.19
420.057	90.19
420.28	93.19
420.503	89.19
420.726	97.19
420.948	100.19
421.171	86.19
421.394	101.19
421.617	91.19
421.839	82.19
422.062	113.19
422.285	99.19
422.507	88.19
422.73	113.19
422.953	85.19
423.175	83.19
423.398	82.19
423.621	94.19
423.843	79.19
424.066	96.19
424.288	83.19
424.511	82.19
424.733	91.19
424.956	98.19
425.178	96.19
425.401	102.19
425.623	95.19
425.846	95.19
426.068	86.19
426.291	86.19
426.513	92.19
426.735	91.19
426.958	92.19
427.18	107.19
427.402	128.19
427.625	145.19
427.847	122.19
428.069	105.19
428.292	90.19
428.514	90.19
428.736	97.19
428.958	87.19
429.181	94.19
429.403	92.19
429.625	78.19
429.847	87.19
430.069	91.19
430.292	75.19
430.514	82.19
430.736	82.19
430.958	87.19
431.18	93.19
431.402	89.19
431.624	93.19
431.846	84.19
432.068	81.19
432.29	86.19
432.512	95.19
432.734	107.19
432.956	95.19
433.178	93.19
433.4	103.19
433.622	97.19
433.844	86.19
434.066	97.19
434.287	96.19
434.509	92.19
434.731	87.19
434.953	90.19
435.175	98.19
435.397	88.19
435.618	97.19
435.84	107.19
436.062	104.19
436.284	104.19
436.505	99.19
436.727	101.19
436.949	103.19
437.17	97.19
437.392	88.19
437.614	93.19
437.835	111.19
438.057	96.19
438.278	103.19
438.5	96.19
438.721	109.19
438.943	108.19
439.165	98.19
439.386	105.19
439.608	98.19
439.829	97.19
440.05	115.19
440.272	132.19
440.493	95.19
440.715	82.19
440.936	91.19
441.158	84.19
441.379	88.19
441.6	102.19
441.822	97.19
442.043	90.19
442.264	102.19
442.486	109.19
442.707	104.19
442.928	105.19
443.149	128.19
443.371	133.19
443.592	113.19
443.813	120.19
444.034	102.19
444.255	95.19
444.476	103.19
444.698	88.19
444.919	94.19
445.14	133.19
445.361	128.19
445.582	123.19
445.803	121.19
446.024	108.19
446.245	123.19
446.466	114.19
446.687	95.19
446.908	93.19
447.129	98.19
447.35	96.19
447.571	88.19
447.792	93.19
448.013	103.19
448.234	107.19
448.455	96.19
448.675	127.19
448.896	118.19
449.117	116.19
449.338	94.19
449.559	119.19
449.779	121.19
450	81.19
450.221	105.19
450.442	101.19
450.662	95.19
450.883	103.19
451.104	113.19
451.324	105.19
451.545	73.19
451.766	94.19
451.986	91.19
452.207	87.19
452.428	92.19
452.648	98.19
452.869	109.19
453.089	99.19
453.31	113.19
453.53	88.19
453.751	90.19
453.971	110.19
454.192	110.19
454.412	95.19
454.633	95.19
454.853	92.19
455.073	98.19
455.294	77.19
455.514	97.19
455.734	95.19
455.955	92.19
456.175	97.19
456.395	82.19
456.616	83.19
456.836	84.19
457.056	88.19
457.276	99.19
457.497	89.19
457.717	77.19
457.937	74.19
458.157	85.19
458.377	100.19
458.598	99.19
458.818	128.19
459.038	136.19
459.258	106.19
459.478	95.19
459.698	74.19
459.918	89.19
460.138	82.19
460.358	85.19
460.578	95.19
460.798	85.19
461.018	74.19
461.238	82.19
461.458	94.19
461.678	89.19
461.898	92.19
462.118	95.19
462.338	84.19
462.558	85.19
462.777	105.19
462.997	82.19
463.217	98.19
463.437	87.19
463.657	88.19
463.876	73.19
464.096	99.19
464.316	101.19
464.536	92.19
464.755	94.19
464.975	109.19
465.195	133.19
465.414	147.19
465.634	111.19
465.854	99.19
466.073	87.19
466.293	88.19
466.512	90.19
466.732	93.19
466.951	95.19
467.171	91.19
467.391	87.19
467.61	98.19
467.829	88.19
468.049	96.19
468.268	111.19
468.488	83.19
468.707	70.19
468.927	94.19
469.146	99.19
469.365	83.19
469.585	81.19
469.804	94.19
470.023	95.19
470.243	86.19
470.462	99.19
470.681	110.19
470.901	81.19
471.12	98.19
471.339	91.19
471.558	94.19
471.777	96.19
471.997	84.19
472.216	85.19
472.435	110.19
472.654	99.19
472.873	93.19
473.092	79.19
473.311	89.19
473.53	87.19
473.749	107.19
473.968	96.19
474.187	117.19
474.406	99.19
474.625	94.19
474.844	80.19
475.063	90.19
475.282	86.19
475.501	97.19
475.72	92.19
475.939	93.19
476.158	82.19
476.377	94.19
476.596	96.19
476.814	93.19
477.033	101.19
477.252	79.19
477.471	98.19
477.69	93.19
477.908	87.19
478.127	88.19
478.346	99.19
478.564	102.19
478.783	96.19
479.002	87.19
479.22	91.19
479.439	102.19
479.658	94.19
479.876	94.19
480.095	90.19
480.313	81.19
480.532	101.19
480.751	102.19
480.969	107.19
481.188	110.19
481.406	115.19
481.624	102.19
481.843	93.19
482.061	90.19
482.28	90.19
482.498	85.19
482.717	83.19
482.935	95.19
483.153	82.19
483.372	89.19
483.59	91.19
483.808	100.19
484.027	89.19
484.245	103.19
484.463	97.19
484.681	103.19
484.9	86.19
485.118	97.19
485.336	105.19
485.554	97.19
485.772	91.19
485.99	108.19
486.209	108.19
486.427	95.19
486.645	105.19
486.863	101.19
487.081	103.19
487.299	84.19
487.517	85.19
487.735	98.19
487.953	100.19
488.171	90.19
488.389	103.19
488.607	98.19
488.825	95.19
489.043	91.19
489.261	89.19
489.479	88.19
489.696	92.19
489.914	88.19
490.132	97.19
490.35	93.19
490.568	110.19
490.786	101.19
491.003	95.19
491.221	87.19
491.439	98.19
491.657	73.19
491.874	96.19
492.092	91.19
492.31	104.19
492.527	112.19
492.745	95.19
492.963	99.19
493.18	99.19
493.398	93.19
493.615	113.19
493.833	94.19
494.05	98.19
494.268	87.19
494.485	81.19
494.703	81.19
494.92	92.19
495.138	98.19
495.355	96.19
495.573	89.19
495.79	83.19
496.008	86.19
496.225	93.19
496.442	101.19
496.66	103.19
496.877	89.19
497.094	83.19
497.312	81.19
497.529	87.19
497.746	86.19
497.963	103.19
498.181	88.19
498.398	106.19
498.615	107.19
498.832	107.19
499.049	96.19
499.267	103.19
499.484	83.19
499.701	86.19
499.918	91.19
500.135	86.19
500.352	86.19
500.569	97.19
500.786	83.19
501.003	88.19
501.22	93.19
501.437	101.19
501.654	99.19
501.871	107.19
502.088	93.19
502.305	106.19
502.522	98.19
502.739	89.19
502.956	85.19
503.172	103.19
503.389	98.19
503.606	103.19
503.823	98.19
504.04	96.19
504.256	96.19
504.473	82.19
504.69	91.19
504.907	92.19
505.123	81.19
505.34	103.19
505.557	91.19
505.773	91.19
505.99	86.19
506.207	89.19
506.423	103.19
506.64	97.19
506.856	85.19
507.073	91.19
507.289	95.19
507.506	103.19
507.722	105.19
507.939	114.19
508.155	112.19
508.372	102.19
508.588	86.19
508.805	83.19
509.021	100.19
509.238	92.19
509.454	97.19
509.67	109.19
509.887	112.19
510.103	128.19
510.319	221.19
510.536	758.19
510.752	2403.19
510.968	647.19
511.184	151.19
511.401	113.19
511.617	98.19
511.833	98.19
512.049	101.19
512.265	90.19
512.481	94.19
512.698	93.19
512.914	107.19
513.13	99.19
513.346	102.19
513.562	97.19
513.778	109.19
513.994	102.19
514.21	106.19
514.426	114.19
514.642	116.19
514.858	129.19
515.074	159.19
515.29	451.19
