Data from Uncirc_1999_H10_HRD10591_00069.txt Node
Date: Wed Jan 03 11:22:19 EST 2024
User: Yrep
Spectrometer: HR+D1059
Trigger mode: 1
Integration Time (sec): 1.000000E-1
Scans to average: 1
Electric dark correction enabled: true
Nonlinearity correction enabled: false
Boxcar width: 0
XAxis mode: Wavelengths
Number of Pixels in Spectrum: 2048
>>>>>Begin Spectral Data<<<<<
223.165	-6.75
223.4	-6.75
223.635	-6.75
223.869	-18.75
224.104	-14.75
224.338	-14.75
224.573	-20.75
224.808	-10.75
225.042	0.25
225.277	-16.75
225.511	-16.75
225.746	6.25
225.98	14.25
226.215	15.25
226.449	12.25
226.683	18.25
226.918	22.25
227.152	31.25
227.387	29.25
227.621	36.25
227.856	57.25
228.09	39.25
228.324	56.25
228.559	52.25
228.793	58.25
229.027	52.25
229.262	67.25
229.496	67.25
229.73	76.25
229.964	96.25
230.199	78.25
230.433	82.25
230.667	86.25
230.901	77.25
231.136	77.25
231.37	80.25
231.604	73.25
231.838	76.25
232.072	79.25
232.306	72.25
232.541	73.25
232.775	84.25
233.009	86.25
233.243	86.25
233.477	83.25
233.711	83.25
233.945	79.25
234.179	106.25
234.413	87.25
234.647	80.25
234.881	77.25
235.115	76.25
235.349	85.25
235.583	79.25
235.817	73.25
236.051	72.25
236.285	86.25
236.519	68.25
236.753	83.25
236.987	73.25
237.221	78.25
237.455	91.25
237.689	86.25
237.922	87.25
238.156	76.25
238.39	89.25
238.624	75.25
238.858	68.25
239.091	94.25
239.325	72.25
239.559	85.25
239.793	79.25
240.027	89.25
240.26	77.25
240.494	83.25
240.728	76.25
240.961	76.25
241.195	58.25
241.429	63.25
241.662	84.25
241.896	81.25
242.13	71.25
242.363	78.25
242.597	78.25
242.83	74.25
243.064	54.25
243.298	61.25
243.531	67.25
243.765	74.25
243.998	79.25
244.232	92.25
244.465	72.25
244.699	86.25
244.932	76.25
245.166	69.25
245.399	72.25
245.633	83.25
245.866	87.25
246.099	76.25
246.333	78.25
246.566	56.25
246.8	54.25
247.033	80.25
247.266	89.25
247.5	75.25
247.733	73.25
247.966	80.25
248.2	77.25
248.433	85.25
248.666	86.25
248.899	95.25
249.133	88.25
249.366	89.25
249.599	98.25
249.832	93.25
250.066	84.25
250.299	81.25
250.532	90.25
250.765	77.25
250.998	72.25
251.231	80.25
251.465	87.25
251.698	80.25
251.931	67.25
252.164	84.25
252.397	75.25
252.63	70.25
252.863	92.25
253.096	67.25
253.329	89.25
253.562	80.25
253.795	84.25
254.028	77.25
254.261	84.25
254.494	75.25
254.727	72.25
254.96	64.25
255.193	84.25
255.426	77.25
255.659	83.25
255.892	83.25
256.124	81.25
256.357	76.25
256.59	79.25
256.823	92.25
257.056	74.25
257.289	78.25
257.521	79.25
257.754	83.25
257.987	68.25
258.22	93.25
258.452	82.25
258.685	87.25
258.918	79.25
259.151	81.25
259.383	73.25
259.616	84.25
259.849	81.25
260.081	77.25
260.314	91.25
260.547	72.25
260.779	83.25
261.012	86.25
261.244	96.25
261.477	87.25
261.71	107.25
261.942	95.25
262.175	100.25
262.407	81.25
262.64	93.25
262.872	78.25
263.105	87.25
263.337	90.25
263.57	78.25
263.802	91.25
264.035	79.25
264.267	69.25
264.499	78.25
264.732	83.25
264.964	76.25
265.197	81.25
265.429	76.25
265.661	73.25
265.894	83.25
266.126	88.25
266.358	73.25
266.591	84.25
266.823	81.25
267.055	85.25
267.287	83.25
267.52	81.25
267.752	83.25
267.984	81.25
268.216	87.25
268.448	93.25
268.681	88.25
268.913	77.25
269.145	88.25
269.377	71.25
269.609	93.25
269.841	84.25
270.073	89.25
270.306	73.25
270.538	85.25
270.77	68.25
271.002	78.25
271.234	96.25
271.466	101.25
271.698	75.25
271.93	79.25
272.162	85.25
272.394	89.25
272.626	88.25
272.858	82.25
273.09	88.25
273.322	72.25
273.553	85.25
273.785	88.25
274.017	74.25
274.249	68.25
274.481	82.25
274.713	86.25
274.945	101.25
275.176	80.25
275.408	89.25
275.64	80.25
275.872	79.25
276.104	90.25
276.335	83.25
276.567	93.25
276.799	100.25
277.031	96.25
277.262	75.25
277.494	88.25
277.726	83.25
277.957	84.25
278.189	98.25
278.421	78.25
278.652	92.25
278.884	88.25
279.115	81.25
279.347	86.25
279.579	86.25
279.81	73.25
280.042	71.25
280.273	84.25
280.505	89.25
280.736	85.25
280.968	86.25
281.199	79.25
281.431	102.25
281.662	88.25
281.894	89.25
282.125	104.25
282.356	116.25
282.588	124.25
282.819	97.25
283.051	98.25
283.282	75.25
283.513	77.25
283.745	78.25
283.976	75.25
284.207	84.25
284.439	98.25
284.67	87.25
284.901	92.25
285.132	93.25
285.364	83.25
285.595	88.25
285.826	87.25
286.057	83.25
286.288	80.25
286.52	91.25
286.751	76.25
286.982	77.25
287.213	73.25
287.444	93.25
287.675	88.25
287.906	83.25
288.138	89.25
288.369	87.25
288.6	93.25
288.831	96.25
289.062	84.25
289.293	71.25
289.524	84.25
289.755	70.25
289.986	95.25
290.217	91.25
290.448	73.25
290.679	84.25
290.91	96.25
291.141	79.25
291.371	86.25
291.602	79.25
291.833	77.25
292.064	80.25
292.295	81.25
292.526	83.25
292.757	94.25
292.987	97.25
293.218	97.25
293.449	82.25
293.68	85.25
293.91	80.25
294.141	83.25
294.372	97.25
294.603	104.25
294.833	89.25
295.064	79.25
295.295	88.25
295.525	91.25
295.756	98.25
295.987	124.25
296.217	116.25
296.448	106.25
296.679	95.25
296.909	93.25
297.14	104.25
297.37	89.25
297.601	83.25
297.831	84.25
298.062	94.25
298.292	82.25
298.523	98.25
298.753	95.25
298.984	74.25
299.214	91.25
299.445	83.25
299.675	79.25
299.905	93.25
300.136	88.25
300.366	92.25
300.597	87.25
300.827	99.25
301.057	85.25
301.288	90.25
301.518	88.25
301.748	83.25
301.979	92.25
302.209	93.25
302.439	91.25
302.669	95.25
302.9	72.25
303.13	90.25
303.36	85.25
303.59	102.25
303.82	97.25
304.051	104.25
304.281	103.25
304.511	92.25
304.741	83.25
304.971	91.25
305.201	88.25
305.431	98.25
305.661	89.25
305.891	80.25
306.121	86.25
306.352	102.25
306.582	91.25
306.812	117.25
307.042	93.25
307.272	84.25
307.502	82.25
307.731	95.25
307.961	81.25
308.191	105.25
308.421	89.25
308.651	88.25
308.881	90.25
309.111	93.25
309.341	91.25
309.571	77.25
309.8	96.25
310.03	93.25
310.26	93.25
310.49	95.25
310.72	95.25
310.949	99.25
311.179	108.25
311.409	90.25
311.639	82.25
311.868	94.25
312.098	95.25
312.328	97.25
312.557	94.25
312.787	99.25
313.017	97.25
313.246	94.25
313.476	100.25
313.706	95.25
313.935	95.25
314.165	97.25
314.394	104.25
314.624	88.25
314.853	109.25
315.083	90.25
315.312	92.25
315.542	97.25
315.771	71.25
316.001	85.25
316.23	85.25
316.46	93.25
316.689	83.25
316.919	95.25
317.148	95.25
317.377	116.25
317.607	91.25
317.836	91.25
318.065	88.25
318.295	92.25
318.524	85.25
318.753	94.25
318.983	94.25
319.212	114.25
319.441	114.25
319.67	101.25
319.9	103.25
320.129	84.25
320.358	97.25
320.587	99.25
320.816	93.25
321.046	94.25
321.275	87.25
321.504	79.25
321.733	85.25
321.962	84.25
322.191	94.25
322.42	102.25
322.649	105.25
322.878	111.25
323.108	118.25
323.337	111.25
323.566	147.25
323.795	142.25
324.024	203.25
324.253	394.25
324.482	849.25
324.71	1780.25
324.939	2363.25
325.168	849.25
325.397	245.25
325.626	147.25
325.855	139.25
326.084	114.25
326.313	127.25
326.542	153.25
326.77	227.25
326.999	473.25
327.228	995.25
327.457	1789.25
327.686	1416.25
327.914	382.25
328.143	191.25
328.372	128.25
328.6	125.25
328.829	112.25
329.058	131.25
329.287	123.25
329.515	102.25
329.744	103.25
329.972	85.25
330.201	101.25
330.43	102.25
330.658	104.25
330.887	127.25
331.115	109.25
331.344	103.25
331.572	108.25
331.801	99.25
332.03	94.25
332.258	89.25
332.486	97.25
332.715	97.25
332.943	94.25
333.172	87.25
333.4	101.25
333.629	96.25
333.857	100.25
334.085	98.25
334.314	104.25
334.542	108.25
334.771	93.25
334.999	103.25
335.227	112.25
335.455	101.25
335.684	103.25
335.912	90.25
336.14	97.25
336.369	83.25
336.597	103.25
336.825	85.25
337.053	74.25
337.281	95.25
337.51	88.25
337.738	95.25
337.966	88.25
338.194	79.25
338.422	101.25
338.65	89.25
338.878	101.25
339.106	91.25
339.334	84.25
339.562	95.25
339.79	98.25
340.018	77.25
340.246	96.25
340.474	86.25
340.702	88.25
340.93	77.25
341.158	102.25
341.386	103.25
341.614	100.25
341.842	89.25
342.07	75.25
342.298	96.25
342.526	104.25
342.754	77.25
342.981	93.25
343.209	86.25
343.437	91.25
343.665	81.25
343.893	100.25
344.12	91.25
344.348	85.25
344.576	79.25
344.804	93.25
345.031	100.25
345.259	90.25
345.487	96.25
345.714	74.25
345.942	95.25
346.17	87.25
346.397	90.25
346.625	88.25
346.853	101.25
347.08	93.25
347.308	99.25
347.535	100.25
347.763	94.25
347.99	97.25
348.218	83.25
348.445	108.25
348.673	95.25
348.9	101.25
349.128	79.25
349.355	89.25
349.583	101.25
349.81	84.25
350.037	88.25
350.265	83.25
350.492	92.25
350.72	94.25
350.947	100.25
351.174	95.25
351.402	99.25
351.629	108.25
351.856	102.25
352.083	107.25
352.311	96.25
352.538	92.25
352.765	117.25
352.992	111.25
353.22	126.25
353.447	108.25
353.674	91.25
353.901	91.25
354.128	97.25
354.355	107.25
354.583	104.25
354.81	89.25
355.037	95.25
355.264	97.25
355.491	89.25
355.718	107.25
355.945	95.25
356.172	96.25
356.399	99.25
356.626	97.25
356.853	90.25
357.08	92.25
357.307	84.25
357.534	81.25
357.761	92.25
357.988	108.25
358.215	99.25
358.441	95.25
358.668	85.25
358.895	90.25
359.122	104.25
359.349	92.25
359.576	71.25
359.802	107.25
360.029	107.25
360.256	100.25
360.483	100.25
360.709	100.25
360.936	102.25
361.163	101.25
361.39	79.25
361.616	73.25
361.843	88.25
362.07	84.25
362.296	92.25
362.523	86.25
362.749	107.25
362.976	93.25
363.203	108.25
363.429	84.25
363.656	83.25
363.882	90.25
364.109	91.25
364.335	93.25
364.562	94.25
364.788	99.25
365.015	83.25
365.241	85.25
365.468	105.25
365.694	105.25
365.92	104.25
366.147	93.25
366.373	94.25
366.599	76.25
366.826	90.25
367.052	94.25
367.278	83.25
367.505	98.25
367.731	87.25
367.957	87.25
368.184	87.25
368.41	103.25
368.636	105.25
368.862	107.25
369.089	106.25
369.315	87.25
369.541	88.25
369.767	76.25
369.993	95.25
370.219	91.25
370.445	90.25
370.672	85.25
370.898	85.25
371.124	89.25
371.35	87.25
371.576	92.25
371.802	84.25
372.028	75.25
372.254	91.25
372.48	101.25
372.706	85.25
372.932	84.25
373.158	100.25
373.384	88.25
373.61	88.25
373.835	89.25
374.061	98.25
374.287	95.25
374.513	88.25
374.739	80.25
374.965	101.25
375.191	89.25
375.416	95.25
375.642	89.25
375.868	85.25
376.094	87.25
376.319	93.25
376.545	84.25
376.771	93.25
376.997	99.25
377.222	96.25
377.448	85.25
377.674	102.25
377.899	84.25
378.125	81.25
378.35	86.25
378.576	98.25
378.802	85.25
379.027	87.25
379.253	91.25
379.478	88.25
379.704	85.25
379.929	92.25
380.155	88.25
380.38	93.25
380.606	96.25
380.831	104.25
381.057	94.25
381.282	89.25
381.507	94.25
381.733	96.25
381.958	88.25
382.184	97.25
382.409	85.25
382.634	100.25
382.86	80.25
383.085	96.25
383.31	108.25
383.535	104.25
383.761	97.25
383.986	88.25
384.211	95.25
384.436	92.25
384.662	92.25
384.887	106.25
385.112	101.25
385.337	103.25
385.562	92.25
385.787	103.25
386.013	107.25
386.238	101.25
386.463	97.25
386.688	119.25
386.913	94.25
387.138	93.25
387.363	99.25
387.588	105.25
387.813	92.25
388.038	94.25
388.263	103.25
388.488	107.25
388.713	100.25
388.938	98.25
389.163	96.25
389.387	97.25
389.612	103.25
389.837	94.25
390.062	88.25
390.287	107.25
390.512	97.25
390.736	92.25
390.961	89.25
391.186	91.25
391.411	88.25
391.636	89.25
391.86	81.25
392.085	81.25
392.31	80.25
392.534	94.25
392.759	82.25
392.984	119.25
393.208	92.25
393.433	94.25
393.658	86.25
393.882	86.25
394.107	80.25
394.331	85.25
394.556	79.25
394.78	96.25
395.005	101.25
395.229	80.25
395.454	93.25
395.678	76.25
395.903	81.25
396.127	95.25
396.352	91.25
396.576	77.25
396.801	75.25
397.025	83.25
397.249	82.25
397.474	88.25
397.698	81.25
397.922	87.25
398.147	91.25
398.371	85.25
398.595	84.25
398.82	86.25
399.044	80.25
399.268	67.25
399.492	93.25
399.717	97.25
399.941	91.25
400.165	88.25
400.389	81.25
400.613	84.25
400.837	83.25
401.062	92.25
401.286	88.25
401.51	81.25
401.734	85.25
401.958	99.25
402.182	110.25
402.406	145.25
402.63	119.25
402.854	93.25
403.078	92.25
403.302	90.25
403.526	103.25
403.75	77.25
403.974	99.25
404.198	96.25
404.422	83.25
404.645	82.25
404.869	88.25
405.093	83.25
405.317	87.25
405.541	98.25
405.765	101.25
405.988	108.25
406.212	160.25
406.436	208.25
406.66	144.25
406.883	96.25
407.107	103.25
407.331	102.25
407.555	92.25
407.778	93.25
408.002	100.25
408.226	87.25
408.449	83.25
408.673	80.25
408.896	79.25
409.12	91.25
409.344	101.25
409.567	89.25
409.791	98.25
410.014	106.25
410.238	104.25
410.461	101.25
410.685	95.25
410.908	96.25
411.132	101.25
411.355	117.25
411.578	88.25
411.802	99.25
412.025	82.25
412.249	77.25
412.472	95.25
412.695	84.25
412.919	87.25
413.142	80.25
413.365	81.25
413.589	90.25
413.812	85.25
414.035	90.25
414.258	90.25
414.482	96.25
414.705	81.25
414.928	71.25
415.151	93.25
415.374	100.25
415.597	88.25
415.821	95.25
416.044	88.25
416.267	88.25
416.49	95.25
416.713	92.25
416.936	85.25
417.159	97.25
417.382	87.25
417.605	81.25
417.828	90.25
418.051	99.25
418.274	94.25
418.497	85.25
418.72	86.25
418.943	92.25
419.166	92.25
419.389	78.25
419.611	97.25
419.834	106.25
420.057	79.25
420.28	84.25
420.503	76.25
420.726	97.25
420.948	71.25
421.171	86.25
421.394	95.25
421.617	87.25
421.839	97.25
422.062	87.25
422.285	96.25
422.507	92.25
422.73	89.25
422.953	95.25
423.175	91.25
423.398	92.25
423.621	83.25
423.843	92.25
424.066	91.25
424.288	97.25
424.511	87.25
424.733	96.25
424.956	110.25
425.178	96.25
425.401	97.25
425.623	102.25
425.846	79.25
426.068	91.25
426.291	94.25
426.513	92.25
426.735	87.25
426.958	89.25
427.18	107.25
427.402	144.25
427.625	155.25
427.847	116.25
428.069	101.25
428.292	89.25
428.514	91.25
428.736	83.25
428.958	91.25
429.181	85.25
429.403	85.25
429.625	90.25
429.847	96.25
430.069	104.25
430.292	93.25
430.514	85.25
430.736	89.25
430.958	96.25
431.18	77.25
431.402	78.25
431.624	95.25
431.846	86.25
432.068	80.25
432.29	88.25
432.512	75.25
432.734	78.25
432.956	103.25
433.178	106.25
433.4	105.25
433.622	105.25
433.844	96.25
434.066	81.25
434.287	87.25
434.509	77.25
434.731	78.25
434.953	96.25
435.175	104.25
435.397	91.25
435.618	101.25
435.84	104.25
436.062	123.25
436.284	100.25
436.505	86.25
436.727	101.25
436.949	97.25
437.17	80.25
437.392	83.25
437.614	87.25
437.835	116.25
438.057	100.25
438.278	100.25
438.5	106.25
438.721	120.25
438.943	94.25
439.165	102.25
439.386	102.25
439.608	89.25
439.829	90.25
440.05	111.25
440.272	130.25
440.493	99.25
440.715	83.25
440.936	82.25
441.158	79.25
441.379	85.25
441.6	88.25
441.822	94.25
442.043	107.25
442.264	108.25
442.486	101.25
442.707	94.25
442.928	104.25
443.149	127.25
443.371	117.25
443.592	105.25
443.813	92.25
444.034	102.25
444.255	86.25
444.476	100.25
444.698	91.25
444.919	84.25
445.14	137.25
445.361	112.25
445.582	110.25
445.803	134.25
446.024	151.25
446.245	123.25
446.466	113.25
446.687	97.25
446.908	93.25
447.129	81.25
447.35	89.25
447.571	97.25
447.792	87.25
448.013	79.25
448.234	95.25
448.455	107.25
448.675	119.25
448.896	116.25
449.117	96.25
449.338	106.25
449.559	115.25
449.779	139.25
450	90.25
450.221	90.25
450.442	90.25
450.662	91.25
450.883	94.25
451.104	108.25
451.324	101.25
451.545	94.25
451.766	87.25
451.986	75.25
452.207	92.25
452.428	89.25
452.648	83.25
452.869	98.25
453.089	93.25
453.31	111.25
453.53	75.25
453.751	96.25
453.971	105.25
454.192	92.25
454.412	88.25
454.633	90.25
454.853	113.25
455.073	80.25
455.294	86.25
455.514	102.25
455.734	83.25
455.955	92.25
456.175	79.25
456.395	85.25
456.616	90.25
456.836	105.25
457.056	91.25
457.276	85.25
457.497	85.25
457.717	90.25
457.937	91.25
458.157	73.25
458.377	88.25
458.598	107.25
458.818	147.25
459.038	136.25
459.258	121.25
459.478	84.25
459.698	86.25
459.918	83.25
460.138	83.25
460.358	89.25
460.578	78.25
460.798	88.25
461.018	86.25
461.238	81.25
461.458	86.25
461.678	93.25
461.898	85.25
462.118	92.25
462.338	104.25
462.558	91.25
462.777	95.25
462.997	90.25
463.217	89.25
463.437	82.25
463.657	101.25
463.876	92.25
464.096	96.25
464.316	79.25
464.536	92.25
464.755	81.25
464.975	83.25
465.195	148.25
465.414	125.25
465.634	91.25
465.854	77.25
466.073	85.25
466.293	87.25
466.512	88.25
466.732	78.25
466.951	97.25
467.171	95.25
467.391	94.25
467.61	110.25
467.829	99.25
468.049	103.25
468.268	91.25
468.488	83.25
468.707	76.25
468.927	74.25
469.146	88.25
469.365	77.25
469.585	90.25
469.804	88.25
470.023	93.25
470.243	95.25
470.462	84.25
470.681	111.25
470.901	75.25
471.12	89.25
471.339	86.25
471.558	78.25
471.777	77.25
471.997	84.25
472.216	94.25
472.435	104.25
472.654	90.25
472.873	64.25
473.092	83.25
473.311	91.25
473.53	83.25
473.749	92.25
473.968	88.25
474.187	94.25
474.406	80.25
474.625	79.25
474.844	91.25
475.063	87.25
475.282	92.25
475.501	90.25
475.72	91.25
475.939	95.25
476.158	84.25
476.377	87.25
476.596	92.25
476.814	91.25
477.033	80.25
477.252	69.25
477.471	89.25
477.69	100.25
477.908	96.25
478.127	83.25
478.346	84.25
478.564	80.25
478.783	83.25
479.002	90.25
479.22	103.25
479.439	99.25
479.658	97.25
479.876	83.25
480.095	78.25
480.313	96.25
480.532	94.25
480.751	79.25
480.969	88.25
481.188	108.25
481.406	100.25
481.624	95.25
481.843	93.25
482.061	85.25
482.28	88.25
482.498	88.25
482.717	77.25
482.935	82.25
483.153	83.25
483.372	86.25
483.59	67.25
483.808	86.25
484.027	82.25
484.245	100.25
484.463	84.25
484.681	100.25
484.9	100.25
485.118	86.25
485.336	92.25
485.554	77.25
485.772	102.25
485.99	99.25
486.209	104.25
486.427	101.25
486.645	103.25
486.863	107.25
487.081	104.25
487.299	101.25
487.517	96.25
487.735	93.25
487.953	91.25
488.171	87.25
488.389	93.25
488.607	92.25
488.825	80.25
489.043	92.25
489.261	99.25
489.479	93.25
489.696	88.25
489.914	67.25
490.132	94.25
490.35	85.25
490.568	95.25
490.786	85.25
491.003	84.25
491.221	100.25
491.439	81.25
491.657	86.25
491.874	95.25
492.092	102.25
492.31	85.25
492.527	81.25
492.745	96.25
492.963	96.25
493.18	85.25
493.398	84.25
493.615	88.25
493.833	102.25
494.05	73.25
494.268	83.25
494.485	101.25
494.703	89.25
494.92	97.25
495.138	84.25
495.355	88.25
495.573	87.25
495.79	92.25
496.008	91.25
496.225	86.25
496.442	94.25
496.66	95.25
496.877	101.25
497.094	89.25
497.312	107.25
497.529	96.25
497.746	93.25
497.963	95.25
498.181	91.25
498.398	100.25
498.615	110.25
498.832	97.25
499.049	90.25
499.267	89.25
499.484	87.25
499.701	97.25
499.918	94.25
500.135	81.25
500.352	73.25
500.569	93.25
500.786	76.25
501.003	93.25
501.22	104.25
501.437	93.25
501.654	87.25
501.871	110.25
502.088	86.25
502.305	80.25
502.522	79.25
502.739	94.25
502.956	92.25
503.172	106.25
503.389	102.25
503.606	95.25
503.823	91.25
504.04	88.25
504.256	106.25
504.473	86.25
504.69	85.25
504.907	100.25
505.123	85.25
505.34	90.25
505.557	88.25
505.773	100.25
505.99	81.25
506.207	74.25
506.423	90.25
506.64	88.25
506.856	84.25
507.073	90.25
507.289	103.25
507.506	85.25
507.722	97.25
507.939	93.25
508.155	89.25
508.372	84.25
508.588	97.25
508.805	81.25
509.021	92.25
509.238	91.25
509.454	98.25
509.67	95.25
509.887	88.25
510.103	120.25
510.319	195.25
510.536	757.25
510.752	2284.25
510.968	621.25
511.184	140.25
511.401	86.25
511.617	94.25
511.833	97.25
512.049	90.25
512.265	86.25
512.481	91.25
512.698	99.25
512.914	77.25
513.13	87.25
513.346	96.25
513.562	91.25
513.778	92.25
513.994	88.25
514.21	88.25
514.426	115.25
514.642	127.25
514.858	128.25
515.074	172.25
515.29	439.25
515.506	1297.25
515.721	481.25
515.937	141.25
516.153	104.25
