Data from Uncirc_1999_H10_HRD10591_00019.txt Node
Date: Wed Jan 03 11:22:09 EST 2024
User: Yrep
Spectrometer: HR+D1059
Trigger mode: 1
Integration Time (sec): 1.000000E-1
Scans to average: 1
Electric dark correction enabled: true
Nonlinearity correction enabled: false
Boxcar width: 0
XAxis mode: Wavelengths
Number of Pixels in Spectrum: 2048
>>>>>Begin Spectral Data<<<<<
223.165	-3.75
223.4	-3.75
223.635	-3.75
223.869	-13.75
224.104	-30.75
224.338	-16.75
224.573	-19.75
224.808	-3.75
225.042	-9.75
225.277	14.25
225.511	-4.75
225.746	1.25
225.98	-1.75
226.215	-3.75
226.449	15.25
226.683	22.25
226.918	15.25
227.152	40.25
227.387	33.25
227.621	28.25
227.856	50.25
228.09	30.25
228.324	45.25
228.559	69.25
228.793	61.25
229.027	51.25
229.262	58.25
229.496	60.25
229.73	69.25
229.964	76.25
230.199	70.25
230.433	74.25
230.667	82.25
230.901	73.25
231.136	77.25
231.37	76.25
231.604	62.25
231.838	83.25
232.072	74.25
232.306	80.25
232.541	76.25
232.775	84.25
233.009	79.25
233.243	85.25
233.477	89.25
233.711	83.25
233.945	69.25
234.179	72.25
234.413	95.25
234.647	70.25
234.881	79.25
235.115	68.25
235.349	68.25
235.583	80.25
235.817	79.25
236.051	81.25
236.285	70.25
236.519	57.25
236.753	74.25
236.987	71.25
237.221	75.25
237.455	85.25
237.689	76.25
237.922	84.25
238.156	76.25
238.39	70.25
238.624	90.25
238.858	86.25
239.091	79.25
239.325	72.25
239.559	80.25
239.793	82.25
240.027	77.25
240.26	78.25
240.494	69.25
240.728	69.25
240.961	66.25
241.195	70.25
241.429	70.25
241.662	82.25
241.896	75.25
242.13	68.25
242.363	82.25
242.597	77.25
242.83	88.25
243.064	77.25
243.298	84.25
243.531	78.25
243.765	80.25
243.998	84.25
244.232	75.25
244.465	87.25
244.699	77.25
244.932	72.25
245.166	73.25
245.399	84.25
245.633	76.25
245.866	73.25
246.099	91.25
246.333	74.25
246.566	68.25
246.8	84.25
247.033	86.25
247.266	77.25
247.5	71.25
247.733	78.25
247.966	88.25
248.2	82.25
248.433	78.25
248.666	73.25
248.899	81.25
249.133	76.25
249.366	84.25
249.599	82.25
249.832	94.25
250.066	93.25
250.299	83.25
250.532	91.25
250.765	83.25
250.998	72.25
251.231	73.25
251.465	77.25
251.698	66.25
251.931	84.25
252.164	68.25
252.397	74.25
252.63	78.25
252.863	70.25
253.096	83.25
253.329	76.25
253.562	81.25
253.795	84.25
254.028	85.25
254.261	94.25
254.494	71.25
254.727	76.25
254.96	59.25
255.193	80.25
255.426	70.25
255.659	80.25
255.892	101.25
256.124	88.25
256.357	79.25
256.59	88.25
256.823	88.25
257.056	82.25
257.289	69.25
257.521	72.25
257.754	85.25
257.987	84.25
258.22	92.25
258.452	84.25
258.685	78.25
258.918	67.25
259.151	101.25
259.383	87.25
259.616	80.25
259.849	80.25
260.081	87.25
260.314	87.25
260.547	85.25
260.779	66.25
261.012	72.25
261.244	79.25
261.477	96.25
261.71	70.25
261.942	93.25
262.175	93.25
262.407	92.25
262.64	81.25
262.872	90.25
263.105	70.25
263.337	79.25
263.57	83.25
263.802	94.25
264.035	80.25
264.267	73.25
264.499	85.25
264.732	73.25
264.964	82.25
265.197	79.25
265.429	72.25
265.661	92.25
265.894	93.25
266.126	90.25
266.358	96.25
266.591	90.25
266.823	66.25
267.055	88.25
267.287	93.25
267.52	81.25
267.752	88.25
267.984	71.25
268.216	76.25
268.448	90.25
268.681	84.25
268.913	81.25
269.145	83.25
269.377	83.25
269.609	81.25
269.841	80.25
270.073	90.25
270.306	86.25
270.538	89.25
270.77	81.25
271.002	81.25
271.234	73.25
271.466	83.25
271.698	89.25
271.93	87.25
272.162	86.25
272.394	80.25
272.626	81.25
272.858	76.25
273.09	69.25
273.322	74.25
273.553	78.25
273.785	82.25
274.017	89.25
274.249	89.25
274.481	84.25
274.713	82.25
274.945	78.25
275.176	75.25
275.408	87.25
275.64	85.25
275.872	67.25
276.104	80.25
276.335	83.25
276.567	101.25
276.799	100.25
277.031	86.25
277.262	89.25
277.494	88.25
277.726	81.25
277.957	82.25
278.189	91.25
278.421	93.25
278.652	94.25
278.884	85.25
279.115	80.25
279.347	70.25
279.579	89.25
279.81	95.25
280.042	90.25
280.273	89.25
280.505	94.25
280.736	81.25
280.968	91.25
281.199	105.25
281.431	85.25
281.662	77.25
281.894	93.25
282.125	108.25
282.356	101.25
282.588	126.25
282.819	97.25
283.051	91.25
283.282	81.25
283.513	92.25
283.745	91.25
283.976	86.25
284.207	94.25
284.439	94.25
284.67	84.25
284.901	76.25
285.132	85.25
285.364	94.25
285.595	93.25
285.826	91.25
286.057	80.25
286.288	81.25
286.52	95.25
286.751	97.25
286.982	91.25
287.213	73.25
287.444	80.25
287.675	79.25
287.906	97.25
288.138	94.25
288.369	82.25
288.6	82.25
288.831	88.25
289.062	90.25
289.293	78.25
289.524	79.25
289.755	78.25
289.986	91.25
290.217	90.25
290.448	91.25
290.679	96.25
290.91	77.25
291.141	81.25
291.371	93.25
291.602	100.25
291.833	82.25
292.064	84.25
292.295	91.25
292.526	92.25
292.757	97.25
292.987	96.25
293.218	74.25
293.449	89.25
293.68	72.25
293.91	90.25
294.141	91.25
294.372	76.25
294.603	87.25
294.833	80.25
295.064	85.25
295.295	87.25
295.525	94.25
295.756	98.25
295.987	118.25
296.217	112.25
296.448	117.25
296.679	99.25
296.909	90.25
297.14	86.25
297.37	88.25
297.601	84.25
297.831	98.25
298.062	98.25
298.292	88.25
298.523	92.25
298.753	88.25
298.984	89.25
299.214	96.25
299.445	102.25
299.675	99.25
299.905	94.25
300.136	96.25
300.366	85.25
300.597	91.25
300.827	92.25
301.057	97.25
301.288	83.25
301.518	98.25
301.748	80.25
301.979	96.25
302.209	107.25
302.439	78.25
302.669	79.25
302.9	88.25
303.13	94.25
303.36	97.25
303.59	92.25
303.82	97.25
304.051	84.25
304.281	93.25
304.511	78.25
304.741	90.25
304.971	79.25
305.201	98.25
305.431	90.25
305.661	92.25
305.891	86.25
306.121	90.25
306.352	105.25
306.582	108.25
306.812	73.25
307.042	91.25
307.272	95.25
307.502	98.25
307.731	103.25
307.961	107.25
308.191	95.25
308.421	93.25
308.651	92.25
308.881	106.25
309.111	90.25
309.341	96.25
309.571	91.25
309.8	100.25
310.03	93.25
310.26	90.25
310.49	91.25
310.72	96.25
310.949	107.25
311.179	95.25
311.409	88.25
311.639	98.25
311.868	104.25
312.098	88.25
312.328	108.25
312.557	92.25
312.787	79.25
313.017	94.25
313.246	96.25
313.476	72.25
313.706	91.25
313.935	104.25
314.165	100.25
314.394	90.25
314.624	91.25
314.853	93.25
315.083	93.25
315.312	90.25
315.542	80.25
315.771	101.25
316.001	81.25
316.23	92.25
316.46	94.25
316.689	86.25
316.919	83.25
317.148	91.25
317.377	88.25
317.607	97.25
317.836	69.25
318.065	95.25
318.295	86.25
318.524	97.25
318.753	91.25
318.983	79.25
319.212	101.25
319.441	96.25
319.67	97.25
319.9	90.25
320.129	86.25
320.358	100.25
320.587	94.25
320.816	102.25
321.046	80.25
321.275	88.25
321.504	93.25
321.733	105.25
321.962	96.25
322.191	97.25
322.42	106.25
322.649	121.25
322.878	115.25
323.108	104.25
323.337	119.25
323.566	128.25
323.795	154.25
324.024	190.25
324.253	373.25
324.482	786.25
324.71	1598.25
324.939	2063.25
325.168	729.25
325.397	224.25
325.626	136.25
325.855	108.25
326.084	122.25
326.313	131.25
326.542	160.25
326.77	217.25
326.999	431.25
327.228	903.25
327.457	1634.25
327.686	1254.25
327.914	343.25
328.143	174.25
328.372	132.25
328.6	112.25
328.829	117.25
329.058	115.25
329.287	104.25
329.515	113.25
329.744	113.25
329.972	104.25
330.201	103.25
330.43	106.25
330.658	101.25
330.887	125.25
331.115	108.25
331.344	104.25
331.572	97.25
331.801	105.25
332.03	113.25
332.258	104.25
332.486	100.25
332.715	100.25
332.943	80.25
333.172	104.25
333.4	101.25
333.629	95.25
333.857	115.25
334.085	105.25
334.314	106.25
334.542	116.25
334.771	93.25
334.999	88.25
335.227	97.25
335.455	96.25
335.684	94.25
335.912	93.25
336.14	105.25
336.369	80.25
336.597	97.25
336.825	80.25
337.053	70.25
337.281	108.25
337.51	92.25
337.738	88.25
337.966	84.25
338.194	87.25
338.422	97.25
338.65	95.25
338.878	97.25
339.106	77.25
339.334	93.25
339.562	73.25
339.79	105.25
340.018	90.25
340.246	102.25
340.474	90.25
340.702	88.25
340.93	94.25
341.158	85.25
341.386	94.25
341.614	100.25
341.842	90.25
342.07	90.25
342.298	94.25
342.526	86.25
342.754	83.25
342.981	89.25
343.209	89.25
343.437	84.25
343.665	96.25
343.893	89.25
344.12	96.25
344.348	87.25
344.576	94.25
344.804	94.25
345.031	95.25
345.259	90.25
345.487	96.25
345.714	105.25
345.942	89.25
346.17	101.25
346.397	90.25
346.625	92.25
346.853	99.25
347.08	96.25
347.308	87.25
347.535	94.25
347.763	98.25
347.99	91.25
348.218	112.25
348.445	90.25
348.673	86.25
348.9	104.25
349.128	106.25
349.355	97.25
349.583	100.25
349.81	101.25
350.037	97.25
350.265	93.25
350.492	104.25
350.72	106.25
350.947	98.25
351.174	101.25
351.402	104.25
351.629	108.25
351.856	97.25
352.083	100.25
352.311	104.25
352.538	110.25
352.765	112.25
352.992	107.25
353.22	119.25
353.447	96.25
353.674	120.25
353.901	87.25
354.128	90.25
354.355	96.25
354.583	103.25
354.81	114.25
355.037	105.25
355.264	106.25
355.491	81.25
355.718	91.25
355.945	95.25
356.172	112.25
356.399	97.25
356.626	96.25
356.853	100.25
357.08	92.25
357.307	102.25
357.534	105.25
357.761	94.25
357.988	108.25
358.215	103.25
358.441	99.25
358.668	109.25
358.895	106.25
359.122	86.25
359.349	84.25
359.576	87.25
359.802	99.25
360.029	94.25
360.256	116.25
360.483	89.25
360.709	91.25
360.936	97.25
361.163	86.25
361.39	87.25
361.616	88.25
361.843	99.25
362.07	91.25
362.296	107.25
362.523	71.25
362.749	88.25
362.976	91.25
363.203	102.25
363.429	86.25
363.656	90.25
363.882	97.25
364.109	88.25
364.335	100.25
364.562	91.25
364.788	72.25
365.015	90.25
365.241	91.25
365.468	96.25
365.694	87.25
365.92	95.25
366.147	85.25
366.373	97.25
366.599	90.25
366.826	80.25
367.052	89.25
367.278	77.25
367.505	96.25
367.731	88.25
367.957	95.25
368.184	96.25
368.41	100.25
368.636	91.25
368.862	106.25
369.089	109.25
369.315	102.25
369.541	93.25
369.767	86.25
369.993	92.25
370.219	86.25
370.445	110.25
370.672	105.25
370.898	84.25
371.124	83.25
371.35	87.25
371.576	71.25
371.802	87.25
372.028	86.25
372.254	82.25
372.48	86.25
372.706	87.25
372.932	85.25
373.158	96.25
373.384	83.25
373.61	82.25
373.835	85.25
374.061	93.25
374.287	88.25
374.513	95.25
374.739	95.25
374.965	87.25
375.191	96.25
375.416	70.25
375.642	100.25
375.868	91.25
376.094	97.25
376.319	104.25
376.545	109.25
376.771	101.25
376.997	92.25
377.222	97.25
377.448	96.25
377.674	97.25
377.899	111.25
378.125	105.25
378.35	86.25
378.576	88.25
378.802	99.25
379.027	99.25
379.253	98.25
379.478	98.25
379.704	93.25
379.929	102.25
380.155	105.25
380.38	92.25
380.606	94.25
380.831	97.25
381.057	109.25
381.282	91.25
381.507	86.25
381.733	104.25
381.958	105.25
382.184	111.25
382.409	110.25
382.634	105.25
382.86	103.25
383.085	121.25
383.31	102.25
383.535	121.25
383.761	112.25
383.986	128.25
384.211	101.25
384.436	97.25
384.662	104.25
384.887	113.25
385.112	118.25
385.337	124.25
385.562	116.25
385.787	128.25
386.013	128.25
386.238	128.25
386.463	117.25
386.688	123.25
386.913	145.25
387.138	143.25
387.363	110.25
387.588	110.25
387.813	104.25
388.038	132.25
388.263	127.25
388.488	123.25
388.713	87.25
388.938	98.25
389.163	84.25
389.387	96.25
389.612	104.25
389.837	93.25
390.062	108.25
390.287	86.25
390.512	92.25
390.736	103.25
390.961	96.25
391.186	94.25
391.411	96.25
391.636	90.25
391.86	104.25
392.085	86.25
392.31	86.25
392.534	88.25
392.759	85.25
392.984	90.25
393.208	86.25
393.433	98.25
393.658	90.25
393.882	72.25
394.107	78.25
394.331	95.25
394.556	77.25
394.78	91.25
395.005	100.25
395.229	100.25
395.454	85.25
395.678	82.25
395.903	91.25
396.127	89.25
396.352	85.25
396.576	85.25
396.801	97.25
397.025	80.25
397.249	82.25
397.474	86.25
397.698	81.25
397.922	89.25
398.147	90.25
398.371	85.25
398.595	84.25
398.82	98.25
399.044	79.25
399.268	93.25
399.492	100.25
399.717	100.25
399.941	95.25
400.165	86.25
400.389	88.25
400.613	87.25
400.837	104.25
401.062	88.25
401.286	83.25
401.51	86.25
401.734	90.25
401.958	96.25
402.182	116.25
402.406	130.25
402.63	106.25
402.854	89.25
403.078	82.25
403.302	88.25
403.526	91.25
403.75	86.25
403.974	88.25
404.198	90.25
404.422	90.25
404.645	84.25
404.869	92.25
405.093	111.25
405.317	102.25
405.541	103.25
405.765	101.25
405.988	114.25
406.212	157.25
406.436	172.25
406.66	120.25
406.883	91.25
407.107	87.25
407.331	84.25
407.555	100.25
407.778	95.25
408.002	89.25
408.226	85.25
408.449	87.25
408.673	94.25
408.896	89.25
409.12	98.25
409.344	87.25
409.567	98.25
409.791	93.25
410.014	92.25
410.238	91.25
410.461	86.25
410.685	84.25
410.908	105.25
411.132	110.25
411.355	89.25
411.578	100.25
411.802	106.25
412.025	90.25
412.249	102.25
412.472	78.25
412.695	85.25
412.919	84.25
413.142	94.25
413.365	73.25
413.589	76.25
413.812	90.25
414.035	91.25
414.258	90.25
414.482	97.25
414.705	90.25
414.928	92.25
415.151	82.25
415.374	91.25
415.597	84.25
415.821	85.25
416.044	64.25
416.267	84.25
416.49	104.25
416.713	89.25
416.936	96.25
417.159	87.25
417.382	87.25
417.605	80.25
417.828	84.25
418.051	87.25
418.274	86.25
418.497	93.25
418.72	97.25
418.943	73.25
419.166	92.25
419.389	93.25
419.611	93.25
419.834	86.25
420.057	96.25
420.28	104.25
420.503	91.25
420.726	86.25
420.948	92.25
421.171	93.25
421.394	100.25
421.617	85.25
421.839	86.25
422.062	95.25
422.285	98.25
422.507	83.25
422.73	104.25
422.953	92.25
423.175	81.25
423.398	93.25
423.621	102.25
423.843	85.25
424.066	88.25
424.288	90.25
424.511	104.25
424.733	103.25
424.956	97.25
425.178	92.25
425.401	88.25
425.623	79.25
425.846	87.25
426.068	91.25
426.291	88.25
426.513	94.25
426.735	97.25
426.958	88.25
427.18	105.25
427.402	122.25
427.625	130.25
427.847	117.25
428.069	107.25
428.292	90.25
428.514	84.25
428.736	74.25
428.958	92.25
429.181	84.25
429.403	96.25
429.625	82.25
429.847	103.25
430.069	100.25
430.292	93.25
430.514	94.25
430.736	82.25
430.958	84.25
431.18	93.25
431.402	84.25
431.624	97.25
431.846	101.25
432.068	95.25
432.29	85.25
432.512	71.25
432.734	87.25
432.956	90.25
433.178	90.25
433.4	98.25
433.622	85.25
433.844	89.25
434.066	86.25
434.287	91.25
434.509	98.25
434.731	93.25
434.953	82.25
435.175	93.25
435.397	92.25
435.618	98.25
435.84	96.25
436.062	115.25
436.284	107.25
436.505	95.25
436.727	96.25
436.949	95.25
437.17	92.25
437.392	96.25
437.614	90.25
437.835	87.25
438.057	99.25
438.278	95.25
438.5	109.25
438.721	116.25
438.943	94.25
439.165	99.25
439.386	97.25
439.608	89.25
439.829	110.25
440.05	97.25
440.272	135.25
440.493	98.25
440.715	89.25
440.936	91.25
441.158	86.25
441.379	85.25
441.6	82.25
441.822	91.25
442.043	102.25
442.264	105.25
442.486	95.25
442.707	92.25
442.928	96.25
443.149	120.25
443.371	116.25
443.592	98.25
443.813	113.25
444.034	107.25
444.255	94.25
444.476	91.25
444.698	89.25
444.919	105.25
445.14	141.25
445.361	111.25
445.582	106.25
445.803	120.25
446.024	115.25
446.245	119.25
446.466	104.25
446.687	74.25
446.908	85.25
447.129	85.25
447.35	90.25
447.571	92.25
447.792	83.25
448.013	97.25
448.234	103.25
448.455	86.25
448.675	86.25
448.896	104.25
449.117	92.25
449.338	97.25
449.559	128.25
449.779	116.25
450	98.25
450.221	92.25
450.442	88.25
450.662	87.25
450.883	103.25
451.104	112.25
451.324	92.25
451.545	86.25
451.766	70.25
451.986	82.25
452.207	89.25
452.428	94.25
452.648	88.25
452.869	108.25
453.089	96.25
453.31	93.25
453.53	98.25
453.751	90.25
453.971	83.25
454.192	109.25
454.412	91.25
454.633	95.25
454.853	100.25
455.073	88.25
455.294	95.25
455.514	91.25
455.734	102.25
455.955	87.25
456.175	80.25
456.395	81.25
456.616	76.25
456.836	87.25
457.056	76.25
457.276	94.25
457.497	74.25
457.717	78.25
457.937	75.25
458.157	92.25
458.377	88.25
458.598	96.25
458.818	127.25
459.038	134.25
459.258	109.25
459.478	90.25
459.698	89.25
459.918	84.25
460.138	75.25
460.358	81.25
460.578	86.25
460.798	97.25
461.018	92.25
461.238	99.25
461.458	78.25
461.678	94.25
461.898	74.25
462.118	92.25
462.338	77.25
462.558	73.25
462.777	92.25
462.997	94.25
463.217	98.25
463.437	77.25
463.657	91.25
463.876	84.25
464.096	78.25
464.316	98.25
464.536	82.25
464.755	88.25
464.975	109.25
465.195	137.25
465.414	135.25
465.634	98.25
465.854	90.25
466.073	72.25
466.293	81.25
466.512	90.25
466.732	90.25
466.951	106.25
467.171	90.25
467.391	92.25
467.61	92.25
467.829	90.25
468.049	83.25
468.268	93.25
468.488	75.25
468.707	85.25
468.927	99.25
469.146	87.25
469.365	77.25
469.585	90.25
469.804	94.25
470.023	86.25
470.243	91.25
470.462	83.25
470.681	105.25
470.901	92.25
471.12	89.25
471.339	90.25
471.558	92.25
471.777	83.25
471.997	84.25
472.216	91.25
472.435	111.25
472.654	84.25
472.873	87.25
473.092	92.25
473.311	73.25
473.53	75.25
473.749	84.25
473.968	80.25
474.187	87.25
474.406	100.25
474.625	80.25
474.844	81.25
475.063	106.25
475.282	77.25
475.501	79.25
475.72	81.25
475.939	65.25
476.158	84.25
476.377	93.25
476.596	92.25
476.814	80.25
477.033	91.25
477.252	89.25
477.471	88.25
477.69	94.25
477.908	89.25
478.127	92.25
478.346	87.25
478.564	89.25
478.783	85.25
479.002	87.25
479.22	98.25
479.439	70.25
479.658	96.25
479.876	80.25
480.095	85.25
480.313	86.25
480.532	74.25
480.751	85.25
480.969	96.25
481.188	132.25
481.406	114.25
481.624	98.25
481.843	86.25
482.061	85.25
482.28	101.25
482.498	96.25
482.717	90.25
482.935	93.25
483.153	92.25
483.372	75.25
483.59	85.25
483.808	93.25
484.027	102.25
484.245	95.25
484.463	96.25
484.681	93.25
484.9	95.25
485.118	101.25
485.336	90.25
485.554	106.25
485.772	109.25
485.99	102.25
486.209	104.25
486.427	106.25
486.645	119.25
486.863	107.25
487.081	107.25
487.299	86.25
487.517	89.25
487.735	92.25
487.953	97.25
488.171	99.25
488.389	97.25
488.607	93.25
488.825	101.25
489.043	97.25
489.261	76.25
489.479	89.25
489.696	105.25
489.914	90.25
490.132	74.25
490.35	96.25
490.568	86.25
490.786	95.25
491.003	89.25
491.221	85.25
491.439	104.25
491.657	110.25
491.874	91.25
492.092	97.25
492.31	95.25
492.527	79.25
492.745	85.25
492.963	89.25
493.18	88.25
493.398	86.25
493.615	101.25
493.833	93.25
494.05	96.25
494.268	78.25
494.485	100.25
494.703	80.25
494.92	102.25
495.138	92.25
495.355	91.25
495.573	86.25
495.79	92.25
496.008	89.25
496.225	84.25
496.442	80.25
496.66	84.25
496.877	86.25
497.094	94.25
497.312	94.25
497.529	93.25
497.746	100.25
497.963	96.25
498.181	93.25
498.398	90.25
498.615	107.25
498.832	90.25
499.049	98.25
499.267	87.25
499.484	75.25
499.701	87.25
499.918	92.25
500.135	92.25
500.352	72.25
500.569	78.25
500.786	84.25
501.003	90.25
501.22	92.25
501.437	98.25
501.654	102.25
501.871	107.25
502.088	96.25
502.305	85.25
502.522	102.25
502.739	80.25
502.956	100.25
503.172	79.25
503.389	95.25
503.606	101.25
503.823	97.25
504.04	102.25
504.256	88.25
504.473	93.25
504.69	83.25
504.907	98.25
505.123	85.25
505.34	108.25
505.557	101.25
505.773	92.25
505.99	92.25
506.207	79.25
506.423	85.25
506.64	95.25
506.856	77.25
507.073	87.25
507.289	104.25
507.506	87.25
507.722	97.25
507.939	92.25
508.155	81.25
508.372	86.25
508.588	90.25
508.805	95.25
509.021	100.25
509.238	95.25
509.454	99.25
509.67	113.25
509.887	107.25
510.103	119.25
510.319	190.25
510.536	602.25
510.752	1829.25
510.968	518.25
511.184	143.25
511.401	97.25
511.617	98.25
511.833	84.25
512.049	96.25
512.265	85.25
512.481	101.25
512.698	85.25
512.914	94.25
513.13	96.25
513.346	98.25
513.562	90.25
513.778	102.25
513.994	92.25
514.21	92.25
514.426	118.25
514.642	119.25
514.858	96.25
515.074	139.25
515.29	350.25
515.506	1042.25
515.721	383.25
515.937	118.25
