Data from Uncirc_1999_H10_HRD10591_00012.txt Node
Date: Wed Jan 03 11:22:07 EST 2024
User: Yrep
Spectrometer: HR+D1059
Trigger mode: 1
Integration Time (sec): 1.000000E-1
Scans to average: 1
Electric dark correction enabled: true
Nonlinearity correction enabled: false
Boxcar width: 0
XAxis mode: Wavelengths
Number of Pixels in Spectrum: 2048
>>>>>Begin Spectral Data<<<<<
223.165	-19.94
223.4	-19.94
223.635	-19.94
223.869	-18.94
224.104	-9.94
224.338	-8.94
224.573	-38.94
224.808	-16.94
225.042	3.06
225.277	3.06
225.511	7.06
225.746	13.06
225.98	3.06
226.215	11.06
226.449	19.06
226.683	21.06
226.918	16.06
227.152	17.06
227.387	26.06
227.621	32.06
227.856	46.06
228.09	65.06
228.324	44.06
228.559	63.06
228.793	55.06
229.027	51.06
229.262	53.06
229.496	69.06
229.73	76.06
229.964	78.06
230.199	88.06
230.433	78.06
230.667	73.06
230.901	75.06
231.136	69.06
231.37	68.06
231.604	75.06
231.838	77.06
232.072	80.06
232.306	64.06
232.541	76.06
232.775	82.06
233.009	85.06
233.243	85.06
233.477	89.06
233.711	85.06
233.945	92.06
234.179	67.06
234.413	71.06
234.647	84.06
234.881	74.06
235.115	78.06
235.349	79.06
235.583	73.06
235.817	76.06
236.051	76.06
236.285	67.06
236.519	75.06
236.753	73.06
236.987	84.06
237.221	79.06
237.455	69.06
237.689	80.06
237.922	94.06
238.156	74.06
238.39	76.06
238.624	70.06
238.858	55.06
239.091	73.06
239.325	71.06
239.559	78.06
239.793	89.06
240.027	72.06
240.26	82.06
240.494	73.06
240.728	81.06
240.961	70.06
241.195	72.06
241.429	68.06
241.662	63.06
241.896	68.06
242.13	81.06
242.363	58.06
242.597	69.06
242.83	77.06
243.064	62.06
243.298	73.06
243.531	64.06
243.765	79.06
243.998	88.06
244.232	83.06
244.465	81.06
244.699	80.06
244.932	70.06
245.166	71.06
245.399	80.06
245.633	71.06
245.866	83.06
246.099	79.06
246.333	75.06
246.566	86.06
246.8	72.06
247.033	71.06
247.266	74.06
247.5	67.06
247.733	90.06
247.966	81.06
248.2	88.06
248.433	87.06
248.666	67.06
248.899	77.06
249.133	88.06
249.366	81.06
249.599	93.06
249.832	79.06
250.066	80.06
250.299	88.06
250.532	71.06
250.765	69.06
250.998	76.06
251.231	83.06
251.465	74.06
251.698	78.06
251.931	91.06
252.164	78.06
252.397	73.06
252.63	73.06
252.863	75.06
253.096	68.06
253.329	73.06
253.562	80.06
253.795	87.06
254.028	85.06
254.261	78.06
254.494	78.06
254.727	76.06
254.96	80.06
255.193	85.06
255.426	88.06
255.659	58.06
255.892	79.06
256.124	79.06
256.357	86.06
256.59	89.06
256.823	80.06
257.056	76.06
257.289	84.06
257.521	72.06
257.754	81.06
257.987	95.06
258.22	72.06
258.452	71.06
258.685	84.06
258.918	81.06
259.151	73.06
259.383	85.06
259.616	81.06
259.849	74.06
260.081	65.06
260.314	81.06
260.547	76.06
260.779	81.06
261.012	80.06
261.244	91.06
261.477	86.06
261.71	89.06
261.942	104.06
262.175	101.06
262.407	96.06
262.64	92.06
262.872	66.06
263.105	79.06
263.337	85.06
263.57	94.06
263.802	91.06
264.035	76.06
264.267	80.06
264.499	95.06
264.732	89.06
264.964	74.06
265.197	67.06
265.429	72.06
265.661	85.06
265.894	82.06
266.126	80.06
266.358	78.06
266.591	88.06
266.823	74.06
267.055	79.06
267.287	76.06
267.52	73.06
267.752	85.06
267.984	83.06
268.216	91.06
268.448	98.06
268.681	79.06
268.913	73.06
269.145	84.06
269.377	68.06
269.609	91.06
269.841	91.06
270.073	94.06
270.306	85.06
270.538	81.06
270.77	85.06
271.002	80.06
271.234	97.06
271.466	76.06
271.698	80.06
271.93	75.06
272.162	87.06
272.394	101.06
272.626	72.06
272.858	81.06
273.09	88.06
273.322	92.06
273.553	70.06
273.785	82.06
274.017	89.06
274.249	81.06
274.481	73.06
274.713	90.06
274.945	97.06
275.176	81.06
275.408	65.06
275.64	77.06
275.872	81.06
276.104	92.06
276.335	96.06
276.567	94.06
276.799	85.06
277.031	95.06
277.262	78.06
277.494	81.06
277.726	80.06
277.957	99.06
278.189	81.06
278.421	76.06
278.652	81.06
278.884	79.06
279.115	91.06
279.347	78.06
279.579	84.06
279.81	87.06
280.042	85.06
280.273	78.06
280.505	84.06
280.736	91.06
280.968	93.06
281.199	88.06
281.431	83.06
281.662	89.06
281.894	83.06
282.125	99.06
282.356	102.06
282.588	127.06
282.819	107.06
283.051	95.06
283.282	86.06
283.513	81.06
283.745	92.06
283.976	80.06
284.207	86.06
284.439	91.06
284.67	91.06
284.901	100.06
285.132	85.06
285.364	82.06
285.595	92.06
285.826	87.06
286.057	86.06
286.288	89.06
286.52	93.06
286.751	75.06
286.982	75.06
287.213	73.06
287.444	74.06
287.675	80.06
287.906	94.06
288.138	85.06
288.369	77.06
288.6	89.06
288.831	83.06
289.062	77.06
289.293	105.06
289.524	89.06
289.755	86.06
289.986	76.06
290.217	94.06
290.448	77.06
290.679	94.06
290.91	96.06
291.141	92.06
291.371	79.06
291.602	83.06
291.833	86.06
292.064	84.06
292.295	84.06
292.526	84.06
292.757	83.06
292.987	78.06
293.218	91.06
293.449	89.06
293.68	85.06
293.91	92.06
294.141	80.06
294.372	93.06
294.603	87.06
294.833	89.06
295.064	87.06
295.295	101.06
295.525	87.06
295.756	103.06
295.987	112.06
296.217	116.06
296.448	131.06
296.679	78.06
296.909	97.06
297.14	92.06
297.37	85.06
297.601	88.06
297.831	85.06
298.062	93.06
298.292	88.06
298.523	92.06
298.753	86.06
298.984	83.06
299.214	95.06
299.445	90.06
299.675	91.06
299.905	80.06
300.136	83.06
300.366	83.06
300.597	74.06
300.827	91.06
301.057	81.06
301.288	91.06
301.518	92.06
301.748	76.06
301.979	99.06
302.209	87.06
302.439	96.06
302.669	84.06
302.9	88.06
303.13	81.06
303.36	90.06
303.59	98.06
303.82	107.06
304.051	102.06
304.281	90.06
304.511	90.06
304.741	82.06
304.971	84.06
305.201	95.06
305.431	87.06
305.661	91.06
305.891	78.06
306.121	92.06
306.352	100.06
306.582	99.06
306.812	84.06
307.042	99.06
307.272	83.06
307.502	101.06
307.731	104.06
307.961	85.06
308.191	87.06
308.421	101.06
308.651	85.06
308.881	89.06
309.111	99.06
309.341	83.06
309.571	91.06
309.8	84.06
310.03	96.06
310.26	89.06
310.49	96.06
310.72	108.06
310.949	87.06
311.179	104.06
311.409	96.06
311.639	97.06
311.868	112.06
312.098	98.06
312.328	88.06
312.557	94.06
312.787	99.06
313.017	106.06
313.246	99.06
313.476	89.06
313.706	78.06
313.935	88.06
314.165	107.06
314.394	109.06
314.624	91.06
314.853	94.06
315.083	91.06
315.312	92.06
315.542	90.06
315.771	97.06
316.001	99.06
316.23	98.06
316.46	92.06
316.689	76.06
316.919	80.06
317.148	87.06
317.377	88.06
317.607	96.06
317.836	81.06
318.065	102.06
318.295	99.06
318.524	94.06
318.753	85.06
318.983	95.06
319.212	94.06
319.441	102.06
319.67	91.06
319.9	83.06
320.129	84.06
320.358	95.06
320.587	82.06
320.816	95.06
321.046	96.06
321.275	78.06
321.504	94.06
321.733	91.06
321.962	94.06
322.191	100.06
322.42	97.06
322.649	103.06
322.878	104.06
323.108	109.06
323.337	116.06
323.566	135.06
323.795	153.06
324.024	179.06
324.253	358.06
324.482	759.06
324.71	1529.06
324.939	1947.06
325.168	730.06
325.397	206.06
325.626	137.06
325.855	122.06
326.084	126.06
326.313	109.06
326.542	141.06
326.77	213.06
326.999	416.06
327.228	882.06
327.457	1592.06
327.686	1240.06
327.914	327.06
328.143	160.06
328.372	140.06
328.6	120.06
328.829	107.06
329.058	116.06
329.287	116.06
329.515	89.06
329.744	91.06
329.972	98.06
330.201	117.06
330.43	104.06
330.658	105.06
330.887	123.06
331.115	102.06
331.344	109.06
331.572	97.06
331.801	110.06
332.03	95.06
332.258	101.06
332.486	89.06
332.715	76.06
332.943	102.06
333.172	95.06
333.4	100.06
333.629	96.06
333.857	103.06
334.085	104.06
334.314	91.06
334.542	94.06
334.771	94.06
334.999	97.06
335.227	102.06
335.455	92.06
335.684	99.06
335.912	90.06
336.14	100.06
336.369	84.06
336.597	102.06
336.825	116.06
337.053	98.06
337.281	83.06
337.51	96.06
337.738	77.06
337.966	85.06
338.194	101.06
338.422	96.06
338.65	80.06
338.878	88.06
339.106	89.06
339.334	108.06
339.562	67.06
339.79	93.06
340.018	102.06
340.246	86.06
340.474	93.06
340.702	81.06
340.93	86.06
341.158	82.06
341.386	90.06
341.614	84.06
341.842	91.06
342.07	85.06
342.298	95.06
342.526	79.06
342.754	102.06
342.981	89.06
343.209	95.06
343.437	108.06
343.665	94.06
343.893	88.06
344.12	88.06
344.348	94.06
344.576	89.06
344.804	92.06
345.031	86.06
345.259	85.06
345.487	94.06
345.714	79.06
345.942	85.06
346.17	105.06
346.397	91.06
346.625	96.06
346.853	80.06
347.08	86.06
347.308	92.06
347.535	80.06
347.763	95.06
347.99	97.06
348.218	98.06
348.445	87.06
348.673	94.06
348.9	94.06
349.128	96.06
349.355	96.06
349.583	93.06
349.81	109.06
350.037	84.06
350.265	96.06
350.492	101.06
350.72	90.06
350.947	95.06
351.174	106.06
351.402	95.06
351.629	95.06
351.856	104.06
352.083	101.06
352.311	105.06
352.538	119.06
352.765	105.06
352.992	110.06
353.22	97.06
353.447	98.06
353.674	101.06
353.901	105.06
354.128	89.06
354.355	106.06
354.583	88.06
354.81	109.06
355.037	106.06
355.264	104.06
355.491	84.06
355.718	104.06
355.945	92.06
356.172	81.06
356.399	99.06
356.626	93.06
356.853	97.06
357.08	101.06
357.307	88.06
357.534	105.06
357.761	106.06
357.988	105.06
358.215	102.06
358.441	95.06
358.668	97.06
358.895	110.06
359.122	99.06
359.349	93.06
359.576	89.06
359.802	94.06
360.029	120.06
360.256	110.06
360.483	97.06
360.709	97.06
360.936	89.06
361.163	80.06
361.39	81.06
361.616	96.06
361.843	92.06
362.07	88.06
362.296	95.06
362.523	86.06
362.749	86.06
362.976	80.06
363.203	108.06
363.429	87.06
363.656	87.06
363.882	90.06
364.109	92.06
364.335	93.06
364.562	87.06
364.788	97.06
365.015	80.06
365.241	100.06
365.468	96.06
365.694	97.06
365.92	102.06
366.147	85.06
366.373	86.06
366.599	73.06
366.826	93.06
367.052	94.06
367.278	94.06
367.505	96.06
367.731	94.06
367.957	92.06
368.184	102.06
368.41	103.06
368.636	95.06
368.862	116.06
369.089	87.06
369.315	84.06
369.541	97.06
369.767	87.06
369.993	94.06
370.219	86.06
370.445	96.06
370.672	91.06
370.898	88.06
371.124	96.06
371.35	76.06
371.576	100.06
371.802	95.06
372.028	75.06
372.254	76.06
372.48	101.06
372.706	79.06
372.932	99.06
373.158	92.06
373.384	95.06
373.61	94.06
373.835	79.06
374.061	87.06
374.287	90.06
374.513	95.06
374.739	82.06
374.965	93.06
375.191	105.06
375.416	81.06
375.642	93.06
375.868	102.06
376.094	97.06
376.319	91.06
376.545	89.06
376.771	100.06
376.997	102.06
377.222	97.06
377.448	76.06
377.674	87.06
377.899	87.06
378.125	92.06
378.35	102.06
378.576	103.06
378.802	104.06
379.027	99.06
379.253	100.06
379.478	100.06
379.704	99.06
379.929	94.06
380.155	89.06
380.38	106.06
380.606	95.06
380.831	109.06
381.057	111.06
381.282	99.06
381.507	110.06
381.733	112.06
381.958	103.06
382.184	118.06
382.409	124.06
382.634	125.06
382.86	120.06
383.085	119.06
383.31	111.06
383.535	114.06
383.761	113.06
383.986	123.06
384.211	110.06
384.436	104.06
384.662	135.06
384.887	124.06
385.112	144.06
385.337	140.06
385.562	128.06
385.787	134.06
386.013	128.06
386.238	148.06
386.463	125.06
386.688	140.06
386.913	127.06
387.138	153.06
387.363	131.06
387.588	119.06
387.813	125.06
388.038	141.06
388.263	157.06
388.488	154.06
388.713	102.06
388.938	88.06
389.163	90.06
389.387	91.06
389.612	102.06
389.837	95.06
390.062	91.06
390.287	84.06
390.512	88.06
390.736	91.06
390.961	101.06
391.186	101.06
391.411	92.06
391.636	91.06
391.86	97.06
392.085	94.06
392.31	96.06
392.534	92.06
392.759	86.06
392.984	83.06
393.208	86.06
393.433	92.06
393.658	90.06
393.882	93.06
394.107	78.06
394.331	72.06
394.556	93.06
394.78	95.06
395.005	98.06
395.229	86.06
395.454	94.06
395.678	98.06
395.903	79.06
396.127	81.06
396.352	93.06
396.576	81.06
396.801	97.06
397.025	84.06
397.249	88.06
397.474	89.06
397.698	92.06
397.922	83.06
398.147	94.06
398.371	74.06
398.595	81.06
398.82	84.06
399.044	105.06
399.268	79.06
399.492	83.06
399.717	80.06
399.941	95.06
400.165	93.06
400.389	86.06
400.613	83.06
400.837	88.06
401.062	86.06
401.286	88.06
401.51	104.06
401.734	89.06
401.958	89.06
402.182	116.06
402.406	147.06
402.63	110.06
402.854	89.06
403.078	91.06
403.302	83.06
403.526	91.06
403.75	90.06
403.974	88.06
404.198	95.06
404.422	97.06
404.645	84.06
404.869	82.06
405.093	80.06
405.317	90.06
405.541	96.06
405.765	93.06
405.988	105.06
406.212	138.06
406.436	165.06
406.66	123.06
406.883	86.06
407.107	87.06
407.331	93.06
407.555	95.06
407.778	84.06
408.002	92.06
408.226	93.06
408.449	96.06
408.673	87.06
408.896	84.06
409.12	91.06
409.344	99.06
409.567	91.06
409.791	92.06
410.014	97.06
410.238	98.06
410.461	110.06
410.685	101.06
410.908	97.06
411.132	106.06
411.355	92.06
411.578	107.06
411.802	94.06
412.025	98.06
412.249	86.06
412.472	87.06
412.695	86.06
412.919	94.06
413.142	99.06
413.365	84.06
413.589	88.06
413.812	92.06
414.035	97.06
414.258	106.06
414.482	90.06
414.705	88.06
414.928	92.06
415.151	97.06
415.374	90.06
415.597	97.06
415.821	96.06
416.044	96.06
416.267	85.06
416.49	92.06
416.713	90.06
416.936	90.06
417.159	90.06
417.382	101.06
417.605	94.06
417.828	111.06
418.051	93.06
418.274	93.06
418.497	92.06
418.72	84.06
418.943	85.06
419.166	96.06
419.389	79.06
419.611	94.06
419.834	115.06
420.057	103.06
420.28	93.06
420.503	92.06
420.726	71.06
420.948	97.06
421.171	97.06
421.394	92.06
421.617	91.06
421.839	107.06
422.062	79.06
422.285	89.06
422.507	102.06
422.73	108.06
422.953	100.06
423.175	94.06
423.398	101.06
423.621	90.06
423.843	89.06
424.066	81.06
424.288	84.06
424.511	88.06
424.733	95.06
424.956	105.06
425.178	93.06
425.401	110.06
425.623	96.06
425.846	89.06
426.068	87.06
426.291	94.06
426.513	107.06
426.735	103.06
426.958	81.06
427.18	106.06
427.402	132.06
427.625	138.06
427.847	108.06
428.069	91.06
428.292	95.06
428.514	81.06
428.736	95.06
428.958	87.06
429.181	83.06
429.403	93.06
429.625	80.06
429.847	77.06
430.069	89.06
430.292	96.06
430.514	82.06
430.736	95.06
430.958	69.06
431.18	73.06
431.402	83.06
431.624	83.06
431.846	95.06
432.068	96.06
432.29	90.06
432.512	80.06
432.734	74.06
432.956	107.06
433.178	106.06
433.4	102.06
433.622	78.06
433.844	96.06
434.066	95.06
434.287	93.06
434.509	98.06
434.731	93.06
434.953	90.06
435.175	91.06
435.397	91.06
435.618	80.06
435.84	112.06
436.062	114.06
436.284	106.06
436.505	104.06
436.727	92.06
436.949	97.06
437.17	92.06
437.392	96.06
437.614	94.06
437.835	92.06
438.057	95.06
438.278	101.06
438.5	105.06
438.721	113.06
438.943	87.06
439.165	90.06
439.386	92.06
439.608	93.06
439.829	94.06
440.05	117.06
440.272	134.06
440.493	94.06
440.715	92.06
440.936	87.06
441.158	96.06
441.379	86.06
441.6	81.06
441.822	91.06
442.043	85.06
442.264	100.06
442.486	100.06
442.707	85.06
442.928	97.06
443.149	116.06
443.371	97.06
443.592	95.06
443.813	99.06
444.034	104.06
444.255	99.06
444.476	90.06
444.698	91.06
444.919	107.06
445.14	141.06
445.361	108.06
445.582	107.06
445.803	101.06
446.024	115.06
446.245	129.06
446.466	126.06
446.687	96.06
446.908	78.06
447.129	86.06
447.35	87.06
447.571	88.06
447.792	85.06
448.013	85.06
448.234	89.06
448.455	93.06
448.675	103.06
448.896	114.06
449.117	89.06
449.338	90.06
449.559	118.06
449.779	120.06
450	91.06
450.221	95.06
450.442	76.06
450.662	90.06
450.883	95.06
451.104	96.06
451.324	88.06
451.545	103.06
451.766	78.06
451.986	89.06
452.207	88.06
452.428	96.06
452.648	102.06
452.869	105.06
453.089	103.06
453.31	129.06
453.53	102.06
453.751	87.06
453.971	103.06
454.192	96.06
454.412	99.06
454.633	90.06
454.853	88.06
455.073	97.06
455.294	105.06
455.514	95.06
455.734	89.06
455.955	91.06
456.175	103.06
456.395	88.06
456.616	84.06
456.836	89.06
457.056	80.06
457.276	88.06
457.497	89.06
457.717	90.06
457.937	85.06
458.157	93.06
458.377	85.06
458.598	103.06
458.818	123.06
459.038	134.06
459.258	96.06
459.478	79.06
459.698	81.06
459.918	92.06
460.138	97.06
460.358	92.06
460.578	94.06
460.798	96.06
461.018	91.06
461.238	86.06
461.458	92.06
461.678	77.06
461.898	93.06
462.118	91.06
462.338	76.06
462.558	84.06
462.777	91.06
462.997	74.06
463.217	82.06
463.437	105.06
463.657	98.06
463.876	93.06
464.096	92.06
464.316	80.06
464.536	80.06
464.755	95.06
464.975	97.06
465.195	138.06
465.414	127.06
465.634	91.06
465.854	89.06
466.073	89.06
466.293	96.06
466.512	80.06
466.732	87.06
466.951	89.06
467.171	95.06
467.391	107.06
467.61	96.06
467.829	103.06
468.049	101.06
468.268	107.06
468.488	86.06
468.707	81.06
468.927	83.06
469.146	84.06
469.365	83.06
469.585	82.06
469.804	91.06
470.023	92.06
470.243	95.06
470.462	96.06
470.681	96.06
470.901	88.06
471.12	87.06
471.339	95.06
471.558	86.06
471.777	76.06
471.997	104.06
472.216	84.06
472.435	83.06
472.654	90.06
472.873	93.06
473.092	84.06
473.311	110.06
473.53	80.06
473.749	73.06
473.968	88.06
474.187	102.06
474.406	78.06
474.625	89.06
474.844	91.06
475.063	80.06
475.282	89.06
475.501	87.06
475.72	94.06
475.939	94.06
476.158	93.06
476.377	90.06
476.596	85.06
476.814	88.06
477.033	95.06
477.252	80.06
477.471	94.06
477.69	96.06
477.908	73.06
478.127	91.06
478.346	87.06
478.564	91.06
478.783	86.06
479.002	76.06
479.22	94.06
479.439	115.06
479.658	96.06
479.876	87.06
480.095	79.06
480.313	102.06
480.532	106.06
480.751	103.06
480.969	112.06
481.188	137.06
481.406	113.06
481.624	97.06
481.843	89.06
482.061	75.06
482.28	81.06
482.498	84.06
482.717	111.06
482.935	96.06
483.153	95.06
483.372	95.06
483.59	100.06
483.808	87.06
484.027	101.06
484.245	91.06
484.463	95.06
484.681	96.06
484.9	103.06
485.118	105.06
485.336	104.06
485.554	103.06
485.772	90.06
485.99	103.06
486.209	102.06
486.427	113.06
486.645	117.06
486.863	121.06
487.081	102.06
487.299	99.06
487.517	113.06
487.735	97.06
487.953	108.06
488.171	103.06
488.389	95.06
488.607	84.06
488.825	94.06
489.043	88.06
489.261	94.06
489.479	100.06
489.696	79.06
489.914	83.06
490.132	74.06
490.35	87.06
490.568	89.06
490.786	84.06
491.003	75.06
491.221	88.06
491.439	104.06
491.657	89.06
491.874	84.06
492.092	92.06
492.31	88.06
492.527	94.06
492.745	107.06
492.963	94.06
493.18	73.06
493.398	91.06
493.615	89.06
493.833	96.06
494.05	99.06
494.268	87.06
494.485	95.06
494.703	93.06
494.92	90.06
495.138	96.06
495.355	92.06
495.573	83.06
495.79	79.06
496.008	89.06
496.225	104.06
496.442	90.06
496.66	104.06
496.877	83.06
497.094	97.06
497.312	88.06
497.529	89.06
497.746	116.06
497.963	87.06
498.181	96.06
498.398	111.06
498.615	101.06
498.832	107.06
499.049	80.06
499.267	78.06
499.484	89.06
499.701	96.06
499.918	94.06
500.135	101.06
500.352	87.06
500.569	93.06
500.786	91.06
501.003	78.06
501.22	91.06
501.437	92.06
501.654	83.06
501.871	94.06
502.088	101.06
502.305	107.06
502.522	95.06
502.739	85.06
502.956	90.06
503.172	96.06
503.389	86.06
503.606	98.06
503.823	103.06
504.04	102.06
504.256	83.06
504.473	100.06
504.69	101.06
504.907	87.06
505.123	89.06
505.34	86.06
505.557	101.06
505.773	97.06
505.99	91.06
506.207	89.06
506.423	94.06
506.64	93.06
506.856	82.06
507.073	97.06
507.289	88.06
507.506	95.06
507.722	105.06
507.939	97.06
508.155	108.06
508.372	88.06
508.588	80.06
508.805	86.06
509.021	88.06
509.238	81.06
509.454	98.06
509.67	106.06
509.887	104.06
510.103	126.06
510.319	175.06
510.536	601.06
510.752	1701.06
510.968	482.06
511.184	120.06
511.401	97.06
511.617	89.06
511.833	90.06
512.049	100.06
512.265	80.06
512.481	84.06
512.698	94.06
512.914	99.06
513.13	95.06
513.346	89.06
513.562	88.06
513.778	94.06
513.994	87.06
514.21	95.06
514.426	111.06
514.642	114.06
514.858	107.06
515.074	135.06
515.29	312.06
515.506	976.06
515.721	375.06
515.937	123.06
