Data from Uncirc_1999_H10_HRD10591_00021.txt Node
Date: Wed Jan 03 11:22:09 EST 2024
User: Yrep
Spectrometer: HR+D1059
Trigger mode: 1
Integration Time (sec): 1.000000E-1
Scans to average: 1
Electric dark correction enabled: true
Nonlinearity correction enabled: false
Boxcar width: 0
XAxis mode: Wavelengths
Number of Pixels in Spectrum: 2048
>>>>>Begin Spectral Data<<<<<
223.165	-23.69
223.4	-23.69
223.635	-23.69
223.869	-20.69
224.104	-12.69
224.338	-25.69
224.573	2.31
224.808	-4.69
225.042	-15.69
225.277	2.31
225.511	8.31
225.746	2.31
225.98	5.31
226.215	11.31
226.449	7.31
226.683	20.31
226.918	21.31
227.152	22.31
227.387	36.31
227.621	25.31
227.856	32.31
228.09	49.31
228.324	44.31
228.559	57.31
228.793	42.31
229.027	66.31
229.262	54.31
229.496	66.31
229.73	72.31
229.964	71.31
230.199	63.31
230.433	76.31
230.667	82.31
230.901	79.31
231.136	85.31
231.37	80.31
231.604	79.31
231.838	81.31
232.072	74.31
232.306	78.31
232.541	81.31
232.775	70.31
233.009	70.31
233.243	73.31
233.477	67.31
233.711	83.31
233.945	75.31
234.179	68.31
234.413	82.31
234.647	59.31
234.881	65.31
235.115	93.31
235.349	74.31
235.583	77.31
235.817	86.31
236.051	83.31
236.285	75.31
236.519	75.31
236.753	89.31
236.987	83.31
237.221	84.31
237.455	95.31
237.689	80.31
237.922	80.31
238.156	69.31
238.39	62.31
238.624	69.31
238.858	70.31
239.091	71.31
239.325	70.31
239.559	82.31
239.793	75.31
240.027	82.31
240.26	73.31
240.494	78.31
240.728	85.31
240.961	93.31
241.195	64.31
241.429	74.31
241.662	81.31
241.896	76.31
242.13	82.31
242.363	80.31
242.597	68.31
242.83	79.31
243.064	74.31
243.298	81.31
243.531	71.31
243.765	67.31
243.998	84.31
244.232	88.31
244.465	77.31
244.699	73.31
244.932	71.31
245.166	66.31
245.399	72.31
245.633	58.31
245.866	79.31
246.099	83.31
246.333	76.31
246.566	67.31
246.8	83.31
247.033	75.31
247.266	70.31
247.5	67.31
247.733	70.31
247.966	75.31
248.2	72.31
248.433	78.31
248.666	76.31
248.899	77.31
249.133	77.31
249.366	103.31
249.599	93.31
249.832	79.31
250.066	82.31
250.299	75.31
250.532	68.31
250.765	72.31
250.998	69.31
251.231	67.31
251.465	85.31
251.698	71.31
251.931	72.31
252.164	58.31
252.397	70.31
252.63	73.31
252.863	58.31
253.096	67.31
253.329	70.31
253.562	86.31
253.795	69.31
254.028	81.31
254.261	84.31
254.494	70.31
254.727	89.31
254.96	85.31
255.193	90.31
255.426	82.31
255.659	74.31
255.892	80.31
256.124	79.31
256.357	62.31
256.59	92.31
256.823	76.31
257.056	72.31
257.289	89.31
257.521	88.31
257.754	92.31
257.987	89.31
258.22	66.31
258.452	91.31
258.685	80.31
258.918	82.31
259.151	73.31
259.383	74.31
259.616	63.31
259.849	78.31
260.081	82.31
260.314	80.31
260.547	81.31
260.779	70.31
261.012	63.31
261.244	86.31
261.477	85.31
261.71	92.31
261.942	90.31
262.175	109.31
262.407	102.31
262.64	74.31
262.872	76.31
263.105	71.31
263.337	82.31
263.57	70.31
263.802	88.31
264.035	72.31
264.267	80.31
264.499	85.31
264.732	83.31
264.964	71.31
265.197	74.31
265.429	86.31
265.661	86.31
265.894	94.31
266.126	74.31
266.358	77.31
266.591	87.31
266.823	86.31
267.055	86.31
267.287	82.31
267.52	90.31
267.752	94.31
267.984	88.31
268.216	82.31
268.448	72.31
268.681	88.31
268.913	87.31
269.145	75.31
269.377	94.31
269.609	78.31
269.841	84.31
270.073	92.31
270.306	77.31
270.538	87.31
270.77	81.31
271.002	73.31
271.234	78.31
271.466	78.31
271.698	87.31
271.93	66.31
272.162	82.31
272.394	74.31
272.626	79.31
272.858	71.31
273.09	84.31
273.322	73.31
273.553	70.31
273.785	78.31
274.017	79.31
274.249	76.31
274.481	77.31
274.713	77.31
274.945	87.31
275.176	85.31
275.408	83.31
275.64	86.31
275.872	86.31
276.104	80.31
276.335	71.31
276.567	79.31
276.799	97.31
277.031	100.31
277.262	75.31
277.494	81.31
277.726	78.31
277.957	74.31
278.189	95.31
278.421	79.31
278.652	104.31
278.884	80.31
279.115	97.31
279.347	75.31
279.579	85.31
279.81	98.31
280.042	85.31
280.273	94.31
280.505	82.31
280.736	74.31
280.968	83.31
281.199	78.31
281.431	93.31
281.662	88.31
281.894	83.31
282.125	94.31
282.356	97.31
282.588	104.31
282.819	107.31
283.051	99.31
283.282	70.31
283.513	86.31
283.745	86.31
283.976	92.31
284.207	95.31
284.439	76.31
284.67	74.31
284.901	62.31
285.132	74.31
285.364	86.31
285.595	74.31
285.826	88.31
286.057	87.31
286.288	86.31
286.52	79.31
286.751	68.31
286.982	79.31
287.213	82.31
287.444	77.31
287.675	80.31
287.906	91.31
288.138	81.31
288.369	79.31
288.6	106.31
288.831	71.31
289.062	93.31
289.293	83.31
289.524	88.31
289.755	93.31
289.986	91.31
290.217	90.31
290.448	93.31
290.679	76.31
290.91	81.31
291.141	81.31
291.371	97.31
291.602	83.31
291.833	96.31
292.064	82.31
292.295	90.31
292.526	92.31
292.757	87.31
292.987	90.31
293.218	89.31
293.449	79.31
293.68	95.31
293.91	83.31
294.141	91.31
294.372	81.31
294.603	92.31
294.833	86.31
295.064	84.31
295.295	83.31
295.525	89.31
295.756	94.31
295.987	98.31
296.217	121.31
296.448	111.31
296.679	83.31
296.909	89.31
297.14	79.31
297.37	88.31
297.601	95.31
297.831	87.31
298.062	87.31
298.292	91.31
298.523	99.31
298.753	75.31
298.984	82.31
299.214	84.31
299.445	97.31
299.675	93.31
299.905	85.31
300.136	82.31
300.366	90.31
300.597	95.31
300.827	83.31
301.057	98.31
301.288	91.31
301.518	92.31
301.748	73.31
301.979	107.31
302.209	79.31
302.439	85.31
302.669	76.31
302.9	75.31
303.13	92.31
303.36	80.31
303.59	90.31
303.82	88.31
304.051	87.31
304.281	87.31
304.511	95.31
304.741	86.31
304.971	83.31
305.201	83.31
305.431	84.31
305.661	87.31
305.891	90.31
306.121	96.31
306.352	99.31
306.582	86.31
306.812	88.31
307.042	91.31
307.272	91.31
307.502	86.31
307.731	96.31
307.961	94.31
308.191	100.31
308.421	75.31
308.651	84.31
308.881	82.31
309.111	78.31
309.341	92.31
309.571	84.31
309.8	81.31
310.03	102.31
310.26	82.31
310.49	88.31
310.72	104.31
310.949	95.31
311.179	90.31
311.409	82.31
311.639	83.31
311.868	84.31
312.098	93.31
312.328	94.31
312.557	86.31
312.787	96.31
313.017	99.31
313.246	107.31
313.476	81.31
313.706	85.31
313.935	91.31
314.165	89.31
314.394	94.31
314.624	93.31
314.853	111.31
315.083	96.31
315.312	93.31
315.542	90.31
315.771	102.31
316.001	98.31
316.23	101.31
316.46	98.31
316.689	89.31
316.919	64.31
317.148	90.31
317.377	92.31
317.607	98.31
317.836	87.31
318.065	105.31
318.295	84.31
318.524	88.31
318.753	90.31
318.983	96.31
319.212	88.31
319.441	109.31
319.67	99.31
319.9	87.31
320.129	71.31
320.358	89.31
320.587	83.31
320.816	90.31
321.046	101.31
321.275	88.31
321.504	96.31
321.733	88.31
321.962	105.31
322.191	111.31
322.42	88.31
322.649	85.31
322.878	107.31
323.108	116.31
323.337	103.31
323.566	127.31
323.795	148.31
324.024	194.31
324.253	372.31
324.482	812.31
324.71	1646.31
324.939	2146.31
325.168	780.31
325.397	240.31
325.626	134.31
325.855	126.31
326.084	123.31
326.313	142.31
326.542	146.31
326.77	212.31
326.999	463.31
327.228	920.31
327.457	1688.31
327.686	1339.31
327.914	346.31
328.143	182.31
328.372	138.31
328.6	118.31
328.829	112.31
329.058	114.31
329.287	108.31
329.515	94.31
329.744	92.31
329.972	100.31
330.201	93.31
330.43	115.31
330.658	102.31
330.887	115.31
331.115	111.31
331.344	94.31
331.572	91.31
331.801	88.31
332.03	94.31
332.258	77.31
332.486	85.31
332.715	92.31
332.943	91.31
333.172	89.31
333.4	95.31
333.629	105.31
333.857	110.31
334.085	94.31
334.314	84.31
334.542	108.31
334.771	110.31
334.999	83.31
335.227	87.31
335.455	96.31
335.684	96.31
335.912	85.31
336.14	98.31
336.369	93.31
336.597	73.31
336.825	84.31
337.053	91.31
337.281	102.31
337.51	96.31
337.738	95.31
337.966	84.31
338.194	96.31
338.422	97.31
338.65	75.31
338.878	96.31
339.106	79.31
339.334	87.31
339.562	102.31
339.79	101.31
340.018	94.31
340.246	92.31
340.474	91.31
340.702	89.31
340.93	79.31
341.158	76.31
341.386	79.31
341.614	91.31
341.842	96.31
342.07	79.31
342.298	83.31
342.526	92.31
342.754	94.31
342.981	83.31
343.209	79.31
343.437	90.31
343.665	100.31
343.893	72.31
344.12	96.31
344.348	94.31
344.576	71.31
344.804	84.31
345.031	82.31
345.259	91.31
345.487	83.31
345.714	90.31
345.942	105.31
346.17	104.31
346.397	83.31
346.625	95.31
346.853	87.31
347.08	84.31
347.308	82.31
347.535	93.31
347.763	90.31
347.99	93.31
348.218	98.31
348.445	100.31
348.673	102.31
348.9	92.31
349.128	93.31
349.355	91.31
349.583	83.31
349.81	94.31
350.037	95.31
350.265	97.31
350.492	76.31
350.72	87.31
350.947	98.31
351.174	87.31
351.402	96.31
351.629	106.31
351.856	78.31
352.083	95.31
352.311	95.31
352.538	95.31
352.765	110.31
352.992	106.31
353.22	110.31
353.447	91.31
353.674	98.31
353.901	89.31
354.128	106.31
354.355	106.31
354.583	99.31
354.81	103.31
355.037	97.31
355.264	99.31
355.491	88.31
355.718	94.31
355.945	91.31
356.172	99.31
356.399	109.31
356.626	99.31
356.853	101.31
357.08	98.31
357.307	91.31
357.534	108.31
357.761	91.31
357.988	89.31
358.215	88.31
358.441	97.31
358.668	88.31
358.895	80.31
359.122	93.31
359.349	82.31
359.576	87.31
359.802	89.31
360.029	102.31
360.256	102.31
360.483	94.31
360.709	86.31
360.936	81.31
361.163	87.31
361.39	104.31
361.616	83.31
361.843	95.31
362.07	88.31
362.296	91.31
362.523	90.31
362.749	76.31
362.976	87.31
363.203	83.31
363.429	91.31
363.656	84.31
363.882	80.31
364.109	106.31
364.335	93.31
364.562	95.31
364.788	78.31
365.015	85.31
365.241	102.31
365.468	103.31
365.694	100.31
365.92	102.31
366.147	95.31
366.373	91.31
366.599	91.31
366.826	83.31
367.052	110.31
367.278	92.31
367.505	79.31
367.731	86.31
367.957	87.31
368.184	97.31
368.41	103.31
368.636	100.31
368.862	110.31
369.089	102.31
369.315	84.31
369.541	93.31
369.767	86.31
369.993	79.31
370.219	95.31
370.445	79.31
370.672	98.31
370.898	82.31
371.124	76.31
371.35	93.31
371.576	76.31
371.802	89.31
372.028	83.31
372.254	95.31
372.48	80.31
372.706	91.31
372.932	78.31
373.158	92.31
373.384	104.31
373.61	94.31
373.835	94.31
374.061	93.31
374.287	99.31
374.513	89.31
374.739	86.31
374.965	88.31
375.191	88.31
375.416	88.31
375.642	86.31
375.868	103.31
376.094	87.31
376.319	87.31
376.545	74.31
376.771	88.31
376.997	78.31
377.222	104.31
377.448	89.31
377.674	74.31
377.899	96.31
378.125	95.31
378.35	89.31
378.576	89.31
378.802	99.31
379.027	92.31
379.253	91.31
379.478	96.31
379.704	102.31
379.929	111.31
380.155	103.31
380.38	96.31
380.606	90.31
380.831	112.31
381.057	104.31
381.282	102.31
381.507	105.31
381.733	100.31
381.958	105.31
382.184	102.31
382.409	93.31
382.634	103.31
382.86	111.31
383.085	101.31
383.31	105.31
383.535	107.31
383.761	106.31
383.986	96.31
384.211	102.31
384.436	109.31
384.662	92.31
384.887	112.31
385.112	108.31
385.337	131.31
385.562	129.31
385.787	125.31
386.013	115.31
386.238	131.31
386.463	119.31
386.688	110.31
386.913	116.31
387.138	123.31
387.363	112.31
387.588	109.31
387.813	99.31
388.038	109.31
388.263	121.31
388.488	131.31
388.713	102.31
388.938	100.31
389.163	93.31
389.387	99.31
389.612	98.31
389.837	96.31
390.062	102.31
390.287	88.31
390.512	96.31
390.736	90.31
390.961	78.31
391.186	103.31
391.411	103.31
391.636	84.31
391.86	72.31
392.085	81.31
392.31	96.31
392.534	88.31
392.759	92.31
392.984	75.31
393.208	78.31
393.433	83.31
393.658	80.31
393.882	82.31
394.107	80.31
394.331	82.31
394.556	78.31
394.78	86.31
395.005	95.31
395.229	88.31
395.454	82.31
395.678	84.31
395.903	80.31
396.127	97.31
396.352	94.31
396.576	89.31
396.801	95.31
397.025	96.31
397.249	75.31
397.474	107.31
397.698	71.31
397.922	75.31
398.147	94.31
398.371	80.31
398.595	75.31
398.82	94.31
399.044	91.31
399.268	83.31
399.492	103.31
399.717	91.31
399.941	87.31
400.165	91.31
400.389	89.31
400.613	82.31
400.837	95.31
401.062	89.31
401.286	78.31
401.51	89.31
401.734	76.31
401.958	86.31
402.182	112.31
402.406	141.31
402.63	114.31
402.854	89.31
403.078	90.31
403.302	84.31
403.526	91.31
403.75	83.31
403.974	87.31
404.198	85.31
404.422	77.31
404.645	100.31
404.869	88.31
405.093	80.31
405.317	90.31
405.541	101.31
405.765	87.31
405.988	103.31
406.212	147.31
406.436	172.31
406.66	116.31
406.883	93.31
407.107	91.31
407.331	102.31
407.555	93.31
407.778	84.31
408.002	90.31
408.226	92.31
408.449	94.31
408.673	84.31
408.896	96.31
409.12	90.31
409.344	85.31
409.567	93.31
409.791	99.31
410.014	94.31
410.238	90.31
410.461	86.31
410.685	100.31
410.908	114.31
411.132	113.31
411.355	107.31
411.578	93.31
411.802	85.31
412.025	96.31
412.249	76.31
412.472	99.31
412.695	85.31
412.919	84.31
413.142	93.31
413.365	81.31
413.589	86.31
413.812	99.31
414.035	90.31
414.258	88.31
414.482	96.31
414.705	98.31
414.928	77.31
415.151	89.31
415.374	108.31
415.597	100.31
415.821	96.31
416.044	78.31
416.267	98.31
416.49	100.31
416.713	79.31
416.936	90.31
417.159	92.31
417.382	100.31
417.605	88.31
417.828	82.31
418.051	92.31
418.274	94.31
418.497	95.31
418.72	95.31
418.943	77.31
419.166	87.31
419.389	93.31
419.611	96.31
419.834	75.31
420.057	96.31
420.28	76.31
420.503	83.31
420.726	91.31
420.948	95.31
421.171	93.31
421.394	85.31
421.617	77.31
421.839	84.31
422.062	95.31
422.285	94.31
422.507	98.31
422.73	102.31
422.953	82.31
423.175	79.31
423.398	93.31
423.621	89.31
423.843	92.31
424.066	88.31
424.288	75.31
424.511	86.31
424.733	89.31
424.956	102.31
425.178	96.31
425.401	104.31
425.623	99.31
425.846	82.31
426.068	73.31
426.291	90.31
426.513	81.31
426.735	97.31
426.958	94.31
427.18	92.31
427.402	134.31
427.625	152.31
427.847	118.31
428.069	99.31
428.292	90.31
428.514	86.31
428.736	84.31
428.958	83.31
429.181	91.31
429.403	83.31
429.625	78.31
429.847	72.31
430.069	85.31
430.292	92.31
430.514	105.31
430.736	105.31
430.958	91.31
431.18	90.31
431.402	70.31
431.624	87.31
431.846	92.31
432.068	98.31
432.29	87.31
432.512	92.31
432.734	82.31
432.956	86.31
433.178	92.31
433.4	103.31
433.622	86.31
433.844	88.31
434.066	102.31
434.287	103.31
434.509	101.31
434.731	104.31
434.953	85.31
435.175	83.31
435.397	82.31
435.618	91.31
435.84	94.31
436.062	111.31
436.284	107.31
436.505	94.31
436.727	98.31
436.949	96.31
437.17	95.31
437.392	85.31
437.614	78.31
437.835	106.31
438.057	106.31
438.278	104.31
438.5	95.31
438.721	111.31
438.943	83.31
439.165	75.31
439.386	83.31
439.608	87.31
439.829	90.31
440.05	118.31
440.272	133.31
440.493	92.31
440.715	85.31
440.936	81.31
441.158	89.31
441.379	76.31
441.6	91.31
441.822	84.31
442.043	95.31
442.264	104.31
442.486	96.31
442.707	87.31
442.928	97.31
443.149	109.31
443.371	109.31
443.592	111.31
443.813	105.31
444.034	97.31
444.255	87.31
444.476	74.31
444.698	105.31
444.919	96.31
445.14	136.31
445.361	101.31
445.582	108.31
445.803	133.31
446.024	120.31
446.245	133.31
446.466	99.31
446.687	96.31
446.908	98.31
447.129	90.31
447.35	84.31
447.571	90.31
447.792	90.31
448.013	92.31
448.234	98.31
448.455	100.31
448.675	104.31
448.896	110.31
449.117	95.31
449.338	107.31
449.559	118.31
449.779	115.31
450	82.31
450.221	87.31
450.442	90.31
450.662	99.31
450.883	107.31
451.104	104.31
451.324	90.31
451.545	87.31
451.766	92.31
451.986	95.31
452.207	82.31
452.428	113.31
452.648	91.31
452.869	79.31
453.089	110.31
453.31	113.31
453.53	74.31
453.751	91.31
453.971	93.31
454.192	91.31
454.412	81.31
454.633	83.31
454.853	93.31
455.073	91.31
455.294	94.31
455.514	73.31
455.734	82.31
455.955	80.31
456.175	82.31
456.395	87.31
456.616	79.31
456.836	78.31
457.056	95.31
457.276	90.31
457.497	77.31
457.717	98.31
457.937	100.31
458.157	87.31
458.377	87.31
458.598	83.31
458.818	123.31
459.038	123.31
459.258	115.31
459.478	91.31
459.698	81.31
459.918	86.31
460.138	92.31
460.358	77.31
460.578	85.31
460.798	77.31
461.018	94.31
461.238	79.31
461.458	79.31
461.678	85.31
461.898	75.31
462.118	73.31
462.338	86.31
462.558	84.31
462.777	89.31
462.997	84.31
463.217	83.31
463.437	79.31
463.657	76.31
463.876	73.31
464.096	86.31
464.316	90.31
464.536	85.31
464.755	91.31
464.975	91.31
465.195	143.31
465.414	136.31
465.634	87.31
465.854	95.31
466.073	86.31
466.293	86.31
466.512	72.31
466.732	98.31
466.951	87.31
467.171	94.31
467.391	90.31
467.61	100.31
467.829	108.31
468.049	80.31
468.268	83.31
468.488	84.31
468.707	70.31
468.927	74.31
469.146	77.31
469.365	83.31
469.585	92.31
469.804	98.31
470.023	91.31
470.243	95.31
470.462	107.31
470.681	94.31
470.901	82.31
471.12	101.31
471.339	85.31
471.558	66.31
471.777	84.31
471.997	90.31
472.216	86.31
472.435	102.31
472.654	78.31
472.873	80.31
473.092	86.31
473.311	90.31
473.53	87.31
473.749	84.31
473.968	94.31
474.187	91.31
474.406	78.31
474.625	100.31
474.844	92.31
475.063	82.31
475.282	75.31
475.501	93.31
475.72	71.31
475.939	84.31
476.158	90.31
476.377	92.31
476.596	87.31
476.814	87.31
477.033	92.31
477.252	80.31
477.471	82.31
477.69	84.31
477.908	81.31
478.127	89.31
478.346	75.31
478.564	88.31
478.783	93.31
479.002	91.31
479.22	92.31
479.439	86.31
479.658	99.31
479.876	92.31
480.095	76.31
480.313	95.31
480.532	87.31
480.751	91.31
480.969	96.31
481.188	113.31
481.406	109.31
481.624	104.31
481.843	87.31
482.061	83.31
482.28	100.31
482.498	85.31
482.717	98.31
482.935	93.31
483.153	102.31
483.372	79.31
483.59	88.31
483.808	96.31
484.027	104.31
484.245	84.31
484.463	96.31
484.681	89.31
484.9	82.31
485.118	88.31
485.336	86.31
485.554	88.31
485.772	94.31
485.99	88.31
486.209	83.31
486.427	96.31
486.645	113.31
486.863	105.31
487.081	107.31
487.299	107.31
487.517	104.31
487.735	99.31
487.953	86.31
488.171	95.31
488.389	83.31
488.607	112.31
488.825	89.31
489.043	91.31
489.261	85.31
489.479	71.31
489.696	83.31
489.914	93.31
490.132	88.31
490.35	86.31
490.568	74.31
490.786	85.31
491.003	82.31
491.221	82.31
491.439	80.31
491.657	85.31
491.874	107.31
492.092	99.31
492.31	91.31
492.527	81.31
492.745	88.31
492.963	102.31
493.18	87.31
493.398	86.31
493.615	87.31
493.833	100.31
494.05	92.31
494.268	91.31
494.485	86.31
494.703	72.31
494.92	99.31
495.138	88.31
495.355	98.31
495.573	80.31
495.79	99.31
496.008	88.31
496.225	88.31
496.442	90.31
496.66	78.31
496.877	75.31
497.094	96.31
497.312	94.31
497.529	92.31
497.746	83.31
497.963	80.31
498.181	85.31
498.398	94.31
498.615	93.31
498.832	90.31
499.049	98.31
499.267	89.31
499.484	72.31
499.701	80.31
499.918	87.31
500.135	100.31
500.352	93.31
500.569	87.31
500.786	83.31
501.003	91.31
501.22	82.31
501.437	84.31
501.654	98.31
501.871	88.31
502.088	77.31
502.305	78.31
502.522	94.31
502.739	83.31
502.956	92.31
503.172	89.31
503.389	86.31
503.606	103.31
503.823	98.31
504.04	84.31
504.256	94.31
504.473	96.31
504.69	105.31
504.907	80.31
505.123	90.31
505.34	94.31
505.557	81.31
505.773	98.31
505.99	94.31
506.207	97.31
506.423	79.31
506.64	101.31
506.856	90.31
507.073	85.31
507.289	94.31
507.506	98.31
507.722	110.31
507.939	115.31
508.155	79.31
508.372	102.31
508.588	86.31
508.805	99.31
509.021	100.31
509.238	91.31
509.454	96.31
509.67	95.31
509.887	105.31
510.103	124.31
510.319	184.31
510.536	663.31
510.752	1990.31
510.968	553.31
511.184	146.31
511.401	114.31
511.617	89.31
511.833	86.31
512.049	91.31
512.265	92.31
512.481	101.31
512.698	96.31
512.914	109.31
513.13	99.31
513.346	80.31
513.562	100.31
513.778	95.31
513.994	93.31
514.21	89.31
514.426	107.31
514.642	121.31
514.858	101.31
515.074	152.31
515.29	362.31
515.506	1132.31
515.721	447.31
515.937	137.31
516.153	101.31
516.369	91.31
516.585	93.31
