Data from Uncirc_1999_H10_HRD10591_00028.txt Node
Date: Wed Jan 03 11:22:10 EST 2024
User: Yrep
Spectrometer: HR+D1059
Trigger mode: 1
Integration Time (sec): 1.000000E-1
Scans to average: 1
Electric dark correction enabled: true
Nonlinearity correction enabled: false
Boxcar width: 0
XAxis mode: Wavelengths
Number of Pixels in Spectrum: 2048
>>>>>Begin Spectral Data<<<<<
223.165	-17.25
223.4	-17.25
223.635	-17.25
223.869	-14.25
224.104	-33.25
224.338	-21.25
224.573	-13.25
224.808	-19.25
225.042	-8.25
225.277	9.75
225.511	11.75
225.746	8.75
225.98	16.75
226.215	19.75
226.449	14.75
226.683	1.75
226.918	20.75
227.152	22.75
227.387	36.75
227.621	30.75
227.856	54.75
228.09	55.75
228.324	59.75
228.559	51.75
228.793	54.75
229.027	72.75
229.262	70.75
229.496	73.75
229.73	76.75
229.964	66.75
230.199	66.75
230.433	77.75
230.667	71.75
230.901	81.75
231.136	80.75
231.37	80.75
231.604	92.75
231.838	76.75
232.072	75.75
232.306	92.75
232.541	84.75
232.775	93.75
233.009	80.75
233.243	80.75
233.477	79.75
233.711	84.75
233.945	81.75
234.179	93.75
234.413	88.75
234.647	75.75
234.881	80.75
235.115	77.75
235.349	79.75
235.583	61.75
235.817	86.75
236.051	83.75
236.285	93.75
236.519	88.75
236.753	77.75
236.987	78.75
237.221	87.75
237.455	76.75
237.689	67.75
237.922	87.75
238.156	74.75
238.39	79.75
238.624	76.75
238.858	80.75
239.091	78.75
239.325	84.75
239.559	105.75
239.793	88.75
240.027	74.75
240.26	79.75
240.494	70.75
240.728	80.75
240.961	85.75
241.195	77.75
241.429	75.75
241.662	72.75
241.896	76.75
242.13	74.75
242.363	78.75
242.597	66.75
242.83	84.75
243.064	86.75
243.298	75.75
243.531	74.75
243.765	70.75
243.998	79.75
244.232	93.75
244.465	84.75
244.699	85.75
244.932	82.75
245.166	73.75
245.399	82.75
245.633	88.75
245.866	65.75
246.099	76.75
246.333	74.75
246.566	87.75
246.8	73.75
247.033	85.75
247.266	79.75
247.5	89.75
247.733	83.75
247.966	64.75
248.2	70.75
248.433	78.75
248.666	78.75
248.899	80.75
249.133	96.75
249.366	84.75
249.599	86.75
249.832	80.75
250.066	83.75
250.299	86.75
250.532	76.75
250.765	90.75
250.998	74.75
251.231	73.75
251.465	90.75
251.698	81.75
251.931	86.75
252.164	80.75
252.397	70.75
252.63	63.75
252.863	81.75
253.096	92.75
253.329	79.75
253.562	88.75
253.795	82.75
254.028	78.75
254.261	66.75
254.494	80.75
254.727	85.75
254.96	83.75
255.193	81.75
255.426	75.75
255.659	80.75
255.892	80.75
256.124	66.75
256.357	89.75
256.59	83.75
256.823	83.75
257.056	76.75
257.289	80.75
257.521	87.75
257.754	73.75
257.987	83.75
258.22	84.75
258.452	90.75
258.685	83.75
258.918	91.75
259.151	82.75
259.383	80.75
259.616	83.75
259.849	75.75
260.081	81.75
260.314	75.75
260.547	66.75
260.779	70.75
261.012	86.75
261.244	73.75
261.477	90.75
261.71	97.75
261.942	113.75
262.175	89.75
262.407	82.75
262.64	81.75
262.872	83.75
263.105	91.75
263.337	86.75
263.57	78.75
263.802	73.75
264.035	94.75
264.267	74.75
264.499	76.75
264.732	76.75
264.964	85.75
265.197	83.75
265.429	97.75
265.661	90.75
265.894	85.75
266.126	101.75
266.358	86.75
266.591	88.75
266.823	81.75
267.055	86.75
267.287	88.75
267.52	83.75
267.752	86.75
267.984	78.75
268.216	89.75
268.448	90.75
268.681	84.75
268.913	82.75
269.145	74.75
269.377	85.75
269.609	71.75
269.841	78.75
270.073	83.75
270.306	92.75
270.538	70.75
270.77	100.75
271.002	74.75
271.234	75.75
271.466	88.75
271.698	95.75
271.93	90.75
272.162	88.75
272.394	83.75
272.626	101.75
272.858	86.75
273.09	90.75
273.322	79.75
273.553	88.75
273.785	92.75
274.017	83.75
274.249	90.75
274.481	83.75
274.713	71.75
274.945	97.75
275.176	99.75
275.408	98.75
275.64	86.75
275.872	92.75
276.104	84.75
276.335	95.75
276.567	108.75
276.799	104.75
277.031	92.75
277.262	103.75
277.494	73.75
277.726	84.75
277.957	80.75
278.189	84.75
278.421	88.75
278.652	89.75
278.884	84.75
279.115	81.75
279.347	95.75
279.579	78.75
279.81	78.75
280.042	92.75
280.273	99.75
280.505	75.75
280.736	82.75
280.968	96.75
281.199	87.75
281.431	103.75
281.662	83.75
281.894	81.75
282.125	82.75
282.356	121.75
282.588	125.75
282.819	105.75
283.051	86.75
283.282	89.75
283.513	82.75
283.745	83.75
283.976	83.75
284.207	78.75
284.439	86.75
284.67	88.75
284.901	93.75
285.132	84.75
285.364	90.75
285.595	85.75
285.826	103.75
286.057	84.75
286.288	78.75
286.52	86.75
286.751	85.75
286.982	86.75
287.213	86.75
287.444	97.75
287.675	83.75
287.906	88.75
288.138	106.75
288.369	88.75
288.6	107.75
288.831	87.75
289.062	85.75
289.293	82.75
289.524	76.75
289.755	100.75
289.986	86.75
290.217	78.75
290.448	79.75
290.679	91.75
290.91	88.75
291.141	87.75
291.371	81.75
291.602	90.75
291.833	83.75
292.064	86.75
292.295	86.75
292.526	79.75
292.757	92.75
292.987	88.75
293.218	89.75
293.449	76.75
293.68	96.75
293.91	81.75
294.141	84.75
294.372	77.75
294.603	92.75
294.833	96.75
295.064	95.75
295.295	81.75
295.525	93.75
295.756	102.75
295.987	110.75
296.217	114.75
296.448	121.75
296.679	95.75
296.909	84.75
297.14	95.75
297.37	70.75
297.601	91.75
297.831	92.75
298.062	92.75
298.292	89.75
298.523	92.75
298.753	90.75
298.984	77.75
299.214	73.75
299.445	91.75
299.675	105.75
299.905	101.75
300.136	86.75
300.366	98.75
300.597	94.75
300.827	84.75
301.057	92.75
301.288	90.75
301.518	86.75
301.748	95.75
301.979	117.75
302.209	82.75
302.439	95.75
302.669	86.75
302.9	89.75
303.13	78.75
303.36	94.75
303.59	107.75
303.82	106.75
304.051	89.75
304.281	98.75
304.511	90.75
304.741	78.75
304.971	91.75
305.201	84.75
305.431	78.75
305.661	91.75
305.891	86.75
306.121	81.75
306.352	103.75
306.582	93.75
306.812	82.75
307.042	95.75
307.272	83.75
307.502	80.75
307.731	90.75
307.961	81.75
308.191	102.75
308.421	89.75
308.651	86.75
308.881	93.75
309.111	88.75
309.341	111.75
309.571	83.75
309.8	83.75
310.03	103.75
310.26	105.75
310.49	98.75
310.72	99.75
310.949	103.75
311.179	100.75
311.409	100.75
311.639	95.75
311.868	84.75
312.098	93.75
312.328	92.75
312.557	98.75
312.787	116.75
313.017	89.75
313.246	90.75
313.476	99.75
313.706	83.75
313.935	83.75
314.165	91.75
314.394	82.75
314.624	100.75
314.853	94.75
315.083	107.75
315.312	94.75
315.542	89.75
315.771	89.75
316.001	81.75
316.23	86.75
316.46	87.75
316.689	93.75
316.919	93.75
317.148	103.75
317.377	94.75
317.607	74.75
317.836	92.75
318.065	89.75
318.295	86.75
318.524	88.75
318.753	84.75
318.983	98.75
319.212	97.75
319.441	100.75
319.67	99.75
319.9	90.75
320.129	106.75
320.358	100.75
320.587	83.75
320.816	91.75
321.046	111.75
321.275	88.75
321.504	98.75
321.733	92.75
321.962	86.75
322.191	100.75
322.42	104.75
322.649	111.75
322.878	126.75
323.108	116.75
323.337	110.75
323.566	132.75
323.795	144.75
324.024	208.75
324.253	382.75
324.482	808.75
324.71	1598.75
324.939	2129.75
325.168	798.75
325.397	240.75
325.626	139.75
325.855	129.75
326.084	137.75
326.313	129.75
326.542	145.75
326.77	221.75
326.999	458.75
327.228	942.75
327.457	1660.75
327.686	1331.75
327.914	354.75
328.143	173.75
328.372	148.75
328.6	128.75
328.829	108.75
329.058	120.75
329.287	128.75
329.515	111.75
329.744	96.75
329.972	96.75
330.201	101.75
330.43	101.75
330.658	119.75
330.887	127.75
331.115	106.75
331.344	94.75
331.572	96.75
331.801	104.75
332.03	110.75
332.258	105.75
332.486	76.75
332.715	84.75
332.943	94.75
333.172	98.75
333.4	98.75
333.629	107.75
333.857	122.75
334.085	115.75
334.314	102.75
334.542	98.75
334.771	114.75
334.999	99.75
335.227	88.75
335.455	107.75
335.684	95.75
335.912	112.75
336.14	98.75
336.369	95.75
336.597	102.75
336.825	92.75
337.053	79.75
337.281	99.75
337.51	92.75
337.738	90.75
337.966	80.75
338.194	84.75
338.422	93.75
338.65	77.75
338.878	91.75
339.106	92.75
339.334	81.75
339.562	97.75
339.79	83.75
340.018	82.75
340.246	77.75
340.474	102.75
340.702	90.75
340.93	98.75
341.158	98.75
341.386	109.75
341.614	96.75
341.842	99.75
342.07	105.75
342.298	97.75
342.526	80.75
342.754	100.75
342.981	102.75
343.209	108.75
343.437	90.75
343.665	92.75
343.893	94.75
344.12	104.75
344.348	96.75
344.576	89.75
344.804	98.75
345.031	93.75
345.259	106.75
345.487	89.75
345.714	98.75
345.942	93.75
346.17	94.75
346.397	79.75
346.625	93.75
346.853	108.75
347.08	81.75
347.308	85.75
347.535	115.75
347.763	106.75
347.99	96.75
348.218	92.75
348.445	95.75
348.673	94.75
348.9	94.75
349.128	99.75
349.355	110.75
349.583	96.75
349.81	98.75
350.037	92.75
350.265	102.75
350.492	92.75
350.72	103.75
350.947	100.75
351.174	111.75
351.402	90.75
351.629	95.75
351.856	94.75
352.083	94.75
352.311	101.75
352.538	103.75
352.765	88.75
352.992	123.75
353.22	94.75
353.447	108.75
353.674	106.75
353.901	99.75
354.128	95.75
354.355	95.75
354.583	92.75
354.81	98.75
355.037	101.75
355.264	80.75
355.491	95.75
355.718	97.75
355.945	104.75
356.172	90.75
356.399	106.75
356.626	102.75
356.853	98.75
357.08	86.75
357.307	95.75
357.534	72.75
357.761	104.75
357.988	98.75
358.215	99.75
358.441	86.75
358.668	101.75
358.895	95.75
359.122	83.75
359.349	106.75
359.576	80.75
359.802	103.75
360.029	106.75
360.256	104.75
360.483	98.75
360.709	99.75
360.936	100.75
361.163	99.75
361.39	95.75
361.616	91.75
361.843	82.75
362.07	84.75
362.296	92.75
362.523	93.75
362.749	76.75
362.976	96.75
363.203	103.75
363.429	84.75
363.656	95.75
363.882	97.75
364.109	102.75
364.335	87.75
364.562	90.75
364.788	89.75
365.015	87.75
365.241	98.75
365.468	102.75
365.694	101.75
365.92	99.75
366.147	87.75
366.373	87.75
366.599	92.75
366.826	82.75
367.052	92.75
367.278	98.75
367.505	104.75
367.731	98.75
367.957	97.75
368.184	90.75
368.41	86.75
368.636	110.75
368.862	109.75
369.089	99.75
369.315	101.75
369.541	97.75
369.767	77.75
369.993	94.75
370.219	91.75
370.445	81.75
370.672	94.75
370.898	86.75
371.124	77.75
371.35	82.75
371.576	77.75
371.802	85.75
372.028	79.75
372.254	88.75
372.48	87.75
372.706	83.75
372.932	97.75
373.158	90.75
373.384	102.75
373.61	100.75
373.835	84.75
374.061	74.75
374.287	97.75
374.513	91.75
374.739	96.75
374.965	87.75
375.191	91.75
375.416	95.75
375.642	95.75
375.868	95.75
376.094	99.75
376.319	97.75
376.545	74.75
376.771	98.75
376.997	88.75
377.222	92.75
377.448	109.75
377.674	107.75
377.899	93.75
378.125	107.75
378.35	92.75
378.576	94.75
378.802	105.75
379.027	90.75
379.253	108.75
379.478	90.75
379.704	100.75
379.929	94.75
380.155	109.75
380.38	98.75
380.606	108.75
380.831	104.75
381.057	112.75
381.282	120.75
381.507	104.75
381.733	108.75
381.958	102.75
382.184	120.75
382.409	116.75
382.634	111.75
382.86	92.75
383.085	95.75
383.31	124.75
383.535	110.75
383.761	120.75
383.986	104.75
384.211	104.75
384.436	127.75
384.662	134.75
384.887	115.75
385.112	113.75
385.337	121.75
385.562	120.75
385.787	111.75
386.013	107.75
386.238	115.75
386.463	116.75
386.688	109.75
386.913	117.75
387.138	116.75
387.363	107.75
387.588	110.75
387.813	110.75
388.038	113.75
388.263	127.75
388.488	123.75
388.713	102.75
388.938	100.75
389.163	99.75
389.387	103.75
389.612	111.75
389.837	101.75
390.062	95.75
390.287	102.75
390.512	83.75
390.736	100.75
390.961	105.75
391.186	102.75
391.411	100.75
391.636	88.75
391.86	91.75
392.085	85.75
392.31	88.75
392.534	92.75
392.759	83.75
392.984	92.75
393.208	90.75
393.433	85.75
393.658	94.75
393.882	80.75
394.107	94.75
394.331	84.75
394.556	95.75
394.78	91.75
395.005	90.75
395.229	96.75
395.454	100.75
395.678	83.75
395.903	97.75
396.127	89.75
396.352	78.75
396.576	87.75
396.801	79.75
397.025	89.75
397.249	88.75
397.474	88.75
397.698	86.75
397.922	90.75
398.147	82.75
398.371	81.75
398.595	94.75
398.82	95.75
399.044	87.75
399.268	78.75
399.492	83.75
399.717	90.75
399.941	92.75
400.165	94.75
400.389	79.75
400.613	89.75
400.837	93.75
401.062	88.75
401.286	83.75
401.51	79.75
401.734	83.75
401.958	94.75
402.182	125.75
402.406	134.75
402.63	118.75
402.854	96.75
403.078	90.75
403.302	81.75
403.526	89.75
403.75	80.75
403.974	86.75
404.198	92.75
404.422	90.75
404.645	92.75
404.869	104.75
405.093	98.75
405.317	101.75
405.541	96.75
405.765	104.75
405.988	129.75
406.212	163.75
406.436	202.75
406.66	138.75
406.883	95.75
407.107	97.75
407.331	106.75
407.555	95.75
407.778	99.75
408.002	99.75
408.226	87.75
408.449	93.75
408.673	89.75
408.896	96.75
409.12	86.75
409.344	76.75
409.567	78.75
409.791	103.75
410.014	98.75
410.238	88.75
410.461	81.75
410.685	99.75
410.908	91.75
411.132	94.75
411.355	96.75
411.578	103.75
411.802	92.75
412.025	88.75
412.249	96.75
412.472	103.75
412.695	93.75
412.919	86.75
413.142	90.75
413.365	91.75
413.589	90.75
413.812	87.75
414.035	87.75
414.258	92.75
414.482	90.75
414.705	80.75
414.928	88.75
415.151	100.75
415.374	108.75
415.597	95.75
415.821	98.75
416.044	90.75
416.267	80.75
416.49	97.75
416.713	90.75
416.936	96.75
417.159	94.75
417.382	99.75
417.605	98.75
417.828	89.75
418.051	89.75
418.274	93.75
418.497	87.75
418.72	88.75
418.943	88.75
419.166	73.75
419.389	88.75
419.611	85.75
419.834	98.75
420.057	99.75
420.28	83.75
420.503	88.75
420.726	88.75
420.948	92.75
421.171	94.75
421.394	93.75
421.617	84.75
421.839	80.75
422.062	96.75
422.285	97.75
422.507	100.75
422.73	96.75
422.953	92.75
423.175	95.75
423.398	103.75
423.621	92.75
423.843	94.75
424.066	76.75
424.288	77.75
424.511	82.75
424.733	108.75
424.956	119.75
425.178	103.75
425.401	106.75
425.623	94.75
425.846	83.75
426.068	100.75
426.291	96.75
426.513	102.75
426.735	96.75
426.958	111.75
427.18	106.75
427.402	120.75
427.625	152.75
427.847	116.75
428.069	91.75
428.292	86.75
428.514	103.75
428.736	90.75
428.958	79.75
429.181	84.75
429.403	99.75
429.625	87.75
429.847	85.75
430.069	100.75
430.292	82.75
430.514	88.75
430.736	91.75
430.958	84.75
431.18	102.75
431.402	94.75
431.624	83.75
431.846	95.75
432.068	79.75
432.29	103.75
432.512	97.75
432.734	84.75
432.956	96.75
433.178	102.75
433.4	86.75
433.622	96.75
433.844	106.75
434.066	97.75
434.287	84.75
434.509	96.75
434.731	90.75
434.953	92.75
435.175	86.75
435.397	94.75
435.618	92.75
435.84	101.75
436.062	115.75
436.284	124.75
436.505	87.75
436.727	99.75
436.949	104.75
437.17	98.75
437.392	98.75
437.614	83.75
437.835	100.75
438.057	119.75
438.278	106.75
438.5	95.75
438.721	118.75
438.943	116.75
439.165	99.75
439.386	97.75
439.608	106.75
439.829	95.75
440.05	112.75
440.272	126.75
440.493	109.75
440.715	97.75
440.936	88.75
441.158	77.75
441.379	111.75
441.6	103.75
441.822	95.75
442.043	98.75
442.264	103.75
442.486	88.75
442.707	98.75
442.928	97.75
443.149	128.75
443.371	118.75
443.592	108.75
443.813	113.75
444.034	96.75
444.255	94.75
444.476	88.75
444.698	63.75
444.919	80.75
445.14	134.75
445.361	128.75
445.582	102.75
445.803	122.75
446.024	127.75
446.245	128.75
446.466	92.75
446.687	78.75
446.908	85.75
447.129	96.75
447.35	96.75
447.571	96.75
447.792	87.75
448.013	105.75
448.234	105.75
448.455	95.75
448.675	110.75
448.896	110.75
449.117	114.75
449.338	104.75
449.559	129.75
449.779	135.75
450	94.75
450.221	106.75
450.442	82.75
450.662	100.75
450.883	108.75
451.104	112.75
451.324	83.75
451.545	90.75
451.766	90.75
451.986	90.75
452.207	83.75
452.428	107.75
452.648	92.75
452.869	102.75
453.089	111.75
453.31	100.75
453.53	94.75
453.751	83.75
453.971	91.75
454.192	89.75
454.412	111.75
454.633	100.75
454.853	94.75
455.073	87.75
455.294	102.75
455.514	95.75
455.734	96.75
455.955	98.75
456.175	88.75
456.395	88.75
456.616	82.75
456.836	90.75
457.056	71.75
457.276	76.75
457.497	99.75
457.717	88.75
457.937	82.75
458.157	72.75
458.377	74.75
458.598	96.75
458.818	151.75
459.038	150.75
459.258	105.75
459.478	84.75
459.698	90.75
459.918	79.75
460.138	73.75
460.358	75.75
460.578	93.75
460.798	86.75
461.018	96.75
461.238	92.75
461.458	97.75
461.678	86.75
461.898	90.75
462.118	84.75
462.338	87.75
462.558	86.75
462.777	93.75
462.997	86.75
463.217	104.75
463.437	77.75
463.657	88.75
463.876	88.75
464.096	91.75
464.316	81.75
464.536	98.75
464.755	106.75
464.975	104.75
465.195	126.75
465.414	143.75
465.634	95.75
465.854	96.75
466.073	90.75
466.293	90.75
466.512	89.75
466.732	80.75
466.951	84.75
467.171	108.75
467.391	111.75
467.61	93.75
467.829	99.75
468.049	97.75
468.268	109.75
468.488	92.75
468.707	99.75
468.927	82.75
469.146	87.75
469.365	98.75
469.585	82.75
469.804	87.75
470.023	89.75
470.243	109.75
470.462	103.75
470.681	105.75
470.901	91.75
471.12	86.75
471.339	90.75
471.558	86.75
471.777	88.75
471.997	77.75
472.216	104.75
472.435	107.75
472.654	83.75
472.873	91.75
473.092	86.75
473.311	78.75
473.53	86.75
473.749	76.75
473.968	100.75
474.187	96.75
474.406	95.75
474.625	92.75
474.844	82.75
475.063	86.75
475.282	96.75
475.501	71.75
475.72	83.75
475.939	83.75
476.158	92.75
476.377	95.75
476.596	97.75
476.814	80.75
477.033	89.75
477.252	81.75
477.471	90.75
477.69	103.75
477.908	87.75
478.127	95.75
478.346	89.75
478.564	93.75
478.783	105.75
479.002	102.75
479.22	99.75
479.439	98.75
479.658	93.75
479.876	86.75
480.095	89.75
480.313	95.75
480.532	92.75
480.751	94.75
480.969	107.75
481.188	121.75
481.406	105.75
481.624	87.75
481.843	91.75
482.061	93.75
482.28	99.75
482.498	87.75
482.717	81.75
482.935	94.75
483.153	96.75
483.372	92.75
483.59	91.75
483.808	98.75
484.027	98.75
484.245	100.75
484.463	95.75
484.681	97.75
484.9	78.75
485.118	100.75
485.336	107.75
485.554	98.75
485.772	109.75
485.99	105.75
486.209	114.75
486.427	103.75
486.645	108.75
486.863	99.75
487.081	103.75
487.299	98.75
487.517	94.75
487.735	89.75
487.953	104.75
488.171	89.75
488.389	94.75
488.607	100.75
488.825	105.75
489.043	88.75
489.261	87.75
489.479	96.75
489.696	108.75
489.914	106.75
490.132	84.75
490.35	103.75
490.568	74.75
490.786	97.75
491.003	84.75
491.221	98.75
491.439	104.75
491.657	99.75
491.874	93.75
492.092	104.75
492.31	90.75
492.527	94.75
492.745	76.75
492.963	85.75
493.18	94.75
493.398	96.75
493.615	95.75
493.833	99.75
494.05	97.75
494.268	88.75
494.485	89.75
494.703	76.75
494.92	95.75
495.138	80.75
495.355	74.75
495.573	84.75
495.79	84.75
496.008	117.75
496.225	102.75
496.442	89.75
496.66	88.75
496.877	84.75
497.094	103.75
497.312	91.75
497.529	82.75
497.746	83.75
497.963	102.75
498.181	93.75
498.398	91.75
498.615	104.75
498.832	100.75
499.049	94.75
499.267	119.75
499.484	94.75
499.701	86.75
499.918	98.75
500.135	96.75
500.352	90.75
500.569	92.75
500.786	89.75
501.003	92.75
501.22	94.75
501.437	102.75
501.654	99.75
501.871	102.75
502.088	97.75
502.305	97.75
502.522	99.75
502.739	93.75
502.956	93.75
503.172	99.75
503.389	92.75
503.606	101.75
503.823	90.75
504.04	101.75
504.256	104.75
504.473	104.75
504.69	98.75
504.907	78.75
505.123	82.75
505.34	90.75
505.557	94.75
505.773	99.75
505.99	98.75
506.207	105.75
506.423	88.75
506.64	92.75
506.856	102.75
507.073	97.75
507.289	88.75
507.506	95.75
507.722	122.75
507.939	108.75
508.155	91.75
508.372	102.75
508.588	91.75
508.805	111.75
509.021	122.75
509.238	85.75
509.454	96.75
509.67	106.75
509.887	111.75
510.103	127.75
510.319	205.75
510.536	658.75
510.752	2060.75
510.968	593.75
511.184	152.75
511.401	92.75
511.617	98.75
511.833	96.75
512.049	81.75
512.265	78.75
512.481	95.75
512.698	99.75
512.914	92.75
513.13	93.75
513.346	98.75
513.562	88.75
513.778	86.75
513.994	84.75
514.21	90.75
514.426	108.75
514.642	136.75
514.858	118.75
515.074	154.75
515.29	390.75
