Data from Uncirc_1999_H10_HRD10591_00060.txt Node
Date: Wed Jan 03 11:22:17 EST 2024
User: Yrep
Spectrometer: HR+D1059
Trigger mode: 1
Integration Time (sec): 1.000000E-1
Scans to average: 1
Electric dark correction enabled: true
Nonlinearity correction enabled: false
Boxcar width: 0
XAxis mode: Wavelengths
Number of Pixels in Spectrum: 2048
>>>>>Begin Spectral Data<<<<<
223.165	-16
223.4	-16
223.635	-16
223.869	-16
224.104	-16
224.338	-17
224.573	-14
224.808	-15
225.042	-10
225.277	7
225.511	3
225.746	-12
225.98	5
226.215	-2
226.449	10
226.683	33
226.918	30
227.152	30
227.387	20
227.621	37
227.856	53
228.09	50
228.324	54
228.559	61
228.793	53
229.027	60
229.262	66
229.496	61
229.73	73
229.964	77
230.199	73
230.433	69
230.667	76
230.901	92
231.136	89
231.37	76
231.604	75
231.838	76
232.072	71
232.306	81
232.541	86
232.775	79
233.009	72
233.243	93
233.477	83
233.711	80
233.945	88
234.179	77
234.413	79
234.647	71
234.881	76
235.115	78
235.349	80
235.583	91
235.817	83
236.051	68
236.285	70
236.519	70
236.753	74
236.987	85
237.221	84
237.455	77
237.689	82
237.922	67
238.156	84
238.39	74
238.624	71
238.858	79
239.091	75
239.325	76
239.559	87
239.793	77
240.027	72
240.26	85
240.494	69
240.728	87
240.961	75
241.195	85
241.429	72
241.662	77
241.896	84
242.13	84
242.363	77
242.597	58
242.83	78
243.064	61
243.298	69
243.531	83
243.765	95
243.998	92
244.232	84
244.465	84
244.699	91
244.932	81
245.166	78
245.399	84
245.633	74
245.866	77
246.099	82
246.333	69
246.566	86
246.8	83
247.033	72
247.266	80
247.5	80
247.733	93
247.966	93
248.2	74
248.433	66
248.666	69
248.899	77
249.133	90
249.366	99
249.599	94
249.832	84
250.066	77
250.299	72
250.532	79
250.765	73
250.998	84
251.231	87
251.465	75
251.698	76
251.931	76
252.164	97
252.397	84
252.63	80
252.863	71
253.096	72
253.329	80
253.562	72
253.795	68
254.028	84
254.261	79
254.494	84
254.727	82
254.96	75
255.193	85
255.426	92
255.659	74
255.892	74
256.124	74
256.357	89
256.59	88
256.823	72
257.056	76
257.289	81
257.521	83
257.754	79
257.987	87
258.22	73
258.452	69
258.685	77
258.918	80
259.151	75
259.383	81
259.616	92
259.849	91
260.081	87
260.314	79
260.547	72
260.779	88
261.012	85
261.244	71
261.477	75
261.71	94
261.942	124
262.175	111
262.407	107
262.64	77
262.872	82
263.105	84
263.337	86
263.57	82
263.802	84
264.035	71
264.267	84
264.499	94
264.732	80
264.964	83
265.197	92
265.429	82
265.661	75
265.894	84
266.126	77
266.358	76
266.591	91
266.823	95
267.055	76
267.287	84
267.52	67
267.752	81
267.984	104
268.216	87
268.448	59
268.681	75
268.913	86
269.145	91
269.377	82
269.609	93
269.841	95
270.073	80
270.306	84
270.538	84
270.77	82
271.002	88
271.234	71
271.466	94
271.698	89
271.93	78
272.162	77
272.394	79
272.626	80
272.858	74
273.09	89
273.322	73
273.553	86
273.785	67
274.017	86
274.249	97
274.481	77
274.713	83
274.945	78
275.176	78
275.408	88
275.64	84
275.872	100
276.104	88
276.335	82
276.567	75
276.799	94
277.031	88
277.262	94
277.494	81
277.726	82
277.957	92
278.189	88
278.421	79
278.652	80
278.884	80
279.115	97
279.347	83
279.579	85
279.81	93
280.042	88
280.273	91
280.505	86
280.736	97
280.968	76
281.199	89
281.431	97
281.662	87
281.894	91
282.125	107
282.356	104
282.588	119
282.819	116
283.051	90
283.282	80
283.513	85
283.745	92
283.976	94
284.207	92
284.439	92
284.67	80
284.901	80
285.132	70
285.364	93
285.595	95
285.826	87
286.057	93
286.288	85
286.52	91
286.751	85
286.982	92
287.213	86
287.444	96
287.675	82
287.906	83
288.138	71
288.369	83
288.6	68
288.831	67
289.062	75
289.293	94
289.524	91
289.755	87
289.986	93
290.217	85
290.448	83
290.679	85
290.91	85
291.141	75
291.371	89
291.602	88
291.833	89
292.064	95
292.295	82
292.526	84
292.757	87
292.987	87
293.218	93
293.449	86
293.68	97
293.91	96
294.141	100
294.372	86
294.603	89
294.833	88
295.064	83
295.295	91
295.525	97
295.756	104
295.987	118
296.217	141
296.448	124
296.679	91
296.909	92
297.14	76
297.37	76
297.601	89
297.831	81
298.062	93
298.292	82
298.523	71
298.753	91
298.984	99
299.214	96
299.445	107
299.675	83
299.905	88
300.136	87
300.366	89
300.597	82
300.827	78
301.057	87
301.288	92
301.518	90
301.748	89
301.979	104
302.209	96
302.439	88
302.669	87
302.9	70
303.13	83
303.36	101
303.59	100
303.82	92
304.051	88
304.281	95
304.511	84
304.741	84
304.971	72
305.201	89
305.431	75
305.661	82
305.891	97
306.121	78
306.352	100
306.582	93
306.812	83
307.042	77
307.272	98
307.502	102
307.731	90
307.961	92
308.191	99
308.421	89
308.651	88
308.881	104
309.111	80
309.341	96
309.571	88
309.8	103
310.03	92
310.26	99
310.49	107
310.72	92
310.949	103
311.179	94
311.409	92
311.639	102
311.868	85
312.098	85
312.328	93
312.557	97
312.787	104
313.017	108
313.246	97
313.476	108
313.706	102
313.935	112
314.165	86
314.394	80
314.624	100
314.853	112
315.083	90
315.312	88
315.542	86
315.771	91
316.001	89
316.23	96
316.46	101
316.689	86
316.919	89
317.148	96
317.377	92
317.607	71
317.836	82
318.065	88
318.295	90
318.524	90
318.753	93
318.983	88
319.212	99
319.441	94
319.67	106
319.9	97
320.129	94
320.358	82
320.587	103
320.816	94
321.046	90
321.275	94
321.504	89
321.733	82
321.962	84
322.191	103
322.42	97
322.649	114
322.878	96
323.108	126
323.337	127
323.566	140
323.795	150
324.024	209
324.253	439
324.482	941
324.71	1933
324.939	2471
325.168	897
325.397	263
325.626	153
325.855	141
326.084	119
326.313	115
326.542	157
326.77	241
326.999	501
327.228	1051
327.457	1967
327.686	1531
327.914	380
328.143	180
328.372	147
328.6	101
328.829	110
329.058	120
329.287	116
329.515	100
329.744	96
329.972	96
330.201	97
330.43	115
330.658	121
330.887	121
331.115	119
331.344	89
331.572	93
331.801	89
332.03	98
332.258	91
332.486	93
332.715	84
332.943	83
333.172	99
333.4	100
333.629	103
333.857	123
334.085	102
334.314	99
334.542	93
334.771	113
334.999	81
335.227	96
335.455	95
335.684	91
335.912	87
336.14	94
336.369	94
336.597	108
336.825	108
337.053	81
337.281	89
337.51	73
337.738	102
337.966	83
338.194	89
338.422	71
338.65	94
338.878	78
339.106	88
339.334	90
339.562	77
339.79	85
340.018	83
340.246	91
340.474	89
340.702	84
340.93	80
341.158	87
341.386	79
341.614	95
341.842	105
342.07	91
342.298	89
342.526	92
342.754	89
342.981	88
343.209	82
343.437	96
343.665	96
343.893	92
344.12	80
344.348	90
344.576	89
344.804	91
345.031	85
345.259	94
345.487	101
345.714	103
345.942	85
346.17	85
346.397	88
346.625	76
346.853	76
347.08	69
347.308	90
347.535	80
347.763	108
347.99	91
348.218	90
348.445	85
348.673	96
348.9	84
349.128	100
349.355	90
349.583	89
349.81	91
350.037	88
350.265	77
350.492	106
350.72	98
350.947	95
351.174	75
351.402	100
351.629	105
351.856	92
352.083	103
352.311	105
352.538	110
352.765	111
352.992	115
353.22	119
353.447	107
353.674	102
353.901	88
354.128	94
354.355	103
354.583	92
354.81	88
355.037	92
355.264	105
355.491	103
355.718	96
355.945	91
356.172	80
356.399	96
356.626	93
356.853	95
357.08	85
357.307	83
357.534	96
357.761	95
357.988	97
358.215	109
358.441	90
358.668	93
358.895	86
359.122	87
359.349	79
359.576	81
359.802	92
360.029	114
360.256	108
360.483	93
360.709	75
360.936	92
361.163	92
361.39	96
361.616	93
361.843	94
362.07	86
362.296	107
362.523	93
362.749	89
362.976	83
363.203	88
363.429	84
363.656	71
363.882	75
364.109	95
364.335	102
364.562	89
364.788	91
365.015	92
365.241	83
365.468	95
365.694	115
365.92	98
366.147	79
366.373	70
366.599	76
366.826	96
367.052	85
367.278	79
367.505	82
367.731	98
367.957	103
368.184	83
368.41	99
368.636	87
368.862	108
369.089	112
369.315	92
369.541	91
369.767	100
369.993	100
370.219	97
370.445	93
370.672	69
370.898	88
371.124	82
371.35	85
371.576	94
371.802	93
372.028	75
372.254	94
372.48	95
372.706	84
372.932	87
373.158	83
373.384	79
373.61	86
373.835	92
374.061	85
374.287	89
374.513	85
374.739	93
374.965	87
375.191	87
375.416	93
375.642	96
375.868	111
376.094	92
376.319	87
376.545	89
376.771	96
376.997	83
377.222	88
377.448	87
377.674	100
377.899	100
378.125	94
378.35	83
378.576	93
378.802	96
379.027	85
379.253	105
379.478	92
379.704	94
379.929	88
380.155	85
380.38	97
380.606	90
380.831	100
381.057	93
381.282	97
381.507	104
381.733	91
381.958	91
382.184	101
382.409	104
382.634	100
382.86	100
383.085	100
383.31	95
383.535	95
383.761	110
383.986	89
384.211	101
384.436	93
384.662	90
384.887	116
385.112	105
385.337	104
385.562	98
385.787	105
386.013	106
386.238	111
386.463	88
386.688	123
386.913	97
387.138	103
387.363	99
387.588	108
387.813	87
388.038	98
388.263	96
388.488	114
388.713	106
388.938	94
389.163	105
389.387	87
389.612	87
389.837	96
390.062	87
390.287	90
390.512	85
390.736	86
390.961	85
391.186	89
391.411	104
391.636	92
391.86	74
392.085	80
392.31	82
392.534	99
392.759	81
392.984	104
393.208	88
393.433	89
393.658	92
393.882	81
394.107	84
394.331	90
394.556	75
394.78	88
395.005	80
395.229	79
395.454	78
395.678	91
395.903	91
396.127	87
396.352	78
396.576	89
396.801	84
397.025	97
397.249	76
397.474	88
397.698	89
397.922	85
398.147	80
398.371	76
398.595	95
398.82	86
399.044	93
399.268	80
399.492	77
399.717	85
399.941	89
400.165	96
400.389	89
400.613	73
400.837	84
401.062	82
401.286	92
401.51	93
401.734	76
401.958	92
402.182	106
402.406	147
402.63	105
402.854	103
403.078	97
403.302	94
403.526	102
403.75	89
403.974	76
404.198	82
404.422	82
404.645	92
404.869	96
405.093	92
405.317	106
405.541	99
405.765	87
405.988	103
406.212	166
406.436	201
406.66	138
406.883	84
407.107	95
407.331	81
407.555	95
407.778	100
408.002	96
408.226	85
408.449	96
408.673	87
408.896	79
409.12	96
409.344	80
409.567	73
409.791	93
410.014	93
410.238	91
410.461	100
410.685	97
410.908	102
411.132	104
411.355	95
411.578	91
411.802	95
412.025	80
412.249	108
412.472	92
412.695	82
412.919	67
413.142	104
413.365	98
413.589	88
413.812	84
414.035	98
414.258	85
414.482	93
414.705	88
414.928	100
415.151	101
415.374	87
415.597	93
415.821	81
416.044	84
416.267	93
416.49	89
416.713	77
416.936	85
417.159	87
417.382	93
417.605	96
417.828	88
418.051	95
418.274	93
418.497	85
418.72	92
418.943	88
419.166	95
419.389	89
419.611	81
419.834	83
420.057	86
420.28	98
420.503	93
420.726	90
420.948	90
421.171	96
421.394	87
421.617	83
421.839	92
422.062	89
422.285	94
422.507	99
422.73	112
422.953	85
423.175	85
423.398	85
423.621	99
423.843	83
424.066	87
424.288	88
424.511	86
424.733	92
424.956	111
425.178	87
425.401	103
425.623	95
425.846	88
426.068	83
426.291	95
426.513	93
426.735	94
426.958	81
427.18	101
427.402	147
427.625	159
427.847	102
428.069	107
428.292	92
428.514	89
428.736	94
428.958	91
429.181	80
429.403	70
429.625	82
429.847	89
430.069	109
430.292	78
430.514	86
430.736	80
430.958	88
431.18	100
431.402	90
431.624	92
431.846	94
432.068	80
432.29	91
432.512	88
432.734	80
432.956	81
433.178	100
433.4	92
433.622	97
433.844	84
434.066	98
434.287	107
434.509	85
434.731	88
434.953	77
435.175	91
435.397	94
435.618	89
435.84	102
436.062	121
436.284	114
436.505	100
436.727	105
436.949	89
437.17	93
437.392	88
437.614	82
437.835	87
438.057	119
438.278	116
438.5	105
438.721	133
438.943	108
439.165	91
439.386	79
439.608	92
439.829	109
440.05	112
440.272	132
440.493	93
440.715	96
440.936	82
441.158	77
441.379	81
441.6	96
441.822	104
442.043	87
442.264	106
442.486	110
442.707	91
442.928	107
443.149	107
443.371	123
443.592	97
443.813	108
444.034	96
444.255	82
444.476	81
444.698	80
444.919	78
445.14	138
445.361	101
445.582	107
445.803	123
446.024	123
446.245	125
446.466	98
446.687	80
446.908	91
447.129	83
447.35	94
447.571	90
447.792	102
448.013	97
448.234	97
448.455	89
448.675	106
448.896	107
449.117	109
449.338	110
449.559	129
449.779	133
450	100
450.221	88
450.442	98
450.662	88
450.883	105
451.104	101
451.324	100
451.545	84
451.766	85
451.986	91
452.207	90
452.428	90
452.648	88
452.869	101
453.089	117
453.31	112
453.53	94
453.751	85
453.971	83
454.192	113
454.412	98
454.633	83
454.853	93
455.073	95
455.294	94
455.514	110
455.734	101
455.955	84
456.175	85
456.395	101
456.616	73
456.836	84
457.056	88
457.276	100
457.497	80
457.717	93
457.937	85
458.157	66
458.377	72
458.598	119
458.818	132
459.038	140
459.258	101
459.478	90
459.698	97
459.918	84
460.138	72
460.358	78
460.578	81
460.798	101
461.018	88
461.238	71
461.458	91
461.678	84
461.898	85
462.118	75
462.338	93
462.558	94
462.777	85
462.997	92
463.217	92
463.437	76
463.657	87
463.876	83
464.096	81
464.316	99
464.536	93
464.755	102
464.975	102
465.195	157
465.414	160
465.634	105
465.854	78
466.073	80
466.293	78
466.512	93
466.732	83
466.951	85
467.171	91
467.391	107
467.61	96
467.829	88
468.049	90
468.268	83
468.488	91
468.707	91
468.927	87
469.146	93
469.365	87
469.585	72
469.804	87
470.023	90
470.243	104
470.462	97
470.681	98
470.901	71
471.12	79
471.339	87
471.558	77
471.777	73
471.997	72
472.216	95
472.435	101
472.654	101
472.873	94
473.092	98
473.311	84
473.53	72
473.749	73
473.968	94
474.187	97
474.406	94
474.625	99
474.844	97
475.063	73
475.282	88
475.501	80
475.72	95
475.939	89
476.158	97
476.377	86
476.596	85
476.814	69
477.033	92
477.252	90
477.471	77
477.69	74
477.908	93
478.127	95
478.346	88
478.564	83
478.783	95
479.002	79
479.22	98
479.439	96
479.658	113
479.876	95
480.095	88
480.313	88
480.532	91
480.751	99
480.969	84
481.188	124
481.406	108
481.624	88
481.843	101
482.061	98
482.28	88
482.498	102
482.717	88
482.935	81
483.153	95
483.372	101
483.59	87
483.808	80
484.027	88
484.245	91
484.463	104
484.681	85
484.9	111
485.118	87
485.336	95
485.554	104
485.772	98
485.99	96
486.209	101
486.427	102
486.645	119
486.863	109
487.081	119
487.299	91
487.517	92
487.735	104
487.953	106
488.171	91
488.389	95
488.607	97
488.825	94
489.043	80
489.261	81
489.479	88
489.696	93
489.914	86
490.132	80
490.35	88
490.568	87
490.786	98
491.003	92
491.221	87
491.439	88
491.657	89
491.874	89
492.092	101
492.31	97
492.527	97
492.745	88
492.963	85
493.18	94
493.398	90
493.615	110
493.833	98
494.05	81
494.268	90
494.485	80
494.703	93
494.92	86
495.138	87
495.355	97
495.573	81
495.79	90
496.008	83
496.225	83
496.442	84
496.66	97
496.877	97
497.094	89
497.312	94
497.529	93
497.746	88
497.963	98
498.181	98
498.398	79
498.615	102
498.832	88
499.049	76
499.267	99
499.484	88
499.701	85
499.918	100
500.135	86
500.352	76
500.569	107
500.786	94
501.003	89
501.22	99
501.437	91
501.654	115
501.871	107
502.088	90
502.305	90
502.522	92
502.739	100
502.956	88
503.172	89
503.389	97
503.606	87
503.823	99
504.04	83
504.256	99
504.473	82
504.69	85
504.907	89
505.123	91
505.34	97
505.557	79
505.773	87
505.99	82
506.207	75
506.423	107
506.64	95
506.856	85
507.073	87
507.289	90
507.506	103
507.722	98
507.939	101
508.155	97
508.372	97
508.588	84
508.805	93
509.021	97
509.238	103
509.454	89
509.67	100
509.887	91
510.103	119
510.319	217
510.536	700
510.752	2199
510.968	605
511.184	147
511.401	110
511.617	98
511.833	84
512.049	91
512.265	96
512.481	97
512.698	94
512.914	93
513.13	74
513.346	80
513.562	102
513.778	87
513.994	100
514.21	106
514.426	120
514.642	122
514.858	121
515.074	160
515.29	423
515.506	1299
515.721	472
515.937	127
516.153	119
516.369	103
516.585	98
516.801	77
517.016	104
517.232	95
517.448	97
517.664	90
517.879	95
518.095	95
518.311	78
518.527	88
518.742	96
518.958	100
519.173	92
519.389	94
519.605	94
519.82	104
520.036	100
520.251	118
520.467	100
520.682	92
520.898	94
521.113	116
521.329	131
521.544	193
521.76	535
521.975	2161
522.19	1290
522.406	278
522.621	102
522.836	88
523.052	84
523.267	91
523.482	89
523.698	88
523.913	115
524.128	107
524.343	107
524.559	95
524.774	85
524.989	96
525.204	95
525.419	109
525.634	90
525.849	92
526.064	95
526.28	94
526.495	64
526.71	90
526.925	82
527.14	96
527.355	81
527.57	82
527.785	82
527.999	82
528.214	84
528.429	96
528.644	89
528.859	93
529.074	97
529.289	108
529.503	149
529.718	116
529.933	85
530.148	101
530.363	90
530.577	80
530.792	95
531.007	94
531.221	95
531.436	101
531.651	87
531.865	87
532.08	90
532.295	95
532.509	99
532.724	87
532.938	88
533.153	92
533.367	100
533.582	86
533.796	98
534.011	92
534.225	83
534.44	89
534.654	102
534.868	97
535.083	96
535.297	94
535.511	101
535.726	96
535.94	96
536.154	92
536.369	92
536.583	97
536.797	104
537.011	94
537.225	88
537.44	78
537.654	92
537.868	77
538.082	87
538.296	84
538.51	103
538.724	108
538.938	102
539.153	85
539.367	91
539.581	90
539.795	88
540.009	88
540.222	85
540.436	89
540.65	81
540.864	87
541.078	92
541.292	101
541.506	81
541.72	84
541.934	95
542.147	74
542.361	81
542.575	75
542.789	77
543.002	79
543.216	92
543.43	109
543.644	92
543.857	100
544.071	103
544.285	91
544.498	96
544.712	81
544.925	99
545.139	82
545.352	83
545.566	77
545.779	79
545.993	85
546.206	85
546.42	93
546.633	85
546.847	96
547.06	98
547.274	85
547.487	91
547.7	78
547.914	94
548.127	90
548.34	80
548.554	67
548.767	94
548.98	96
549.193	90
549.407	77
549.62	97
549.833	99
550.046	79
550.259	79
550.473	89
550.686	89
550.899	87
551.112	98
551.325	69
551.538	96
551.751	86
551.964	74
552.177	77
552.39	81
552.603	77
552.816	92
553.029	90
553.242	107
553.455	105
553.667	114
553.88	92
554.093	80
554.306	91
554.519	90
554.732	94
554.944	80
555.157	75
555.37	92
555.583	91
555.795	90
556.008	68
556.221	84
556.433	97
556.646	88
556.859	96
557.071	94
557.284	94
557.496	101
557.709	89
557.921	75
558.134	83
558.346	88
558.559	102
558.771	89
558.984	80
559.196	90
559.409	89
559.621	84
559.833	92
560.046	76
560.258	79
560.47	83
560.683	78
560.895	83
561.107	99
561.32	102
561.532	89
561.744	92
561.956	69
562.168	113
562.381	81
562.593	93
562.805	101
563.017	87
563.229	98
563.441	89
563.653	85
563.865	92
564.077	79
564.289	84
564.501	97
564.713	81
564.925	95
565.137	120
565.349	88
565.561	88
565.773	91
565.985	94
566.197	88
566.408	88
566.62	94
566.832	88
567.044	79
567.255	89
567.467	93
567.679	72
567.891	86
568.102	100
568.314	86
568.526	93
568.737	89
568.949	83
569.161	87
569.372	88
569.584	80
569.795	96
570.007	131
570.218	252
570.43	145
570.641	89
570.853	92
571.064	84
571.276	70
571.487	88
571.698	86
571.91	75
572.121	89
572.333	80
572.544	94
572.755	94
572.966	87
573.178	85
573.389	89
573.6	81
573.811	85
574.023	85
574.234	83
574.445	85
574.656	75
574.867	92
575.078	76
575.289	90
575.501	96
575.712	81
575.923	80
576.134	74
576.345	92
576.556	85
576.767	92
576.978	73
577.188	80
577.399	93
577.61	91
577.821	88
578.032	127
578.243	251
578.454	728
578.665	195
578.875	96
579.086	76
579.297	88
579.508	93
579.718	95
579.929	70
580.14	76
580.35	89
580.561	81
580.772	80
580.982	71
581.193	93
581.403	93
581.614	100
581.825	69
582.035	78
582.246	88
582.456	86
582.667	85
582.877	80
583.087	79
583.298	75
583.508	85
583.719	92
583.929	81
584.139	81
584.35	74
584.56	86
584.77	82
584.981	75
