Data from Uncirc_1999_H10_HRD10591_00083.txt Node
Date: Wed Jan 03 11:22:21 EST 2024
User: Yrep
Spectrometer: HR+D1059
Trigger mode: 1
Integration Time (sec): 1.000000E-1
Scans to average: 1
Electric dark correction enabled: true
Nonlinearity correction enabled: false
Boxcar width: 0
XAxis mode: Wavelengths
Number of Pixels in Spectrum: 2048
>>>>>Begin Spectral Data<<<<<
223.165	-17.44
223.4	-17.44
223.635	-17.44
223.869	-17.44
224.104	-19.44
224.338	-29.44
224.573	-14.44
224.808	-23.44
225.042	-12.44
225.277	-0.44
225.511	15.56
225.746	-1.44
225.98	5.56
226.215	0.56
226.449	22.56
226.683	24.56
226.918	25.56
227.152	41.56
227.387	32.56
227.621	31.56
227.856	45.56
228.09	51.56
228.324	50.56
228.559	59.56
228.793	65.56
229.027	61.56
229.262	69.56
229.496	61.56
229.73	69.56
229.964	79.56
230.199	71.56
230.433	84.56
230.667	78.56
230.901	73.56
231.136	71.56
231.37	80.56
231.604	77.56
231.838	76.56
232.072	76.56
232.306	82.56
232.541	86.56
232.775	90.56
233.009	84.56
233.243	93.56
233.477	88.56
233.711	91.56
233.945	77.56
234.179	79.56
234.413	83.56
234.647	78.56
234.881	74.56
235.115	81.56
235.349	77.56
235.583	68.56
235.817	61.56
236.051	82.56
236.285	71.56
236.519	69.56
236.753	65.56
236.987	84.56
237.221	100.56
237.455	92.56
237.689	80.56
237.922	70.56
238.156	58.56
238.39	66.56
238.624	64.56
238.858	73.56
239.091	66.56
239.325	80.56
239.559	70.56
239.793	83.56
240.027	80.56
240.26	85.56
240.494	81.56
240.728	74.56
240.961	68.56
241.195	82.56
241.429	67.56
241.662	66.56
241.896	82.56
242.13	83.56
242.363	77.56
242.597	77.56
242.83	80.56
243.064	63.56
243.298	76.56
243.531	72.56
243.765	60.56
243.998	76.56
244.232	70.56
244.465	90.56
244.699	73.56
244.932	71.56
245.166	79.56
245.399	88.56
245.633	72.56
245.866	71.56
246.099	87.56
246.333	87.56
246.566	76.56
246.8	99.56
247.033	69.56
247.266	83.56
247.5	80.56
247.733	84.56
247.966	72.56
248.2	71.56
248.433	86.56
248.666	87.56
248.899	83.56
249.133	81.56
249.366	92.56
249.599	86.56
249.832	76.56
250.066	86.56
250.299	80.56
250.532	80.56
250.765	72.56
250.998	84.56
251.231	72.56
251.465	85.56
251.698	85.56
251.931	90.56
252.164	84.56
252.397	81.56
252.63	76.56
252.863	84.56
253.096	91.56
253.329	80.56
253.562	75.56
253.795	80.56
254.028	78.56
254.261	78.56
254.494	83.56
254.727	75.56
254.96	74.56
255.193	77.56
255.426	84.56
255.659	87.56
255.892	98.56
256.124	76.56
256.357	73.56
256.59	71.56
256.823	78.56
257.056	85.56
257.289	67.56
257.521	78.56
257.754	78.56
257.987	72.56
258.22	83.56
258.452	86.56
258.685	81.56
258.918	75.56
259.151	79.56
259.383	70.56
259.616	83.56
259.849	78.56
260.081	80.56
260.314	85.56
260.547	85.56
260.779	77.56
261.012	81.56
261.244	78.56
261.477	81.56
261.71	85.56
261.942	107.56
262.175	103.56
262.407	68.56
262.64	69.56
262.872	84.56
263.105	89.56
263.337	89.56
263.57	103.56
263.802	94.56
264.035	85.56
264.267	87.56
264.499	83.56
264.732	65.56
264.964	77.56
265.197	72.56
265.429	92.56
265.661	80.56
265.894	83.56
266.126	91.56
266.358	80.56
266.591	89.56
266.823	85.56
267.055	82.56
267.287	87.56
267.52	82.56
267.752	81.56
267.984	79.56
268.216	76.56
268.448	79.56
268.681	95.56
268.913	89.56
269.145	78.56
269.377	81.56
269.609	70.56
269.841	73.56
270.073	75.56
270.306	77.56
270.538	78.56
270.77	79.56
271.002	95.56
271.234	87.56
271.466	86.56
271.698	89.56
271.93	78.56
272.162	74.56
272.394	77.56
272.626	93.56
272.858	84.56
273.09	93.56
273.322	64.56
273.553	83.56
273.785	93.56
274.017	87.56
274.249	87.56
274.481	90.56
274.713	89.56
274.945	80.56
275.176	81.56
275.408	101.56
275.64	87.56
275.872	95.56
276.104	98.56
276.335	85.56
276.567	101.56
276.799	116.56
277.031	93.56
277.262	104.56
277.494	95.56
277.726	90.56
277.957	92.56
278.189	82.56
278.421	79.56
278.652	87.56
278.884	91.56
279.115	83.56
279.347	91.56
279.579	93.56
279.81	76.56
280.042	95.56
280.273	81.56
280.505	84.56
280.736	72.56
280.968	91.56
281.199	87.56
281.431	86.56
281.662	93.56
281.894	80.56
282.125	86.56
282.356	117.56
282.588	123.56
282.819	111.56
283.051	94.56
283.282	93.56
283.513	87.56
283.745	84.56
283.976	98.56
284.207	91.56
284.439	86.56
284.67	85.56
284.901	88.56
285.132	74.56
285.364	94.56
285.595	102.56
285.826	89.56
286.057	92.56
286.288	80.56
286.52	61.56
286.751	83.56
286.982	93.56
287.213	95.56
287.444	90.56
287.675	89.56
287.906	93.56
288.138	88.56
288.369	79.56
288.6	85.56
288.831	88.56
289.062	82.56
289.293	97.56
289.524	93.56
289.755	98.56
289.986	90.56
290.217	96.56
290.448	80.56
290.679	84.56
290.91	90.56
291.141	85.56
291.371	97.56
291.602	85.56
291.833	82.56
292.064	93.56
292.295	80.56
292.526	87.56
292.757	82.56
292.987	90.56
293.218	91.56
293.449	82.56
293.68	94.56
293.91	90.56
294.141	88.56
294.372	85.56
294.603	82.56
294.833	89.56
295.064	82.56
295.295	88.56
295.525	98.56
295.756	108.56
295.987	114.56
296.217	134.56
296.448	109.56
296.679	94.56
296.909	90.56
297.14	88.56
297.37	83.56
297.601	89.56
297.831	84.56
298.062	81.56
298.292	85.56
298.523	90.56
298.753	101.56
298.984	94.56
299.214	84.56
299.445	90.56
299.675	81.56
299.905	101.56
300.136	88.56
300.366	94.56
300.597	82.56
300.827	82.56
301.057	93.56
301.288	90.56
301.518	113.56
301.748	78.56
301.979	105.56
302.209	98.56
302.439	86.56
302.669	92.56
302.9	110.56
303.13	91.56
303.36	87.56
303.59	90.56
303.82	102.56
304.051	100.56
304.281	88.56
304.511	93.56
304.741	77.56
304.971	64.56
305.201	90.56
305.431	94.56
305.661	79.56
305.891	74.56
306.121	108.56
306.352	96.56
306.582	97.56
306.812	87.56
307.042	89.56
307.272	89.56
307.502	98.56
307.731	100.56
307.961	93.56
308.191	86.56
308.421	79.56
308.651	92.56
308.881	75.56
309.111	92.56
309.341	91.56
309.571	86.56
309.8	80.56
310.03	94.56
310.26	85.56
310.49	97.56
310.72	89.56
310.949	92.56
311.179	93.56
311.409	88.56
311.639	85.56
311.868	109.56
312.098	102.56
312.328	98.56
312.557	104.56
312.787	99.56
313.017	103.56
313.246	87.56
313.476	90.56
313.706	95.56
313.935	89.56
314.165	89.56
314.394	96.56
314.624	94.56
314.853	89.56
315.083	90.56
315.312	100.56
315.542	95.56
315.771	81.56
316.001	94.56
316.23	96.56
316.46	87.56
316.689	79.56
316.919	96.56
317.148	103.56
317.377	95.56
317.607	90.56
317.836	94.56
318.065	102.56
318.295	85.56
318.524	92.56
318.753	83.56
318.983	84.56
319.212	90.56
319.441	103.56
319.67	98.56
319.9	89.56
320.129	81.56
320.358	101.56
320.587	74.56
320.816	96.56
321.046	92.56
321.275	84.56
321.504	84.56
321.733	88.56
321.962	102.56
322.191	96.56
322.42	84.56
322.649	110.56
322.878	103.56
323.108	123.56
323.337	116.56
323.566	133.56
323.795	150.56
324.024	209.56
324.253	401.56
324.482	862.56
324.71	1772.56
324.939	2390.56
325.168	847.56
325.397	251.56
325.626	167.56
325.855	143.56
326.084	122.56
326.313	140.56
326.542	152.56
326.77	236.56
326.999	488.56
327.228	1025.56
327.457	1814.56
327.686	1454.56
327.914	378.56
328.143	178.56
328.372	124.56
328.6	133.56
328.829	118.56
329.058	123.56
329.287	125.56
329.515	131.56
329.744	110.56
329.972	102.56
330.201	101.56
330.43	115.56
330.658	129.56
330.887	132.56
331.115	104.56
331.344	84.56
331.572	98.56
331.801	96.56
332.03	98.56
332.258	102.56
332.486	95.56
332.715	88.56
332.943	80.56
333.172	100.56
333.4	92.56
333.629	91.56
333.857	118.56
334.085	102.56
334.314	114.56
334.542	96.56
334.771	106.56
334.999	111.56
335.227	87.56
335.455	105.56
335.684	98.56
335.912	98.56
336.14	106.56
336.369	97.56
336.597	92.56
336.825	89.56
337.053	86.56
337.281	86.56
337.51	87.56
337.738	74.56
337.966	98.56
338.194	91.56
338.422	103.56
338.65	94.56
338.878	94.56
339.106	84.56
339.334	97.56
339.562	91.56
339.79	96.56
340.018	89.56
340.246	105.56
340.474	94.56
340.702	91.56
340.93	79.56
341.158	106.56
341.386	100.56
341.614	101.56
341.842	96.56
342.07	108.56
342.298	85.56
342.526	81.56
342.754	86.56
342.981	100.56
343.209	91.56
343.437	94.56
343.665	84.56
343.893	78.56
344.12	94.56
344.348	92.56
344.576	80.56
344.804	91.56
345.031	96.56
345.259	97.56
345.487	88.56
345.714	100.56
345.942	101.56
346.17	90.56
346.397	93.56
346.625	92.56
346.853	89.56
347.08	95.56
347.308	90.56
347.535	96.56
347.763	105.56
347.99	99.56
348.218	98.56
348.445	107.56
348.673	93.56
348.9	91.56
349.128	88.56
349.355	73.56
349.583	104.56
349.81	88.56
350.037	96.56
350.265	88.56
350.492	82.56
350.72	112.56
350.947	96.56
351.174	110.56
351.402	91.56
351.629	95.56
351.856	108.56
352.083	93.56
352.311	108.56
352.538	104.56
352.765	94.56
352.992	102.56
353.22	109.56
353.447	92.56
353.674	94.56
353.901	98.56
354.128	93.56
354.355	97.56
354.583	91.56
354.81	85.56
355.037	102.56
355.264	88.56
355.491	84.56
355.718	96.56
355.945	94.56
356.172	80.56
356.399	94.56
356.626	90.56
356.853	91.56
357.08	101.56
357.307	102.56
357.534	89.56
357.761	90.56
357.988	88.56
358.215	93.56
358.441	90.56
358.668	95.56
358.895	95.56
359.122	79.56
359.349	89.56
359.576	90.56
359.802	97.56
360.029	111.56
360.256	104.56
360.483	90.56
360.709	94.56
360.936	94.56
361.163	90.56
361.39	93.56
361.616	100.56
361.843	98.56
362.07	95.56
362.296	86.56
362.523	87.56
362.749	86.56
362.976	90.56
363.203	77.56
363.429	85.56
363.656	97.56
363.882	87.56
364.109	99.56
364.335	104.56
364.562	93.56
364.788	94.56
365.015	87.56
365.241	88.56
365.468	94.56
365.694	85.56
365.92	90.56
366.147	87.56
366.373	81.56
366.599	90.56
366.826	105.56
367.052	80.56
367.278	81.56
367.505	91.56
367.731	90.56
367.957	93.56
368.184	104.56
368.41	93.56
368.636	96.56
368.862	120.56
369.089	108.56
369.315	95.56
369.541	97.56
369.767	91.56
369.993	80.56
370.219	85.56
370.445	86.56
370.672	88.56
370.898	93.56
371.124	84.56
371.35	85.56
371.576	88.56
371.802	79.56
372.028	75.56
372.254	89.56
372.48	94.56
372.706	88.56
372.932	90.56
373.158	80.56
373.384	83.56
373.61	82.56
373.835	94.56
374.061	90.56
374.287	85.56
374.513	89.56
374.739	71.56
374.965	88.56
375.191	93.56
375.416	94.56
375.642	81.56
375.868	77.56
376.094	93.56
376.319	96.56
376.545	101.56
376.771	79.56
376.997	88.56
377.222	90.56
377.448	98.56
377.674	83.56
377.899	91.56
378.125	89.56
378.35	77.56
378.576	99.56
378.802	85.56
379.027	89.56
379.253	91.56
379.478	107.56
379.704	84.56
379.929	90.56
380.155	100.56
380.38	82.56
380.606	90.56
380.831	82.56
381.057	109.56
381.282	95.56
381.507	93.56
381.733	100.56
381.958	84.56
382.184	87.56
382.409	112.56
382.634	94.56
382.86	92.56
383.085	94.56
383.31	102.56
383.535	92.56
383.761	100.56
383.986	100.56
384.211	84.56
384.436	87.56
384.662	99.56
384.887	88.56
385.112	99.56
385.337	101.56
385.562	98.56
385.787	94.56
386.013	105.56
386.238	105.56
386.463	97.56
386.688	119.56
386.913	102.56
387.138	119.56
387.363	102.56
387.588	108.56
387.813	99.56
388.038	95.56
388.263	98.56
388.488	88.56
388.713	97.56
388.938	107.56
389.163	77.56
389.387	104.56
389.612	88.56
389.837	95.56
390.062	96.56
390.287	86.56
390.512	95.56
390.736	87.56
390.961	98.56
391.186	102.56
391.411	92.56
391.636	93.56
391.86	81.56
392.085	102.56
392.31	94.56
392.534	76.56
392.759	85.56
392.984	81.56
393.208	94.56
393.433	97.56
393.658	82.56
393.882	80.56
394.107	107.56
394.331	92.56
394.556	90.56
394.78	84.56
395.005	79.56
395.229	86.56
395.454	86.56
395.678	91.56
395.903	109.56
396.127	86.56
396.352	78.56
396.576	89.56
396.801	83.56
397.025	74.56
397.249	72.56
397.474	80.56
397.698	90.56
397.922	83.56
398.147	78.56
398.371	71.56
398.595	96.56
398.82	82.56
399.044	84.56
399.268	82.56
399.492	73.56
399.717	76.56
399.941	74.56
400.165	82.56
400.389	93.56
400.613	105.56
400.837	78.56
401.062	86.56
401.286	97.56
401.51	87.56
401.734	94.56
401.958	89.56
402.182	117.56
402.406	143.56
402.63	115.56
402.854	96.56
403.078	83.56
403.302	91.56
403.526	84.56
403.75	97.56
403.974	88.56
404.198	85.56
404.422	80.56
404.645	85.56
404.869	91.56
405.093	97.56
405.317	107.56
405.541	100.56
405.765	95.56
405.988	106.56
406.212	167.56
406.436	196.56
406.66	135.56
406.883	83.56
407.107	86.56
407.331	100.56
407.555	90.56
407.778	102.56
408.002	83.56
408.226	88.56
408.449	105.56
408.673	97.56
408.896	89.56
409.12	82.56
409.344	91.56
409.567	106.56
409.791	94.56
410.014	98.56
410.238	101.56
410.461	95.56
410.685	88.56
410.908	89.56
411.132	100.56
411.355	92.56
411.578	110.56
411.802	96.56
412.025	84.56
412.249	86.56
412.472	81.56
412.695	98.56
412.919	100.56
413.142	90.56
413.365	90.56
413.589	72.56
413.812	98.56
414.035	77.56
414.258	88.56
414.482	86.56
414.705	91.56
414.928	85.56
415.151	91.56
415.374	76.56
415.597	87.56
415.821	86.56
416.044	82.56
416.267	84.56
416.49	93.56
416.713	96.56
416.936	117.56
417.159	82.56
417.382	89.56
417.605	89.56
417.828	95.56
418.051	96.56
418.274	90.56
418.497	82.56
418.72	98.56
418.943	94.56
419.166	93.56
419.389	75.56
419.611	91.56
419.834	91.56
420.057	88.56
420.28	89.56
420.503	88.56
420.726	93.56
420.948	82.56
421.171	94.56
421.394	93.56
421.617	107.56
421.839	86.56
422.062	95.56
422.285	97.56
422.507	106.56
422.73	102.56
422.953	94.56
423.175	99.56
423.398	80.56
423.621	71.56
423.843	88.56
424.066	97.56
424.288	97.56
424.511	88.56
424.733	82.56
424.956	100.56
425.178	96.56
425.401	72.56
425.623	86.56
425.846	90.56
426.068	93.56
426.291	94.56
426.513	80.56
426.735	97.56
426.958	94.56
427.18	102.56
427.402	140.56
427.625	159.56
427.847	129.56
428.069	119.56
428.292	89.56
428.514	82.56
428.736	95.56
428.958	96.56
429.181	84.56
429.403	83.56
429.625	88.56
429.847	93.56
430.069	94.56
430.292	97.56
430.514	86.56
430.736	79.56
430.958	95.56
431.18	85.56
431.402	79.56
431.624	90.56
431.846	94.56
432.068	83.56
432.29	89.56
432.512	100.56
432.734	82.56
432.956	73.56
433.178	99.56
433.4	104.56
433.622	101.56
433.844	95.56
434.066	96.56
434.287	95.56
434.509	94.56
434.731	89.56
434.953	84.56
435.175	89.56
435.397	92.56
435.618	85.56
435.84	103.56
436.062	112.56
436.284	121.56
436.505	99.56
436.727	115.56
436.949	95.56
437.17	88.56
437.392	72.56
437.614	99.56
437.835	90.56
438.057	122.56
438.278	106.56
438.5	110.56
438.721	119.56
438.943	100.56
439.165	86.56
439.386	101.56
439.608	102.56
439.829	103.56
440.05	106.56
440.272	136.56
440.493	90.56
440.715	102.56
440.936	83.56
441.158	82.56
441.379	92.56
441.6	105.56
441.822	93.56
442.043	98.56
442.264	103.56
442.486	104.56
442.707	101.56
442.928	92.56
443.149	118.56
443.371	125.56
443.592	106.56
443.813	111.56
444.034	108.56
444.255	82.56
444.476	100.56
444.698	86.56
444.919	79.56
445.14	130.56
445.361	127.56
445.582	107.56
445.803	152.56
446.024	120.56
446.245	114.56
446.466	102.56
446.687	92.56
446.908	77.56
447.129	81.56
447.35	88.56
447.571	103.56
447.792	88.56
448.013	103.56
448.234	101.56
448.455	86.56
448.675	113.56
448.896	102.56
449.117	95.56
449.338	115.56
449.559	136.56
449.779	134.56
450	97.56
450.221	92.56
450.442	77.56
450.662	87.56
450.883	100.56
451.104	105.56
451.324	92.56
451.545	82.56
451.766	87.56
451.986	96.56
452.207	88.56
452.428	96.56
452.648	82.56
452.869	93.56
453.089	104.56
453.31	101.56
453.53	95.56
453.751	87.56
453.971	100.56
454.192	104.56
454.412	90.56
454.633	89.56
454.853	97.56
455.073	80.56
455.294	86.56
455.514	92.56
455.734	80.56
455.955	86.56
456.175	77.56
456.395	90.56
456.616	87.56
456.836	86.56
457.056	95.56
457.276	77.56
457.497	80.56
457.717	89.56
457.937	86.56
458.157	79.56
458.377	104.56
458.598	105.56
458.818	142.56
459.038	152.56
459.258	109.56
459.478	82.56
459.698	82.56
459.918	87.56
460.138	89.56
460.358	93.56
460.578	80.56
460.798	96.56
461.018	91.56
461.238	84.56
461.458	87.56
461.678	81.56
461.898	88.56
462.118	75.56
462.338	82.56
462.558	97.56
462.777	92.56
462.997	84.56
463.217	91.56
463.437	88.56
463.657	101.56
463.876	80.56
464.096	86.56
464.316	100.56
464.536	101.56
464.755	103.56
464.975	93.56
465.195	148.56
465.414	142.56
465.634	99.56
465.854	90.56
466.073	86.56
466.293	85.56
466.512	95.56
466.732	92.56
466.951	97.56
467.171	97.56
467.391	82.56
467.61	84.56
467.829	100.56
468.049	82.56
468.268	79.56
468.488	85.56
468.707	84.56
468.927	84.56
469.146	87.56
469.365	80.56
469.585	94.56
469.804	85.56
470.023	79.56
470.243	95.56
470.462	93.56
470.681	115.56
470.901	113.56
471.12	81.56
471.339	95.56
471.558	93.56
471.777	93.56
471.997	69.56
472.216	82.56
472.435	97.56
472.654	101.56
472.873	101.56
473.092	85.56
473.311	90.56
473.53	91.56
473.749	84.56
473.968	97.56
474.187	112.56
474.406	97.56
474.625	73.56
474.844	96.56
475.063	73.56
475.282	87.56
475.501	88.56
475.72	87.56
475.939	88.56
476.158	87.56
476.377	89.56
476.596	84.56
476.814	80.56
477.033	80.56
477.252	82.56
477.471	75.56
477.69	87.56
477.908	100.56
478.127	106.56
478.346	84.56
478.564	82.56
478.783	93.56
479.002	91.56
479.22	92.56
479.439	96.56
479.658	91.56
479.876	87.56
480.095	80.56
480.313	77.56
480.532	92.56
480.751	88.56
480.969	113.56
481.188	112.56
481.406	109.56
481.624	88.56
481.843	93.56
482.061	84.56
482.28	89.56
482.498	96.56
482.717	91.56
482.935	89.56
483.153	79.56
483.372	94.56
483.59	86.56
483.808	87.56
484.027	91.56
484.245	96.56
484.463	91.56
484.681	97.56
484.9	84.56
485.118	86.56
485.336	98.56
485.554	86.56
485.772	101.56
485.99	98.56
486.209	114.56
486.427	110.56
486.645	99.56
486.863	114.56
487.081	103.56
487.299	88.56
487.517	85.56
487.735	92.56
487.953	78.56
488.171	90.56
488.389	76.56
488.607	94.56
488.825	96.56
489.043	86.56
489.261	84.56
489.479	87.56
489.696	106.56
489.914	81.56
490.132	88.56
490.35	102.56
490.568	93.56
490.786	82.56
491.003	87.56
491.221	95.56
491.439	113.56
491.657	93.56
491.874	96.56
492.092	90.56
492.31	90.56
492.527	84.56
492.745	86.56
492.963	88.56
493.18	92.56
493.398	94.56
493.615	98.56
493.833	80.56
494.05	79.56
494.268	89.56
494.485	86.56
494.703	84.56
494.92	82.56
495.138	101.56
495.355	104.56
495.573	82.56
495.79	90.56
496.008	88.56
496.225	95.56
496.442	68.56
496.66	85.56
496.877	97.56
497.094	102.56
497.312	97.56
497.529	95.56
497.746	97.56
497.963	82.56
498.181	92.56
498.398	101.56
498.615	101.56
498.832	108.56
499.049	84.56
499.267	110.56
499.484	90.56
499.701	96.56
499.918	88.56
500.135	97.56
500.352	79.56
500.569	92.56
500.786	86.56
501.003	108.56
501.22	84.56
501.437	97.56
501.654	108.56
501.871	100.56
502.088	82.56
502.305	84.56
502.522	104.56
502.739	75.56
502.956	83.56
503.172	74.56
503.389	102.56
503.606	101.56
503.823	92.56
504.04	94.56
504.256	103.56
504.473	86.56
504.69	98.56
504.907	96.56
505.123	91.56
505.34	85.56
505.557	95.56
505.773	92.56
505.99	92.56
506.207	88.56
506.423	81.56
506.64	90.56
506.856	88.56
507.073	103.56
507.289	98.56
507.506	90.56
507.722	95.56
507.939	106.56
508.155	105.56
508.372	85.56
508.588	92.56
508.805	102.56
509.021	90.56
509.238	93.56
509.454	95.56
509.67	98.56
509.887	113.56
510.103	129.56
510.319	237.56
510.536	727.56
510.752	2342.56
510.968	639.56
511.184	160.56
511.401	106.56
511.617	84.56
511.833	92.56
512.049	100.56
512.265	89.56
512.481	85.56
512.698	110.56
512.914	107.56
513.13	83.56
513.346	96.56
513.562	97.56
513.778	95.56
513.994	101.56
514.21	95.56
514.426	106.56
514.642	117.56
514.858	123.56
515.074	152.56
515.29	431.56
515.506	1374.56
515.721	505.56
515.937	140.56
