Data from Uncirc_1999_H10_HRD10591_00014.txt Node
Date: Wed Jan 03 11:22:08 EST 2024
User: Yrep
Spectrometer: HR+D1059
Trigger mode: 1
Integration Time (sec): 1.000000E-1
Scans to average: 1
Electric dark correction enabled: true
Nonlinearity correction enabled: false
Boxcar width: 0
XAxis mode: Wavelengths
Number of Pixels in Spectrum: 2048
>>>>>Begin Spectral Data<<<<<
223.165	-15.25
223.4	-15.25
223.635	-15.25
223.869	-30.25
224.104	-26.25
224.338	-17.25
224.573	-21.25
224.808	-24.25
225.042	-11.25
225.277	-12.25
225.511	5.75
225.746	9.75
225.98	8.75
226.215	6.75
226.449	17.75
226.683	35.75
226.918	45.75
227.152	27.75
227.387	25.75
227.621	26.75
227.856	40.75
228.09	52.75
228.324	43.75
228.559	49.75
228.793	60.75
229.027	86.75
229.262	71.75
229.496	74.75
229.73	60.75
229.964	69.75
230.199	73.75
230.433	80.75
230.667	79.75
230.901	81.75
231.136	89.75
231.37	84.75
231.604	87.75
231.838	82.75
232.072	73.75
232.306	89.75
232.541	78.75
232.775	82.75
233.009	74.75
233.243	96.75
233.477	75.75
233.711	78.75
233.945	76.75
234.179	77.75
234.413	69.75
234.647	88.75
234.881	71.75
235.115	80.75
235.349	77.75
235.583	85.75
235.817	79.75
236.051	81.75
236.285	90.75
236.519	61.75
236.753	71.75
236.987	78.75
237.221	80.75
237.455	88.75
237.689	79.75
237.922	75.75
238.156	75.75
238.39	64.75
238.624	78.75
238.858	80.75
239.091	79.75
239.325	68.75
239.559	69.75
239.793	85.75
240.027	81.75
240.26	93.75
240.494	77.75
240.728	73.75
240.961	86.75
241.195	71.75
241.429	64.75
241.662	72.75
241.896	82.75
242.13	65.75
242.363	73.75
242.597	78.75
242.83	71.75
243.064	72.75
243.298	73.75
243.531	71.75
243.765	89.75
243.998	67.75
244.232	77.75
244.465	80.75
244.699	72.75
244.932	77.75
245.166	97.75
245.399	76.75
245.633	87.75
245.866	94.75
246.099	81.75
246.333	89.75
246.566	71.75
246.8	80.75
247.033	71.75
247.266	73.75
247.5	81.75
247.733	91.75
247.966	85.75
248.2	91.75
248.433	78.75
248.666	75.75
248.899	81.75
249.133	75.75
249.366	94.75
249.599	87.75
249.832	85.75
250.066	74.75
250.299	82.75
250.532	74.75
250.765	80.75
250.998	88.75
251.231	79.75
251.465	86.75
251.698	77.75
251.931	93.75
252.164	72.75
252.397	69.75
252.63	89.75
252.863	80.75
253.096	86.75
253.329	90.75
253.562	70.75
253.795	82.75
254.028	94.75
254.261	85.75
254.494	85.75
254.727	77.75
254.96	75.75
255.193	90.75
255.426	86.75
255.659	91.75
255.892	71.75
256.124	67.75
256.357	88.75
256.59	96.75
256.823	75.75
257.056	78.75
257.289	85.75
257.521	78.75
257.754	85.75
257.987	91.75
258.22	82.75
258.452	85.75
258.685	91.75
258.918	89.75
259.151	86.75
259.383	96.75
259.616	74.75
259.849	73.75
260.081	93.75
260.314	84.75
260.547	83.75
260.779	80.75
261.012	81.75
261.244	79.75
261.477	81.75
261.71	82.75
261.942	86.75
262.175	118.75
262.407	74.75
262.64	86.75
262.872	80.75
263.105	90.75
263.337	85.75
263.57	73.75
263.802	97.75
264.035	90.75
264.267	77.75
264.499	71.75
264.732	83.75
264.964	75.75
265.197	71.75
265.429	71.75
265.661	78.75
265.894	91.75
266.126	83.75
266.358	81.75
266.591	79.75
266.823	78.75
267.055	74.75
267.287	86.75
267.52	72.75
267.752	75.75
267.984	80.75
268.216	74.75
268.448	95.75
268.681	98.75
268.913	77.75
269.145	76.75
269.377	87.75
269.609	82.75
269.841	85.75
270.073	101.75
270.306	98.75
270.538	91.75
270.77	94.75
271.002	78.75
271.234	85.75
271.466	85.75
271.698	87.75
271.93	85.75
272.162	82.75
272.394	70.75
272.626	76.75
272.858	87.75
273.09	78.75
273.322	86.75
273.553	84.75
273.785	88.75
274.017	93.75
274.249	87.75
274.481	88.75
274.713	83.75
274.945	77.75
275.176	91.75
275.408	86.75
275.64	84.75
275.872	95.75
276.104	88.75
276.335	88.75
276.567	103.75
276.799	95.75
277.031	97.75
277.262	88.75
277.494	84.75
277.726	106.75
277.957	90.75
278.189	86.75
278.421	103.75
278.652	94.75
278.884	77.75
279.115	90.75
279.347	94.75
279.579	91.75
279.81	70.75
280.042	90.75
280.273	92.75
280.505	93.75
280.736	88.75
280.968	86.75
281.199	95.75
281.431	91.75
281.662	90.75
281.894	89.75
282.125	89.75
282.356	104.75
282.588	122.75
282.819	110.75
283.051	86.75
283.282	88.75
283.513	81.75
283.745	79.75
283.976	98.75
284.207	94.75
284.439	102.75
284.67	91.75
284.901	86.75
285.132	83.75
285.364	85.75
285.595	104.75
285.826	85.75
286.057	91.75
286.288	89.75
286.52	91.75
286.751	85.75
286.982	82.75
287.213	97.75
287.444	85.75
287.675	94.75
287.906	84.75
288.138	93.75
288.369	84.75
288.6	91.75
288.831	80.75
289.062	91.75
289.293	82.75
289.524	75.75
289.755	81.75
289.986	97.75
290.217	79.75
290.448	95.75
290.679	93.75
290.91	89.75
291.141	87.75
291.371	84.75
291.602	73.75
291.833	89.75
292.064	91.75
292.295	91.75
292.526	80.75
292.757	73.75
292.987	85.75
293.218	87.75
293.449	78.75
293.68	92.75
293.91	83.75
294.141	77.75
294.372	94.75
294.603	90.75
294.833	102.75
295.064	93.75
295.295	89.75
295.525	92.75
295.756	90.75
295.987	106.75
296.217	121.75
296.448	127.75
296.679	98.75
296.909	80.75
297.14	101.75
297.37	80.75
297.601	90.75
297.831	96.75
298.062	98.75
298.292	106.75
298.523	89.75
298.753	94.75
298.984	88.75
299.214	77.75
299.445	81.75
299.675	90.75
299.905	95.75
300.136	89.75
300.366	86.75
300.597	90.75
300.827	82.75
301.057	97.75
301.288	84.75
301.518	86.75
301.748	92.75
301.979	109.75
302.209	90.75
302.439	97.75
302.669	96.75
302.9	89.75
303.13	100.75
303.36	92.75
303.59	93.75
303.82	88.75
304.051	99.75
304.281	89.75
304.511	89.75
304.741	97.75
304.971	85.75
305.201	105.75
305.431	92.75
305.661	94.75
305.891	92.75
306.121	87.75
306.352	90.75
306.582	102.75
306.812	91.75
307.042	91.75
307.272	104.75
307.502	89.75
307.731	93.75
307.961	87.75
308.191	93.75
308.421	89.75
308.651	94.75
308.881	98.75
309.111	97.75
309.341	93.75
309.571	93.75
309.8	99.75
310.03	110.75
310.26	102.75
310.49	109.75
310.72	94.75
310.949	95.75
311.179	92.75
311.409	93.75
311.639	90.75
311.868	104.75
312.098	102.75
312.328	94.75
312.557	99.75
312.787	105.75
313.017	96.75
313.246	98.75
313.476	93.75
313.706	93.75
313.935	87.75
314.165	98.75
314.394	103.75
314.624	96.75
314.853	94.75
315.083	92.75
315.312	89.75
315.542	91.75
315.771	94.75
316.001	99.75
316.23	82.75
316.46	98.75
316.689	82.75
316.919	87.75
317.148	92.75
317.377	103.75
317.607	106.75
317.836	99.75
318.065	77.75
318.295	77.75
318.524	102.75
318.753	98.75
318.983	92.75
319.212	106.75
319.441	114.75
319.67	93.75
319.9	110.75
320.129	92.75
320.358	97.75
320.587	87.75
320.816	98.75
321.046	103.75
321.275	104.75
321.504	92.75
321.733	96.75
321.962	101.75
322.191	100.75
322.42	102.75
322.649	108.75
322.878	112.75
323.108	114.75
323.337	111.75
323.566	138.75
323.795	160.75
324.024	208.75
324.253	398.75
324.482	813.75
324.71	1664.75
324.939	2210.75
325.168	786.75
325.397	221.75
325.626	131.75
325.855	129.75
326.084	114.75
326.313	140.75
326.542	149.75
326.77	243.75
326.999	452.75
327.228	952.75
327.457	1711.75
327.686	1355.75
327.914	367.75
328.143	166.75
328.372	136.75
328.6	129.75
328.829	112.75
329.058	111.75
329.287	112.75
329.515	108.75
329.744	105.75
329.972	89.75
330.201	117.75
330.43	105.75
330.658	120.75
330.887	121.75
331.115	127.75
331.344	90.75
331.572	94.75
331.801	99.75
332.03	94.75
332.258	97.75
332.486	94.75
332.715	114.75
332.943	95.75
333.172	102.75
333.4	97.75
333.629	91.75
333.857	103.75
334.085	127.75
334.314	103.75
334.542	106.75
334.771	107.75
334.999	98.75
335.227	104.75
335.455	103.75
335.684	103.75
335.912	95.75
336.14	103.75
336.369	102.75
336.597	89.75
336.825	100.75
337.053	94.75
337.281	99.75
337.51	94.75
337.738	95.75
337.966	98.75
338.194	92.75
338.422	98.75
338.65	103.75
338.878	93.75
339.106	77.75
339.334	94.75
339.562	90.75
339.79	93.75
340.018	95.75
340.246	91.75
340.474	103.75
340.702	101.75
340.93	94.75
341.158	98.75
341.386	104.75
341.614	109.75
341.842	83.75
342.07	92.75
342.298	84.75
342.526	90.75
342.754	82.75
342.981	85.75
343.209	81.75
343.437	108.75
343.665	84.75
343.893	97.75
344.12	79.75
344.348	93.75
344.576	82.75
344.804	101.75
345.031	98.75
345.259	89.75
345.487	91.75
345.714	104.75
345.942	87.75
346.17	101.75
346.397	91.75
346.625	105.75
346.853	105.75
347.08	94.75
347.308	91.75
347.535	104.75
347.763	101.75
347.99	96.75
348.218	96.75
348.445	96.75
348.673	96.75
348.9	91.75
349.128	108.75
349.355	89.75
349.583	79.75
349.81	94.75
350.037	105.75
350.265	100.75
350.492	107.75
350.72	92.75
350.947	90.75
351.174	109.75
351.402	88.75
351.629	103.75
351.856	112.75
352.083	112.75
352.311	105.75
352.538	108.75
352.765	95.75
352.992	110.75
353.22	110.75
353.447	96.75
353.674	106.75
353.901	103.75
354.128	107.75
354.355	91.75
354.583	110.75
354.81	94.75
355.037	101.75
355.264	122.75
355.491	96.75
355.718	98.75
355.945	91.75
356.172	109.75
356.399	100.75
356.626	107.75
356.853	97.75
357.08	94.75
357.307	94.75
357.534	88.75
357.761	94.75
357.988	107.75
358.215	109.75
358.441	101.75
358.668	103.75
358.895	82.75
359.122	94.75
359.349	102.75
359.576	94.75
359.802	93.75
360.029	103.75
360.256	107.75
360.483	77.75
360.709	89.75
360.936	99.75
361.163	94.75
361.39	98.75
361.616	98.75
361.843	97.75
362.07	95.75
362.296	96.75
362.523	94.75
362.749	100.75
362.976	85.75
363.203	95.75
363.429	89.75
363.656	96.75
363.882	99.75
364.109	83.75
364.335	84.75
364.562	89.75
364.788	99.75
365.015	94.75
365.241	91.75
365.468	103.75
365.694	122.75
365.92	118.75
366.147	86.75
366.373	79.75
366.599	82.75
366.826	96.75
367.052	85.75
367.278	87.75
367.505	85.75
367.731	94.75
367.957	98.75
368.184	85.75
368.41	108.75
368.636	114.75
368.862	109.75
369.089	91.75
369.315	100.75
369.541	99.75
369.767	90.75
369.993	97.75
370.219	93.75
370.445	95.75
370.672	102.75
370.898	79.75
371.124	104.75
371.35	87.75
371.576	75.75
371.802	101.75
372.028	94.75
372.254	93.75
372.48	88.75
372.706	96.75
372.932	87.75
373.158	86.75
373.384	99.75
373.61	88.75
373.835	94.75
374.061	95.75
374.287	92.75
374.513	92.75
374.739	91.75
374.965	97.75
375.191	85.75
375.416	108.75
375.642	95.75
375.868	109.75
376.094	95.75
376.319	79.75
376.545	103.75
376.771	89.75
376.997	80.75
377.222	94.75
377.448	113.75
377.674	86.75
377.899	103.75
378.125	103.75
378.35	103.75
378.576	80.75
378.802	96.75
379.027	95.75
379.253	93.75
379.478	105.75
379.704	104.75
379.929	102.75
380.155	96.75
380.38	96.75
380.606	106.75
380.831	102.75
381.057	94.75
381.282	104.75
381.507	104.75
381.733	97.75
381.958	108.75
382.184	115.75
382.409	105.75
382.634	106.75
382.86	99.75
383.085	121.75
383.31	113.75
383.535	117.75
383.761	123.75
383.986	118.75
384.211	110.75
384.436	130.75
384.662	125.75
384.887	126.75
385.112	134.75
385.337	113.75
385.562	146.75
385.787	134.75
386.013	144.75
386.238	140.75
386.463	117.75
386.688	120.75
386.913	119.75
387.138	144.75
387.363	127.75
387.588	96.75
387.813	118.75
388.038	139.75
388.263	166.75
388.488	168.75
388.713	111.75
388.938	110.75
389.163	107.75
389.387	116.75
389.612	109.75
389.837	88.75
390.062	93.75
390.287	95.75
390.512	96.75
390.736	96.75
390.961	101.75
391.186	91.75
391.411	95.75
391.636	95.75
391.86	83.75
392.085	105.75
392.31	95.75
392.534	103.75
392.759	90.75
392.984	95.75
393.208	101.75
393.433	97.75
393.658	103.75
393.882	93.75
394.107	90.75
394.331	77.75
394.556	83.75
394.78	87.75
395.005	95.75
395.229	96.75
395.454	94.75
395.678	95.75
395.903	90.75
396.127	89.75
396.352	96.75
396.576	93.75
396.801	94.75
397.025	90.75
397.249	95.75
397.474	92.75
397.698	88.75
397.922	73.75
398.147	91.75
398.371	84.75
398.595	85.75
398.82	89.75
399.044	95.75
399.268	94.75
399.492	87.75
399.717	97.75
399.941	82.75
400.165	87.75
400.389	96.75
400.613	78.75
400.837	102.75
401.062	98.75
401.286	96.75
401.51	91.75
401.734	108.75
401.958	105.75
402.182	121.75
402.406	134.75
402.63	113.75
402.854	109.75
403.078	95.75
403.302	92.75
403.526	87.75
403.75	88.75
403.974	82.75
404.198	67.75
404.422	103.75
404.645	104.75
404.869	85.75
405.093	93.75
405.317	92.75
405.541	103.75
405.765	98.75
405.988	109.75
406.212	146.75
406.436	183.75
406.66	130.75
406.883	104.75
407.107	101.75
407.331	89.75
407.555	88.75
407.778	100.75
408.002	72.75
408.226	96.75
408.449	102.75
408.673	97.75
408.896	106.75
409.12	96.75
409.344	106.75
409.567	90.75
409.791	97.75
410.014	85.75
410.238	94.75
410.461	102.75
410.685	99.75
410.908	105.75
411.132	103.75
411.355	104.75
411.578	91.75
411.802	99.75
412.025	103.75
412.249	87.75
412.472	101.75
412.695	90.75
412.919	105.75
413.142	94.75
413.365	95.75
413.589	89.75
413.812	88.75
414.035	93.75
414.258	94.75
414.482	98.75
414.705	107.75
414.928	91.75
415.151	89.75
415.374	94.75
415.597	90.75
415.821	78.75
416.044	102.75
416.267	102.75
416.49	97.75
416.713	82.75
416.936	77.75
417.159	95.75
417.382	89.75
417.605	90.75
417.828	93.75
418.051	101.75
418.274	103.75
418.497	95.75
418.72	87.75
418.943	99.75
419.166	92.75
419.389	85.75
419.611	108.75
419.834	97.75
420.057	89.75
420.28	95.75
420.503	93.75
420.726	99.75
420.948	92.75
421.171	106.75
421.394	91.75
421.617	94.75
421.839	86.75
422.062	87.75
422.285	102.75
422.507	103.75
422.73	94.75
422.953	94.75
423.175	98.75
423.398	90.75
423.621	90.75
423.843	86.75
424.066	82.75
424.288	83.75
424.511	94.75
424.733	96.75
424.956	103.75
425.178	111.75
425.401	97.75
425.623	83.75
425.846	94.75
426.068	97.75
426.291	85.75
426.513	94.75
426.735	78.75
426.958	94.75
427.18	95.75
427.402	129.75
427.625	137.75
427.847	125.75
428.069	108.75
428.292	80.75
428.514	91.75
428.736	86.75
428.958	95.75
429.181	96.75
429.403	90.75
429.625	82.75
429.847	96.75
430.069	104.75
430.292	105.75
430.514	84.75
430.736	88.75
430.958	83.75
431.18	75.75
431.402	90.75
431.624	90.75
431.846	90.75
432.068	85.75
432.29	87.75
432.512	94.75
432.734	89.75
432.956	103.75
433.178	117.75
433.4	91.75
433.622	99.75
433.844	93.75
434.066	91.75
434.287	90.75
434.509	86.75
434.731	105.75
434.953	76.75
435.175	79.75
435.397	83.75
435.618	93.75
435.84	106.75
436.062	125.75
436.284	123.75
436.505	103.75
436.727	89.75
436.949	94.75
437.17	93.75
437.392	73.75
437.614	93.75
437.835	97.75
438.057	103.75
438.278	112.75
438.5	112.75
438.721	121.75
438.943	106.75
439.165	82.75
439.386	82.75
439.608	93.75
439.829	113.75
440.05	123.75
440.272	118.75
440.493	96.75
440.715	93.75
440.936	91.75
441.158	82.75
441.379	88.75
441.6	100.75
441.822	97.75
442.043	98.75
442.264	124.75
442.486	112.75
442.707	91.75
442.928	104.75
443.149	126.75
443.371	139.75
443.592	113.75
443.813	110.75
444.034	102.75
444.255	99.75
444.476	96.75
444.698	79.75
444.919	88.75
445.14	141.75
445.361	123.75
445.582	94.75
445.803	123.75
446.024	123.75
446.245	128.75
446.466	106.75
446.687	97.75
446.908	97.75
447.129	87.75
447.35	92.75
447.571	85.75
447.792	93.75
448.013	88.75
448.234	119.75
448.455	110.75
448.675	103.75
448.896	112.75
449.117	93.75
449.338	91.75
449.559	127.75
449.779	139.75
450	99.75
450.221	98.75
450.442	93.75
450.662	79.75
450.883	97.75
451.104	102.75
451.324	82.75
451.545	100.75
451.766	87.75
451.986	83.75
452.207	96.75
452.428	88.75
452.648	88.75
452.869	100.75
453.089	116.75
453.31	99.75
453.53	97.75
453.751	102.75
453.971	78.75
454.192	103.75
454.412	102.75
454.633	86.75
454.853	95.75
455.073	97.75
455.294	78.75
455.514	98.75
455.734	97.75
455.955	91.75
456.175	73.75
456.395	95.75
456.616	98.75
456.836	83.75
457.056	99.75
457.276	82.75
457.497	97.75
457.717	84.75
457.937	89.75
458.157	99.75
458.377	87.75
458.598	99.75
458.818	135.75
459.038	147.75
459.258	117.75
459.478	96.75
459.698	104.75
459.918	83.75
460.138	108.75
460.358	91.75
460.578	87.75
460.798	96.75
461.018	93.75
461.238	88.75
461.458	95.75
461.678	99.75
461.898	96.75
462.118	77.75
462.338	82.75
462.558	104.75
462.777	79.75
462.997	83.75
463.217	86.75
463.437	97.75
463.657	83.75
463.876	82.75
464.096	87.75
464.316	86.75
464.536	84.75
464.755	87.75
464.975	115.75
465.195	152.75
465.414	155.75
465.634	90.75
465.854	97.75
466.073	80.75
466.293	87.75
466.512	89.75
466.732	75.75
466.951	87.75
467.171	87.75
467.391	79.75
467.61	102.75
467.829	99.75
468.049	87.75
468.268	106.75
468.488	100.75
468.707	101.75
468.927	90.75
469.146	98.75
469.365	98.75
469.585	85.75
469.804	101.75
470.023	75.75
470.243	86.75
470.462	106.75
470.681	106.75
470.901	91.75
471.12	104.75
471.339	90.75
471.558	88.75
471.777	80.75
471.997	92.75
472.216	95.75
472.435	115.75
472.654	94.75
472.873	92.75
473.092	96.75
473.311	89.75
473.53	80.75
473.749	92.75
473.968	95.75
474.187	91.75
474.406	97.75
474.625	90.75
474.844	85.75
475.063	90.75
475.282	96.75
475.501	95.75
475.72	104.75
475.939	90.75
476.158	85.75
476.377	86.75
476.596	97.75
476.814	77.75
477.033	93.75
477.252	92.75
477.471	81.75
477.69	79.75
477.908	89.75
478.127	99.75
478.346	95.75
478.564	102.75
478.783	91.75
479.002	102.75
479.22	105.75
479.439	113.75
479.658	106.75
479.876	82.75
480.095	94.75
480.313	105.75
480.532	105.75
480.751	73.75
480.969	105.75
481.188	123.75
481.406	116.75
481.624	97.75
481.843	101.75
482.061	77.75
482.28	83.75
482.498	91.75
482.717	83.75
482.935	96.75
483.153	86.75
483.372	85.75
483.59	91.75
483.808	101.75
484.027	97.75
484.245	91.75
484.463	74.75
484.681	83.75
484.9	78.75
485.118	99.75
485.336	92.75
485.554	95.75
485.772	97.75
485.99	104.75
486.209	110.75
486.427	103.75
486.645	113.75
486.863	110.75
487.081	101.75
487.299	92.75
487.517	91.75
487.735	93.75
487.953	87.75
488.171	103.75
488.389	97.75
488.607	98.75
488.825	95.75
489.043	96.75
489.261	93.75
489.479	90.75
489.696	100.75
489.914	83.75
490.132	88.75
490.35	90.75
490.568	100.75
490.786	96.75
491.003	99.75
491.221	85.75
491.439	88.75
491.657	97.75
491.874	91.75
492.092	88.75
492.31	93.75
492.527	81.75
492.745	80.75
492.963	106.75
493.18	81.75
493.398	99.75
493.615	98.75
493.833	99.75
494.05	93.75
494.268	99.75
494.485	98.75
494.703	97.75
494.92	102.75
495.138	85.75
495.355	91.75
495.573	74.75
495.79	98.75
496.008	107.75
496.225	91.75
496.442	93.75
496.66	88.75
496.877	86.75
497.094	96.75
497.312	90.75
497.529	103.75
497.746	95.75
497.963	96.75
498.181	86.75
498.398	93.75
498.615	112.75
498.832	100.75
499.049	90.75
499.267	107.75
499.484	93.75
499.701	97.75
499.918	101.75
500.135	89.75
500.352	101.75
500.569	88.75
500.786	99.75
501.003	87.75
501.22	100.75
501.437	103.75
501.654	96.75
501.871	97.75
502.088	83.75
502.305	92.75
502.522	78.75
502.739	99.75
502.956	104.75
503.172	96.75
503.389	93.75
503.606	109.75
503.823	94.75
504.04	86.75
504.256	98.75
504.473	86.75
504.69	92.75
504.907	96.75
505.123	109.75
505.34	85.75
505.557	98.75
505.773	97.75
505.99	78.75
506.207	85.75
506.423	90.75
506.64	90.75
506.856	102.75
507.073	90.75
507.289	88.75
507.506	94.75
507.722	103.75
507.939	111.75
508.155	94.75
508.372	91.75
508.588	86.75
508.805	98.75
509.021	99.75
509.238	108.75
509.454	107.75
509.67	91.75
509.887	114.75
510.103	134.75
510.319	203.75
510.536	629.75
510.752	1917.75
510.968	541.75
511.184	153.75
511.401	117.75
511.617	114.75
511.833	99.75
512.049	98.75
512.265	82.75
512.481	97.75
512.698	96.75
512.914	96.75
513.13	97.75
513.346	94.75
513.562	94.75
513.778	94.75
513.994	107.75
514.21	95.75
514.426	96.75
514.642	134.75
514.858	122.75
515.074	156.75
