Data from Uncirc_1999_H10_HRD10591_00071.txt Node
Date: Wed Jan 03 11:22:19 EST 2024
User: Yrep
Spectrometer: HR+D1059
Trigger mode: 1
Integration Time (sec): 1.000000E-1
Scans to average: 1
Electric dark correction enabled: true
Nonlinearity correction enabled: false
Boxcar width: 0
XAxis mode: Wavelengths
Number of Pixels in Spectrum: 2048
>>>>>Begin Spectral Data<<<<<
223.165	-23.81
223.4	-23.81
223.635	-23.81
223.869	-22.81
224.104	-25.81
224.338	-13.81
224.573	-7.81
224.808	-18.81
225.042	-1.81
225.277	-17.81
225.511	5.19
225.746	5.19
225.98	-1.81
226.215	14.19
226.449	26.19
226.683	17.19
226.918	36.19
227.152	30.19
227.387	44.19
227.621	26.19
227.856	38.19
228.09	54.19
228.324	57.19
228.559	51.19
228.793	67.19
229.027	53.19
229.262	65.19
229.496	57.19
229.73	80.19
229.964	70.19
230.199	83.19
230.433	66.19
230.667	75.19
230.901	78.19
231.136	67.19
231.37	75.19
231.604	78.19
231.838	77.19
232.072	74.19
232.306	86.19
232.541	84.19
232.775	87.19
233.009	86.19
233.243	76.19
233.477	84.19
233.711	73.19
233.945	75.19
234.179	88.19
234.413	72.19
234.647	73.19
234.881	76.19
235.115	76.19
235.349	86.19
235.583	81.19
235.817	87.19
236.051	67.19
236.285	76.19
236.519	88.19
236.753	81.19
236.987	71.19
237.221	81.19
237.455	75.19
237.689	60.19
237.922	78.19
238.156	65.19
238.39	83.19
238.624	70.19
238.858	85.19
239.091	70.19
239.325	73.19
239.559	69.19
239.793	67.19
240.027	70.19
240.26	78.19
240.494	78.19
240.728	59.19
240.961	81.19
241.195	67.19
241.429	77.19
241.662	73.19
241.896	48.19
242.13	75.19
242.363	80.19
242.597	75.19
242.83	82.19
243.064	79.19
243.298	71.19
243.531	74.19
243.765	74.19
243.998	76.19
244.232	85.19
244.465	90.19
244.699	77.19
244.932	72.19
245.166	73.19
245.399	85.19
245.633	69.19
245.866	83.19
246.099	86.19
246.333	66.19
246.566	74.19
246.8	76.19
247.033	71.19
247.266	86.19
247.5	76.19
247.733	80.19
247.966	72.19
248.2	78.19
248.433	88.19
248.666	81.19
248.899	77.19
249.133	94.19
249.366	89.19
249.599	101.19
249.832	76.19
250.066	63.19
250.299	87.19
250.532	81.19
250.765	88.19
250.998	77.19
251.231	63.19
251.465	75.19
251.698	76.19
251.931	60.19
252.164	70.19
252.397	71.19
252.63	69.19
252.863	85.19
253.096	75.19
253.329	75.19
253.562	67.19
253.795	69.19
254.028	84.19
254.261	85.19
254.494	79.19
254.727	84.19
254.96	81.19
255.193	69.19
255.426	82.19
255.659	73.19
255.892	83.19
256.124	68.19
256.357	83.19
256.59	84.19
256.823	61.19
257.056	73.19
257.289	80.19
257.521	72.19
257.754	87.19
257.987	83.19
258.22	73.19
258.452	89.19
258.685	69.19
258.918	82.19
259.151	68.19
259.383	82.19
259.616	91.19
259.849	79.19
260.081	66.19
260.314	83.19
260.547	80.19
260.779	70.19
261.012	77.19
261.244	85.19
261.477	103.19
261.71	77.19
261.942	86.19
262.175	115.19
262.407	74.19
262.64	85.19
262.872	70.19
263.105	85.19
263.337	81.19
263.57	73.19
263.802	83.19
264.035	79.19
264.267	98.19
264.499	90.19
264.732	69.19
264.964	78.19
265.197	71.19
265.429	77.19
265.661	82.19
265.894	89.19
266.126	83.19
266.358	81.19
266.591	73.19
266.823	67.19
267.055	73.19
267.287	87.19
267.52	87.19
267.752	89.19
267.984	82.19
268.216	75.19
268.448	94.19
268.681	89.19
268.913	80.19
269.145	80.19
269.377	75.19
269.609	81.19
269.841	85.19
270.073	76.19
270.306	75.19
270.538	77.19
270.77	71.19
271.002	78.19
271.234	85.19
271.466	79.19
271.698	90.19
271.93	67.19
272.162	90.19
272.394	85.19
272.626	72.19
272.858	89.19
273.09	100.19
273.322	61.19
273.553	71.19
273.785	92.19
274.017	71.19
274.249	79.19
274.481	82.19
274.713	66.19
274.945	89.19
275.176	75.19
275.408	81.19
275.64	89.19
275.872	95.19
276.104	93.19
276.335	84.19
276.567	78.19
276.799	102.19
277.031	85.19
277.262	74.19
277.494	81.19
277.726	79.19
277.957	70.19
278.189	86.19
278.421	87.19
278.652	82.19
278.884	66.19
279.115	82.19
279.347	81.19
279.579	80.19
279.81	75.19
280.042	85.19
280.273	80.19
280.505	87.19
280.736	82.19
280.968	84.19
281.199	84.19
281.431	85.19
281.662	91.19
281.894	101.19
282.125	95.19
282.356	110.19
282.588	123.19
282.819	110.19
283.051	88.19
283.282	85.19
283.513	88.19
283.745	90.19
283.976	69.19
284.207	92.19
284.439	76.19
284.67	84.19
284.901	73.19
285.132	84.19
285.364	81.19
285.595	90.19
285.826	86.19
286.057	78.19
286.288	84.19
286.52	84.19
286.751	81.19
286.982	87.19
287.213	66.19
287.444	88.19
287.675	91.19
287.906	78.19
288.138	78.19
288.369	83.19
288.6	92.19
288.831	96.19
289.062	94.19
289.293	84.19
289.524	73.19
289.755	89.19
289.986	85.19
290.217	72.19
290.448	68.19
290.679	97.19
290.91	93.19
291.141	83.19
291.371	88.19
291.602	73.19
291.833	85.19
292.064	91.19
292.295	72.19
292.526	94.19
292.757	85.19
292.987	75.19
293.218	91.19
293.449	84.19
293.68	92.19
293.91	88.19
294.141	88.19
294.372	90.19
294.603	90.19
294.833	83.19
295.064	72.19
295.295	73.19
295.525	99.19
295.756	106.19
295.987	101.19
296.217	134.19
296.448	113.19
296.679	79.19
296.909	93.19
297.14	73.19
297.37	87.19
297.601	89.19
297.831	79.19
298.062	95.19
298.292	75.19
298.523	88.19
298.753	83.19
298.984	84.19
299.214	86.19
299.445	91.19
299.675	81.19
299.905	87.19
300.136	95.19
300.366	80.19
300.597	91.19
300.827	87.19
301.057	97.19
301.288	89.19
301.518	82.19
301.748	79.19
301.979	74.19
302.209	74.19
302.439	93.19
302.669	70.19
302.9	88.19
303.13	87.19
303.36	97.19
303.59	81.19
303.82	84.19
304.051	76.19
304.281	77.19
304.511	83.19
304.741	87.19
304.971	89.19
305.201	76.19
305.431	91.19
305.661	85.19
305.891	96.19
306.121	96.19
306.352	105.19
306.582	95.19
306.812	91.19
307.042	89.19
307.272	84.19
307.502	83.19
307.731	100.19
307.961	92.19
308.191	87.19
308.421	87.19
308.651	71.19
308.881	82.19
309.111	85.19
309.341	93.19
309.571	91.19
309.8	93.19
310.03	90.19
310.26	91.19
310.49	80.19
310.72	97.19
310.949	93.19
311.179	93.19
311.409	93.19
311.639	100.19
311.868	103.19
312.098	91.19
312.328	94.19
312.557	74.19
312.787	93.19
313.017	78.19
313.246	82.19
313.476	83.19
313.706	90.19
313.935	79.19
314.165	82.19
314.394	82.19
314.624	80.19
314.853	89.19
315.083	93.19
315.312	94.19
315.542	85.19
315.771	85.19
316.001	87.19
316.23	89.19
316.46	76.19
316.689	91.19
316.919	95.19
317.148	93.19
317.377	94.19
317.607	78.19
317.836	77.19
318.065	74.19
318.295	78.19
318.524	97.19
318.753	82.19
318.983	77.19
319.212	98.19
319.441	90.19
319.67	103.19
319.9	97.19
320.129	89.19
320.358	87.19
320.587	108.19
320.816	100.19
321.046	93.19
321.275	89.19
321.504	97.19
321.733	101.19
321.962	90.19
322.191	98.19
322.42	93.19
322.649	99.19
322.878	106.19
323.108	115.19
323.337	116.19
323.566	120.19
323.795	140.19
324.024	204.19
324.253	400.19
324.482	881.19
324.71	1814.19
324.939	2384.19
325.168	865.19
325.397	253.19
325.626	146.19
325.855	135.19
326.084	132.19
326.313	124.19
326.542	155.19
326.77	237.19
326.999	487.19
327.228	1032.19
327.457	1855.19
327.686	1458.19
327.914	374.19
328.143	180.19
328.372	133.19
328.6	115.19
328.829	122.19
329.058	133.19
329.287	114.19
329.515	109.19
329.744	88.19
329.972	108.19
330.201	100.19
330.43	115.19
330.658	102.19
330.887	122.19
331.115	119.19
331.344	105.19
331.572	88.19
331.801	98.19
332.03	91.19
332.258	93.19
332.486	104.19
332.715	90.19
332.943	85.19
333.172	93.19
333.4	95.19
333.629	109.19
333.857	118.19
334.085	100.19
334.314	93.19
334.542	95.19
334.771	109.19
334.999	80.19
335.227	89.19
335.455	91.19
335.684	109.19
335.912	92.19
336.14	102.19
336.369	105.19
336.597	81.19
336.825	83.19
337.053	101.19
337.281	94.19
337.51	80.19
337.738	95.19
337.966	95.19
338.194	94.19
338.422	75.19
338.65	90.19
338.878	96.19
339.106	76.19
339.334	93.19
339.562	78.19
339.79	91.19
340.018	79.19
340.246	89.19
340.474	90.19
340.702	80.19
340.93	78.19
341.158	79.19
341.386	98.19
341.614	91.19
341.842	91.19
342.07	85.19
342.298	104.19
342.526	98.19
342.754	92.19
342.981	93.19
343.209	85.19
343.437	102.19
343.665	101.19
343.893	81.19
344.12	98.19
344.348	85.19
344.576	88.19
344.804	82.19
345.031	100.19
345.259	83.19
345.487	90.19
345.714	90.19
345.942	81.19
346.17	99.19
346.397	93.19
346.625	90.19
346.853	82.19
347.08	101.19
347.308	92.19
347.535	101.19
347.763	118.19
347.99	86.19
348.218	93.19
348.445	103.19
348.673	71.19
348.9	100.19
349.128	108.19
349.355	96.19
349.583	96.19
349.81	85.19
350.037	94.19
350.265	88.19
350.492	91.19
350.72	107.19
350.947	102.19
351.174	108.19
351.402	99.19
351.629	100.19
351.856	105.19
352.083	94.19
352.311	94.19
352.538	115.19
352.765	103.19
352.992	101.19
353.22	100.19
353.447	92.19
353.674	102.19
353.901	106.19
354.128	81.19
354.355	86.19
354.583	92.19
354.81	85.19
355.037	96.19
355.264	99.19
355.491	73.19
355.718	85.19
355.945	93.19
356.172	89.19
356.399	94.19
356.626	100.19
356.853	84.19
357.08	89.19
357.307	90.19
357.534	80.19
357.761	87.19
357.988	103.19
358.215	88.19
358.441	84.19
358.668	90.19
358.895	69.19
359.122	78.19
359.349	83.19
359.576	79.19
359.802	84.19
360.029	98.19
360.256	100.19
360.483	87.19
360.709	97.19
360.936	82.19
361.163	77.19
361.39	86.19
361.616	91.19
361.843	87.19
362.07	90.19
362.296	79.19
362.523	88.19
362.749	81.19
362.976	98.19
363.203	82.19
363.429	90.19
363.656	84.19
363.882	87.19
364.109	93.19
364.335	93.19
364.562	99.19
364.788	85.19
365.015	76.19
365.241	103.19
365.468	88.19
365.694	90.19
365.92	99.19
366.147	93.19
366.373	88.19
366.599	89.19
366.826	88.19
367.052	86.19
367.278	89.19
367.505	96.19
367.731	86.19
367.957	89.19
368.184	96.19
368.41	83.19
368.636	102.19
368.862	114.19
369.089	88.19
369.315	81.19
369.541	82.19
369.767	92.19
369.993	97.19
370.219	89.19
370.445	85.19
370.672	74.19
370.898	87.19
371.124	97.19
371.35	92.19
371.576	83.19
371.802	89.19
372.028	86.19
372.254	69.19
372.48	92.19
372.706	81.19
372.932	87.19
373.158	94.19
373.384	85.19
373.61	78.19
373.835	84.19
374.061	82.19
374.287	98.19
374.513	87.19
374.739	97.19
374.965	80.19
375.191	84.19
375.416	82.19
375.642	86.19
375.868	74.19
376.094	88.19
376.319	62.19
376.545	88.19
376.771	98.19
376.997	91.19
377.222	96.19
377.448	95.19
377.674	96.19
377.899	92.19
378.125	78.19
378.35	80.19
378.576	76.19
378.802	90.19
379.027	88.19
379.253	87.19
379.478	88.19
379.704	81.19
379.929	95.19
380.155	80.19
380.38	92.19
380.606	89.19
380.831	81.19
381.057	92.19
381.282	96.19
381.507	85.19
381.733	90.19
381.958	92.19
382.184	83.19
382.409	101.19
382.634	100.19
382.86	99.19
383.085	97.19
383.31	100.19
383.535	98.19
383.761	93.19
383.986	101.19
384.211	102.19
384.436	106.19
384.662	97.19
384.887	103.19
385.112	98.19
385.337	100.19
385.562	94.19
385.787	104.19
386.013	107.19
386.238	115.19
386.463	104.19
386.688	101.19
386.913	105.19
387.138	98.19
387.363	100.19
387.588	96.19
387.813	89.19
388.038	108.19
388.263	113.19
388.488	98.19
388.713	102.19
388.938	90.19
389.163	99.19
389.387	105.19
389.612	97.19
389.837	107.19
390.062	83.19
390.287	86.19
390.512	89.19
390.736	86.19
390.961	85.19
391.186	97.19
391.411	100.19
391.636	103.19
391.86	93.19
392.085	87.19
392.31	79.19
392.534	82.19
392.759	79.19
392.984	80.19
393.208	87.19
393.433	77.19
393.658	87.19
393.882	78.19
394.107	83.19
394.331	87.19
394.556	75.19
394.78	96.19
395.005	89.19
395.229	85.19
395.454	73.19
395.678	80.19
395.903	86.19
396.127	82.19
396.352	80.19
396.576	88.19
396.801	86.19
397.025	75.19
397.249	101.19
397.474	105.19
397.698	74.19
397.922	77.19
398.147	82.19
398.371	99.19
398.595	84.19
398.82	82.19
399.044	69.19
399.268	79.19
399.492	88.19
399.717	85.19
399.941	92.19
400.165	85.19
400.389	89.19
400.613	75.19
400.837	87.19
401.062	91.19
401.286	94.19
401.51	84.19
401.734	91.19
401.958	96.19
402.182	112.19
402.406	149.19
402.63	109.19
402.854	84.19
403.078	89.19
403.302	71.19
403.526	87.19
403.75	73.19
403.974	87.19
404.198	73.19
404.422	78.19
404.645	99.19
404.869	104.19
405.093	89.19
405.317	95.19
405.541	91.19
405.765	99.19
405.988	114.19
406.212	157.19
406.436	194.19
406.66	139.19
406.883	90.19
407.107	94.19
407.331	97.19
407.555	102.19
407.778	92.19
408.002	84.19
408.226	68.19
408.449	88.19
408.673	92.19
408.896	87.19
409.12	94.19
409.344	82.19
409.567	79.19
409.791	77.19
410.014	77.19
410.238	78.19
410.461	91.19
410.685	85.19
410.908	100.19
411.132	106.19
411.355	102.19
411.578	85.19
411.802	81.19
412.025	86.19
412.249	80.19
412.472	89.19
412.695	85.19
412.919	90.19
413.142	84.19
413.365	93.19
413.589	74.19
413.812	87.19
414.035	86.19
414.258	82.19
414.482	90.19
414.705	72.19
414.928	82.19
415.151	101.19
415.374	91.19
415.597	92.19
415.821	84.19
416.044	100.19
416.267	80.19
416.49	94.19
416.713	97.19
416.936	79.19
417.159	89.19
417.382	96.19
417.605	99.19
417.828	81.19
418.051	89.19
418.274	90.19
418.497	81.19
418.72	81.19
418.943	91.19
419.166	87.19
419.389	79.19
419.611	89.19
419.834	86.19
420.057	85.19
420.28	85.19
420.503	79.19
420.726	104.19
420.948	105.19
421.171	87.19
421.394	82.19
421.617	98.19
421.839	84.19
422.062	90.19
422.285	88.19
422.507	88.19
422.73	98.19
422.953	90.19
423.175	88.19
423.398	77.19
423.621	91.19
423.843	90.19
424.066	93.19
424.288	75.19
424.511	81.19
424.733	89.19
424.956	95.19
425.178	95.19
425.401	102.19
425.623	98.19
425.846	94.19
426.068	86.19
426.291	94.19
426.513	101.19
426.735	76.19
426.958	78.19
427.18	89.19
427.402	124.19
427.625	153.19
427.847	102.19
428.069	99.19
428.292	88.19
428.514	72.19
428.736	79.19
428.958	72.19
429.181	79.19
429.403	97.19
429.625	86.19
429.847	101.19
430.069	97.19
430.292	97.19
430.514	79.19
430.736	84.19
430.958	67.19
431.18	63.19
431.402	80.19
431.624	87.19
431.846	76.19
432.068	82.19
432.29	82.19
432.512	113.19
432.734	78.19
432.956	72.19
433.178	98.19
433.4	80.19
433.622	91.19
433.844	102.19
434.066	88.19
434.287	91.19
434.509	78.19
434.731	95.19
434.953	82.19
435.175	83.19
435.397	82.19
435.618	89.19
435.84	76.19
436.062	126.19
436.284	99.19
436.505	101.19
436.727	102.19
436.949	97.19
437.17	82.19
437.392	87.19
437.614	83.19
437.835	93.19
438.057	96.19
438.278	103.19
438.5	113.19
438.721	120.19
438.943	106.19
439.165	74.19
439.386	91.19
439.608	85.19
439.829	113.19
440.05	108.19
440.272	123.19
440.493	92.19
440.715	101.19
440.936	85.19
441.158	80.19
441.379	91.19
441.6	86.19
441.822	89.19
442.043	90.19
442.264	99.19
442.486	86.19
442.707	83.19
442.928	90.19
443.149	103.19
443.371	101.19
443.592	103.19
443.813	98.19
444.034	104.19
444.255	87.19
444.476	89.19
444.698	101.19
444.919	75.19
445.14	122.19
445.361	121.19
445.582	106.19
445.803	120.19
446.024	107.19
446.245	113.19
446.466	101.19
446.687	104.19
446.908	80.19
447.129	95.19
447.35	79.19
447.571	92.19
447.792	75.19
448.013	91.19
448.234	106.19
448.455	74.19
448.675	93.19
448.896	100.19
449.117	92.19
449.338	111.19
449.559	145.19
449.779	109.19
450	86.19
450.221	93.19
450.442	76.19
450.662	85.19
450.883	94.19
451.104	104.19
451.324	94.19
451.545	85.19
451.766	65.19
451.986	91.19
452.207	78.19
452.428	89.19
452.648	88.19
452.869	93.19
453.089	90.19
453.31	107.19
453.53	82.19
453.751	95.19
453.971	89.19
454.192	81.19
454.412	95.19
454.633	94.19
454.853	87.19
455.073	72.19
455.294	86.19
455.514	105.19
455.734	94.19
455.955	77.19
456.175	82.19
456.395	90.19
456.616	78.19
456.836	99.19
457.056	84.19
457.276	80.19
457.497	92.19
457.717	71.19
457.937	78.19
458.157	87.19
458.377	89.19
458.598	95.19
458.818	133.19
459.038	133.19
459.258	101.19
459.478	88.19
459.698	77.19
459.918	75.19
460.138	77.19
460.358	89.19
460.578	92.19
460.798	79.19
461.018	95.19
461.238	83.19
461.458	81.19
461.678	96.19
461.898	76.19
462.118	94.19
462.338	89.19
462.558	88.19
462.777	83.19
462.997	85.19
463.217	82.19
463.437	81.19
463.657	83.19
463.876	84.19
464.096	78.19
464.316	89.19
464.536	85.19
464.755	93.19
464.975	84.19
465.195	144.19
465.414	151.19
465.634	91.19
465.854	94.19
466.073	77.19
466.293	91.19
466.512	90.19
466.732	89.19
466.951	90.19
467.171	95.19
467.391	82.19
467.61	90.19
467.829	86.19
468.049	83.19
468.268	84.19
468.488	89.19
468.707	93.19
468.927	90.19
469.146	83.19
469.365	72.19
469.585	87.19
469.804	89.19
470.023	98.19
470.243	95.19
470.462	99.19
470.681	104.19
470.901	93.19
471.12	79.19
471.339	76.19
471.558	85.19
471.777	86.19
471.997	93.19
472.216	95.19
472.435	92.19
472.654	90.19
472.873	83.19
473.092	92.19
473.311	100.19
473.53	84.19
473.749	92.19
473.968	82.19
474.187	89.19
474.406	106.19
474.625	92.19
474.844	79.19
475.063	79.19
475.282	86.19
475.501	77.19
475.72	82.19
475.939	87.19
476.158	89.19
476.377	92.19
476.596	78.19
476.814	84.19
477.033	95.19
477.252	83.19
477.471	78.19
477.69	78.19
477.908	87.19
478.127	86.19
478.346	89.19
478.564	84.19
478.783	90.19
479.002	90.19
479.22	79.19
479.439	93.19
479.658	101.19
479.876	101.19
480.095	89.19
480.313	85.19
480.532	80.19
480.751	79.19
480.969	87.19
481.188	114.19
481.406	107.19
481.624	80.19
481.843	92.19
482.061	75.19
482.28	74.19
482.498	86.19
482.717	60.19
482.935	86.19
483.153	86.19
483.372	96.19
483.59	91.19
483.808	77.19
484.027	105.19
484.245	95.19
484.463	97.19
484.681	85.19
484.9	90.19
485.118	95.19
485.336	90.19
485.554	98.19
485.772	96.19
485.99	93.19
486.209	95.19
486.427	105.19
486.645	99.19
486.863	102.19
487.081	94.19
487.299	93.19
487.517	87.19
487.735	93.19
487.953	94.19
488.171	97.19
488.389	90.19
488.607	86.19
488.825	62.19
489.043	81.19
489.261	75.19
489.479	94.19
489.696	92.19
489.914	77.19
490.132	83.19
490.35	90.19
490.568	89.19
490.786	96.19
491.003	87.19
491.221	80.19
491.439	83.19
491.657	100.19
491.874	81.19
492.092	98.19
492.31	92.19
492.527	77.19
492.745	84.19
492.963	85.19
493.18	95.19
493.398	95.19
493.615	95.19
493.833	96.19
494.05	93.19
494.268	82.19
494.485	86.19
494.703	89.19
494.92	89.19
495.138	84.19
495.355	87.19
495.573	101.19
495.79	87.19
496.008	78.19
496.225	99.19
496.442	94.19
496.66	91.19
496.877	95.19
497.094	87.19
497.312	80.19
497.529	89.19
497.746	83.19
497.963	93.19
498.181	89.19
498.398	90.19
498.615	113.19
498.832	93.19
499.049	96.19
499.267	83.19
499.484	90.19
499.701	100.19
499.918	87.19
500.135	90.19
500.352	83.19
500.569	95.19
500.786	88.19
501.003	87.19
501.22	102.19
501.437	90.19
501.654	92.19
501.871	97.19
502.088	77.19
502.305	84.19
502.522	92.19
502.739	87.19
502.956	91.19
503.172	105.19
503.389	80.19
503.606	97.19
503.823	103.19
504.04	90.19
504.256	90.19
504.473	88.19
504.69	102.19
504.907	93.19
505.123	81.19
505.34	94.19
505.557	86.19
505.773	74.19
505.99	91.19
506.207	93.19
506.423	96.19
506.64	86.19
506.856	95.19
507.073	87.19
507.289	96.19
507.506	87.19
507.722	106.19
507.939	106.19
508.155	89.19
508.372	80.19
508.588	85.19
508.805	94.19
509.021	102.19
509.238	80.19
509.454	94.19
509.67	97.19
509.887	93.19
510.103	135.19
510.319	217.19
510.536	731.19
510.752	2270.19
510.968	622.19
511.184	157.19
511.401	95.19
511.617	99.19
511.833	91.19
512.049	85.19
512.265	97.19
512.481	83.19
512.698	85.19
512.914	91.19
513.13	92.19
513.346	95.19
513.562	102.19
513.778	99.19
513.994	94.19
514.21	101.19
514.426	127.19
514.642	130.19
514.858	113.19
515.074	150.19
515.29	419.19
515.506	1249.19
515.721	470.19
515.937	125.19
516.153	86.19
516.369	99.19
516.585	85.19
516.801	81.19
517.016	97.19
