Data from Uncirc_1999_H10_HRD10591_00094.txt Node
Date: Wed Jan 03 11:22:24 EST 2024
User: Yrep
Spectrometer: HR+D1059
Trigger mode: 1
Integration Time (sec): 1.000000E-1
Scans to average: 1
Electric dark correction enabled: true
Nonlinearity correction enabled: false
Boxcar width: 0
XAxis mode: Wavelengths
Number of Pixels in Spectrum: 2048
>>>>>Begin Spectral Data<<<<<
223.165	-3.56
223.4	-3.56
223.635	-3.56
223.869	-18.56
224.104	-29.56
224.338	-11.56
224.573	-22.56
224.808	-10.56
225.042	-7.56
225.277	-6.56
225.511	-7.56
225.746	-1.56
225.98	18.44
226.215	9.44
226.449	15.44
226.683	31.44
226.918	14.44
227.152	30.44
227.387	28.44
227.621	25.44
227.856	51.44
228.09	55.44
228.324	51.44
228.559	59.44
228.793	54.44
229.027	70.44
229.262	59.44
229.496	83.44
229.73	78.44
229.964	82.44
230.199	64.44
230.433	68.44
230.667	75.44
230.901	82.44
231.136	78.44
231.37	80.44
231.604	94.44
231.838	67.44
232.072	86.44
232.306	83.44
232.541	85.44
232.775	79.44
233.009	72.44
233.243	76.44
233.477	89.44
233.711	81.44
233.945	83.44
234.179	80.44
234.413	93.44
234.647	88.44
234.881	90.44
235.115	80.44
235.349	78.44
235.583	83.44
235.817	76.44
236.051	73.44
236.285	79.44
236.519	87.44
236.753	61.44
236.987	72.44
237.221	79.44
237.455	81.44
237.689	80.44
237.922	74.44
238.156	79.44
238.39	78.44
238.624	85.44
238.858	85.44
239.091	76.44
239.325	60.44
239.559	82.44
239.793	82.44
240.027	97.44
240.26	69.44
240.494	81.44
240.728	76.44
240.961	78.44
241.195	79.44
241.429	85.44
241.662	71.44
241.896	67.44
242.13	75.44
242.363	68.44
242.597	78.44
242.83	73.44
243.064	79.44
243.298	90.44
243.531	97.44
243.765	70.44
243.998	71.44
244.232	74.44
244.465	76.44
244.699	88.44
244.932	77.44
245.166	75.44
245.399	89.44
245.633	78.44
245.866	77.44
246.099	82.44
246.333	81.44
246.566	90.44
246.8	68.44
247.033	81.44
247.266	64.44
247.5	74.44
247.733	80.44
247.966	83.44
248.2	78.44
248.433	80.44
248.666	84.44
248.899	63.44
249.133	71.44
249.366	90.44
249.599	95.44
249.832	83.44
250.066	87.44
250.299	72.44
250.532	84.44
250.765	75.44
250.998	76.44
251.231	86.44
251.465	84.44
251.698	80.44
251.931	80.44
252.164	84.44
252.397	91.44
252.63	91.44
252.863	71.44
253.096	75.44
253.329	76.44
253.562	69.44
253.795	89.44
254.028	74.44
254.261	84.44
254.494	85.44
254.727	83.44
254.96	82.44
255.193	76.44
255.426	79.44
255.659	92.44
255.892	96.44
256.124	80.44
256.357	103.44
256.59	78.44
256.823	80.44
257.056	88.44
257.289	65.44
257.521	104.44
257.754	88.44
257.987	88.44
258.22	59.44
258.452	87.44
258.685	84.44
258.918	92.44
259.151	85.44
259.383	80.44
259.616	79.44
259.849	84.44
260.081	80.44
260.314	70.44
260.547	85.44
260.779	78.44
261.012	77.44
261.244	81.44
261.477	91.44
261.71	81.44
261.942	121.44
262.175	111.44
262.407	82.44
262.64	92.44
262.872	96.44
263.105	85.44
263.337	79.44
263.57	84.44
263.802	89.44
264.035	85.44
264.267	92.44
264.499	76.44
264.732	79.44
264.964	86.44
265.197	72.44
265.429	82.44
265.661	92.44
265.894	88.44
266.126	87.44
266.358	100.44
266.591	83.44
266.823	72.44
267.055	78.44
267.287	92.44
267.52	91.44
267.752	81.44
267.984	89.44
268.216	90.44
268.448	89.44
268.681	89.44
268.913	90.44
269.145	87.44
269.377	96.44
269.609	93.44
269.841	84.44
270.073	79.44
270.306	83.44
270.538	82.44
270.77	86.44
271.002	89.44
271.234	85.44
271.466	96.44
271.698	78.44
271.93	90.44
272.162	88.44
272.394	89.44
272.626	83.44
272.858	87.44
273.09	88.44
273.322	85.44
273.553	92.44
273.785	84.44
274.017	104.44
274.249	83.44
274.481	87.44
274.713	91.44
274.945	84.44
275.176	87.44
275.408	89.44
275.64	88.44
275.872	78.44
276.104	91.44
276.335	90.44
276.567	91.44
276.799	107.44
277.031	89.44
277.262	76.44
277.494	95.44
277.726	80.44
277.957	88.44
278.189	68.44
278.421	91.44
278.652	84.44
278.884	90.44
279.115	80.44
279.347	92.44
279.579	81.44
279.81	76.44
280.042	93.44
280.273	79.44
280.505	91.44
280.736	94.44
280.968	90.44
281.199	82.44
281.431	93.44
281.662	82.44
281.894	91.44
282.125	123.44
282.356	107.44
282.588	139.44
282.819	111.44
283.051	85.44
283.282	67.44
283.513	86.44
283.745	100.44
283.976	103.44
284.207	97.44
284.439	82.44
284.67	74.44
284.901	87.44
285.132	87.44
285.364	76.44
285.595	90.44
285.826	79.44
286.057	97.44
286.288	91.44
286.52	90.44
286.751	88.44
286.982	96.44
287.213	79.44
287.444	79.44
287.675	85.44
287.906	100.44
288.138	95.44
288.369	91.44
288.6	87.44
288.831	96.44
289.062	90.44
289.293	92.44
289.524	91.44
289.755	89.44
289.986	106.44
290.217	91.44
290.448	97.44
290.679	80.44
290.91	82.44
291.141	71.44
291.371	78.44
291.602	92.44
291.833	83.44
292.064	83.44
292.295	90.44
292.526	88.44
292.757	98.44
292.987	95.44
293.218	82.44
293.449	85.44
293.68	90.44
293.91	83.44
294.141	88.44
294.372	90.44
294.603	93.44
294.833	83.44
295.064	87.44
295.295	89.44
295.525	100.44
295.756	105.44
295.987	110.44
296.217	129.44
296.448	118.44
296.679	98.44
296.909	91.44
297.14	92.44
297.37	81.44
297.601	94.44
297.831	89.44
298.062	97.44
298.292	102.44
298.523	88.44
298.753	82.44
298.984	98.44
299.214	90.44
299.445	86.44
299.675	88.44
299.905	87.44
300.136	107.44
300.366	81.44
300.597	98.44
300.827	94.44
301.057	75.44
301.288	97.44
301.518	82.44
301.748	83.44
301.979	126.44
302.209	100.44
302.439	89.44
302.669	82.44
302.9	86.44
303.13	83.44
303.36	97.44
303.59	113.44
303.82	104.44
304.051	95.44
304.281	105.44
304.511	95.44
304.741	90.44
304.971	94.44
305.201	100.44
305.431	103.44
305.661	92.44
305.891	102.44
306.121	106.44
306.352	112.44
306.582	98.44
306.812	83.44
307.042	103.44
307.272	104.44
307.502	85.44
307.731	93.44
307.961	103.44
308.191	83.44
308.421	89.44
308.651	79.44
308.881	86.44
309.111	109.44
309.341	97.44
309.571	86.44
309.8	107.44
310.03	115.44
310.26	97.44
310.49	91.44
310.72	106.44
310.949	107.44
311.179	108.44
311.409	96.44
311.639	104.44
311.868	104.44
312.098	77.44
312.328	75.44
312.557	80.44
312.787	101.44
313.017	95.44
313.246	95.44
313.476	101.44
313.706	94.44
313.935	65.44
314.165	100.44
314.394	98.44
314.624	95.44
314.853	98.44
315.083	99.44
315.312	90.44
315.542	103.44
315.771	78.44
316.001	80.44
316.23	90.44
316.46	86.44
316.689	109.44
316.919	104.44
317.148	91.44
317.377	100.44
317.607	95.44
317.836	85.44
318.065	86.44
318.295	103.44
318.524	100.44
318.753	98.44
318.983	99.44
319.212	103.44
319.441	115.44
319.67	94.44
319.9	94.44
320.129	88.44
320.358	96.44
320.587	107.44
320.816	109.44
321.046	94.44
321.275	93.44
321.504	93.44
321.733	86.44
321.962	94.44
322.191	115.44
322.42	113.44
322.649	102.44
322.878	108.44
323.108	113.44
323.337	128.44
323.566	141.44
323.795	153.44
324.024	211.44
324.253	443.44
324.482	918.44
324.71	1943.44
324.939	2500.44
325.168	897.44
325.397	277.44
325.626	154.44
325.855	125.44
326.084	143.44
326.313	137.44
326.542	164.44
326.77	254.44
326.999	513.44
327.228	1076.44
327.457	1975.44
327.686	1537.44
327.914	409.44
328.143	201.44
328.372	163.44
328.6	118.44
328.829	110.44
329.058	136.44
329.287	129.44
329.515	108.44
329.744	101.44
329.972	105.44
330.201	120.44
330.43	108.44
330.658	117.44
330.887	125.44
331.115	124.44
331.344	105.44
331.572	109.44
331.801	115.44
332.03	110.44
332.258	100.44
332.486	98.44
332.715	103.44
332.943	98.44
333.172	107.44
333.4	107.44
333.629	122.44
333.857	103.44
334.085	99.44
334.314	110.44
334.542	108.44
334.771	111.44
334.999	90.44
335.227	89.44
335.455	91.44
335.684	103.44
335.912	94.44
336.14	102.44
336.369	90.44
336.597	84.44
336.825	103.44
337.053	95.44
337.281	79.44
337.51	77.44
337.738	93.44
337.966	83.44
338.194	91.44
338.422	92.44
338.65	110.44
338.878	95.44
339.106	91.44
339.334	79.44
339.562	99.44
339.79	101.44
340.018	103.44
340.246	85.44
340.474	95.44
340.702	108.44
340.93	95.44
341.158	109.44
341.386	82.44
341.614	97.44
341.842	98.44
342.07	102.44
342.298	113.44
342.526	88.44
342.754	82.44
342.981	81.44
343.209	86.44
343.437	101.44
343.665	88.44
343.893	106.44
344.12	85.44
344.348	98.44
344.576	93.44
344.804	89.44
345.031	100.44
345.259	96.44
345.487	97.44
345.714	87.44
345.942	82.44
346.17	98.44
346.397	102.44
346.625	104.44
346.853	99.44
347.08	87.44
347.308	89.44
347.535	102.44
347.763	93.44
347.99	97.44
348.218	96.44
348.445	116.44
348.673	104.44
348.9	102.44
349.128	89.44
349.355	91.44
349.583	84.44
349.81	98.44
350.037	98.44
350.265	97.44
350.492	98.44
350.72	96.44
350.947	98.44
351.174	110.44
351.402	107.44
351.629	108.44
351.856	93.44
352.083	99.44
352.311	119.44
352.538	100.44
352.765	103.44
352.992	126.44
353.22	104.44
353.447	100.44
353.674	89.44
353.901	107.44
354.128	90.44
354.355	100.44
354.583	96.44
354.81	101.44
355.037	98.44
355.264	104.44
355.491	98.44
355.718	88.44
355.945	89.44
356.172	100.44
356.399	102.44
356.626	99.44
356.853	104.44
357.08	93.44
357.307	93.44
357.534	99.44
357.761	89.44
357.988	89.44
358.215	84.44
358.441	81.44
358.668	94.44
358.895	94.44
359.122	90.44
359.349	98.44
359.576	95.44
359.802	101.44
360.029	118.44
360.256	113.44
360.483	97.44
360.709	94.44
360.936	92.44
361.163	106.44
361.39	100.44
361.616	91.44
361.843	101.44
362.07	90.44
362.296	98.44
362.523	84.44
362.749	106.44
362.976	97.44
363.203	90.44
363.429	96.44
363.656	102.44
363.882	76.44
364.109	101.44
364.335	93.44
364.562	92.44
364.788	87.44
365.015	94.44
365.241	87.44
365.468	96.44
365.694	111.44
365.92	96.44
366.147	80.44
366.373	90.44
366.599	82.44
366.826	91.44
367.052	105.44
367.278	83.44
367.505	105.44
367.731	105.44
367.957	83.44
368.184	91.44
368.41	101.44
368.636	116.44
368.862	113.44
369.089	96.44
369.315	91.44
369.541	83.44
369.767	88.44
369.993	91.44
370.219	92.44
370.445	92.44
370.672	99.44
370.898	86.44
371.124	94.44
371.35	99.44
371.576	100.44
371.802	87.44
372.028	107.44
372.254	99.44
372.48	84.44
372.706	89.44
372.932	89.44
373.158	94.44
373.384	92.44
373.61	85.44
373.835	91.44
374.061	90.44
374.287	108.44
374.513	95.44
374.739	99.44
374.965	97.44
375.191	92.44
375.416	81.44
375.642	82.44
375.868	93.44
376.094	91.44
376.319	87.44
376.545	80.44
376.771	87.44
376.997	108.44
377.222	93.44
377.448	102.44
377.674	91.44
377.899	92.44
378.125	90.44
378.35	91.44
378.576	106.44
378.802	80.44
379.027	92.44
379.253	91.44
379.478	100.44
379.704	100.44
379.929	102.44
380.155	90.44
380.38	106.44
380.606	99.44
380.831	83.44
381.057	105.44
381.282	82.44
381.507	98.44
381.733	94.44
381.958	90.44
382.184	97.44
382.409	96.44
382.634	110.44
382.86	100.44
383.085	86.44
383.31	100.44
383.535	88.44
383.761	102.44
383.986	107.44
384.211	112.44
384.436	104.44
384.662	106.44
384.887	118.44
385.112	91.44
385.337	97.44
385.562	108.44
385.787	103.44
386.013	99.44
386.238	103.44
386.463	116.44
386.688	122.44
386.913	100.44
387.138	91.44
387.363	97.44
387.588	101.44
387.813	113.44
388.038	98.44
388.263	127.44
388.488	89.44
388.713	99.44
388.938	94.44
389.163	89.44
389.387	94.44
389.612	96.44
389.837	94.44
390.062	95.44
390.287	88.44
390.512	98.44
390.736	99.44
390.961	91.44
391.186	110.44
391.411	110.44
391.636	104.44
391.86	95.44
392.085	78.44
392.31	89.44
392.534	93.44
392.759	73.44
392.984	95.44
393.208	96.44
393.433	87.44
393.658	79.44
393.882	83.44
394.107	92.44
394.331	98.44
394.556	100.44
394.78	96.44
395.005	102.44
395.229	72.44
395.454	91.44
395.678	77.44
395.903	96.44
396.127	93.44
396.352	81.44
396.576	94.44
396.801	95.44
397.025	84.44
397.249	79.44
397.474	83.44
397.698	92.44
397.922	83.44
398.147	74.44
398.371	106.44
398.595	83.44
398.82	87.44
399.044	81.44
399.268	94.44
399.492	88.44
399.717	82.44
399.941	94.44
400.165	99.44
400.389	82.44
400.613	97.44
400.837	97.44
401.062	112.44
401.286	82.44
401.51	94.44
401.734	92.44
401.958	95.44
402.182	118.44
402.406	137.44
402.63	122.44
402.854	103.44
403.078	84.44
403.302	94.44
403.526	106.44
403.75	96.44
403.974	87.44
404.198	95.44
404.422	81.44
404.645	91.44
404.869	80.44
405.093	97.44
405.317	105.44
405.541	106.44
405.765	110.44
405.988	112.44
406.212	157.44
406.436	209.44
406.66	144.44
406.883	99.44
407.107	102.44
407.331	103.44
407.555	113.44
407.778	103.44
408.002	99.44
408.226	74.44
408.449	91.44
408.673	97.44
408.896	100.44
409.12	92.44
409.344	106.44
409.567	97.44
409.791	92.44
410.014	90.44
410.238	105.44
410.461	84.44
410.685	90.44
410.908	100.44
411.132	108.44
411.355	90.44
411.578	96.44
411.802	103.44
412.025	86.44
412.249	91.44
412.472	103.44
412.695	90.44
412.919	83.44
413.142	86.44
413.365	81.44
413.589	79.44
413.812	77.44
414.035	82.44
414.258	92.44
414.482	100.44
414.705	89.44
414.928	87.44
415.151	83.44
415.374	92.44
415.597	104.44
415.821	100.44
416.044	89.44
416.267	84.44
416.49	102.44
416.713	89.44
416.936	98.44
417.159	99.44
417.382	80.44
417.605	97.44
417.828	84.44
418.051	95.44
418.274	88.44
418.497	86.44
418.72	86.44
418.943	97.44
419.166	97.44
419.389	107.44
419.611	99.44
419.834	94.44
420.057	99.44
420.28	76.44
420.503	80.44
420.726	82.44
420.948	91.44
421.171	92.44
421.394	89.44
421.617	90.44
421.839	93.44
422.062	89.44
422.285	86.44
422.507	96.44
422.73	102.44
422.953	89.44
423.175	91.44
423.398	86.44
423.621	94.44
423.843	96.44
424.066	83.44
424.288	91.44
424.511	88.44
424.733	90.44
424.956	103.44
425.178	115.44
425.401	94.44
425.623	98.44
425.846	93.44
426.068	94.44
426.291	91.44
426.513	103.44
426.735	94.44
426.958	88.44
427.18	112.44
427.402	147.44
427.625	164.44
427.847	123.44
428.069	104.44
428.292	90.44
428.514	74.44
428.736	88.44
428.958	106.44
429.181	88.44
429.403	86.44
429.625	90.44
429.847	101.44
430.069	98.44
430.292	101.44
430.514	84.44
430.736	90.44
430.958	94.44
431.18	90.44
431.402	89.44
431.624	90.44
431.846	88.44
432.068	86.44
432.29	82.44
432.512	94.44
432.734	80.44
432.956	100.44
433.178	98.44
433.4	97.44
433.622	101.44
433.844	100.44
434.066	91.44
434.287	84.44
434.509	103.44
434.731	92.44
434.953	82.44
435.175	88.44
435.397	86.44
435.618	108.44
435.84	102.44
436.062	114.44
436.284	106.44
436.505	97.44
436.727	101.44
436.949	90.44
437.17	89.44
437.392	81.44
437.614	88.44
437.835	90.44
438.057	111.44
438.278	120.44
438.5	110.44
438.721	131.44
438.943	98.44
439.165	88.44
439.386	83.44
439.608	96.44
439.829	103.44
440.05	120.44
440.272	135.44
440.493	96.44
440.715	98.44
440.936	88.44
441.158	101.44
441.379	94.44
441.6	86.44
441.822	100.44
442.043	78.44
442.264	94.44
442.486	87.44
442.707	102.44
442.928	107.44
443.149	129.44
443.371	118.44
443.592	116.44
443.813	117.44
444.034	100.44
444.255	90.44
444.476	89.44
444.698	84.44
444.919	110.44
445.14	119.44
445.361	119.44
445.582	112.44
445.803	131.44
446.024	140.44
446.245	119.44
446.466	111.44
446.687	90.44
446.908	95.44
447.129	83.44
447.35	89.44
447.571	91.44
447.792	92.44
448.013	90.44
448.234	105.44
448.455	93.44
448.675	101.44
448.896	115.44
449.117	110.44
449.338	120.44
449.559	134.44
449.779	144.44
450	103.44
450.221	96.44
450.442	104.44
450.662	111.44
450.883	110.44
451.104	99.44
451.324	96.44
451.545	83.44
451.766	95.44
451.986	77.44
452.207	91.44
452.428	93.44
452.648	111.44
452.869	113.44
453.089	104.44
453.31	105.44
453.53	112.44
453.751	100.44
453.971	90.44
454.192	113.44
454.412	110.44
454.633	99.44
454.853	97.44
455.073	104.44
455.294	89.44
455.514	87.44
455.734	95.44
455.955	86.44
456.175	82.44
456.395	95.44
456.616	94.44
456.836	86.44
457.056	80.44
457.276	75.44
457.497	79.44
457.717	92.44
457.937	87.44
458.157	84.44
458.377	93.44
458.598	98.44
458.818	150.44
459.038	151.44
459.258	110.44
459.478	80.44
459.698	95.44
459.918	88.44
460.138	86.44
460.358	72.44
460.578	87.44
460.798	98.44
461.018	91.44
461.238	83.44
461.458	88.44
461.678	77.44
461.898	85.44
462.118	94.44
462.338	90.44
462.558	81.44
462.777	81.44
462.997	79.44
463.217	88.44
463.437	91.44
463.657	76.44
463.876	94.44
464.096	95.44
464.316	87.44
464.536	105.44
464.755	102.44
464.975	101.44
465.195	150.44
465.414	139.44
465.634	91.44
465.854	86.44
466.073	100.44
466.293	89.44
466.512	92.44
466.732	80.44
466.951	77.44
467.171	107.44
467.391	92.44
467.61	110.44
467.829	98.44
468.049	90.44
468.268	101.44
468.488	71.44
468.707	77.44
468.927	97.44
469.146	74.44
469.365	86.44
469.585	102.44
469.804	84.44
470.023	108.44
470.243	98.44
470.462	97.44
470.681	106.44
470.901	94.44
471.12	88.44
471.339	80.44
471.558	87.44
471.777	90.44
471.997	94.44
472.216	89.44
472.435	105.44
472.654	93.44
472.873	95.44
473.092	91.44
473.311	100.44
473.53	82.44
473.749	86.44
473.968	91.44
474.187	90.44
474.406	91.44
474.625	81.44
474.844	91.44
475.063	103.44
475.282	91.44
475.501	81.44
475.72	92.44
475.939	92.44
476.158	80.44
476.377	93.44
476.596	96.44
476.814	89.44
477.033	105.44
477.252	85.44
477.471	97.44
477.69	76.44
477.908	100.44
478.127	83.44
478.346	89.44
478.564	93.44
478.783	106.44
479.002	83.44
479.22	81.44
479.439	111.44
479.658	113.44
479.876	90.44
480.095	90.44
480.313	90.44
480.532	96.44
480.751	99.44
480.969	89.44
481.188	128.44
481.406	104.44
481.624	96.44
481.843	67.44
482.061	83.44
482.28	97.44
482.498	87.44
482.717	89.44
482.935	90.44
483.153	86.44
483.372	88.44
483.59	96.44
483.808	95.44
484.027	97.44
484.245	111.44
484.463	107.44
484.681	87.44
484.9	95.44
485.118	89.44
485.336	116.44
485.554	100.44
485.772	98.44
485.99	113.44
486.209	100.44
486.427	104.44
486.645	107.44
486.863	111.44
487.081	91.44
487.299	101.44
487.517	86.44
487.735	105.44
487.953	84.44
488.171	79.44
488.389	113.44
488.607	97.44
488.825	102.44
489.043	84.44
489.261	86.44
489.479	95.44
489.696	91.44
489.914	99.44
490.132	70.44
490.35	86.44
490.568	92.44
490.786	108.44
491.003	81.44
491.221	90.44
491.439	97.44
491.657	96.44
491.874	94.44
492.092	100.44
492.31	83.44
492.527	92.44
492.745	96.44
492.963	82.44
493.18	82.44
493.398	99.44
493.615	96.44
493.833	91.44
494.05	106.44
494.268	102.44
494.485	105.44
494.703	103.44
494.92	98.44
495.138	81.44
495.355	93.44
495.573	92.44
495.79	78.44
496.008	90.44
496.225	86.44
496.442	88.44
496.66	91.44
496.877	95.44
497.094	104.44
497.312	100.44
497.529	84.44
497.746	86.44
497.963	104.44
498.181	83.44
498.398	102.44
498.615	106.44
498.832	110.44
499.049	86.44
499.267	83.44
499.484	79.44
499.701	95.44
499.918	92.44
500.135	84.44
500.352	95.44
500.569	93.44
500.786	100.44
501.003	85.44
501.22	90.44
501.437	91.44
501.654	100.44
501.871	116.44
502.088	107.44
502.305	102.44
502.522	83.44
502.739	96.44
502.956	91.44
503.172	103.44
503.389	99.44
503.606	100.44
503.823	111.44
504.04	92.44
504.256	87.44
504.473	79.44
504.69	89.44
504.907	92.44
505.123	81.44
505.34	107.44
505.557	95.44
505.773	100.44
505.99	83.44
506.207	94.44
506.423	99.44
506.64	87.44
506.856	96.44
507.073	92.44
507.289	90.44
507.506	90.44
507.722	106.44
507.939	115.44
508.155	95.44
508.372	99.44
508.588	91.44
508.805	96.44
509.021	97.44
509.238	103.44
509.454	105.44
509.67	100.44
509.887	118.44
510.103	131.44
510.319	218.44
510.536	793.44
510.752	2470.44
510.968	650.44
511.184	159.44
511.401	115.44
511.617	104.44
511.833	103.44
512.049	109.44
512.265	100.44
512.481	88.44
512.698	91.44
512.914	98.44
513.13	90.44
513.346	100.44
513.562	88.44
513.778	88.44
513.994	108.44
514.21	114.44
514.426	117.44
514.642	123.44
514.858	125.44
