Data from Uncirc_1999_H10_HRD10591_00036.txt Node
Date: Wed Jan 03 11:22:12 EST 2024
User: Yrep
Spectrometer: HR+D1059
Trigger mode: 1
Integration Time (sec): 1.000000E-1
Scans to average: 1
Electric dark correction enabled: true
Nonlinearity correction enabled: false
Boxcar width: 0
XAxis mode: Wavelengths
Number of Pixels in Spectrum: 2048
>>>>>Begin Spectral Data<<<<<
223.165	-34.69
223.4	-34.69
223.635	-34.69
223.869	-13.69
224.104	-23.69
224.338	-0.69
224.573	-2.69
224.808	-13.69
225.042	1.31
225.277	-10.69
225.511	-12.69
225.746	-4.69
225.98	4.31
226.215	11.31
226.449	22.31
226.683	22.31
226.918	22.31
227.152	33.31
227.387	52.31
227.621	43.31
227.856	57.31
228.09	50.31
228.324	55.31
228.559	62.31
228.793	58.31
229.027	64.31
229.262	58.31
229.496	65.31
229.73	89.31
229.964	88.31
230.199	76.31
230.433	74.31
230.667	83.31
230.901	78.31
231.136	80.31
231.37	87.31
231.604	72.31
231.838	81.31
232.072	66.31
232.306	87.31
232.541	77.31
232.775	96.31
233.009	72.31
233.243	85.31
233.477	92.31
233.711	100.31
233.945	106.31
234.179	84.31
234.413	77.31
234.647	79.31
234.881	89.31
235.115	74.31
235.349	72.31
235.583	93.31
235.817	78.31
236.051	89.31
236.285	90.31
236.519	89.31
236.753	73.31
236.987	76.31
237.221	85.31
237.455	78.31
237.689	82.31
237.922	83.31
238.156	75.31
238.39	77.31
238.624	72.31
238.858	68.31
239.091	82.31
239.325	81.31
239.559	80.31
239.793	85.31
240.027	87.31
240.26	75.31
240.494	64.31
240.728	70.31
240.961	78.31
241.195	73.31
241.429	84.31
241.662	68.31
241.896	79.31
242.13	82.31
242.363	69.31
242.597	90.31
242.83	77.31
243.064	89.31
243.298	93.31
243.531	79.31
243.765	62.31
243.998	67.31
244.232	92.31
244.465	85.31
244.699	68.31
244.932	80.31
245.166	76.31
245.399	98.31
245.633	82.31
245.866	74.31
246.099	84.31
246.333	83.31
246.566	77.31
246.8	83.31
247.033	76.31
247.266	81.31
247.5	88.31
247.733	94.31
247.966	70.31
248.2	79.31
248.433	83.31
248.666	76.31
248.899	63.31
249.133	80.31
249.366	94.31
249.599	104.31
249.832	90.31
250.066	80.31
250.299	85.31
250.532	97.31
250.765	96.31
250.998	76.31
251.231	93.31
251.465	93.31
251.698	84.31
251.931	70.31
252.164	93.31
252.397	81.31
252.63	83.31
252.863	91.31
253.096	68.31
253.329	90.31
253.562	90.31
253.795	68.31
254.028	84.31
254.261	83.31
254.494	77.31
254.727	83.31
254.96	93.31
255.193	85.31
255.426	84.31
255.659	88.31
255.892	85.31
256.124	83.31
256.357	84.31
256.59	95.31
256.823	72.31
257.056	76.31
257.289	74.31
257.521	95.31
257.754	87.31
257.987	83.31
258.22	94.31
258.452	86.31
258.685	74.31
258.918	75.31
259.151	88.31
259.383	72.31
259.616	81.31
259.849	82.31
260.081	79.31
260.314	84.31
260.547	100.31
260.779	93.31
261.012	81.31
261.244	81.31
261.477	91.31
261.71	88.31
261.942	116.31
262.175	112.31
262.407	95.31
262.64	95.31
262.872	88.31
263.105	89.31
263.337	84.31
263.57	83.31
263.802	91.31
264.035	87.31
264.267	90.31
264.499	100.31
264.732	95.31
264.964	79.31
265.197	79.31
265.429	88.31
265.661	83.31
265.894	77.31
266.126	90.31
266.358	84.31
266.591	88.31
266.823	78.31
267.055	92.31
267.287	72.31
267.52	86.31
267.752	70.31
267.984	79.31
268.216	88.31
268.448	98.31
268.681	94.31
268.913	94.31
269.145	87.31
269.377	88.31
269.609	95.31
269.841	92.31
270.073	72.31
270.306	90.31
270.538	90.31
270.77	82.31
271.002	100.31
271.234	79.31
271.466	98.31
271.698	94.31
271.93	82.31
272.162	91.31
272.394	92.31
272.626	82.31
272.858	87.31
273.09	75.31
273.322	87.31
273.553	79.31
273.785	83.31
274.017	83.31
274.249	77.31
274.481	84.31
274.713	98.31
274.945	96.31
275.176	80.31
275.408	95.31
275.64	92.31
275.872	87.31
276.104	92.31
276.335	79.31
276.567	91.31
276.799	107.31
277.031	81.31
277.262	76.31
277.494	85.31
277.726	98.31
277.957	93.31
278.189	82.31
278.421	87.31
278.652	78.31
278.884	94.31
279.115	93.31
279.347	72.31
279.579	76.31
279.81	86.31
280.042	94.31
280.273	86.31
280.505	100.31
280.736	85.31
280.968	79.31
281.199	87.31
281.431	79.31
281.662	94.31
281.894	90.31
282.125	93.31
282.356	109.31
282.588	128.31
282.819	108.31
283.051	99.31
283.282	88.31
283.513	76.31
283.745	92.31
283.976	84.31
284.207	86.31
284.439	88.31
284.67	82.31
284.901	93.31
285.132	85.31
285.364	95.31
285.595	93.31
285.826	89.31
286.057	88.31
286.288	73.31
286.52	98.31
286.751	90.31
286.982	89.31
287.213	101.31
287.444	84.31
287.675	95.31
287.906	82.31
288.138	91.31
288.369	108.31
288.6	78.31
288.831	91.31
289.062	89.31
289.293	78.31
289.524	92.31
289.755	93.31
289.986	90.31
290.217	103.31
290.448	79.31
290.679	102.31
290.91	92.31
291.141	94.31
291.371	80.31
291.602	90.31
291.833	88.31
292.064	97.31
292.295	95.31
292.526	91.31
292.757	86.31
292.987	88.31
293.218	88.31
293.449	82.31
293.68	86.31
293.91	94.31
294.141	99.31
294.372	81.31
294.603	87.31
294.833	86.31
295.064	90.31
295.295	94.31
295.525	79.31
295.756	94.31
295.987	103.31
296.217	124.31
296.448	124.31
296.679	90.31
296.909	81.31
297.14	91.31
297.37	91.31
297.601	85.31
297.831	103.31
298.062	101.31
298.292	93.31
298.523	84.31
298.753	90.31
298.984	85.31
299.214	98.31
299.445	91.31
299.675	90.31
299.905	81.31
300.136	77.31
300.366	99.31
300.597	83.31
300.827	94.31
301.057	100.31
301.288	93.31
301.518	83.31
301.748	81.31
301.979	97.31
302.209	96.31
302.439	72.31
302.669	97.31
302.9	94.31
303.13	85.31
303.36	86.31
303.59	95.31
303.82	98.31
304.051	87.31
304.281	99.31
304.511	105.31
304.741	93.31
304.971	98.31
305.201	86.31
305.431	91.31
305.661	104.31
305.891	86.31
306.121	99.31
306.352	96.31
306.582	101.31
306.812	95.31
307.042	99.31
307.272	94.31
307.502	98.31
307.731	92.31
307.961	84.31
308.191	84.31
308.421	90.31
308.651	92.31
308.881	86.31
309.111	86.31
309.341	93.31
309.571	85.31
309.8	93.31
310.03	93.31
310.26	81.31
310.49	100.31
310.72	93.31
310.949	98.31
311.179	92.31
311.409	100.31
311.639	107.31
311.868	96.31
312.098	102.31
312.328	77.31
312.557	104.31
312.787	107.31
313.017	105.31
313.246	97.31
313.476	94.31
313.706	95.31
313.935	83.31
314.165	86.31
314.394	100.31
314.624	90.31
314.853	104.31
315.083	87.31
315.312	96.31
315.542	89.31
315.771	88.31
316.001	96.31
316.23	88.31
316.46	99.31
316.689	86.31
316.919	98.31
317.148	102.31
317.377	92.31
317.607	109.31
317.836	74.31
318.065	61.31
318.295	106.31
318.524	98.31
318.753	94.31
318.983	90.31
319.212	100.31
319.441	104.31
319.67	98.31
319.9	80.31
320.129	101.31
320.358	102.31
320.587	88.31
320.816	99.31
321.046	100.31
321.275	107.31
321.504	105.31
321.733	97.31
321.962	99.31
322.191	100.31
322.42	108.31
322.649	104.31
322.878	118.31
323.108	91.31
323.337	113.31
323.566	121.31
323.795	134.31
324.024	195.31
324.253	355.31
324.482	780.31
324.71	1602.31
324.939	2062.31
325.168	738.31
325.397	232.31
325.626	137.31
325.855	124.31
326.084	115.31
326.313	147.31
326.542	156.31
326.77	221.31
326.999	452.31
327.228	946.31
327.457	1647.31
327.686	1292.31
327.914	334.31
328.143	179.31
328.372	133.31
328.6	121.31
328.829	112.31
329.058	125.31
329.287	126.31
329.515	98.31
329.744	94.31
329.972	104.31
330.201	118.31
330.43	122.31
330.658	107.31
330.887	135.31
331.115	112.31
331.344	102.31
331.572	106.31
331.801	105.31
332.03	102.31
332.258	102.31
332.486	94.31
332.715	86.31
332.943	100.31
333.172	91.31
333.4	84.31
333.629	94.31
333.857	108.31
334.085	94.31
334.314	95.31
334.542	101.31
334.771	99.31
334.999	91.31
335.227	92.31
335.455	91.31
335.684	115.31
335.912	87.31
336.14	81.31
336.369	106.31
336.597	86.31
336.825	100.31
337.053	104.31
337.281	94.31
337.51	92.31
337.738	94.31
337.966	95.31
338.194	96.31
338.422	76.31
338.65	111.31
338.878	125.31
339.106	82.31
339.334	97.31
339.562	99.31
339.79	100.31
340.018	95.31
340.246	86.31
340.474	97.31
340.702	105.31
340.93	94.31
341.158	97.31
341.386	100.31
341.614	113.31
341.842	114.31
342.07	92.31
342.298	88.31
342.526	111.31
342.754	84.31
342.981	92.31
343.209	91.31
343.437	99.31
343.665	92.31
343.893	88.31
344.12	99.31
344.348	94.31
344.576	98.31
344.804	96.31
345.031	92.31
345.259	95.31
345.487	108.31
345.714	79.31
345.942	100.31
346.17	88.31
346.397	100.31
346.625	96.31
346.853	97.31
347.08	92.31
347.308	73.31
347.535	92.31
347.763	95.31
347.99	104.31
348.218	93.31
348.445	94.31
348.673	117.31
348.9	106.31
349.128	96.31
349.355	103.31
349.583	94.31
349.81	107.31
350.037	88.31
350.265	114.31
350.492	98.31
350.72	104.31
350.947	111.31
351.174	105.31
351.402	99.31
351.629	105.31
351.856	96.31
352.083	100.31
352.311	107.31
352.538	111.31
352.765	99.31
352.992	130.31
353.22	105.31
353.447	101.31
353.674	108.31
353.901	95.31
354.128	87.31
354.355	107.31
354.583	110.31
354.81	106.31
355.037	99.31
355.264	95.31
355.491	88.31
355.718	97.31
355.945	99.31
356.172	92.31
356.399	98.31
356.626	96.31
356.853	109.31
357.08	95.31
357.307	90.31
357.534	103.31
357.761	90.31
357.988	101.31
358.215	96.31
358.441	91.31
358.668	101.31
358.895	93.31
359.122	83.31
359.349	100.31
359.576	81.31
359.802	101.31
360.029	104.31
360.256	96.31
360.483	93.31
360.709	88.31
360.936	87.31
361.163	83.31
361.39	93.31
361.616	94.31
361.843	88.31
362.07	104.31
362.296	111.31
362.523	87.31
362.749	97.31
362.976	94.31
363.203	81.31
363.429	100.31
363.656	87.31
363.882	99.31
364.109	93.31
364.335	92.31
364.562	96.31
364.788	114.31
365.015	94.31
365.241	98.31
365.468	108.31
365.694	99.31
365.92	99.31
366.147	95.31
366.373	85.31
366.599	74.31
366.826	96.31
367.052	92.31
367.278	94.31
367.505	96.31
367.731	95.31
367.957	100.31
368.184	82.31
368.41	89.31
368.636	104.31
368.862	113.31
369.089	104.31
369.315	87.31
369.541	96.31
369.767	106.31
369.993	95.31
370.219	93.31
370.445	94.31
370.672	90.31
370.898	89.31
371.124	101.31
371.35	95.31
371.576	95.31
371.802	100.31
372.028	88.31
372.254	87.31
372.48	100.31
372.706	84.31
372.932	92.31
373.158	98.31
373.384	89.31
373.61	99.31
373.835	96.31
374.061	94.31
374.287	96.31
374.513	93.31
374.739	102.31
374.965	88.31
375.191	90.31
375.416	93.31
375.642	98.31
375.868	88.31
376.094	103.31
376.319	106.31
376.545	102.31
376.771	100.31
376.997	94.31
377.222	95.31
377.448	89.31
377.674	88.31
377.899	89.31
378.125	96.31
378.35	96.31
378.576	88.31
378.802	96.31
379.027	93.31
379.253	86.31
379.478	96.31
379.704	107.31
379.929	107.31
380.155	95.31
380.38	104.31
380.606	99.31
380.831	111.31
381.057	89.31
381.282	95.31
381.507	95.31
381.733	101.31
381.958	102.31
382.184	104.31
382.409	95.31
382.634	118.31
382.86	108.31
383.085	103.31
383.31	98.31
383.535	97.31
383.761	96.31
383.986	93.31
384.211	110.31
384.436	111.31
384.662	92.31
384.887	118.31
385.112	112.31
385.337	120.31
385.562	108.31
385.787	112.31
386.013	124.31
386.238	121.31
386.463	117.31
386.688	112.31
386.913	126.31
387.138	116.31
387.363	106.31
387.588	101.31
387.813	104.31
388.038	115.31
388.263	126.31
388.488	118.31
388.713	92.31
388.938	98.31
389.163	108.31
389.387	107.31
389.612	88.31
389.837	107.31
390.062	89.31
390.287	95.31
390.512	93.31
390.736	94.31
390.961	92.31
391.186	105.31
391.411	100.31
391.636	98.31
391.86	90.31
392.085	94.31
392.31	86.31
392.534	89.31
392.759	83.31
392.984	91.31
393.208	93.31
393.433	86.31
393.658	95.31
393.882	90.31
394.107	92.31
394.331	97.31
394.556	85.31
394.78	103.31
395.005	94.31
395.229	90.31
395.454	81.31
395.678	96.31
395.903	95.31
396.127	78.31
396.352	94.31
396.576	100.31
396.801	73.31
397.025	98.31
397.249	92.31
397.474	80.31
397.698	91.31
397.922	96.31
398.147	89.31
398.371	79.31
398.595	94.31
398.82	82.31
399.044	93.31
399.268	87.31
399.492	102.31
399.717	80.31
399.941	90.31
400.165	104.31
400.389	89.31
400.613	90.31
400.837	85.31
401.062	93.31
401.286	98.31
401.51	87.31
401.734	106.31
401.958	94.31
402.182	115.31
402.406	137.31
402.63	116.31
402.854	106.31
403.078	75.31
403.302	110.31
403.526	76.31
403.75	93.31
403.974	91.31
404.198	81.31
404.422	79.31
404.645	97.31
404.869	97.31
405.093	96.31
405.317	95.31
405.541	104.31
405.765	90.31
405.988	109.31
406.212	146.31
406.436	198.31
406.66	132.31
406.883	84.31
407.107	83.31
407.331	97.31
407.555	90.31
407.778	110.31
408.002	82.31
408.226	106.31
408.449	87.31
408.673	90.31
408.896	95.31
409.12	99.31
409.344	99.31
409.567	93.31
409.791	107.31
410.014	102.31
410.238	99.31
410.461	91.31
410.685	101.31
410.908	108.31
411.132	106.31
411.355	105.31
411.578	102.31
411.802	93.31
412.025	91.31
412.249	97.31
412.472	87.31
412.695	91.31
412.919	96.31
413.142	83.31
413.365	91.31
413.589	90.31
413.812	84.31
414.035	87.31
414.258	100.31
414.482	79.31
414.705	99.31
414.928	90.31
415.151	83.31
415.374	91.31
415.597	97.31
415.821	79.31
416.044	91.31
416.267	97.31
416.49	96.31
416.713	91.31
416.936	105.31
417.159	106.31
417.382	103.31
417.605	89.31
417.828	93.31
418.051	92.31
418.274	95.31
418.497	90.31
418.72	96.31
418.943	86.31
419.166	96.31
419.389	77.31
419.611	81.31
419.834	93.31
420.057	106.31
420.28	76.31
420.503	78.31
420.726	90.31
420.948	91.31
421.171	104.31
421.394	94.31
421.617	92.31
421.839	90.31
422.062	92.31
422.285	97.31
422.507	102.31
422.73	112.31
422.953	110.31
423.175	92.31
423.398	90.31
423.621	91.31
423.843	88.31
424.066	74.31
424.288	80.31
424.511	97.31
424.733	95.31
424.956	103.31
425.178	77.31
425.401	114.31
425.623	104.31
425.846	105.31
426.068	102.31
426.291	102.31
426.513	99.31
426.735	84.31
426.958	84.31
427.18	103.31
427.402	121.31
427.625	149.31
427.847	128.31
428.069	93.31
428.292	107.31
428.514	82.31
428.736	95.31
428.958	74.31
429.181	86.31
429.403	95.31
429.625	86.31
429.847	90.31
430.069	94.31
430.292	96.31
430.514	88.31
430.736	86.31
430.958	74.31
431.18	92.31
431.402	95.31
431.624	89.31
431.846	85.31
432.068	78.31
432.29	93.31
432.512	96.31
432.734	86.31
432.956	90.31
433.178	103.31
433.4	101.31
433.622	81.31
433.844	101.31
434.066	99.31
434.287	96.31
434.509	89.31
434.731	86.31
434.953	92.31
435.175	105.31
435.397	89.31
435.618	92.31
435.84	102.31
436.062	99.31
436.284	115.31
436.505	113.31
436.727	93.31
436.949	105.31
437.17	92.31
437.392	84.31
437.614	82.31
437.835	94.31
438.057	98.31
438.278	116.31
438.5	103.31
438.721	121.31
438.943	96.31
439.165	96.31
439.386	90.31
439.608	86.31
439.829	104.31
440.05	126.31
440.272	130.31
440.493	105.31
440.715	95.31
440.936	86.31
441.158	87.31
441.379	100.31
441.6	74.31
441.822	83.31
442.043	93.31
442.264	110.31
442.486	97.31
442.707	95.31
442.928	94.31
443.149	120.31
443.371	119.31
443.592	97.31
443.813	121.31
444.034	101.31
444.255	89.31
444.476	93.31
444.698	93.31
444.919	100.31
445.14	138.31
445.361	127.31
445.582	113.31
445.803	123.31
446.024	127.31
446.245	129.31
446.466	120.31
446.687	99.31
446.908	95.31
447.129	94.31
447.35	88.31
447.571	89.31
447.792	81.31
448.013	100.31
448.234	119.31
448.455	98.31
448.675	97.31
448.896	110.31
449.117	106.31
449.338	99.31
449.559	135.31
449.779	123.31
450	106.31
450.221	93.31
450.442	96.31
450.662	116.31
450.883	107.31
451.104	96.31
451.324	94.31
451.545	89.31
451.766	75.31
451.986	83.31
452.207	103.31
452.428	83.31
452.648	108.31
452.869	105.31
453.089	108.31
453.31	109.31
453.53	88.31
453.751	88.31
453.971	99.31
454.192	93.31
454.412	96.31
454.633	76.31
454.853	91.31
455.073	82.31
455.294	88.31
455.514	94.31
455.734	81.31
455.955	98.31
456.175	100.31
456.395	88.31
456.616	95.31
456.836	86.31
457.056	76.31
457.276	81.31
457.497	91.31
457.717	81.31
457.937	89.31
458.157	91.31
458.377	97.31
458.598	99.31
458.818	123.31
459.038	135.31
459.258	109.31
459.478	87.31
459.698	93.31
459.918	90.31
460.138	80.31
460.358	92.31
460.578	88.31
460.798	81.31
461.018	93.31
461.238	110.31
461.458	96.31
461.678	82.31
461.898	86.31
462.118	80.31
462.338	96.31
462.558	89.31
462.777	91.31
462.997	87.31
463.217	94.31
463.437	106.31
463.657	98.31
463.876	88.31
464.096	105.31
464.316	94.31
464.536	93.31
464.755	103.31
464.975	116.31
465.195	134.31
465.414	144.31
465.634	94.31
465.854	76.31
466.073	87.31
466.293	97.31
466.512	94.31
466.732	102.31
466.951	101.31
467.171	96.31
467.391	108.31
467.61	92.31
467.829	78.31
468.049	97.31
468.268	87.31
468.488	85.31
468.707	89.31
468.927	76.31
469.146	90.31
469.365	97.31
469.585	87.31
469.804	96.31
470.023	89.31
470.243	86.31
470.462	108.31
470.681	103.31
470.901	94.31
471.12	94.31
471.339	91.31
471.558	72.31
471.777	98.31
471.997	92.31
472.216	93.31
472.435	107.31
472.654	86.31
472.873	84.31
473.092	87.31
473.311	91.31
473.53	92.31
473.749	90.31
473.968	92.31
474.187	105.31
474.406	93.31
474.625	90.31
474.844	88.31
475.063	90.31
475.282	103.31
475.501	97.31
475.72	96.31
475.939	81.31
476.158	93.31
476.377	81.31
476.596	94.31
476.814	91.31
477.033	84.31
477.252	95.31
477.471	81.31
477.69	87.31
477.908	94.31
478.127	93.31
478.346	91.31
478.564	98.31
478.783	100.31
479.002	100.31
479.22	99.31
479.439	100.31
479.658	95.31
479.876	93.31
480.095	84.31
480.313	84.31
480.532	88.31
480.751	87.31
480.969	105.31
481.188	126.31
481.406	126.31
481.624	94.31
481.843	93.31
482.061	94.31
482.28	87.31
482.498	88.31
482.717	103.31
482.935	100.31
483.153	88.31
483.372	92.31
483.59	76.31
483.808	93.31
484.027	83.31
484.245	99.31
484.463	86.31
484.681	99.31
484.9	87.31
485.118	107.31
485.336	96.31
485.554	94.31
485.772	90.31
485.99	107.31
486.209	100.31
486.427	123.31
486.645	121.31
486.863	121.31
487.081	100.31
487.299	102.31
487.517	94.31
487.735	97.31
487.953	95.31
488.171	86.31
488.389	97.31
488.607	108.31
488.825	111.31
489.043	102.31
489.261	81.31
489.479	95.31
489.696	88.31
489.914	104.31
490.132	95.31
490.35	99.31
490.568	98.31
490.786	99.31
491.003	90.31
491.221	94.31
491.439	86.31
491.657	111.31
491.874	101.31
492.092	93.31
492.31	103.31
492.527	89.31
492.745	89.31
492.963	95.31
493.18	96.31
493.398	96.31
493.615	95.31
493.833	91.31
494.05	104.31
494.268	95.31
494.485	84.31
494.703	91.31
494.92	99.31
495.138	89.31
495.355	98.31
495.573	90.31
495.79	97.31
496.008	111.31
496.225	95.31
496.442	81.31
496.66	99.31
496.877	97.31
497.094	105.31
497.312	95.31
497.529	112.31
497.746	91.31
497.963	105.31
498.181	101.31
498.398	99.31
498.615	98.31
498.832	93.31
499.049	88.31
499.267	101.31
499.484	97.31
499.701	95.31
499.918	97.31
500.135	111.31
500.352	87.31
500.569	83.31
500.786	96.31
501.003	106.31
501.22	94.31
501.437	85.31
501.654	88.31
501.871	112.31
502.088	104.31
502.305	83.31
502.522	96.31
502.739	88.31
502.956	93.31
503.172	95.31
503.389	91.31
503.606	91.31
503.823	96.31
504.04	90.31
504.256	90.31
504.473	89.31
504.69	88.31
504.907	108.31
505.123	87.31
505.34	94.31
505.557	99.31
505.773	92.31
505.99	85.31
506.207	90.31
506.423	99.31
506.64	95.31
506.856	93.31
507.073	94.31
507.289	112.31
507.506	97.31
507.722	124.31
507.939	108.31
508.155	91.31
508.372	94.31
508.588	88.31
508.805	94.31
509.021	97.31
509.238	114.31
509.454	106.31
509.67	114.31
509.887	114.31
510.103	125.31
510.319	187.31
510.536	648.31
510.752	2023.31
510.968	588.31
511.184	151.31
511.401	119.31
511.617	114.31
511.833	107.31
512.049	90.31
512.265	90.31
512.481	96.31
512.698	96.31
512.914	88.31
513.13	104.31
513.346	99.31
513.562	83.31
513.778	100.31
513.994	88.31
514.21	91.31
514.426	113.31
514.642	123.31
514.858	123.31
515.074	153.31
