Data from Uncirc_1999_H10_HRD10591_00077.txt Node
Date: Wed Jan 03 11:22:20 EST 2024
User: Yrep
Spectrometer: HR+D1059
Trigger mode: 1
Integration Time (sec): 1.000000E-1
Scans to average: 1
Electric dark correction enabled: true
Nonlinearity correction enabled: false
Boxcar width: 0
XAxis mode: Wavelengths
Number of Pixels in Spectrum: 2048
>>>>>Begin Spectral Data<<<<<
223.165	-11.12
223.4	-11.12
223.635	-11.12
223.869	-6.12
224.104	-14.12
224.338	-3.12
224.573	-17.12
224.808	-10.12
225.042	-12.12
225.277	-4.12
225.511	8.88
225.746	-14.12
225.98	-5.12
226.215	-6.12
226.449	25.88
226.683	15.88
226.918	17.88
227.152	34.88
227.387	27.88
227.621	46.88
227.856	32.88
228.09	40.88
228.324	50.88
228.559	56.88
228.793	62.88
229.027	53.88
229.262	78.88
229.496	71.88
229.73	78.88
229.964	78.88
230.199	77.88
230.433	83.88
230.667	74.88
230.901	96.88
231.136	81.88
231.37	79.88
231.604	88.88
231.838	88.88
232.072	81.88
232.306	86.88
232.541	79.88
232.775	86.88
233.009	75.88
233.243	89.88
233.477	90.88
233.711	84.88
233.945	83.88
234.179	86.88
234.413	83.88
234.647	76.88
234.881	78.88
235.115	67.88
235.349	90.88
235.583	78.88
235.817	79.88
236.051	81.88
236.285	76.88
236.519	76.88
236.753	79.88
236.987	88.88
237.221	83.88
237.455	98.88
237.689	83.88
237.922	72.88
238.156	80.88
238.39	75.88
238.624	74.88
238.858	80.88
239.091	64.88
239.325	90.88
239.559	89.88
239.793	75.88
240.027	86.88
240.26	76.88
240.494	69.88
240.728	77.88
240.961	78.88
241.195	71.88
241.429	99.88
241.662	76.88
241.896	78.88
242.13	84.88
242.363	64.88
242.597	87.88
242.83	86.88
243.064	79.88
243.298	70.88
243.531	79.88
243.765	80.88
243.998	83.88
244.232	80.88
244.465	75.88
244.699	77.88
244.932	83.88
245.166	76.88
245.399	90.88
245.633	82.88
245.866	67.88
246.099	76.88
246.333	85.88
246.566	78.88
246.8	68.88
247.033	88.88
247.266	90.88
247.5	76.88
247.733	91.88
247.966	79.88
248.2	90.88
248.433	65.88
248.666	98.88
248.899	62.88
249.133	93.88
249.366	103.88
249.599	106.88
249.832	105.88
250.066	75.88
250.299	69.88
250.532	84.88
250.765	78.88
250.998	88.88
251.231	80.88
251.465	89.88
251.698	84.88
251.931	72.88
252.164	82.88
252.397	87.88
252.63	61.88
252.863	92.88
253.096	76.88
253.329	80.88
253.562	82.88
253.795	86.88
254.028	90.88
254.261	77.88
254.494	80.88
254.727	87.88
254.96	86.88
255.193	90.88
255.426	94.88
255.659	79.88
255.892	84.88
256.124	84.88
256.357	81.88
256.59	87.88
256.823	82.88
257.056	85.88
257.289	90.88
257.521	86.88
257.754	87.88
257.987	95.88
258.22	78.88
258.452	78.88
258.685	88.88
258.918	83.88
259.151	73.88
259.383	91.88
259.616	82.88
259.849	71.88
260.081	90.88
260.314	62.88
260.547	72.88
260.779	90.88
261.012	93.88
261.244	93.88
261.477	90.88
261.71	99.88
261.942	103.88
262.175	101.88
262.407	96.88
262.64	92.88
262.872	91.88
263.105	95.88
263.337	87.88
263.57	75.88
263.802	90.88
264.035	74.88
264.267	106.88
264.499	91.88
264.732	81.88
264.964	68.88
265.197	87.88
265.429	94.88
265.661	91.88
265.894	90.88
266.126	86.88
266.358	90.88
266.591	89.88
266.823	84.88
267.055	94.88
267.287	87.88
267.52	94.88
267.752	83.88
267.984	86.88
268.216	93.88
268.448	88.88
268.681	82.88
268.913	72.88
269.145	83.88
269.377	78.88
269.609	93.88
269.841	96.88
270.073	82.88
270.306	101.88
270.538	97.88
270.77	95.88
271.002	92.88
271.234	84.88
271.466	95.88
271.698	79.88
271.93	79.88
272.162	77.88
272.394	87.88
272.626	91.88
272.858	79.88
273.09	89.88
273.322	86.88
273.553	75.88
273.785	100.88
274.017	88.88
274.249	79.88
274.481	88.88
274.713	75.88
274.945	84.88
275.176	79.88
275.408	95.88
275.64	97.88
275.872	91.88
276.104	85.88
276.335	95.88
276.567	99.88
276.799	112.88
277.031	91.88
277.262	85.88
277.494	80.88
277.726	92.88
277.957	96.88
278.189	88.88
278.421	83.88
278.652	82.88
278.884	94.88
279.115	84.88
279.347	89.88
279.579	83.88
279.81	104.88
280.042	95.88
280.273	94.88
280.505	92.88
280.736	86.88
280.968	91.88
281.199	99.88
281.431	99.88
281.662	90.88
281.894	82.88
282.125	88.88
282.356	106.88
282.588	122.88
282.819	103.88
283.051	96.88
283.282	97.88
283.513	87.88
283.745	93.88
283.976	98.88
284.207	101.88
284.439	87.88
284.67	74.88
284.901	86.88
285.132	76.88
285.364	88.88
285.595	80.88
285.826	96.88
286.057	94.88
286.288	97.88
286.52	96.88
286.751	95.88
286.982	95.88
287.213	90.88
287.444	98.88
287.675	89.88
287.906	94.88
288.138	93.88
288.369	94.88
288.6	94.88
288.831	67.88
289.062	94.88
289.293	79.88
289.524	89.88
289.755	95.88
289.986	95.88
290.217	94.88
290.448	94.88
290.679	87.88
290.91	100.88
291.141	86.88
291.371	82.88
291.602	92.88
291.833	85.88
292.064	92.88
292.295	89.88
292.526	88.88
292.757	95.88
292.987	91.88
293.218	89.88
293.449	94.88
293.68	71.88
293.91	87.88
294.141	99.88
294.372	87.88
294.603	94.88
294.833	75.88
295.064	86.88
295.295	89.88
295.525	77.88
295.756	91.88
295.987	119.88
296.217	130.88
296.448	122.88
296.679	92.88
296.909	85.88
297.14	88.88
297.37	84.88
297.601	99.88
297.831	95.88
298.062	101.88
298.292	92.88
298.523	81.88
298.753	81.88
298.984	82.88
299.214	86.88
299.445	98.88
299.675	96.88
299.905	84.88
300.136	87.88
300.366	94.88
300.597	94.88
300.827	90.88
301.057	93.88
301.288	104.88
301.518	91.88
301.748	96.88
301.979	123.88
302.209	96.88
302.439	88.88
302.669	95.88
302.9	71.88
303.13	87.88
303.36	99.88
303.59	93.88
303.82	101.88
304.051	91.88
304.281	86.88
304.511	86.88
304.741	92.88
304.971	83.88
305.201	86.88
305.431	102.88
305.661	98.88
305.891	77.88
306.121	81.88
306.352	97.88
306.582	112.88
306.812	102.88
307.042	82.88
307.272	92.88
307.502	98.88
307.731	94.88
307.961	86.88
308.191	93.88
308.421	84.88
308.651	94.88
308.881	104.88
309.111	100.88
309.341	115.88
309.571	90.88
309.8	97.88
310.03	91.88
310.26	114.88
310.49	94.88
310.72	88.88
310.949	100.88
311.179	106.88
311.409	96.88
311.639	107.88
311.868	104.88
312.098	105.88
312.328	93.88
312.557	98.88
312.787	105.88
313.017	108.88
313.246	93.88
313.476	90.88
313.706	96.88
313.935	102.88
314.165	93.88
314.394	94.88
314.624	100.88
314.853	93.88
315.083	97.88
315.312	94.88
315.542	84.88
315.771	101.88
316.001	94.88
316.23	102.88
316.46	88.88
316.689	88.88
316.919	85.88
317.148	92.88
317.377	88.88
317.607	96.88
317.836	100.88
318.065	91.88
318.295	87.88
318.524	101.88
318.753	83.88
318.983	103.88
319.212	97.88
319.441	115.88
319.67	116.88
319.9	86.88
320.129	93.88
320.358	94.88
320.587	98.88
320.816	111.88
321.046	98.88
321.275	88.88
321.504	102.88
321.733	94.88
321.962	108.88
322.191	102.88
322.42	98.88
322.649	110.88
322.878	104.88
323.108	111.88
323.337	118.88
323.566	129.88
323.795	152.88
324.024	200.88
324.253	376.88
324.482	808.88
324.71	1695.88
324.939	2206.88
325.168	809.88
325.397	226.88
325.626	147.88
325.855	138.88
326.084	129.88
326.313	127.88
326.542	151.88
326.77	241.88
326.999	460.88
327.228	987.88
327.457	1740.88
327.686	1336.88
327.914	364.88
328.143	174.88
328.372	151.88
328.6	120.88
328.829	117.88
329.058	116.88
329.287	122.88
329.515	115.88
329.744	131.88
329.972	126.88
330.201	120.88
330.43	117.88
330.658	104.88
330.887	105.88
331.115	110.88
331.344	98.88
331.572	109.88
331.801	101.88
332.03	109.88
332.258	100.88
332.486	88.88
332.715	94.88
332.943	107.88
333.172	103.88
333.4	100.88
333.629	108.88
333.857	127.88
334.085	104.88
334.314	105.88
334.542	104.88
334.771	99.88
334.999	94.88
335.227	107.88
335.455	93.88
335.684	94.88
335.912	99.88
336.14	97.88
336.369	108.88
336.597	107.88
336.825	106.88
337.053	101.88
337.281	100.88
337.51	87.88
337.738	90.88
337.966	108.88
338.194	109.88
338.422	97.88
338.65	103.88
338.878	91.88
339.106	90.88
339.334	100.88
339.562	105.88
339.79	93.88
340.018	95.88
340.246	87.88
340.474	99.88
340.702	90.88
340.93	111.88
341.158	104.88
341.386	116.88
341.614	107.88
341.842	95.88
342.07	94.88
342.298	106.88
342.526	83.88
342.754	86.88
342.981	78.88
343.209	100.88
343.437	97.88
343.665	86.88
343.893	98.88
344.12	98.88
344.348	104.88
344.576	96.88
344.804	103.88
345.031	82.88
345.259	103.88
345.487	105.88
345.714	101.88
345.942	96.88
346.17	82.88
346.397	105.88
346.625	92.88
346.853	96.88
347.08	98.88
347.308	102.88
347.535	82.88
347.763	105.88
347.99	109.88
348.218	98.88
348.445	104.88
348.673	102.88
348.9	110.88
349.128	110.88
349.355	88.88
349.583	90.88
349.81	99.88
350.037	94.88
350.265	98.88
350.492	102.88
350.72	118.88
350.947	105.88
351.174	112.88
351.402	102.88
351.629	105.88
351.856	111.88
352.083	113.88
352.311	114.88
352.538	99.88
352.765	108.88
352.992	118.88
353.22	109.88
353.447	104.88
353.674	100.88
353.901	110.88
354.128	99.88
354.355	88.88
354.583	107.88
354.81	96.88
355.037	94.88
355.264	95.88
355.491	103.88
355.718	102.88
355.945	99.88
356.172	95.88
356.399	101.88
356.626	93.88
356.853	108.88
357.08	97.88
357.307	91.88
357.534	114.88
357.761	102.88
357.988	106.88
358.215	106.88
358.441	104.88
358.668	98.88
358.895	88.88
359.122	74.88
359.349	97.88
359.576	92.88
359.802	95.88
360.029	93.88
360.256	104.88
360.483	106.88
360.709	80.88
360.936	107.88
361.163	92.88
361.39	89.88
361.616	117.88
361.843	98.88
362.07	86.88
362.296	102.88
362.523	100.88
362.749	86.88
362.976	83.88
363.203	96.88
363.429	88.88
363.656	92.88
363.882	86.88
364.109	90.88
364.335	105.88
364.562	96.88
364.788	87.88
365.015	108.88
365.241	104.88
365.468	96.88
365.694	95.88
365.92	103.88
366.147	95.88
366.373	88.88
366.599	91.88
366.826	97.88
367.052	91.88
367.278	90.88
367.505	102.88
367.731	94.88
367.957	88.88
368.184	85.88
368.41	101.88
368.636	113.88
368.862	112.88
369.089	100.88
369.315	92.88
369.541	96.88
369.767	105.88
369.993	95.88
370.219	86.88
370.445	92.88
370.672	94.88
370.898	84.88
371.124	81.88
371.35	87.88
371.576	88.88
371.802	100.88
372.028	91.88
372.254	97.88
372.48	87.88
372.706	93.88
372.932	88.88
373.158	87.88
373.384	107.88
373.61	86.88
373.835	91.88
374.061	73.88
374.287	109.88
374.513	76.88
374.739	106.88
374.965	95.88
375.191	86.88
375.416	95.88
375.642	100.88
375.868	91.88
376.094	97.88
376.319	100.88
376.545	97.88
376.771	92.88
376.997	89.88
377.222	86.88
377.448	89.88
377.674	84.88
377.899	90.88
378.125	97.88
378.35	82.88
378.576	90.88
378.802	99.88
379.027	92.88
379.253	100.88
379.478	91.88
379.704	95.88
379.929	102.88
380.155	78.88
380.38	86.88
380.606	97.88
380.831	108.88
381.057	91.88
381.282	96.88
381.507	103.88
381.733	95.88
381.958	89.88
382.184	102.88
382.409	107.88
382.634	104.88
382.86	87.88
383.085	93.88
383.31	106.88
383.535	111.88
383.761	92.88
383.986	91.88
384.211	101.88
384.436	106.88
384.662	85.88
384.887	108.88
385.112	111.88
385.337	100.88
385.562	105.88
385.787	105.88
386.013	107.88
386.238	108.88
386.463	106.88
386.688	111.88
386.913	113.88
387.138	111.88
387.363	103.88
387.588	100.88
387.813	96.88
388.038	106.88
388.263	111.88
388.488	115.88
388.713	93.88
388.938	87.88
389.163	106.88
389.387	107.88
389.612	86.88
389.837	95.88
390.062	86.88
390.287	100.88
390.512	95.88
390.736	94.88
390.961	89.88
391.186	103.88
391.411	97.88
391.636	99.88
391.86	96.88
392.085	94.88
392.31	85.88
392.534	80.88
392.759	81.88
392.984	94.88
393.208	102.88
393.433	99.88
393.658	89.88
393.882	90.88
394.107	99.88
394.331	77.88
394.556	86.88
394.78	88.88
395.005	100.88
395.229	82.88
395.454	82.88
395.678	88.88
395.903	85.88
396.127	95.88
396.352	98.88
396.576	92.88
396.801	78.88
397.025	89.88
397.249	89.88
397.474	94.88
397.698	94.88
397.922	77.88
398.147	77.88
398.371	91.88
398.595	97.88
398.82	88.88
399.044	86.88
399.268	104.88
399.492	90.88
399.717	91.88
399.941	98.88
400.165	112.88
400.389	89.88
400.613	87.88
400.837	96.88
401.062	94.88
401.286	82.88
401.51	96.88
401.734	92.88
401.958	107.88
402.182	119.88
402.406	157.88
402.63	122.88
402.854	107.88
403.078	99.88
403.302	90.88
403.526	86.88
403.75	99.88
403.974	89.88
404.198	75.88
404.422	94.88
404.645	109.88
404.869	94.88
405.093	92.88
405.317	105.88
405.541	108.88
405.765	95.88
405.988	123.88
406.212	156.88
406.436	206.88
406.66	136.88
406.883	95.88
407.107	94.88
407.331	99.88
407.555	107.88
407.778	91.88
408.002	89.88
408.226	94.88
408.449	95.88
408.673	80.88
408.896	111.88
409.12	106.88
409.344	86.88
409.567	76.88
409.791	107.88
410.014	87.88
410.238	82.88
410.461	86.88
410.685	85.88
410.908	108.88
411.132	105.88
411.355	110.88
411.578	106.88
411.802	89.88
412.025	83.88
412.249	87.88
412.472	96.88
412.695	83.88
412.919	93.88
413.142	90.88
413.365	83.88
413.589	78.88
413.812	100.88
414.035	95.88
414.258	99.88
414.482	80.88
414.705	88.88
414.928	88.88
415.151	84.88
415.374	88.88
415.597	105.88
415.821	96.88
416.044	100.88
416.267	87.88
416.49	98.88
416.713	85.88
416.936	90.88
417.159	91.88
417.382	83.88
417.605	79.88
417.828	98.88
418.051	87.88
418.274	100.88
418.497	84.88
418.72	84.88
418.943	101.88
419.166	97.88
419.389	90.88
419.611	97.88
419.834	96.88
420.057	99.88
420.28	87.88
420.503	97.88
420.726	96.88
420.948	86.88
421.171	90.88
421.394	100.88
421.617	66.88
421.839	92.88
422.062	72.88
422.285	89.88
422.507	102.88
422.73	94.88
422.953	103.88
423.175	92.88
423.398	95.88
423.621	98.88
423.843	82.88
424.066	86.88
424.288	94.88
424.511	85.88
424.733	91.88
424.956	104.88
425.178	92.88
425.401	95.88
425.623	99.88
425.846	97.88
426.068	89.88
426.291	86.88
426.513	92.88
426.735	102.88
426.958	87.88
427.18	110.88
427.402	136.88
427.625	168.88
427.847	119.88
428.069	105.88
428.292	91.88
428.514	86.88
428.736	81.88
428.958	88.88
429.181	82.88
429.403	79.88
429.625	84.88
429.847	92.88
430.069	103.88
430.292	87.88
430.514	72.88
430.736	90.88
430.958	89.88
431.18	83.88
431.402	90.88
431.624	86.88
431.846	89.88
432.068	91.88
432.29	92.88
432.512	90.88
432.734	90.88
432.956	91.88
433.178	108.88
433.4	110.88
433.622	82.88
433.844	90.88
434.066	99.88
434.287	92.88
434.509	82.88
434.731	101.88
434.953	76.88
435.175	70.88
435.397	89.88
435.618	90.88
435.84	103.88
436.062	119.88
436.284	122.88
436.505	110.88
436.727	109.88
436.949	89.88
437.17	96.88
437.392	93.88
437.614	106.88
437.835	114.88
438.057	111.88
438.278	112.88
438.5	105.88
438.721	128.88
438.943	97.88
439.165	83.88
439.386	91.88
439.608	93.88
439.829	91.88
440.05	137.88
440.272	142.88
440.493	110.88
440.715	86.88
440.936	94.88
441.158	95.88
441.379	98.88
441.6	83.88
441.822	91.88
442.043	96.88
442.264	90.88
442.486	102.88
442.707	82.88
442.928	117.88
443.149	118.88
443.371	114.88
443.592	104.88
443.813	103.88
444.034	101.88
444.255	89.88
444.476	92.88
444.698	76.88
444.919	102.88
445.14	115.88
445.361	116.88
445.582	123.88
445.803	130.88
446.024	129.88
446.245	124.88
446.466	109.88
446.687	74.88
446.908	89.88
447.129	102.88
447.35	95.88
447.571	102.88
447.792	106.88
448.013	98.88
448.234	113.88
448.455	95.88
448.675	93.88
448.896	110.88
449.117	92.88
449.338	96.88
449.559	118.88
449.779	124.88
450	90.88
450.221	79.88
450.442	92.88
450.662	86.88
450.883	113.88
451.104	112.88
451.324	98.88
451.545	84.88
451.766	94.88
451.986	94.88
452.207	95.88
452.428	94.88
452.648	82.88
452.869	105.88
453.089	106.88
453.31	101.88
453.53	95.88
453.751	79.88
453.971	105.88
454.192	103.88
454.412	94.88
454.633	93.88
454.853	81.88
455.073	92.88
455.294	82.88
455.514	92.88
455.734	91.88
455.955	79.88
456.175	86.88
456.395	95.88
456.616	92.88
456.836	90.88
457.056	83.88
457.276	97.88
457.497	88.88
457.717	95.88
457.937	92.88
458.157	94.88
458.377	86.88
458.598	100.88
458.818	158.88
459.038	152.88
459.258	106.88
459.478	86.88
459.698	85.88
459.918	85.88
460.138	80.88
460.358	93.88
460.578	66.88
460.798	94.88
461.018	86.88
461.238	95.88
461.458	96.88
461.678	92.88
461.898	75.88
462.118	79.88
462.338	75.88
462.558	86.88
462.777	92.88
462.997	81.88
463.217	90.88
463.437	78.88
463.657	101.88
463.876	102.88
464.096	92.88
464.316	88.88
464.536	91.88
464.755	94.88
464.975	100.88
465.195	138.88
465.414	160.88
465.634	96.88
465.854	82.88
466.073	67.88
466.293	90.88
466.512	86.88
466.732	93.88
466.951	87.88
467.171	90.88
467.391	86.88
467.61	93.88
467.829	97.88
468.049	99.88
468.268	99.88
468.488	97.88
468.707	93.88
468.927	96.88
469.146	75.88
469.365	88.88
469.585	85.88
469.804	86.88
470.023	89.88
470.243	84.88
470.462	94.88
470.681	99.88
470.901	78.88
471.12	80.88
471.339	83.88
471.558	95.88
471.777	97.88
471.997	83.88
472.216	105.88
472.435	102.88
472.654	93.88
472.873	93.88
473.092	88.88
473.311	95.88
473.53	101.88
473.749	95.88
473.968	94.88
474.187	98.88
474.406	95.88
474.625	96.88
474.844	94.88
475.063	99.88
475.282	87.88
475.501	84.88
475.72	99.88
475.939	88.88
476.158	99.88
476.377	76.88
476.596	86.88
476.814	88.88
477.033	92.88
477.252	96.88
477.471	85.88
477.69	83.88
477.908	77.88
478.127	91.88
478.346	89.88
478.564	95.88
478.783	100.88
479.002	84.88
479.22	83.88
479.439	84.88
479.658	112.88
479.876	86.88
480.095	99.88
480.313	95.88
480.532	93.88
480.751	82.88
480.969	98.88
481.188	117.88
481.406	116.88
481.624	78.88
481.843	96.88
482.061	112.88
482.28	88.88
482.498	96.88
482.717	109.88
482.935	91.88
483.153	86.88
483.372	85.88
483.59	98.88
483.808	86.88
484.027	97.88
484.245	96.88
484.463	86.88
484.681	106.88
484.9	100.88
485.118	94.88
485.336	80.88
485.554	82.88
485.772	114.88
485.99	106.88
486.209	107.88
486.427	98.88
486.645	96.88
486.863	110.88
487.081	103.88
487.299	90.88
487.517	103.88
487.735	88.88
487.953	100.88
488.171	106.88
488.389	105.88
488.607	102.88
488.825	97.88
489.043	94.88
489.261	102.88
489.479	86.88
489.696	104.88
489.914	88.88
490.132	90.88
490.35	88.88
490.568	86.88
490.786	89.88
491.003	91.88
491.221	92.88
491.439	98.88
491.657	95.88
491.874	106.88
492.092	102.88
492.31	95.88
492.527	101.88
492.745	77.88
492.963	97.88
493.18	100.88
493.398	103.88
493.615	98.88
493.833	93.88
494.05	86.88
494.268	96.88
494.485	78.88
494.703	103.88
494.92	97.88
495.138	96.88
495.355	87.88
495.573	83.88
495.79	91.88
496.008	94.88
496.225	78.88
496.442	83.88
496.66	109.88
496.877	95.88
497.094	96.88
497.312	79.88
497.529	92.88
497.746	93.88
497.963	84.88
498.181	99.88
498.398	100.88
498.615	96.88
498.832	86.88
499.049	83.88
499.267	89.88
499.484	92.88
499.701	90.88
499.918	101.88
500.135	94.88
500.352	86.88
500.569	90.88
500.786	95.88
501.003	93.88
501.22	89.88
501.437	99.88
501.654	92.88
501.871	109.88
502.088	84.88
502.305	104.88
502.522	100.88
502.739	78.88
502.956	83.88
503.172	90.88
503.389	102.88
503.606	97.88
503.823	95.88
504.04	98.88
504.256	82.88
504.473	81.88
504.69	89.88
504.907	97.88
505.123	86.88
505.34	99.88
505.557	98.88
505.773	93.88
505.99	104.88
506.207	86.88
506.423	99.88
506.64	92.88
506.856	87.88
507.073	96.88
507.289	88.88
507.506	102.88
507.722	98.88
507.939	107.88
508.155	105.88
508.372	98.88
508.588	104.88
508.805	93.88
509.021	109.88
509.238	101.88
509.454	97.88
509.67	96.88
509.887	101.88
510.103	139.88
510.319	210.88
510.536	726.88
510.752	2249.88
510.968	603.88
511.184	164.88
511.401	102.88
511.617	97.88
511.833	93.88
512.049	93.88
512.265	102.88
512.481	88.88
512.698	91.88
512.914	95.88
513.13	96.88
513.346	95.88
513.562	95.88
513.778	94.88
513.994	102.88
514.21	113.88
514.426	107.88
514.642	124.88
514.858	115.88
