Data from Uncirc_1999_H10_HRD10591_00068.txt Node
Date: Wed Jan 03 11:22:18 EST 2024
User: Yrep
Spectrometer: HR+D1059
Trigger mode: 1
Integration Time (sec): 1.000000E-1
Scans to average: 1
Electric dark correction enabled: true
Nonlinearity correction enabled: false
Boxcar width: 0
XAxis mode: Wavelengths
Number of Pixels in Spectrum: 2048
>>>>>Begin Spectral Data<<<<<
223.165	-30.88
223.4	-30.88
223.635	-30.88
223.869	-26.88
224.104	-31.88
224.338	-21.88
224.573	-0.88
224.808	-12.88
225.042	-10.88
225.277	1.12
225.511	16.12
225.746	-4.88
225.98	-0.88
226.215	20.12
226.449	19.12
226.683	21.12
226.918	28.12
227.152	36.12
227.387	32.12
227.621	45.12
227.856	36.12
228.09	36.12
228.324	56.12
228.559	54.12
228.793	53.12
229.027	63.12
229.262	60.12
229.496	55.12
229.73	93.12
229.964	77.12
230.199	75.12
230.433	73.12
230.667	78.12
230.901	82.12
231.136	75.12
231.37	83.12
231.604	80.12
231.838	91.12
232.072	86.12
232.306	78.12
232.541	86.12
232.775	67.12
233.009	80.12
233.243	87.12
233.477	80.12
233.711	81.12
233.945	93.12
234.179	91.12
234.413	81.12
234.647	73.12
234.881	80.12
235.115	88.12
235.349	85.12
235.583	89.12
235.817	84.12
236.051	83.12
236.285	82.12
236.519	88.12
236.753	79.12
236.987	89.12
237.221	76.12
237.455	86.12
237.689	79.12
237.922	87.12
238.156	68.12
238.39	76.12
238.624	66.12
238.858	74.12
239.091	83.12
239.325	89.12
239.559	72.12
239.793	79.12
240.027	70.12
240.26	91.12
240.494	80.12
240.728	68.12
240.961	67.12
241.195	86.12
241.429	82.12
241.662	79.12
241.896	87.12
242.13	80.12
242.363	78.12
242.597	66.12
242.83	86.12
243.064	70.12
243.298	61.12
243.531	76.12
243.765	88.12
243.998	89.12
244.232	95.12
244.465	76.12
244.699	75.12
244.932	79.12
245.166	79.12
245.399	94.12
245.633	93.12
245.866	77.12
246.099	84.12
246.333	67.12
246.566	70.12
246.8	74.12
247.033	71.12
247.266	73.12
247.5	57.12
247.733	84.12
247.966	80.12
248.2	78.12
248.433	87.12
248.666	68.12
248.899	84.12
249.133	83.12
249.366	104.12
249.599	99.12
249.832	80.12
250.066	89.12
250.299	86.12
250.532	76.12
250.765	75.12
250.998	76.12
251.231	68.12
251.465	74.12
251.698	81.12
251.931	84.12
252.164	74.12
252.397	86.12
252.63	91.12
252.863	75.12
253.096	81.12
253.329	74.12
253.562	80.12
253.795	85.12
254.028	89.12
254.261	97.12
254.494	81.12
254.727	81.12
254.96	72.12
255.193	76.12
255.426	93.12
255.659	94.12
255.892	94.12
256.124	85.12
256.357	84.12
256.59	80.12
256.823	90.12
257.056	86.12
257.289	90.12
257.521	87.12
257.754	88.12
257.987	92.12
258.22	82.12
258.452	79.12
258.685	66.12
258.918	72.12
259.151	77.12
259.383	89.12
259.616	97.12
259.849	84.12
260.081	84.12
260.314	77.12
260.547	80.12
260.779	78.12
261.012	79.12
261.244	81.12
261.477	92.12
261.71	92.12
261.942	109.12
262.175	97.12
262.407	97.12
262.64	87.12
262.872	88.12
263.105	81.12
263.337	91.12
263.57	80.12
263.802	94.12
264.035	75.12
264.267	86.12
264.499	79.12
264.732	86.12
264.964	88.12
265.197	74.12
265.429	90.12
265.661	83.12
265.894	78.12
266.126	89.12
266.358	89.12
266.591	79.12
266.823	88.12
267.055	85.12
267.287	95.12
267.52	84.12
267.752	86.12
267.984	77.12
268.216	94.12
268.448	81.12
268.681	82.12
268.913	80.12
269.145	74.12
269.377	94.12
269.609	98.12
269.841	88.12
270.073	84.12
270.306	81.12
270.538	90.12
270.77	96.12
271.002	77.12
271.234	80.12
271.466	99.12
271.698	98.12
271.93	95.12
272.162	79.12
272.394	77.12
272.626	87.12
272.858	82.12
273.09	89.12
273.322	87.12
273.553	87.12
273.785	100.12
274.017	73.12
274.249	91.12
274.481	92.12
274.713	80.12
274.945	79.12
275.176	80.12
275.408	98.12
275.64	105.12
275.872	93.12
276.104	89.12
276.335	106.12
276.567	93.12
276.799	99.12
277.031	100.12
277.262	96.12
277.494	73.12
277.726	92.12
277.957	98.12
278.189	87.12
278.421	90.12
278.652	78.12
278.884	88.12
279.115	85.12
279.347	82.12
279.579	90.12
279.81	82.12
280.042	97.12
280.273	91.12
280.505	92.12
280.736	97.12
280.968	115.12
281.199	82.12
281.431	89.12
281.662	98.12
281.894	102.12
282.125	95.12
282.356	107.12
282.588	134.12
282.819	118.12
283.051	74.12
283.282	71.12
283.513	102.12
283.745	95.12
283.976	91.12
284.207	92.12
284.439	97.12
284.67	98.12
284.901	96.12
285.132	81.12
285.364	91.12
285.595	97.12
285.826	93.12
286.057	84.12
286.288	73.12
286.52	84.12
286.751	89.12
286.982	94.12
287.213	92.12
287.444	91.12
287.675	77.12
287.906	80.12
288.138	102.12
288.369	101.12
288.6	112.12
288.831	82.12
289.062	101.12
289.293	72.12
289.524	94.12
289.755	78.12
289.986	84.12
290.217	90.12
290.448	82.12
290.679	87.12
290.91	63.12
291.141	80.12
291.371	72.12
291.602	94.12
291.833	80.12
292.064	107.12
292.295	90.12
292.526	92.12
292.757	102.12
292.987	89.12
293.218	86.12
293.449	84.12
293.68	91.12
293.91	97.12
294.141	96.12
294.372	92.12
294.603	81.12
294.833	87.12
295.064	91.12
295.295	98.12
295.525	73.12
295.756	90.12
295.987	127.12
296.217	140.12
296.448	111.12
296.679	87.12
296.909	97.12
297.14	88.12
297.37	94.12
297.601	83.12
297.831	100.12
298.062	96.12
298.292	90.12
298.523	86.12
298.753	84.12
298.984	91.12
299.214	93.12
299.445	104.12
299.675	80.12
299.905	87.12
300.136	84.12
300.366	90.12
300.597	94.12
300.827	83.12
301.057	96.12
301.288	98.12
301.518	83.12
301.748	106.12
301.979	105.12
302.209	102.12
302.439	94.12
302.669	102.12
302.9	90.12
303.13	99.12
303.36	89.12
303.59	95.12
303.82	114.12
304.051	104.12
304.281	82.12
304.511	88.12
304.741	83.12
304.971	77.12
305.201	86.12
305.431	97.12
305.661	83.12
305.891	93.12
306.121	94.12
306.352	82.12
306.582	108.12
306.812	105.12
307.042	94.12
307.272	87.12
307.502	90.12
307.731	100.12
307.961	98.12
308.191	88.12
308.421	108.12
308.651	97.12
308.881	92.12
309.111	88.12
309.341	98.12
309.571	100.12
309.8	83.12
310.03	113.12
310.26	97.12
310.49	103.12
310.72	111.12
310.949	94.12
311.179	95.12
311.409	108.12
311.639	84.12
311.868	85.12
312.098	104.12
312.328	97.12
312.557	93.12
312.787	99.12
313.017	98.12
313.246	81.12
313.476	104.12
313.706	96.12
313.935	94.12
314.165	91.12
314.394	108.12
314.624	103.12
314.853	94.12
315.083	91.12
315.312	89.12
315.542	83.12
315.771	86.12
316.001	90.12
316.23	91.12
316.46	91.12
316.689	90.12
316.919	77.12
317.148	88.12
317.377	94.12
317.607	99.12
317.836	98.12
318.065	93.12
318.295	87.12
318.524	82.12
318.753	99.12
318.983	97.12
319.212	96.12
319.441	91.12
319.67	107.12
319.9	107.12
320.129	90.12
320.358	82.12
320.587	90.12
320.816	88.12
321.046	99.12
321.275	104.12
321.504	108.12
321.733	103.12
321.962	102.12
322.191	93.12
322.42	98.12
322.649	116.12
322.878	115.12
323.108	106.12
323.337	135.12
323.566	129.12
323.795	158.12
324.024	216.12
324.253	426.12
324.482	879.12
324.71	1766.12
324.939	2327.12
325.168	825.12
325.397	249.12
325.626	160.12
325.855	132.12
326.084	101.12
326.313	129.12
326.542	156.12
326.77	230.12
326.999	495.12
327.228	1023.12
327.457	1845.12
327.686	1414.12
327.914	370.12
328.143	207.12
328.372	142.12
328.6	116.12
328.829	112.12
329.058	107.12
329.287	126.12
329.515	105.12
329.744	111.12
329.972	102.12
330.201	106.12
330.43	99.12
330.658	112.12
330.887	128.12
331.115	121.12
331.344	97.12
331.572	94.12
331.801	109.12
332.03	100.12
332.258	106.12
332.486	92.12
332.715	92.12
332.943	78.12
333.172	103.12
333.4	99.12
333.629	108.12
333.857	99.12
334.085	102.12
334.314	100.12
334.542	110.12
334.771	108.12
334.999	103.12
335.227	87.12
335.455	98.12
335.684	103.12
335.912	97.12
336.14	105.12
336.369	105.12
336.597	107.12
336.825	103.12
337.053	91.12
337.281	89.12
337.51	93.12
337.738	106.12
337.966	97.12
338.194	102.12
338.422	91.12
338.65	100.12
338.878	95.12
339.106	103.12
339.334	101.12
339.562	102.12
339.79	91.12
340.018	90.12
340.246	98.12
340.474	99.12
340.702	83.12
340.93	93.12
341.158	84.12
341.386	92.12
341.614	93.12
341.842	101.12
342.07	96.12
342.298	93.12
342.526	106.12
342.754	87.12
342.981	98.12
343.209	87.12
343.437	95.12
343.665	98.12
343.893	87.12
344.12	90.12
344.348	106.12
344.576	72.12
344.804	90.12
345.031	104.12
345.259	94.12
345.487	98.12
345.714	108.12
345.942	100.12
346.17	93.12
346.397	93.12
346.625	98.12
346.853	99.12
347.08	93.12
347.308	110.12
347.535	91.12
347.763	99.12
347.99	90.12
348.218	94.12
348.445	98.12
348.673	97.12
348.9	94.12
349.128	88.12
349.355	94.12
349.583	103.12
349.81	95.12
350.037	100.12
350.265	102.12
350.492	99.12
350.72	87.12
350.947	91.12
351.174	106.12
351.402	106.12
351.629	100.12
351.856	109.12
352.083	98.12
352.311	96.12
352.538	112.12
352.765	109.12
352.992	114.12
353.22	110.12
353.447	96.12
353.674	107.12
353.901	103.12
354.128	98.12
354.355	98.12
354.583	105.12
354.81	108.12
355.037	90.12
355.264	95.12
355.491	82.12
355.718	97.12
355.945	113.12
356.172	101.12
356.399	99.12
356.626	99.12
356.853	72.12
357.08	92.12
357.307	98.12
357.534	99.12
357.761	94.12
357.988	91.12
358.215	99.12
358.441	93.12
358.668	95.12
358.895	98.12
359.122	88.12
359.349	86.12
359.576	95.12
359.802	96.12
360.029	105.12
360.256	98.12
360.483	95.12
360.709	101.12
360.936	101.12
361.163	107.12
361.39	90.12
361.616	99.12
361.843	98.12
362.07	90.12
362.296	86.12
362.523	93.12
362.749	81.12
362.976	86.12
363.203	89.12
363.429	92.12
363.656	84.12
363.882	76.12
364.109	95.12
364.335	84.12
364.562	97.12
364.788	86.12
365.015	99.12
365.241	107.12
365.468	103.12
365.694	105.12
365.92	87.12
366.147	78.12
366.373	87.12
366.599	86.12
366.826	84.12
367.052	97.12
367.278	81.12
367.505	87.12
367.731	95.12
367.957	98.12
368.184	96.12
368.41	110.12
368.636	114.12
368.862	115.12
369.089	99.12
369.315	96.12
369.541	90.12
369.767	109.12
369.993	97.12
370.219	89.12
370.445	81.12
370.672	96.12
370.898	95.12
371.124	81.12
371.35	93.12
371.576	97.12
371.802	79.12
372.028	84.12
372.254	86.12
372.48	94.12
372.706	91.12
372.932	84.12
373.158	84.12
373.384	92.12
373.61	100.12
373.835	94.12
374.061	94.12
374.287	83.12
374.513	95.12
374.739	96.12
374.965	103.12
375.191	96.12
375.416	99.12
375.642	100.12
375.868	94.12
376.094	87.12
376.319	96.12
376.545	98.12
376.771	81.12
376.997	96.12
377.222	97.12
377.448	100.12
377.674	90.12
377.899	102.12
378.125	90.12
378.35	108.12
378.576	93.12
378.802	93.12
379.027	106.12
379.253	90.12
379.478	96.12
379.704	103.12
379.929	79.12
380.155	100.12
380.38	111.12
380.606	97.12
380.831	102.12
381.057	119.12
381.282	87.12
381.507	96.12
381.733	80.12
381.958	101.12
382.184	107.12
382.409	114.12
382.634	89.12
382.86	102.12
383.085	90.12
383.31	100.12
383.535	99.12
383.761	99.12
383.986	87.12
384.211	93.12
384.436	94.12
384.662	99.12
384.887	99.12
385.112	109.12
385.337	105.12
385.562	108.12
385.787	97.12
386.013	108.12
386.238	114.12
386.463	101.12
386.688	109.12
386.913	92.12
387.138	103.12
387.363	112.12
387.588	110.12
387.813	112.12
388.038	94.12
388.263	119.12
388.488	98.12
388.713	82.12
388.938	105.12
389.163	93.12
389.387	96.12
389.612	104.12
389.837	88.12
390.062	102.12
390.287	99.12
390.512	91.12
390.736	91.12
390.961	98.12
391.186	96.12
391.411	115.12
391.636	100.12
391.86	96.12
392.085	87.12
392.31	94.12
392.534	97.12
392.759	91.12
392.984	91.12
393.208	99.12
393.433	96.12
393.658	92.12
393.882	89.12
394.107	71.12
394.331	79.12
394.556	94.12
394.78	82.12
395.005	90.12
395.229	87.12
395.454	99.12
395.678	88.12
395.903	80.12
396.127	94.12
396.352	75.12
396.576	83.12
396.801	90.12
397.025	95.12
397.249	82.12
397.474	104.12
397.698	78.12
397.922	97.12
398.147	79.12
398.371	90.12
398.595	89.12
398.82	79.12
399.044	94.12
399.268	86.12
399.492	96.12
399.717	86.12
399.941	95.12
400.165	89.12
400.389	99.12
400.613	93.12
400.837	98.12
401.062	88.12
401.286	83.12
401.51	109.12
401.734	97.12
401.958	102.12
402.182	103.12
402.406	128.12
402.63	109.12
402.854	95.12
403.078	90.12
403.302	88.12
403.526	101.12
403.75	89.12
403.974	86.12
404.198	82.12
404.422	92.12
404.645	84.12
404.869	89.12
405.093	82.12
405.317	91.12
405.541	100.12
405.765	100.12
405.988	117.12
406.212	160.12
406.436	208.12
406.66	136.12
406.883	93.12
407.107	96.12
407.331	99.12
407.555	93.12
407.778	97.12
408.002	88.12
408.226	102.12
408.449	100.12
408.673	95.12
408.896	83.12
409.12	87.12
409.344	96.12
409.567	102.12
409.791	94.12
410.014	82.12
410.238	92.12
410.461	97.12
410.685	96.12
410.908	104.12
411.132	107.12
411.355	103.12
411.578	108.12
411.802	87.12
412.025	95.12
412.249	94.12
412.472	75.12
412.695	92.12
412.919	88.12
413.142	93.12
413.365	81.12
413.589	82.12
413.812	86.12
414.035	96.12
414.258	97.12
414.482	87.12
414.705	98.12
414.928	96.12
415.151	90.12
415.374	95.12
415.597	83.12
415.821	82.12
416.044	76.12
416.267	90.12
416.49	94.12
416.713	97.12
416.936	76.12
417.159	92.12
417.382	74.12
417.605	84.12
417.828	100.12
418.051	78.12
418.274	83.12
418.497	81.12
418.72	93.12
418.943	86.12
419.166	90.12
419.389	94.12
419.611	80.12
419.834	97.12
420.057	85.12
420.28	99.12
420.503	93.12
420.726	97.12
420.948	93.12
421.171	80.12
421.394	97.12
421.617	84.12
421.839	76.12
422.062	95.12
422.285	88.12
422.507	100.12
422.73	90.12
422.953	99.12
423.175	95.12
423.398	78.12
423.621	90.12
423.843	93.12
424.066	97.12
424.288	89.12
424.511	100.12
424.733	99.12
424.956	100.12
425.178	88.12
425.401	99.12
425.623	98.12
425.846	95.12
426.068	88.12
426.291	89.12
426.513	85.12
426.735	104.12
426.958	105.12
427.18	115.12
427.402	138.12
427.625	155.12
427.847	131.12
428.069	97.12
428.292	89.12
428.514	91.12
428.736	104.12
428.958	88.12
429.181	90.12
429.403	68.12
429.625	88.12
429.847	82.12
430.069	87.12
430.292	102.12
430.514	80.12
430.736	91.12
430.958	90.12
431.18	87.12
431.402	89.12
431.624	92.12
431.846	89.12
432.068	81.12
432.29	111.12
432.512	96.12
432.734	76.12
432.956	84.12
433.178	95.12
433.4	106.12
433.622	90.12
433.844	87.12
434.066	92.12
434.287	96.12
434.509	94.12
434.731	85.12
434.953	76.12
435.175	95.12
435.397	80.12
435.618	86.12
435.84	91.12
436.062	116.12
436.284	109.12
436.505	100.12
436.727	80.12
436.949	95.12
437.17	82.12
437.392	113.12
437.614	91.12
437.835	94.12
438.057	118.12
438.278	105.12
438.5	95.12
438.721	125.12
438.943	111.12
439.165	86.12
439.386	82.12
439.608	74.12
439.829	98.12
440.05	104.12
440.272	125.12
440.493	94.12
440.715	95.12
440.936	97.12
441.158	102.12
441.379	91.12
441.6	106.12
441.822	100.12
442.043	100.12
442.264	104.12
442.486	95.12
442.707	93.12
442.928	113.12
443.149	108.12
443.371	135.12
443.592	110.12
443.813	111.12
444.034	101.12
444.255	92.12
444.476	87.12
444.698	88.12
444.919	90.12
445.14	121.12
445.361	131.12
445.582	103.12
445.803	122.12
446.024	130.12
446.245	128.12
446.466	112.12
446.687	91.12
446.908	94.12
447.129	98.12
447.35	92.12
447.571	91.12
447.792	104.12
448.013	102.12
448.234	111.12
448.455	104.12
448.675	110.12
448.896	96.12
449.117	83.12
449.338	104.12
449.559	130.12
449.779	144.12
450	90.12
450.221	88.12
450.442	90.12
450.662	81.12
450.883	100.12
451.104	122.12
451.324	78.12
451.545	90.12
451.766	88.12
451.986	82.12
452.207	89.12
452.428	90.12
452.648	99.12
452.869	90.12
453.089	102.12
453.31	110.12
453.53	99.12
453.751	98.12
453.971	120.12
454.192	100.12
454.412	100.12
454.633	78.12
454.853	96.12
455.073	99.12
455.294	92.12
455.514	94.12
455.734	110.12
455.955	99.12
456.175	79.12
456.395	84.12
456.616	87.12
456.836	99.12
457.056	91.12
457.276	80.12
457.497	91.12
457.717	68.12
457.937	85.12
458.157	88.12
458.377	76.12
458.598	106.12
458.818	120.12
459.038	133.12
459.258	106.12
459.478	86.12
459.698	94.12
459.918	81.12
460.138	94.12
460.358	70.12
460.578	79.12
460.798	89.12
461.018	84.12
461.238	100.12
461.458	83.12
461.678	82.12
461.898	91.12
462.118	85.12
462.338	81.12
462.558	94.12
462.777	81.12
462.997	81.12
463.217	89.12
463.437	92.12
463.657	100.12
463.876	90.12
464.096	87.12
464.316	91.12
464.536	81.12
464.755	82.12
464.975	114.12
465.195	148.12
465.414	138.12
465.634	100.12
465.854	92.12
466.073	87.12
466.293	94.12
466.512	93.12
466.732	86.12
466.951	92.12
467.171	106.12
467.391	100.12
467.61	99.12
467.829	102.12
468.049	84.12
468.268	96.12
468.488	88.12
468.707	91.12
468.927	93.12
469.146	85.12
469.365	82.12
469.585	89.12
469.804	79.12
470.023	99.12
470.243	82.12
470.462	106.12
470.681	101.12
470.901	104.12
471.12	98.12
471.339	89.12
471.558	99.12
471.777	75.12
471.997	83.12
472.216	99.12
472.435	99.12
472.654	90.12
472.873	79.12
473.092	88.12
473.311	96.12
473.53	96.12
473.749	86.12
473.968	89.12
474.187	95.12
474.406	96.12
474.625	89.12
474.844	86.12
475.063	95.12
475.282	83.12
475.501	86.12
475.72	94.12
475.939	92.12
476.158	86.12
476.377	82.12
476.596	98.12
476.814	98.12
477.033	98.12
477.252	93.12
477.471	88.12
477.69	93.12
477.908	100.12
478.127	83.12
478.346	86.12
478.564	94.12
478.783	105.12
479.002	95.12
479.22	95.12
479.439	97.12
479.658	99.12
479.876	95.12
480.095	82.12
480.313	102.12
480.532	92.12
480.751	97.12
480.969	112.12
481.188	117.12
481.406	103.12
481.624	83.12
481.843	75.12
482.061	87.12
482.28	83.12
482.498	86.12
482.717	78.12
482.935	74.12
483.153	97.12
483.372	93.12
483.59	76.12
483.808	87.12
484.027	91.12
484.245	96.12
484.463	102.12
484.681	88.12
484.9	110.12
485.118	112.12
485.336	79.12
485.554	108.12
485.772	106.12
485.99	106.12
486.209	111.12
486.427	105.12
486.645	110.12
486.863	112.12
487.081	100.12
487.299	97.12
487.517	100.12
487.735	93.12
487.953	91.12
488.171	89.12
488.389	100.12
488.607	89.12
488.825	87.12
489.043	87.12
489.261	86.12
489.479	92.12
489.696	87.12
489.914	99.12
490.132	80.12
490.35	101.12
490.568	83.12
490.786	75.12
491.003	90.12
491.221	99.12
491.439	103.12
491.657	94.12
491.874	94.12
492.092	95.12
492.31	85.12
492.527	104.12
492.745	90.12
492.963	89.12
493.18	103.12
493.398	98.12
493.615	105.12
493.833	94.12
494.05	88.12
494.268	108.12
494.485	88.12
494.703	82.12
494.92	84.12
495.138	67.12
495.355	101.12
495.573	108.12
495.79	94.12
496.008	99.12
496.225	93.12
496.442	88.12
496.66	96.12
496.877	94.12
497.094	98.12
497.312	107.12
497.529	90.12
497.746	91.12
497.963	99.12
498.181	91.12
498.398	96.12
498.615	107.12
498.832	94.12
499.049	84.12
499.267	95.12
499.484	89.12
499.701	85.12
499.918	79.12
500.135	96.12
500.352	103.12
500.569	89.12
500.786	90.12
501.003	88.12
501.22	83.12
501.437	97.12
501.654	98.12
501.871	121.12
502.088	88.12
502.305	89.12
502.522	84.12
502.739	100.12
502.956	98.12
503.172	96.12
503.389	102.12
503.606	101.12
503.823	100.12
504.04	104.12
504.256	97.12
504.473	97.12
504.69	84.12
504.907	98.12
505.123	87.12
505.34	89.12
505.557	87.12
505.773	97.12
505.99	102.12
506.207	104.12
506.423	99.12
506.64	91.12
506.856	96.12
507.073	97.12
507.289	90.12
507.506	104.12
507.722	109.12
507.939	117.12
508.155	103.12
508.372	107.12
508.588	98.12
508.805	101.12
509.021	86.12
509.238	104.12
509.454	108.12
509.67	105.12
509.887	111.12
510.103	126.12
510.319	227.12
510.536	716.12
510.752	2235.12
510.968	615.12
511.184	158.12
511.401	107.12
511.617	102.12
511.833	94.12
512.049	94.12
512.265	94.12
512.481	108.12
512.698	91.12
512.914	106.12
513.13	98.12
513.346	97.12
513.562	84.12
513.778	93.12
513.994	106.12
514.21	86.12
514.426	113.12
514.642	139.12
514.858	135.12
515.074	152.12
515.29	401.12
