Data from Uncirc_1999_H10_HRD10591_00082.txt Node
Date: Wed Jan 03 11:22:21 EST 2024
User: Yrep
Spectrometer: HR+D1059
Trigger mode: 1
Integration Time (sec): 1.000000E-1
Scans to average: 1
Electric dark correction enabled: true
Nonlinearity correction enabled: false
Boxcar width: 0
XAxis mode: Wavelengths
Number of Pixels in Spectrum: 2048
>>>>>Begin Spectral Data<<<<<
223.165	2.06
223.4	2.06
223.635	2.06
223.869	-19.94
224.104	-32.94
224.338	-8.94
224.573	-26.94
224.808	-16.94
225.042	2.06
225.277	-0.94
225.511	-1.94
225.746	2.06
225.98	6.06
226.215	14.06
226.449	3.06
226.683	22.06
226.918	23.06
227.152	34.06
227.387	42.06
227.621	48.06
227.856	35.06
228.09	44.06
228.324	51.06
228.559	57.06
228.793	61.06
229.027	62.06
229.262	74.06
229.496	69.06
229.73	84.06
229.964	75.06
230.199	84.06
230.433	78.06
230.667	81.06
230.901	77.06
231.136	80.06
231.37	84.06
231.604	71.06
231.838	83.06
232.072	70.06
232.306	88.06
232.541	85.06
232.775	83.06
233.009	81.06
233.243	82.06
233.477	106.06
233.711	68.06
233.945	74.06
234.179	73.06
234.413	82.06
234.647	92.06
234.881	89.06
235.115	96.06
235.349	86.06
235.583	67.06
235.817	75.06
236.051	75.06
236.285	66.06
236.519	86.06
236.753	78.06
236.987	90.06
237.221	81.06
237.455	76.06
237.689	78.06
237.922	72.06
238.156	78.06
238.39	91.06
238.624	85.06
238.858	86.06
239.091	78.06
239.325	85.06
239.559	72.06
239.793	91.06
240.027	82.06
240.26	75.06
240.494	82.06
240.728	88.06
240.961	84.06
241.195	84.06
241.429	72.06
241.662	73.06
241.896	82.06
242.13	79.06
242.363	87.06
242.597	75.06
242.83	80.06
243.064	80.06
243.298	82.06
243.531	92.06
243.765	71.06
243.998	67.06
244.232	78.06
244.465	80.06
244.699	78.06
244.932	76.06
245.166	97.06
245.399	70.06
245.633	67.06
245.866	87.06
246.099	83.06
246.333	70.06
246.566	74.06
246.8	67.06
247.033	77.06
247.266	91.06
247.5	86.06
247.733	73.06
247.966	72.06
248.2	78.06
248.433	87.06
248.666	82.06
248.899	84.06
249.133	93.06
249.366	94.06
249.599	103.06
249.832	90.06
250.066	81.06
250.299	84.06
250.532	75.06
250.765	76.06
250.998	82.06
251.231	68.06
251.465	73.06
251.698	62.06
251.931	80.06
252.164	70.06
252.397	86.06
252.63	87.06
252.863	80.06
253.096	83.06
253.329	81.06
253.562	95.06
253.795	81.06
254.028	80.06
254.261	84.06
254.494	88.06
254.727	92.06
254.96	73.06
255.193	70.06
255.426	79.06
255.659	84.06
255.892	83.06
256.124	85.06
256.357	82.06
256.59	92.06
256.823	78.06
257.056	63.06
257.289	81.06
257.521	92.06
257.754	88.06
257.987	81.06
258.22	81.06
258.452	72.06
258.685	86.06
258.918	70.06
259.151	81.06
259.383	80.06
259.616	87.06
259.849	86.06
260.081	74.06
260.314	60.06
260.547	73.06
260.779	93.06
261.012	86.06
261.244	88.06
261.477	84.06
261.71	83.06
261.942	111.06
262.175	110.06
262.407	78.06
262.64	72.06
262.872	75.06
263.105	83.06
263.337	93.06
263.57	94.06
263.802	70.06
264.035	68.06
264.267	94.06
264.499	88.06
264.732	97.06
264.964	83.06
265.197	89.06
265.429	87.06
265.661	83.06
265.894	96.06
266.126	91.06
266.358	80.06
266.591	96.06
266.823	87.06
267.055	77.06
267.287	92.06
267.52	90.06
267.752	90.06
267.984	98.06
268.216	98.06
268.448	92.06
268.681	85.06
268.913	78.06
269.145	84.06
269.377	77.06
269.609	76.06
269.841	81.06
270.073	84.06
270.306	76.06
270.538	92.06
270.77	96.06
271.002	89.06
271.234	71.06
271.466	84.06
271.698	91.06
271.93	82.06
272.162	90.06
272.394	91.06
272.626	91.06
272.858	102.06
273.09	89.06
273.322	94.06
273.553	93.06
273.785	81.06
274.017	76.06
274.249	81.06
274.481	92.06
274.713	74.06
274.945	86.06
275.176	96.06
275.408	78.06
275.64	79.06
275.872	92.06
276.104	101.06
276.335	79.06
276.567	93.06
276.799	108.06
277.031	76.06
277.262	100.06
277.494	83.06
277.726	100.06
277.957	96.06
278.189	76.06
278.421	94.06
278.652	92.06
278.884	83.06
279.115	82.06
279.347	80.06
279.579	84.06
279.81	86.06
280.042	79.06
280.273	90.06
280.505	79.06
280.736	97.06
280.968	91.06
281.199	82.06
281.431	89.06
281.662	82.06
281.894	82.06
282.125	107.06
282.356	104.06
282.588	137.06
282.819	109.06
283.051	88.06
283.282	104.06
283.513	96.06
283.745	81.06
283.976	77.06
284.207	87.06
284.439	84.06
284.67	81.06
284.901	90.06
285.132	84.06
285.364	92.06
285.595	99.06
285.826	82.06
286.057	95.06
286.288	95.06
286.52	90.06
286.751	90.06
286.982	100.06
287.213	95.06
287.444	103.06
287.675	95.06
287.906	98.06
288.138	80.06
288.369	75.06
288.6	95.06
288.831	85.06
289.062	99.06
289.293	94.06
289.524	87.06
289.755	86.06
289.986	87.06
290.217	98.06
290.448	83.06
290.679	83.06
290.91	86.06
291.141	78.06
291.371	91.06
291.602	82.06
291.833	87.06
292.064	84.06
292.295	83.06
292.526	87.06
292.757	86.06
292.987	88.06
293.218	86.06
293.449	97.06
293.68	79.06
293.91	85.06
294.141	89.06
294.372	88.06
294.603	93.06
294.833	101.06
295.064	84.06
295.295	92.06
295.525	106.06
295.756	104.06
295.987	107.06
296.217	114.06
296.448	101.06
296.679	90.06
296.909	87.06
297.14	89.06
297.37	86.06
297.601	106.06
297.831	81.06
298.062	77.06
298.292	90.06
298.523	78.06
298.753	97.06
298.984	90.06
299.214	104.06
299.445	99.06
299.675	109.06
299.905	105.06
300.136	91.06
300.366	92.06
300.597	94.06
300.827	104.06
301.057	90.06
301.288	115.06
301.518	93.06
301.748	99.06
301.979	86.06
302.209	84.06
302.439	90.06
302.669	92.06
302.9	84.06
303.13	100.06
303.36	98.06
303.59	100.06
303.82	100.06
304.051	95.06
304.281	99.06
304.511	85.06
304.741	99.06
304.971	85.06
305.201	88.06
305.431	87.06
305.661	86.06
305.891	88.06
306.121	89.06
306.352	115.06
306.582	99.06
306.812	99.06
307.042	81.06
307.272	98.06
307.502	97.06
307.731	94.06
307.961	97.06
308.191	100.06
308.421	90.06
308.651	85.06
308.881	85.06
309.111	90.06
309.341	108.06
309.571	89.06
309.8	87.06
310.03	96.06
310.26	87.06
310.49	83.06
310.72	92.06
310.949	102.06
311.179	102.06
311.409	79.06
311.639	83.06
311.868	82.06
312.098	102.06
312.328	94.06
312.557	98.06
312.787	99.06
313.017	95.06
313.246	95.06
313.476	92.06
313.706	90.06
313.935	89.06
314.165	95.06
314.394	101.06
314.624	91.06
314.853	107.06
315.083	94.06
315.312	94.06
315.542	96.06
315.771	85.06
316.001	88.06
316.23	91.06
316.46	90.06
316.689	89.06
316.919	86.06
317.148	82.06
317.377	95.06
317.607	89.06
317.836	88.06
318.065	102.06
318.295	90.06
318.524	93.06
318.753	87.06
318.983	90.06
319.212	102.06
319.441	107.06
319.67	104.06
319.9	112.06
320.129	87.06
320.358	83.06
320.587	105.06
320.816	102.06
321.046	106.06
321.275	102.06
321.504	99.06
321.733	89.06
321.962	89.06
322.191	109.06
322.42	81.06
322.649	107.06
322.878	90.06
323.108	107.06
323.337	115.06
323.566	118.06
323.795	153.06
324.024	198.06
324.253	368.06
324.482	772.06
324.71	1608.06
324.939	2060.06
325.168	745.06
325.397	216.06
325.626	139.06
325.855	137.06
326.084	131.06
326.313	123.06
326.542	156.06
326.77	226.06
326.999	436.06
327.228	867.06
327.457	1612.06
327.686	1301.06
327.914	343.06
328.143	184.06
328.372	127.06
328.6	119.06
328.829	105.06
329.058	111.06
329.287	114.06
329.515	108.06
329.744	112.06
329.972	105.06
330.201	106.06
330.43	107.06
330.658	101.06
330.887	123.06
331.115	98.06
331.344	107.06
331.572	105.06
331.801	104.06
332.03	104.06
332.258	102.06
332.486	109.06
332.715	95.06
332.943	85.06
333.172	87.06
333.4	107.06
333.629	108.06
333.857	100.06
334.085	113.06
334.314	99.06
334.542	111.06
334.771	106.06
334.999	99.06
335.227	106.06
335.455	92.06
335.684	100.06
335.912	107.06
336.14	91.06
336.369	109.06
336.597	100.06
336.825	89.06
337.053	104.06
337.281	101.06
337.51	91.06
337.738	92.06
337.966	92.06
338.194	84.06
338.422	70.06
338.65	96.06
338.878	98.06
339.106	95.06
339.334	85.06
339.562	99.06
339.79	94.06
340.018	104.06
340.246	84.06
340.474	104.06
340.702	92.06
340.93	99.06
341.158	80.06
341.386	88.06
341.614	105.06
341.842	92.06
342.07	86.06
342.298	101.06
342.526	106.06
342.754	86.06
342.981	91.06
343.209	103.06
343.437	108.06
343.665	91.06
343.893	99.06
344.12	91.06
344.348	83.06
344.576	89.06
344.804	93.06
345.031	97.06
345.259	99.06
345.487	106.06
345.714	88.06
345.942	83.06
346.17	94.06
346.397	96.06
346.625	89.06
346.853	88.06
347.08	96.06
347.308	103.06
347.535	112.06
347.763	105.06
347.99	92.06
348.218	86.06
348.445	112.06
348.673	100.06
348.9	95.06
349.128	87.06
349.355	105.06
349.583	88.06
349.81	104.06
350.037	98.06
350.265	88.06
350.492	105.06
350.72	113.06
350.947	104.06
351.174	99.06
351.402	124.06
351.629	103.06
351.856	98.06
352.083	104.06
352.311	99.06
352.538	107.06
352.765	115.06
352.992	88.06
353.22	97.06
353.447	107.06
353.674	110.06
353.901	98.06
354.128	94.06
354.355	104.06
354.583	104.06
354.81	112.06
355.037	91.06
355.264	91.06
355.491	86.06
355.718	94.06
355.945	92.06
356.172	76.06
356.399	98.06
356.626	94.06
356.853	104.06
357.08	92.06
357.307	86.06
357.534	102.06
357.761	101.06
357.988	94.06
358.215	94.06
358.441	86.06
358.668	95.06
358.895	82.06
359.122	80.06
359.349	85.06
359.576	90.06
359.802	96.06
360.029	103.06
360.256	104.06
360.483	97.06
360.709	95.06
360.936	96.06
361.163	78.06
361.39	97.06
361.616	111.06
361.843	91.06
362.07	101.06
362.296	84.06
362.523	83.06
362.749	105.06
362.976	100.06
363.203	93.06
363.429	100.06
363.656	100.06
363.882	91.06
364.109	83.06
364.335	84.06
364.562	102.06
364.788	86.06
365.015	105.06
365.241	88.06
365.468	90.06
365.694	97.06
365.92	86.06
366.147	88.06
366.373	68.06
366.599	102.06
366.826	94.06
367.052	89.06
367.278	92.06
367.505	102.06
367.731	92.06
367.957	95.06
368.184	90.06
368.41	114.06
368.636	111.06
368.862	102.06
369.089	104.06
369.315	98.06
369.541	105.06
369.767	95.06
369.993	104.06
370.219	85.06
370.445	90.06
370.672	87.06
370.898	93.06
371.124	87.06
371.35	91.06
371.576	79.06
371.802	101.06
372.028	80.06
372.254	84.06
372.48	99.06
372.706	89.06
372.932	96.06
373.158	94.06
373.384	92.06
373.61	92.06
373.835	99.06
374.061	95.06
374.287	87.06
374.513	102.06
374.739	91.06
374.965	90.06
375.191	90.06
375.416	96.06
375.642	99.06
375.868	92.06
376.094	99.06
376.319	86.06
376.545	97.06
376.771	98.06
376.997	98.06
377.222	90.06
377.448	84.06
377.674	83.06
377.899	93.06
378.125	90.06
378.35	94.06
378.576	97.06
378.802	100.06
379.027	111.06
379.253	96.06
379.478	97.06
379.704	99.06
379.929	87.06
380.155	98.06
380.38	88.06
380.606	95.06
380.831	92.06
381.057	107.06
381.282	107.06
381.507	108.06
381.733	101.06
381.958	89.06
382.184	110.06
382.409	95.06
382.634	95.06
382.86	96.06
383.085	109.06
383.31	104.06
383.535	94.06
383.761	96.06
383.986	98.06
384.211	112.06
384.436	115.06
384.662	118.06
384.887	111.06
385.112	104.06
385.337	107.06
385.562	115.06
385.787	102.06
386.013	109.06
386.238	102.06
386.463	106.06
386.688	107.06
386.913	92.06
387.138	114.06
387.363	99.06
387.588	107.06
387.813	114.06
388.038	110.06
388.263	106.06
388.488	110.06
388.713	98.06
388.938	90.06
389.163	102.06
389.387	104.06
389.612	93.06
389.837	92.06
390.062	86.06
390.287	94.06
390.512	106.06
390.736	86.06
390.961	98.06
391.186	100.06
391.411	115.06
391.636	97.06
391.86	98.06
392.085	83.06
392.31	85.06
392.534	89.06
392.759	92.06
392.984	80.06
393.208	81.06
393.433	81.06
393.658	83.06
393.882	88.06
394.107	87.06
394.331	98.06
394.556	86.06
394.78	90.06
395.005	92.06
395.229	89.06
395.454	89.06
395.678	96.06
395.903	77.06
396.127	87.06
396.352	99.06
396.576	72.06
396.801	84.06
397.025	96.06
397.249	91.06
397.474	95.06
397.698	71.06
397.922	83.06
398.147	82.06
398.371	83.06
398.595	78.06
398.82	85.06
399.044	86.06
399.268	92.06
399.492	73.06
399.717	90.06
399.941	94.06
400.165	74.06
400.389	82.06
400.613	84.06
400.837	100.06
401.062	99.06
401.286	94.06
401.51	81.06
401.734	83.06
401.958	120.06
402.182	125.06
402.406	152.06
402.63	119.06
402.854	107.06
403.078	84.06
403.302	97.06
403.526	92.06
403.75	84.06
403.974	76.06
404.198	89.06
404.422	90.06
404.645	79.06
404.869	91.06
405.093	99.06
405.317	95.06
405.541	99.06
405.765	87.06
405.988	103.06
406.212	170.06
406.436	194.06
406.66	137.06
406.883	97.06
407.107	121.06
407.331	97.06
407.555	92.06
407.778	100.06
408.002	95.06
408.226	89.06
408.449	92.06
408.673	99.06
408.896	93.06
409.12	100.06
409.344	98.06
409.567	98.06
409.791	91.06
410.014	88.06
410.238	86.06
410.461	99.06
410.685	94.06
410.908	108.06
411.132	104.06
411.355	92.06
411.578	98.06
411.802	93.06
412.025	88.06
412.249	86.06
412.472	92.06
412.695	100.06
412.919	93.06
413.142	100.06
413.365	88.06
413.589	83.06
413.812	86.06
414.035	92.06
414.258	91.06
414.482	87.06
414.705	94.06
414.928	89.06
415.151	96.06
415.374	80.06
415.597	84.06
415.821	79.06
416.044	79.06
416.267	104.06
416.49	103.06
416.713	88.06
416.936	100.06
417.159	97.06
417.382	79.06
417.605	95.06
417.828	101.06
418.051	98.06
418.274	102.06
418.497	91.06
418.72	105.06
418.943	90.06
419.166	105.06
419.389	90.06
419.611	98.06
419.834	92.06
420.057	93.06
420.28	95.06
420.503	95.06
420.726	84.06
420.948	87.06
421.171	94.06
421.394	106.06
421.617	87.06
421.839	96.06
422.062	78.06
422.285	90.06
422.507	96.06
422.73	103.06
422.953	99.06
423.175	97.06
423.398	98.06
423.621	98.06
423.843	107.06
424.066	110.06
424.288	89.06
424.511	98.06
424.733	103.06
424.956	92.06
425.178	98.06
425.401	82.06
425.623	98.06
425.846	99.06
426.068	89.06
426.291	91.06
426.513	89.06
426.735	106.06
426.958	92.06
427.18	100.06
427.402	131.06
427.625	152.06
427.847	125.06
428.069	91.06
428.292	97.06
428.514	93.06
428.736	95.06
428.958	93.06
429.181	97.06
429.403	94.06
429.625	85.06
429.847	102.06
430.069	92.06
430.292	102.06
430.514	93.06
430.736	95.06
430.958	86.06
431.18	91.06
431.402	75.06
431.624	75.06
431.846	77.06
432.068	91.06
432.29	83.06
432.512	90.06
432.734	109.06
432.956	104.06
433.178	102.06
433.4	95.06
433.622	86.06
433.844	90.06
434.066	84.06
434.287	95.06
434.509	93.06
434.731	88.06
434.953	86.06
435.175	89.06
435.397	99.06
435.618	99.06
435.84	99.06
436.062	110.06
436.284	120.06
436.505	94.06
436.727	123.06
436.949	98.06
437.17	82.06
437.392	99.06
437.614	98.06
437.835	116.06
438.057	111.06
438.278	114.06
438.5	103.06
438.721	113.06
438.943	107.06
439.165	107.06
439.386	97.06
439.608	90.06
439.829	98.06
440.05	127.06
440.272	128.06
440.493	100.06
440.715	88.06
440.936	100.06
441.158	91.06
441.379	82.06
441.6	97.06
441.822	87.06
442.043	90.06
442.264	102.06
442.486	98.06
442.707	76.06
442.928	104.06
443.149	133.06
443.371	132.06
443.592	116.06
443.813	108.06
444.034	105.06
444.255	99.06
444.476	95.06
444.698	85.06
444.919	107.06
445.14	120.06
445.361	118.06
445.582	106.06
445.803	134.06
446.024	125.06
446.245	142.06
446.466	110.06
446.687	98.06
446.908	83.06
447.129	96.06
447.35	99.06
447.571	107.06
447.792	112.06
448.013	98.06
448.234	99.06
448.455	100.06
448.675	108.06
448.896	126.06
449.117	103.06
449.338	104.06
449.559	122.06
449.779	119.06
450	102.06
450.221	104.06
450.442	90.06
450.662	98.06
450.883	95.06
451.104	105.06
451.324	89.06
451.545	106.06
451.766	83.06
451.986	82.06
452.207	87.06
452.428	85.06
452.648	97.06
452.869	89.06
453.089	109.06
453.31	118.06
453.53	93.06
453.751	88.06
453.971	100.06
454.192	100.06
454.412	96.06
454.633	101.06
454.853	70.06
455.073	78.06
455.294	94.06
455.514	97.06
455.734	97.06
455.955	90.06
456.175	100.06
456.395	85.06
456.616	80.06
456.836	85.06
457.056	93.06
457.276	100.06
457.497	93.06
457.717	92.06
457.937	92.06
458.157	86.06
458.377	97.06
458.598	108.06
458.818	129.06
459.038	138.06
459.258	99.06
459.478	81.06
459.698	100.06
459.918	93.06
460.138	92.06
460.358	91.06
460.578	90.06
460.798	90.06
461.018	104.06
461.238	83.06
461.458	94.06
461.678	81.06
461.898	86.06
462.118	97.06
462.338	89.06
462.558	91.06
462.777	93.06
462.997	89.06
463.217	80.06
463.437	92.06
463.657	100.06
463.876	74.06
464.096	107.06
464.316	97.06
464.536	89.06
464.755	86.06
464.975	106.06
465.195	159.06
465.414	129.06
465.634	92.06
465.854	90.06
466.073	100.06
466.293	86.06
466.512	95.06
466.732	73.06
466.951	91.06
467.171	86.06
467.391	90.06
467.61	84.06
467.829	93.06
468.049	75.06
468.268	90.06
468.488	88.06
468.707	92.06
468.927	94.06
469.146	76.06
469.365	85.06
469.585	88.06
469.804	96.06
470.023	87.06
470.243	97.06
470.462	109.06
470.681	95.06
470.901	94.06
471.12	75.06
471.339	87.06
471.558	84.06
471.777	94.06
471.997	87.06
472.216	95.06
472.435	92.06
472.654	97.06
472.873	83.06
473.092	85.06
473.311	93.06
473.53	104.06
473.749	83.06
473.968	99.06
474.187	112.06
474.406	100.06
474.625	90.06
474.844	92.06
475.063	95.06
475.282	93.06
475.501	91.06
475.72	93.06
475.939	88.06
476.158	99.06
476.377	106.06
476.596	92.06
476.814	79.06
477.033	96.06
477.252	92.06
477.471	81.06
477.69	95.06
477.908	85.06
478.127	98.06
478.346	81.06
478.564	89.06
478.783	82.06
479.002	97.06
479.22	76.06
479.439	99.06
479.658	93.06
479.876	111.06
480.095	90.06
480.313	93.06
480.532	85.06
480.751	97.06
480.969	98.06
481.188	123.06
481.406	100.06
481.624	90.06
481.843	94.06
482.061	103.06
482.28	91.06
482.498	100.06
482.717	89.06
482.935	94.06
483.153	94.06
483.372	102.06
483.59	90.06
483.808	100.06
484.027	97.06
484.245	97.06
484.463	98.06
484.681	95.06
484.9	86.06
485.118	105.06
485.336	88.06
485.554	108.06
485.772	103.06
485.99	99.06
486.209	103.06
486.427	109.06
486.645	117.06
486.863	108.06
487.081	110.06
487.299	97.06
487.517	92.06
487.735	105.06
487.953	105.06
488.171	101.06
488.389	111.06
488.607	100.06
488.825	90.06
489.043	81.06
489.261	89.06
489.479	100.06
489.696	97.06
489.914	100.06
490.132	88.06
490.35	98.06
490.568	94.06
490.786	75.06
491.003	89.06
491.221	115.06
491.439	83.06
491.657	99.06
491.874	103.06
492.092	90.06
492.31	102.06
492.527	99.06
492.745	107.06
492.963	91.06
493.18	88.06
493.398	98.06
493.615	100.06
493.833	95.06
494.05	75.06
494.268	95.06
494.485	102.06
494.703	80.06
494.92	103.06
495.138	100.06
495.355	94.06
495.573	89.06
495.79	87.06
496.008	91.06
496.225	97.06
496.442	82.06
496.66	104.06
496.877	86.06
497.094	92.06
497.312	80.06
497.529	97.06
497.746	103.06
497.963	94.06
498.181	105.06
498.398	93.06
498.615	120.06
498.832	102.06
499.049	86.06
499.267	109.06
499.484	91.06
499.701	95.06
499.918	88.06
500.135	106.06
500.352	100.06
500.569	111.06
500.786	93.06
501.003	87.06
501.22	87.06
501.437	91.06
501.654	79.06
501.871	107.06
502.088	97.06
502.305	86.06
502.522	99.06
502.739	105.06
502.956	95.06
503.172	96.06
503.389	90.06
503.606	125.06
503.823	88.06
504.04	95.06
504.256	95.06
504.473	84.06
504.69	100.06
504.907	102.06
505.123	92.06
505.34	95.06
505.557	94.06
505.773	94.06
505.99	92.06
506.207	104.06
506.423	104.06
506.64	94.06
506.856	98.06
507.073	105.06
507.289	90.06
507.506	101.06
507.722	105.06
507.939	101.06
508.155	111.06
508.372	96.06
508.588	100.06
508.805	91.06
509.021	93.06
509.238	94.06
509.454	94.06
509.67	91.06
509.887	111.06
510.103	134.06
510.319	216.06
510.536	685.06
510.752	2129.06
510.968	593.06
511.184	146.06
511.401	121.06
511.617	111.06
511.833	106.06
512.049	93.06
512.265	96.06
512.481	105.06
512.698	79.06
512.914	89.06
513.13	96.06
513.346	100.06
513.562	107.06
513.778	104.06
513.994	98.06
514.21	101.06
514.426	119.06
514.642	119.06
514.858	131.06
515.074	154.06
