Data from Uncirc_1999_H10_HRD10591_00027.txt Node
Date: Wed Jan 03 11:22:10 EST 2024
User: Yrep
Spectrometer: HR+D1059
Trigger mode: 1
Integration Time (sec): 1.000000E-1
Scans to average: 1
Electric dark correction enabled: true
Nonlinearity correction enabled: false
Boxcar width: 0
XAxis mode: Wavelengths
Number of Pixels in Spectrum: 2048
>>>>>Begin Spectral Data<<<<<
223.165	-20.25
223.4	-20.25
223.635	-20.25
223.869	-17.25
224.104	-8.25
224.338	-17.25
224.573	-16.25
224.808	-18.25
225.042	-9.25
225.277	-12.25
225.511	-6.25
225.746	6.75
225.98	18.75
226.215	17.75
226.449	5.75
226.683	17.75
226.918	26.75
227.152	31.75
227.387	44.75
227.621	56.75
227.856	49.75
228.09	48.75
228.324	49.75
228.559	63.75
228.793	70.75
229.027	80.75
229.262	83.75
229.496	63.75
229.73	84.75
229.964	84.75
230.199	75.75
230.433	91.75
230.667	81.75
230.901	64.75
231.136	67.75
231.37	83.75
231.604	82.75
231.838	82.75
232.072	73.75
232.306	68.75
232.541	83.75
232.775	79.75
233.009	74.75
233.243	83.75
233.477	82.75
233.711	92.75
233.945	76.75
234.179	98.75
234.413	75.75
234.647	72.75
234.881	87.75
235.115	79.75
235.349	90.75
235.583	84.75
235.817	87.75
236.051	88.75
236.285	76.75
236.519	95.75
236.753	78.75
236.987	104.75
237.221	77.75
237.455	75.75
237.689	80.75
237.922	89.75
238.156	69.75
238.39	67.75
238.624	78.75
238.858	84.75
239.091	61.75
239.325	74.75
239.559	64.75
239.793	79.75
240.027	69.75
240.26	93.75
240.494	88.75
240.728	91.75
240.961	82.75
241.195	83.75
241.429	87.75
241.662	79.75
241.896	71.75
242.13	74.75
242.363	93.75
242.597	85.75
242.83	85.75
243.064	85.75
243.298	77.75
243.531	78.75
243.765	67.75
243.998	82.75
244.232	85.75
244.465	92.75
244.699	84.75
244.932	94.75
245.166	82.75
245.399	85.75
245.633	93.75
245.866	82.75
246.099	68.75
246.333	92.75
246.566	67.75
246.8	82.75
247.033	76.75
247.266	101.75
247.5	81.75
247.733	84.75
247.966	80.75
248.2	74.75
248.433	85.75
248.666	84.75
248.899	83.75
249.133	76.75
249.366	92.75
249.599	76.75
249.832	86.75
250.066	97.75
250.299	86.75
250.532	67.75
250.765	70.75
250.998	69.75
251.231	75.75
251.465	98.75
251.698	82.75
251.931	89.75
252.164	76.75
252.397	77.75
252.63	88.75
252.863	81.75
253.096	82.75
253.329	82.75
253.562	77.75
253.795	74.75
254.028	92.75
254.261	86.75
254.494	68.75
254.727	86.75
254.96	88.75
255.193	86.75
255.426	87.75
255.659	70.75
255.892	82.75
256.124	91.75
256.357	97.75
256.59	73.75
256.823	97.75
257.056	88.75
257.289	85.75
257.521	85.75
257.754	90.75
257.987	82.75
258.22	97.75
258.452	75.75
258.685	80.75
258.918	84.75
259.151	75.75
259.383	89.75
259.616	82.75
259.849	91.75
260.081	88.75
260.314	85.75
260.547	86.75
260.779	85.75
261.012	90.75
261.244	78.75
261.477	107.75
261.71	80.75
261.942	118.75
262.175	120.75
262.407	81.75
262.64	92.75
262.872	84.75
263.105	91.75
263.337	87.75
263.57	72.75
263.802	86.75
264.035	66.75
264.267	77.75
264.499	89.75
264.732	92.75
264.964	99.75
265.197	91.75
265.429	90.75
265.661	94.75
265.894	77.75
266.126	92.75
266.358	76.75
266.591	95.75
266.823	90.75
267.055	78.75
267.287	94.75
267.52	84.75
267.752	86.75
267.984	85.75
268.216	94.75
268.448	81.75
268.681	86.75
268.913	93.75
269.145	104.75
269.377	83.75
269.609	92.75
269.841	85.75
270.073	88.75
270.306	100.75
270.538	77.75
270.77	94.75
271.002	83.75
271.234	84.75
271.466	93.75
271.698	88.75
271.93	81.75
272.162	99.75
272.394	96.75
272.626	89.75
272.858	74.75
273.09	74.75
273.322	90.75
273.553	90.75
273.785	90.75
274.017	79.75
274.249	90.75
274.481	65.75
274.713	89.75
274.945	93.75
275.176	85.75
275.408	90.75
275.64	93.75
275.872	81.75
276.104	91.75
276.335	90.75
276.567	97.75
276.799	104.75
277.031	98.75
277.262	83.75
277.494	91.75
277.726	85.75
277.957	80.75
278.189	78.75
278.421	90.75
278.652	80.75
278.884	86.75
279.115	85.75
279.347	101.75
279.579	86.75
279.81	94.75
280.042	80.75
280.273	86.75
280.505	92.75
280.736	93.75
280.968	88.75
281.199	94.75
281.431	86.75
281.662	79.75
281.894	94.75
282.125	86.75
282.356	109.75
282.588	130.75
282.819	118.75
283.051	105.75
283.282	78.75
283.513	86.75
283.745	84.75
283.976	91.75
284.207	82.75
284.439	90.75
284.67	94.75
284.901	89.75
285.132	80.75
285.364	93.75
285.595	86.75
285.826	78.75
286.057	87.75
286.288	80.75
286.52	80.75
286.751	84.75
286.982	85.75
287.213	88.75
287.444	97.75
287.675	104.75
287.906	102.75
288.138	92.75
288.369	85.75
288.6	105.75
288.831	92.75
289.062	88.75
289.293	97.75
289.524	106.75
289.755	92.75
289.986	91.75
290.217	83.75
290.448	95.75
290.679	82.75
290.91	97.75
291.141	93.75
291.371	86.75
291.602	91.75
291.833	97.75
292.064	94.75
292.295	92.75
292.526	91.75
292.757	77.75
292.987	107.75
293.218	102.75
293.449	81.75
293.68	94.75
293.91	89.75
294.141	98.75
294.372	89.75
294.603	83.75
294.833	88.75
295.064	99.75
295.295	101.75
295.525	90.75
295.756	108.75
295.987	99.75
296.217	118.75
296.448	113.75
296.679	86.75
296.909	93.75
297.14	96.75
297.37	96.75
297.601	94.75
297.831	107.75
298.062	98.75
298.292	94.75
298.523	110.75
298.753	97.75
298.984	83.75
299.214	80.75
299.445	80.75
299.675	98.75
299.905	96.75
300.136	84.75
300.366	93.75
300.597	102.75
300.827	84.75
301.057	102.75
301.288	95.75
301.518	97.75
301.748	100.75
301.979	88.75
302.209	101.75
302.439	102.75
302.669	88.75
302.9	81.75
303.13	96.75
303.36	86.75
303.59	101.75
303.82	101.75
304.051	89.75
304.281	90.75
304.511	73.75
304.741	96.75
304.971	92.75
305.201	88.75
305.431	94.75
305.661	85.75
305.891	95.75
306.121	97.75
306.352	98.75
306.582	108.75
306.812	85.75
307.042	103.75
307.272	82.75
307.502	102.75
307.731	103.75
307.961	98.75
308.191	92.75
308.421	94.75
308.651	100.75
308.881	101.75
309.111	92.75
309.341	98.75
309.571	102.75
309.8	97.75
310.03	96.75
310.26	89.75
310.49	100.75
310.72	108.75
310.949	105.75
311.179	94.75
311.409	92.75
311.639	98.75
311.868	90.75
312.098	100.75
312.328	79.75
312.557	95.75
312.787	104.75
313.017	110.75
313.246	100.75
313.476	103.75
313.706	92.75
313.935	106.75
314.165	84.75
314.394	110.75
314.624	107.75
314.853	100.75
315.083	94.75
315.312	92.75
315.542	99.75
315.771	89.75
316.001	100.75
316.23	82.75
316.46	93.75
316.689	97.75
316.919	91.75
317.148	93.75
317.377	97.75
317.607	99.75
317.836	88.75
318.065	83.75
318.295	100.75
318.524	89.75
318.753	88.75
318.983	96.75
319.212	89.75
319.441	103.75
319.67	111.75
319.9	98.75
320.129	99.75
320.358	103.75
320.587	81.75
320.816	96.75
321.046	110.75
321.275	86.75
321.504	101.75
321.733	99.75
321.962	94.75
322.191	105.75
322.42	99.75
322.649	114.75
322.878	115.75
323.108	101.75
323.337	124.75
323.566	136.75
323.795	144.75
324.024	213.75
324.253	385.75
324.482	827.75
324.71	1674.75
324.939	2198.75
325.168	811.75
325.397	239.75
325.626	150.75
325.855	129.75
326.084	122.75
326.313	133.75
326.542	153.75
326.77	223.75
326.999	447.75
327.228	936.75
327.457	1748.75
327.686	1301.75
327.914	354.75
328.143	193.75
328.372	156.75
328.6	116.75
328.829	110.75
329.058	114.75
329.287	136.75
329.515	116.75
329.744	116.75
329.972	110.75
330.201	108.75
330.43	105.75
330.658	102.75
330.887	121.75
331.115	124.75
331.344	112.75
331.572	86.75
331.801	102.75
332.03	105.75
332.258	97.75
332.486	97.75
332.715	109.75
332.943	96.75
333.172	96.75
333.4	81.75
333.629	111.75
333.857	124.75
334.085	108.75
334.314	97.75
334.542	98.75
334.771	97.75
334.999	104.75
335.227	84.75
335.455	105.75
335.684	93.75
335.912	109.75
336.14	111.75
336.369	96.75
336.597	96.75
336.825	102.75
337.053	97.75
337.281	90.75
337.51	78.75
337.738	92.75
337.966	100.75
338.194	95.75
338.422	102.75
338.65	104.75
338.878	82.75
339.106	97.75
339.334	84.75
339.562	97.75
339.79	81.75
340.018	98.75
340.246	91.75
340.474	93.75
340.702	90.75
340.93	95.75
341.158	89.75
341.386	91.75
341.614	102.75
341.842	101.75
342.07	92.75
342.298	111.75
342.526	85.75
342.754	76.75
342.981	100.75
343.209	98.75
343.437	115.75
343.665	89.75
343.893	82.75
344.12	95.75
344.348	98.75
344.576	97.75
344.804	87.75
345.031	88.75
345.259	101.75
345.487	102.75
345.714	81.75
345.942	95.75
346.17	89.75
346.397	113.75
346.625	97.75
346.853	86.75
347.08	95.75
347.308	96.75
347.535	103.75
347.763	110.75
347.99	97.75
348.218	108.75
348.445	111.75
348.673	110.75
348.9	100.75
349.128	105.75
349.355	88.75
349.583	96.75
349.81	101.75
350.037	94.75
350.265	85.75
350.492	89.75
350.72	91.75
350.947	103.75
351.174	108.75
351.402	96.75
351.629	94.75
351.856	105.75
352.083	126.75
352.311	115.75
352.538	106.75
352.765	99.75
352.992	130.75
353.22	110.75
353.447	124.75
353.674	108.75
353.901	104.75
354.128	99.75
354.355	96.75
354.583	98.75
354.81	101.75
355.037	100.75
355.264	94.75
355.491	101.75
355.718	91.75
355.945	105.75
356.172	108.75
356.399	91.75
356.626	102.75
356.853	109.75
357.08	99.75
357.307	100.75
357.534	93.75
357.761	96.75
357.988	100.75
358.215	108.75
358.441	98.75
358.668	100.75
358.895	95.75
359.122	100.75
359.349	105.75
359.576	98.75
359.802	99.75
360.029	111.75
360.256	130.75
360.483	106.75
360.709	91.75
360.936	108.75
361.163	87.75
361.39	85.75
361.616	99.75
361.843	104.75
362.07	86.75
362.296	79.75
362.523	101.75
362.749	90.75
362.976	85.75
363.203	98.75
363.429	92.75
363.656	96.75
363.882	88.75
364.109	86.75
364.335	82.75
364.562	105.75
364.788	104.75
365.015	96.75
365.241	104.75
365.468	104.75
365.694	109.75
365.92	95.75
366.147	93.75
366.373	83.75
366.599	78.75
366.826	95.75
367.052	89.75
367.278	99.75
367.505	89.75
367.731	109.75
367.957	100.75
368.184	86.75
368.41	112.75
368.636	113.75
368.862	107.75
369.089	110.75
369.315	101.75
369.541	93.75
369.767	92.75
369.993	94.75
370.219	95.75
370.445	113.75
370.672	93.75
370.898	80.75
371.124	96.75
371.35	92.75
371.576	85.75
371.802	95.75
372.028	100.75
372.254	84.75
372.48	84.75
372.706	93.75
372.932	83.75
373.158	99.75
373.384	99.75
373.61	83.75
373.835	105.75
374.061	100.75
374.287	105.75
374.513	89.75
374.739	93.75
374.965	93.75
375.191	105.75
375.416	94.75
375.642	92.75
375.868	93.75
376.094	90.75
376.319	92.75
376.545	97.75
376.771	84.75
376.997	94.75
377.222	101.75
377.448	104.75
377.674	91.75
377.899	91.75
378.125	93.75
378.35	88.75
378.576	82.75
378.802	103.75
379.027	88.75
379.253	89.75
379.478	109.75
379.704	105.75
379.929	97.75
380.155	111.75
380.38	90.75
380.606	111.75
380.831	96.75
381.057	96.75
381.282	92.75
381.507	101.75
381.733	95.75
381.958	108.75
382.184	107.75
382.409	98.75
382.634	115.75
382.86	119.75
383.085	122.75
383.31	112.75
383.535	110.75
383.761	111.75
383.986	96.75
384.211	111.75
384.436	106.75
384.662	109.75
384.887	123.75
385.112	123.75
385.337	127.75
385.562	123.75
385.787	112.75
386.013	112.75
386.238	129.75
386.463	133.75
386.688	125.75
386.913	123.75
387.138	124.75
387.363	118.75
387.588	117.75
387.813	107.75
388.038	108.75
388.263	126.75
388.488	121.75
388.713	109.75
388.938	100.75
389.163	105.75
389.387	95.75
389.612	106.75
389.837	84.75
390.062	96.75
390.287	95.75
390.512	104.75
390.736	106.75
390.961	101.75
391.186	100.75
391.411	100.75
391.636	85.75
391.86	107.75
392.085	95.75
392.31	90.75
392.534	92.75
392.759	95.75
392.984	88.75
393.208	87.75
393.433	97.75
393.658	92.75
393.882	94.75
394.107	81.75
394.331	83.75
394.556	86.75
394.78	92.75
395.005	100.75
395.229	88.75
395.454	83.75
395.678	85.75
395.903	107.75
396.127	81.75
396.352	92.75
396.576	91.75
396.801	77.75
397.025	90.75
397.249	94.75
397.474	98.75
397.698	104.75
397.922	85.75
398.147	93.75
398.371	98.75
398.595	76.75
398.82	96.75
399.044	92.75
399.268	84.75
399.492	86.75
399.717	93.75
399.941	96.75
400.165	93.75
400.389	95.75
400.613	82.75
400.837	95.75
401.062	78.75
401.286	96.75
401.51	96.75
401.734	91.75
401.958	94.75
402.182	110.75
402.406	137.75
402.63	121.75
402.854	100.75
403.078	100.75
403.302	94.75
403.526	82.75
403.75	92.75
403.974	95.75
404.198	89.75
404.422	77.75
404.645	72.75
404.869	103.75
405.093	100.75
405.317	113.75
405.541	108.75
405.765	92.75
405.988	108.75
406.212	161.75
406.436	192.75
406.66	151.75
406.883	101.75
407.107	90.75
407.331	116.75
407.555	113.75
407.778	72.75
408.002	81.75
408.226	90.75
408.449	99.75
408.673	91.75
408.896	98.75
409.12	78.75
409.344	100.75
409.567	74.75
409.791	93.75
410.014	103.75
410.238	104.75
410.461	111.75
410.685	105.75
410.908	108.75
411.132	112.75
411.355	103.75
411.578	88.75
411.802	82.75
412.025	98.75
412.249	87.75
412.472	91.75
412.695	96.75
412.919	98.75
413.142	90.75
413.365	109.75
413.589	102.75
413.812	101.75
414.035	96.75
414.258	114.75
414.482	97.75
414.705	90.75
414.928	108.75
415.151	110.75
415.374	88.75
415.597	92.75
415.821	100.75
416.044	87.75
416.267	84.75
416.49	115.75
416.713	97.75
416.936	102.75
417.159	90.75
417.382	99.75
417.605	93.75
417.828	86.75
418.051	90.75
418.274	96.75
418.497	88.75
418.72	90.75
418.943	105.75
419.166	99.75
419.389	88.75
419.611	96.75
419.834	80.75
420.057	106.75
420.28	89.75
420.503	104.75
420.726	95.75
420.948	105.75
421.171	101.75
421.394	88.75
421.617	92.75
421.839	108.75
422.062	97.75
422.285	110.75
422.507	111.75
422.73	107.75
422.953	103.75
423.175	81.75
423.398	100.75
423.621	88.75
423.843	97.75
424.066	85.75
424.288	84.75
424.511	93.75
424.733	98.75
424.956	94.75
425.178	91.75
425.401	82.75
425.623	83.75
425.846	101.75
426.068	104.75
426.291	97.75
426.513	93.75
426.735	92.75
426.958	96.75
427.18	115.75
427.402	121.75
427.625	157.75
427.847	129.75
428.069	93.75
428.292	90.75
428.514	90.75
428.736	82.75
428.958	97.75
429.181	94.75
429.403	107.75
429.625	101.75
429.847	106.75
430.069	89.75
430.292	85.75
430.514	94.75
430.736	95.75
430.958	99.75
431.18	88.75
431.402	95.75
431.624	109.75
431.846	94.75
432.068	100.75
432.29	81.75
432.512	83.75
432.734	97.75
432.956	85.75
433.178	101.75
433.4	94.75
433.622	101.75
433.844	88.75
434.066	86.75
434.287	94.75
434.509	90.75
434.731	83.75
434.953	84.75
435.175	91.75
435.397	97.75
435.618	101.75
435.84	111.75
436.062	115.75
436.284	121.75
436.505	98.75
436.727	88.75
436.949	95.75
437.17	86.75
437.392	90.75
437.614	92.75
437.835	98.75
438.057	121.75
438.278	107.75
438.5	100.75
438.721	111.75
438.943	105.75
439.165	78.75
439.386	84.75
439.608	83.75
439.829	109.75
440.05	120.75
440.272	133.75
440.493	110.75
440.715	105.75
440.936	81.75
441.158	91.75
441.379	92.75
441.6	92.75
441.822	94.75
442.043	104.75
442.264	111.75
442.486	96.75
442.707	84.75
442.928	106.75
443.149	122.75
443.371	120.75
443.592	118.75
443.813	104.75
444.034	103.75
444.255	94.75
444.476	94.75
444.698	92.75
444.919	86.75
445.14	143.75
445.361	109.75
445.582	110.75
445.803	137.75
446.024	124.75
446.245	127.75
446.466	106.75
446.687	93.75
446.908	88.75
447.129	95.75
447.35	81.75
447.571	102.75
447.792	91.75
448.013	97.75
448.234	101.75
448.455	93.75
448.675	105.75
448.896	115.75
449.117	98.75
449.338	100.75
449.559	132.75
449.779	108.75
450	93.75
450.221	91.75
450.442	84.75
450.662	99.75
450.883	96.75
451.104	106.75
451.324	110.75
451.545	92.75
451.766	90.75
451.986	102.75
452.207	89.75
452.428	106.75
452.648	98.75
452.869	113.75
453.089	110.75
453.31	121.75
453.53	111.75
453.751	94.75
453.971	98.75
454.192	107.75
454.412	90.75
454.633	89.75
454.853	100.75
455.073	86.75
455.294	112.75
455.514	104.75
455.734	86.75
455.955	87.75
456.175	78.75
456.395	78.75
456.616	92.75
456.836	84.75
457.056	86.75
457.276	74.75
457.497	99.75
457.717	89.75
457.937	89.75
458.157	90.75
458.377	99.75
458.598	92.75
458.818	121.75
459.038	125.75
459.258	115.75
459.478	100.75
459.698	104.75
459.918	87.75
460.138	78.75
460.358	88.75
460.578	96.75
460.798	94.75
461.018	89.75
461.238	105.75
461.458	88.75
461.678	90.75
461.898	83.75
462.118	76.75
462.338	83.75
462.558	94.75
462.777	79.75
462.997	90.75
463.217	88.75
463.437	99.75
463.657	99.75
463.876	95.75
464.096	102.75
464.316	97.75
464.536	95.75
464.755	96.75
464.975	93.75
465.195	139.75
465.414	163.75
465.634	101.75
465.854	73.75
466.073	90.75
466.293	83.75
466.512	81.75
466.732	85.75
466.951	80.75
467.171	80.75
467.391	108.75
467.61	96.75
467.829	88.75
468.049	86.75
468.268	83.75
468.488	91.75
468.707	98.75
468.927	100.75
469.146	99.75
469.365	89.75
469.585	105.75
469.804	72.75
470.023	81.75
470.243	89.75
470.462	115.75
470.681	101.75
470.901	97.75
471.12	89.75
471.339	103.75
471.558	95.75
471.777	84.75
471.997	101.75
472.216	107.75
472.435	103.75
472.654	92.75
472.873	96.75
473.092	88.75
473.311	84.75
473.53	96.75
473.749	94.75
473.968	97.75
474.187	95.75
474.406	94.75
474.625	97.75
474.844	96.75
475.063	87.75
475.282	93.75
475.501	92.75
475.72	97.75
475.939	90.75
476.158	92.75
476.377	84.75
476.596	110.75
476.814	103.75
477.033	115.75
477.252	107.75
477.471	99.75
477.69	88.75
477.908	100.75
478.127	82.75
478.346	100.75
478.564	94.75
478.783	96.75
479.002	92.75
479.22	101.75
479.439	88.75
479.658	120.75
479.876	98.75
480.095	80.75
480.313	82.75
480.532	89.75
480.751	101.75
480.969	107.75
481.188	133.75
481.406	98.75
481.624	108.75
481.843	92.75
482.061	88.75
482.28	93.75
482.498	84.75
482.717	102.75
482.935	107.75
483.153	80.75
483.372	77.75
483.59	83.75
483.808	98.75
484.027	99.75
484.245	107.75
484.463	100.75
484.681	87.75
484.9	93.75
485.118	103.75
485.336	106.75
485.554	96.75
485.772	103.75
485.99	104.75
486.209	101.75
486.427	110.75
486.645	108.75
486.863	115.75
487.081	104.75
487.299	106.75
487.517	93.75
487.735	97.75
487.953	94.75
488.171	103.75
488.389	107.75
488.607	96.75
488.825	93.75
489.043	97.75
489.261	86.75
489.479	98.75
489.696	110.75
489.914	92.75
490.132	102.75
490.35	88.75
490.568	94.75
490.786	82.75
491.003	85.75
491.221	89.75
491.439	90.75
491.657	110.75
491.874	101.75
492.092	93.75
492.31	93.75
492.527	92.75
492.745	91.75
492.963	99.75
493.18	93.75
493.398	96.75
493.615	97.75
493.833	97.75
494.05	94.75
494.268	90.75
494.485	93.75
494.703	97.75
494.92	97.75
495.138	92.75
495.355	92.75
495.573	91.75
495.79	88.75
496.008	111.75
496.225	84.75
496.442	90.75
496.66	92.75
496.877	107.75
497.094	93.75
497.312	103.75
497.529	114.75
497.746	86.75
497.963	93.75
498.181	98.75
498.398	99.75
498.615	99.75
498.832	100.75
499.049	101.75
499.267	98.75
499.484	99.75
499.701	76.75
499.918	81.75
500.135	94.75
500.352	88.75
500.569	102.75
500.786	97.75
501.003	85.75
501.22	86.75
501.437	92.75
501.654	97.75
501.871	100.75
502.088	103.75
502.305	104.75
502.522	97.75
502.739	98.75
502.956	91.75
503.172	99.75
503.389	104.75
503.606	97.75
503.823	108.75
504.04	91.75
504.256	101.75
504.473	101.75
504.69	86.75
504.907	108.75
505.123	105.75
505.34	95.75
505.557	100.75
505.773	103.75
505.99	97.75
506.207	85.75
506.423	94.75
506.64	96.75
506.856	84.75
507.073	89.75
507.289	103.75
507.506	99.75
507.722	107.75
507.939	114.75
508.155	99.75
508.372	88.75
508.588	104.75
508.805	97.75
509.021	108.75
509.238	100.75
509.454	90.75
509.67	97.75
509.887	104.75
510.103	119.75
510.319	192.75
510.536	666.75
510.752	1932.75
510.968	555.75
511.184	140.75
511.401	104.75
511.617	103.75
511.833	94.75
512.049	94.75
512.265	97.75
512.481	106.75
512.698	93.75
512.914	99.75
513.13	112.75
513.346	91.75
513.562	90.75
513.778	91.75
513.994	96.75
