Data from Uncirc_1999_H10_HRD10591_00090.txt Node
Date: Wed Jan 03 11:22:23 EST 2024
User: Yrep
Spectrometer: HR+D1059
Trigger mode: 1
Integration Time (sec): 1.000000E-1
Scans to average: 1
Electric dark correction enabled: true
Nonlinearity correction enabled: false
Boxcar width: 0
XAxis mode: Wavelengths
Number of Pixels in Spectrum: 2048
>>>>>Begin Spectral Data<<<<<
223.165	-6.69
223.4	-6.69
223.635	-6.69
223.869	-19.69
224.104	-20.69
224.338	-11.69
224.573	-20.69
224.808	-23.69
225.042	-9.69
225.277	-8.69
225.511	12.31
225.746	-3.69
225.98	-7.69
226.215	16.31
226.449	21.31
226.683	21.31
226.918	35.31
227.152	26.31
227.387	18.31
227.621	34.31
227.856	45.31
228.09	55.31
228.324	61.31
228.559	68.31
228.793	55.31
229.027	52.31
229.262	63.31
229.496	74.31
229.73	87.31
229.964	80.31
230.199	67.31
230.433	67.31
230.667	79.31
230.901	72.31
231.136	86.31
231.37	78.31
231.604	77.31
231.838	85.31
232.072	80.31
232.306	66.31
232.541	74.31
232.775	74.31
233.009	83.31
233.243	78.31
233.477	84.31
233.711	77.31
233.945	80.31
234.179	71.31
234.413	73.31
234.647	69.31
234.881	71.31
235.115	76.31
235.349	80.31
235.583	86.31
235.817	78.31
236.051	82.31
236.285	72.31
236.519	77.31
236.753	71.31
236.987	86.31
237.221	90.31
237.455	83.31
237.689	77.31
237.922	85.31
238.156	69.31
238.39	86.31
238.624	69.31
238.858	70.31
239.091	72.31
239.325	76.31
239.559	71.31
239.793	64.31
240.027	81.31
240.26	72.31
240.494	78.31
240.728	68.31
240.961	72.31
241.195	83.31
241.429	79.31
241.662	78.31
241.896	62.31
242.13	59.31
242.363	73.31
242.597	76.31
242.83	79.31
243.064	69.31
243.298	82.31
243.531	82.31
243.765	85.31
243.998	68.31
244.232	83.31
244.465	66.31
244.699	78.31
244.932	75.31
245.166	82.31
245.399	74.31
245.633	84.31
245.866	73.31
246.099	64.31
246.333	78.31
246.566	72.31
246.8	65.31
247.033	66.31
247.266	72.31
247.5	56.31
247.733	75.31
247.966	62.31
248.2	72.31
248.433	90.31
248.666	66.31
248.899	75.31
249.133	74.31
249.366	86.31
249.599	99.31
249.832	70.31
250.066	83.31
250.299	78.31
250.532	63.31
250.765	73.31
250.998	72.31
251.231	87.31
251.465	74.31
251.698	79.31
251.931	89.31
252.164	84.31
252.397	64.31
252.63	84.31
252.863	72.31
253.096	79.31
253.329	76.31
253.562	79.31
253.795	76.31
254.028	79.31
254.261	98.31
254.494	73.31
254.727	92.31
254.96	83.31
255.193	80.31
255.426	71.31
255.659	85.31
255.892	80.31
256.124	79.31
256.357	88.31
256.59	79.31
256.823	76.31
257.056	77.31
257.289	83.31
257.521	84.31
257.754	74.31
257.987	84.31
258.22	62.31
258.452	76.31
258.685	78.31
258.918	77.31
259.151	81.31
259.383	77.31
259.616	82.31
259.849	82.31
260.081	73.31
260.314	76.31
260.547	90.31
260.779	94.31
261.012	80.31
261.244	82.31
261.477	85.31
261.71	91.31
261.942	87.31
262.175	104.31
262.407	80.31
262.64	79.31
262.872	82.31
263.105	77.31
263.337	88.31
263.57	70.31
263.802	87.31
264.035	86.31
264.267	75.31
264.499	66.31
264.732	83.31
264.964	83.31
265.197	70.31
265.429	74.31
265.661	84.31
265.894	77.31
266.126	78.31
266.358	83.31
266.591	68.31
266.823	72.31
267.055	74.31
267.287	90.31
267.52	84.31
267.752	76.31
267.984	69.31
268.216	82.31
268.448	68.31
268.681	74.31
268.913	101.31
269.145	74.31
269.377	75.31
269.609	83.31
269.841	90.31
270.073	82.31
270.306	84.31
270.538	83.31
270.77	90.31
271.002	78.31
271.234	78.31
271.466	72.31
271.698	78.31
271.93	80.31
272.162	83.31
272.394	80.31
272.626	78.31
272.858	85.31
273.09	76.31
273.322	61.31
273.553	83.31
273.785	78.31
274.017	82.31
274.249	89.31
274.481	73.31
274.713	79.31
274.945	87.31
275.176	75.31
275.408	84.31
275.64	77.31
275.872	84.31
276.104	88.31
276.335	86.31
276.567	79.31
276.799	98.31
277.031	95.31
277.262	76.31
277.494	100.31
277.726	69.31
277.957	89.31
278.189	93.31
278.421	77.31
278.652	81.31
278.884	93.31
279.115	87.31
279.347	63.31
279.579	90.31
279.81	90.31
280.042	77.31
280.273	92.31
280.505	87.31
280.736	79.31
280.968	78.31
281.199	87.31
281.431	72.31
281.662	73.31
281.894	99.31
282.125	81.31
282.356	105.31
282.588	134.31
282.819	115.31
283.051	82.31
283.282	95.31
283.513	87.31
283.745	78.31
283.976	88.31
284.207	84.31
284.439	91.31
284.67	84.31
284.901	79.31
285.132	83.31
285.364	86.31
285.595	74.31
285.826	86.31
286.057	77.31
286.288	96.31
286.52	92.31
286.751	95.31
286.982	83.31
287.213	73.31
287.444	77.31
287.675	88.31
287.906	92.31
288.138	98.31
288.369	80.31
288.6	93.31
288.831	85.31
289.062	85.31
289.293	79.31
289.524	75.31
289.755	88.31
289.986	70.31
290.217	91.31
290.448	92.31
290.679	82.31
290.91	87.31
291.141	76.31
291.371	91.31
291.602	84.31
291.833	88.31
292.064	83.31
292.295	73.31
292.526	90.31
292.757	81.31
292.987	80.31
293.218	85.31
293.449	68.31
293.68	91.31
293.91	90.31
294.141	78.31
294.372	90.31
294.603	100.31
294.833	83.31
295.064	93.31
295.295	84.31
295.525	94.31
295.756	107.31
295.987	99.31
296.217	139.31
296.448	103.31
296.679	94.31
296.909	100.31
297.14	84.31
297.37	95.31
297.601	85.31
297.831	82.31
298.062	87.31
298.292	72.31
298.523	79.31
298.753	85.31
298.984	88.31
299.214	74.31
299.445	89.31
299.675	67.31
299.905	83.31
300.136	87.31
300.366	83.31
300.597	87.31
300.827	74.31
301.057	76.31
301.288	99.31
301.518	80.31
301.748	81.31
301.979	84.31
302.209	83.31
302.439	80.31
302.669	91.31
302.9	82.31
303.13	105.31
303.36	83.31
303.59	88.31
303.82	88.31
304.051	83.31
304.281	96.31
304.511	96.31
304.741	89.31
304.971	87.31
305.201	75.31
305.431	79.31
305.661	78.31
305.891	95.31
306.121	100.31
306.352	92.31
306.582	105.31
306.812	104.31
307.042	98.31
307.272	85.31
307.502	72.31
307.731	95.31
307.961	89.31
308.191	78.31
308.421	92.31
308.651	99.31
308.881	88.31
309.111	100.31
309.341	103.31
309.571	96.31
309.8	95.31
310.03	99.31
310.26	82.31
310.49	94.31
310.72	98.31
310.949	100.31
311.179	93.31
311.409	84.31
311.639	86.31
311.868	82.31
312.098	84.31
312.328	92.31
312.557	100.31
312.787	94.31
313.017	104.31
313.246	88.31
313.476	72.31
313.706	91.31
313.935	93.31
314.165	82.31
314.394	93.31
314.624	93.31
314.853	91.31
315.083	83.31
315.312	94.31
315.542	103.31
315.771	101.31
316.001	95.31
316.23	100.31
316.46	78.31
316.689	89.31
316.919	84.31
317.148	95.31
317.377	90.31
317.607	85.31
317.836	88.31
318.065	76.31
318.295	78.31
318.524	92.31
318.753	97.31
318.983	92.31
319.212	92.31
319.441	100.31
319.67	103.31
319.9	88.31
320.129	107.31
320.358	87.31
320.587	94.31
320.816	88.31
321.046	85.31
321.275	93.31
321.504	86.31
321.733	102.31
321.962	89.31
322.191	102.31
322.42	88.31
322.649	107.31
322.878	110.31
323.108	116.31
323.337	120.31
323.566	134.31
323.795	142.31
324.024	205.31
324.253	418.31
324.482	868.31
324.71	1791.31
324.939	2351.31
325.168	858.31
325.397	247.31
325.626	152.31
325.855	123.31
326.084	119.31
326.313	144.31
326.542	148.31
326.77	230.31
326.999	479.31
327.228	1000.31
327.457	1820.31
327.686	1438.31
327.914	388.31
328.143	182.31
328.372	154.31
328.6	125.31
328.829	119.31
329.058	109.31
329.287	115.31
329.515	102.31
329.744	93.31
329.972	95.31
330.201	110.31
330.43	100.31
330.658	115.31
330.887	132.31
331.115	111.31
331.344	105.31
331.572	102.31
331.801	84.31
332.03	79.31
332.258	96.31
332.486	99.31
332.715	91.31
332.943	80.31
333.172	97.31
333.4	88.31
333.629	106.31
333.857	103.31
334.085	96.31
334.314	102.31
334.542	87.31
334.771	107.31
334.999	91.31
335.227	112.31
335.455	95.31
335.684	80.31
335.912	94.31
336.14	88.31
336.369	89.31
336.597	89.31
336.825	103.31
337.053	93.31
337.281	82.31
337.51	95.31
337.738	95.31
337.966	91.31
338.194	90.31
338.422	88.31
338.65	95.31
338.878	88.31
339.106	93.31
339.334	88.31
339.562	96.31
339.79	111.31
340.018	87.31
340.246	84.31
340.474	98.31
340.702	91.31
340.93	77.31
341.158	100.31
341.386	99.31
341.614	99.31
341.842	86.31
342.07	68.31
342.298	83.31
342.526	90.31
342.754	94.31
342.981	85.31
343.209	91.31
343.437	90.31
343.665	91.31
343.893	96.31
344.12	92.31
344.348	93.31
344.576	94.31
344.804	91.31
345.031	90.31
345.259	85.31
345.487	74.31
345.714	63.31
345.942	82.31
346.17	96.31
346.397	86.31
346.625	97.31
346.853	92.31
347.08	91.31
347.308	82.31
347.535	85.31
347.763	99.31
347.99	100.31
348.218	102.31
348.445	106.31
348.673	101.31
348.9	109.31
349.128	104.31
349.355	79.31
349.583	95.31
349.81	94.31
350.037	94.31
350.265	79.31
350.492	98.31
350.72	108.31
350.947	99.31
351.174	86.31
351.402	95.31
351.629	86.31
351.856	93.31
352.083	102.31
352.311	102.31
352.538	100.31
352.765	106.31
352.992	115.31
353.22	92.31
353.447	104.31
353.674	95.31
353.901	94.31
354.128	99.31
354.355	94.31
354.583	99.31
354.81	88.31
355.037	96.31
355.264	83.31
355.491	88.31
355.718	89.31
355.945	84.31
356.172	109.31
356.399	106.31
356.626	88.31
356.853	92.31
357.08	94.31
357.307	85.31
357.534	88.31
357.761	92.31
357.988	75.31
358.215	95.31
358.441	88.31
358.668	84.31
358.895	99.31
359.122	109.31
359.349	99.31
359.576	79.31
359.802	100.31
360.029	109.31
360.256	110.31
360.483	89.31
360.709	84.31
360.936	87.31
361.163	75.31
361.39	83.31
361.616	89.31
361.843	83.31
362.07	94.31
362.296	99.31
362.523	87.31
362.749	85.31
362.976	85.31
363.203	84.31
363.429	100.31
363.656	90.31
363.882	90.31
364.109	93.31
364.335	77.31
364.562	83.31
364.788	99.31
365.015	81.31
365.241	88.31
365.468	103.31
365.694	89.31
365.92	80.31
366.147	79.31
366.373	86.31
366.599	93.31
366.826	95.31
367.052	91.31
367.278	84.31
367.505	91.31
367.731	93.31
367.957	83.31
368.184	82.31
368.41	90.31
368.636	88.31
368.862	122.31
369.089	94.31
369.315	83.31
369.541	80.31
369.767	93.31
369.993	78.31
370.219	96.31
370.445	87.31
370.672	89.31
370.898	93.31
371.124	88.31
371.35	82.31
371.576	84.31
371.802	75.31
372.028	90.31
372.254	91.31
372.48	93.31
372.706	86.31
372.932	77.31
373.158	93.31
373.384	71.31
373.61	81.31
373.835	93.31
374.061	82.31
374.287	87.31
374.513	81.31
374.739	81.31
374.965	78.31
375.191	86.31
375.416	97.31
375.642	84.31
375.868	91.31
376.094	90.31
376.319	97.31
376.545	72.31
376.771	81.31
376.997	87.31
377.222	86.31
377.448	88.31
377.674	90.31
377.899	88.31
378.125	93.31
378.35	101.31
378.576	94.31
378.802	86.31
379.027	94.31
379.253	88.31
379.478	102.31
379.704	78.31
379.929	96.31
380.155	87.31
380.38	107.31
380.606	88.31
380.831	95.31
381.057	86.31
381.282	85.31
381.507	91.31
381.733	93.31
381.958	100.31
382.184	93.31
382.409	95.31
382.634	96.31
382.86	90.31
383.085	82.31
383.31	97.31
383.535	94.31
383.761	104.31
383.986	94.31
384.211	102.31
384.436	83.31
384.662	103.31
384.887	106.31
385.112	100.31
385.337	92.31
385.562	106.31
385.787	98.31
386.013	116.31
386.238	107.31
386.463	99.31
386.688	109.31
386.913	100.31
387.138	87.31
387.363	105.31
387.588	90.31
387.813	96.31
388.038	107.31
388.263	115.31
388.488	114.31
388.713	108.31
388.938	95.31
389.163	95.31
389.387	104.31
389.612	86.31
389.837	85.31
390.062	88.31
390.287	92.31
390.512	86.31
390.736	76.31
390.961	99.31
391.186	78.31
391.411	100.31
391.636	75.31
391.86	87.31
392.085	84.31
392.31	84.31
392.534	94.31
392.759	94.31
392.984	79.31
393.208	73.31
393.433	96.31
393.658	84.31
393.882	87.31
394.107	91.31
394.331	88.31
394.556	84.31
394.78	80.31
395.005	92.31
395.229	78.31
395.454	70.31
395.678	85.31
395.903	91.31
396.127	86.31
396.352	89.31
396.576	75.31
396.801	85.31
397.025	79.31
397.249	73.31
397.474	80.31
397.698	88.31
397.922	77.31
398.147	85.31
398.371	83.31
398.595	86.31
398.82	92.31
399.044	70.31
399.268	90.31
399.492	80.31
399.717	107.31
399.941	76.31
400.165	103.31
400.389	84.31
400.613	69.31
400.837	95.31
401.062	82.31
401.286	78.31
401.51	94.31
401.734	100.31
401.958	91.31
402.182	107.31
402.406	147.31
402.63	96.31
402.854	82.31
403.078	86.31
403.302	86.31
403.526	96.31
403.75	87.31
403.974	87.31
404.198	86.31
404.422	78.31
404.645	106.31
404.869	77.31
405.093	92.31
405.317	89.31
405.541	103.31
405.765	87.31
405.988	118.31
406.212	160.31
406.436	202.31
406.66	126.31
406.883	83.31
407.107	107.31
407.331	94.31
407.555	97.31
407.778	87.31
408.002	103.31
408.226	86.31
408.449	82.31
408.673	91.31
408.896	86.31
409.12	76.31
409.344	88.31
409.567	94.31
409.791	91.31
410.014	94.31
410.238	96.31
410.461	104.31
410.685	93.31
410.908	106.31
411.132	109.31
411.355	89.31
411.578	86.31
411.802	78.31
412.025	79.31
412.249	82.31
412.472	99.31
412.695	95.31
412.919	92.31
413.142	68.31
413.365	82.31
413.589	90.31
413.812	74.31
414.035	83.31
414.258	91.31
414.482	83.31
414.705	84.31
414.928	81.31
415.151	90.31
415.374	93.31
415.597	94.31
415.821	106.31
416.044	94.31
416.267	81.31
416.49	83.31
416.713	78.31
416.936	87.31
417.159	80.31
417.382	96.31
417.605	104.31
417.828	104.31
418.051	87.31
418.274	96.31
418.497	91.31
418.72	86.31
418.943	90.31
419.166	91.31
419.389	99.31
419.611	71.31
419.834	83.31
420.057	80.31
420.28	85.31
420.503	81.31
420.726	95.31
420.948	80.31
421.171	99.31
421.394	102.31
421.617	91.31
421.839	92.31
422.062	87.31
422.285	102.31
422.507	115.31
422.73	84.31
422.953	95.31
423.175	87.31
423.398	86.31
423.621	85.31
423.843	98.31
424.066	74.31
424.288	100.31
424.511	82.31
424.733	94.31
424.956	98.31
425.178	88.31
425.401	92.31
425.623	94.31
425.846	97.31
426.068	91.31
426.291	83.31
426.513	83.31
426.735	92.31
426.958	93.31
427.18	109.31
427.402	134.31
427.625	156.31
427.847	122.31
428.069	98.31
428.292	79.31
428.514	84.31
428.736	82.31
428.958	88.31
429.181	93.31
429.403	101.31
429.625	86.31
429.847	84.31
430.069	91.31
430.292	79.31
430.514	87.31
430.736	84.31
430.958	89.31
431.18	90.31
431.402	82.31
431.624	74.31
431.846	82.31
432.068	78.31
432.29	80.31
432.512	88.31
432.734	90.31
432.956	83.31
433.178	100.31
433.4	90.31
433.622	82.31
433.844	84.31
434.066	79.31
434.287	102.31
434.509	98.31
434.731	87.31
434.953	97.31
435.175	84.31
435.397	86.31
435.618	78.31
435.84	99.31
436.062	111.31
436.284	106.31
436.505	100.31
436.727	96.31
436.949	85.31
437.17	117.31
437.392	79.31
437.614	87.31
437.835	91.31
438.057	107.31
438.278	103.31
438.5	112.31
438.721	110.31
438.943	105.31
439.165	89.31
439.386	83.31
439.608	84.31
439.829	105.31
440.05	122.31
440.272	120.31
440.493	107.31
440.715	92.31
440.936	84.31
441.158	93.31
441.379	94.31
441.6	94.31
441.822	90.31
442.043	80.31
442.264	94.31
442.486	93.31
442.707	86.31
442.928	91.31
443.149	132.31
443.371	124.31
443.592	96.31
443.813	122.31
444.034	113.31
444.255	99.31
444.476	96.31
444.698	87.31
444.919	91.31
445.14	123.31
445.361	121.31
445.582	102.31
445.803	125.31
446.024	123.31
446.245	128.31
446.466	101.31
446.687	94.31
446.908	87.31
447.129	85.31
447.35	82.31
447.571	86.31
447.792	90.31
448.013	93.31
448.234	81.31
448.455	84.31
448.675	107.31
448.896	115.31
449.117	92.31
449.338	95.31
449.559	120.31
449.779	122.31
450	103.31
450.221	85.31
450.442	91.31
450.662	90.31
450.883	103.31
451.104	110.31
451.324	87.31
451.545	90.31
451.766	87.31
451.986	93.31
452.207	85.31
452.428	96.31
452.648	100.31
452.869	84.31
453.089	97.31
453.31	96.31
453.53	89.31
453.751	88.31
453.971	104.31
454.192	97.31
454.412	93.31
454.633	100.31
454.853	72.31
455.073	78.31
455.294	87.31
455.514	93.31
455.734	100.31
455.955	83.31
456.175	78.31
456.395	80.31
456.616	83.31
456.836	90.31
457.056	79.31
457.276	84.31
457.497	83.31
457.717	91.31
457.937	95.31
458.157	83.31
458.377	87.31
458.598	93.31
458.818	139.31
459.038	146.31
459.258	101.31
459.478	84.31
459.698	82.31
459.918	91.31
460.138	90.31
460.358	69.31
460.578	107.31
460.798	88.31
461.018	82.31
461.238	84.31
461.458	91.31
461.678	78.31
461.898	82.31
462.118	72.31
462.338	79.31
462.558	80.31
462.777	75.31
462.997	82.31
463.217	74.31
463.437	94.31
463.657	84.31
463.876	93.31
464.096	75.31
464.316	78.31
464.536	92.31
464.755	99.31
464.975	106.31
465.195	153.31
465.414	138.31
465.634	81.31
465.854	91.31
466.073	89.31
466.293	94.31
466.512	80.31
466.732	82.31
466.951	84.31
467.171	93.31
467.391	96.31
467.61	83.31
467.829	92.31
468.049	89.31
468.268	89.31
468.488	99.31
468.707	78.31
468.927	86.31
469.146	80.31
469.365	79.31
469.585	88.31
469.804	77.31
470.023	93.31
470.243	84.31
470.462	78.31
470.681	111.31
470.901	94.31
471.12	86.31
471.339	89.31
471.558	77.31
471.777	83.31
471.997	78.31
472.216	96.31
472.435	79.31
472.654	88.31
472.873	72.31
473.092	82.31
473.311	87.31
473.53	96.31
473.749	97.31
473.968	94.31
474.187	111.31
474.406	90.31
474.625	81.31
474.844	82.31
475.063	99.31
475.282	89.31
475.501	78.31
475.72	84.31
475.939	79.31
476.158	84.31
476.377	86.31
476.596	82.31
476.814	84.31
477.033	92.31
477.252	92.31
477.471	85.31
477.69	96.31
477.908	76.31
478.127	87.31
478.346	84.31
478.564	88.31
478.783	97.31
479.002	85.31
479.22	96.31
479.439	106.31
479.658	98.31
479.876	76.31
480.095	97.31
480.313	74.31
480.532	85.31
480.751	89.31
480.969	90.31
481.188	110.31
481.406	102.31
481.624	94.31
481.843	88.31
482.061	82.31
482.28	83.31
482.498	80.31
482.717	86.31
482.935	90.31
483.153	86.31
483.372	76.31
483.59	90.31
483.808	79.31
484.027	87.31
484.245	82.31
484.463	94.31
484.681	88.31
484.9	86.31
485.118	107.31
485.336	79.31
485.554	91.31
485.772	90.31
485.99	111.31
486.209	95.31
486.427	107.31
486.645	102.31
486.863	108.31
487.081	88.31
487.299	110.31
487.517	100.31
487.735	90.31
487.953	84.31
488.171	91.31
488.389	89.31
488.607	92.31
488.825	88.31
489.043	99.31
489.261	82.31
489.479	83.31
489.696	101.31
489.914	72.31
490.132	91.31
490.35	79.31
490.568	85.31
490.786	85.31
491.003	70.31
491.221	90.31
491.439	90.31
491.657	95.31
491.874	96.31
492.092	84.31
492.31	75.31
492.527	93.31
492.745	84.31
492.963	87.31
493.18	86.31
493.398	92.31
493.615	78.31
493.833	87.31
494.05	90.31
494.268	102.31
494.485	99.31
494.703	92.31
494.92	95.31
495.138	78.31
495.355	95.31
495.573	81.31
495.79	77.31
496.008	83.31
496.225	81.31
496.442	79.31
496.66	93.31
496.877	100.31
497.094	86.31
497.312	87.31
497.529	101.31
497.746	89.31
497.963	87.31
498.181	105.31
498.398	102.31
498.615	99.31
498.832	88.31
499.049	71.31
499.267	86.31
499.484	81.31
499.701	95.31
499.918	86.31
500.135	94.31
500.352	88.31
500.569	78.31
500.786	87.31
501.003	94.31
501.22	90.31
501.437	100.31
501.654	106.31
501.871	107.31
502.088	86.31
502.305	84.31
502.522	86.31
502.739	87.31
502.956	84.31
503.172	102.31
503.389	93.31
503.606	111.31
503.823	88.31
504.04	95.31
504.256	74.31
504.473	77.31
504.69	92.31
504.907	86.31
505.123	96.31
505.34	84.31
505.557	87.31
505.773	80.31
505.99	94.31
506.207	88.31
506.423	86.31
506.64	95.31
506.856	92.31
507.073	81.31
507.289	92.31
507.506	95.31
507.722	106.31
507.939	112.31
508.155	101.31
508.372	98.31
508.588	83.31
508.805	95.31
509.021	90.31
509.238	83.31
509.454	95.31
509.67	98.31
509.887	91.31
510.103	134.31
510.319	204.31
510.536	740.31
510.752	2211.31
510.968	609.31
511.184	158.31
511.401	111.31
511.617	101.31
511.833	80.31
512.049	84.31
512.265	74.31
512.481	111.31
512.698	87.31
512.914	94.31
513.13	102.31
513.346	85.31
513.562	93.31
513.778	104.31
513.994	84.31
514.21	99.31
514.426	117.31
514.642	112.31
514.858	122.31
515.074	154.31
515.29	399.31
515.506	1288.31
515.721	466.31
515.937	138.31
516.153	96.31
516.369	106.31
516.585	98.31
516.801	93.31
