Data from Uncirc_1999_H10_HRD10591_00100.txt Node
Date: Wed Jan 03 11:22:25 EST 2024
User: Yrep
Spectrometer: HR+D1059
Trigger mode: 1
Integration Time (sec): 1.000000E-1
Scans to average: 1
Electric dark correction enabled: true
Nonlinearity correction enabled: false
Boxcar width: 0
XAxis mode: Wavelengths
Number of Pixels in Spectrum: 2048
>>>>>Begin Spectral Data<<<<<
223.165	-21
223.4	-21
223.635	-21
223.869	-22
224.104	-25
224.338	-9
224.573	-19
224.808	-19
225.042	-2
225.277	6
225.511	9
225.746	-9
225.98	14
226.215	22
226.449	24
226.683	25
226.918	9
227.152	17
227.387	34
227.621	25
227.856	36
228.09	46
228.324	46
228.559	58
228.793	52
229.027	55
229.262	64
229.496	61
229.73	54
229.964	81
230.199	70
230.433	71
230.667	65
230.901	70
231.136	89
231.37	69
231.604	82
231.838	77
232.072	71
232.306	76
232.541	71
232.775	71
233.009	88
233.243	82
233.477	63
233.711	62
233.945	65
234.179	71
234.413	64
234.647	81
234.881	73
235.115	68
235.349	64
235.583	72
235.817	55
236.051	58
236.285	66
236.519	77
236.753	74
236.987	79
237.221	82
237.455	79
237.689	66
237.922	74
238.156	66
238.39	64
238.624	71
238.858	81
239.091	89
239.325	68
239.559	68
239.793	78
240.027	73
240.26	64
240.494	69
240.728	70
240.961	67
241.195	77
241.429	72
241.662	83
241.896	52
242.13	68
242.363	78
242.597	58
242.83	74
243.064	74
243.298	66
243.531	82
243.765	80
243.998	87
244.232	85
244.465	60
244.699	83
244.932	80
245.166	77
245.399	64
245.633	70
245.866	78
246.099	76
246.333	69
246.566	91
246.8	78
247.033	76
247.266	82
247.5	79
247.733	71
247.966	73
248.2	67
248.433	67
248.666	66
248.899	68
249.133	85
249.366	88
249.599	89
249.832	76
250.066	82
250.299	70
250.532	90
250.765	62
250.998	72
251.231	61
251.465	70
251.698	80
251.931	76
252.164	67
252.397	66
252.63	73
252.863	72
253.096	67
253.329	78
253.562	72
253.795	78
254.028	60
254.261	67
254.494	72
254.727	71
254.96	89
255.193	62
255.426	76
255.659	88
255.892	81
256.124	88
256.357	80
256.59	80
256.823	80
257.056	97
257.289	82
257.521	69
257.754	72
257.987	81
258.22	82
258.452	72
258.685	87
258.918	73
259.151	70
259.383	85
259.616	97
259.849	88
260.081	66
260.314	84
260.547	72
260.779	75
261.012	64
261.244	88
261.477	82
261.71	98
261.942	107
262.175	105
262.407	66
262.64	69
262.872	73
263.105	80
263.337	87
263.57	68
263.802	66
264.035	73
264.267	83
264.499	79
264.732	74
264.964	52
265.197	85
265.429	71
265.661	74
265.894	72
266.126	75
266.358	77
266.591	83
266.823	80
267.055	81
267.287	72
267.52	72
267.752	90
267.984	73
268.216	97
268.448	85
268.681	74
268.913	92
269.145	82
269.377	75
269.609	83
269.841	80
270.073	76
270.306	84
270.538	81
270.77	82
271.002	79
271.234	89
271.466	83
271.698	82
271.93	80
272.162	95
272.394	98
272.626	85
272.858	76
273.09	82
273.322	78
273.553	83
273.785	74
274.017	67
274.249	82
274.481	80
274.713	74
274.945	75
275.176	79
275.408	81
275.64	95
275.872	91
276.104	92
276.335	89
276.567	81
276.799	87
277.031	87
277.262	73
277.494	91
277.726	83
277.957	81
278.189	78
278.421	68
278.652	66
278.884	79
279.115	69
279.347	74
279.579	78
279.81	62
280.042	70
280.273	59
280.505	92
280.736	79
280.968	70
281.199	79
281.431	80
281.662	81
281.894	94
282.125	98
282.356	118
282.588	138
282.819	108
283.051	81
283.282	81
283.513	81
283.745	67
283.976	87
284.207	77
284.439	90
284.67	95
284.901	74
285.132	95
285.364	80
285.595	80
285.826	85
286.057	89
286.288	71
286.52	79
286.751	84
286.982	72
287.213	81
287.444	82
287.675	89
287.906	97
288.138	77
288.369	75
288.6	95
288.831	62
289.062	78
289.293	77
289.524	88
289.755	82
289.986	72
290.217	82
290.448	71
290.679	81
290.91	93
291.141	79
291.371	88
291.602	87
291.833	80
292.064	72
292.295	74
292.526	83
292.757	80
292.987	91
293.218	80
293.449	74
293.68	80
293.91	87
294.141	92
294.372	86
294.603	75
294.833	74
295.064	92
295.295	90
295.525	92
295.756	84
295.987	113
296.217	134
296.448	119
296.679	84
296.909	84
297.14	75
297.37	89
297.601	88
297.831	72
298.062	79
298.292	80
298.523	74
298.753	90
298.984	71
299.214	81
299.445	83
299.675	80
299.905	88
300.136	82
300.366	91
300.597	91
300.827	90
301.057	91
301.288	105
301.518	82
301.748	80
301.979	99
302.209	82
302.439	90
302.669	70
302.9	79
303.13	80
303.36	94
303.59	91
303.82	101
304.051	84
304.281	87
304.511	85
304.741	71
304.971	83
305.201	98
305.431	79
305.661	91
305.891	83
306.121	91
306.352	95
306.582	94
306.812	89
307.042	86
307.272	91
307.502	91
307.731	78
307.961	75
308.191	82
308.421	77
308.651	78
308.881	85
309.111	82
309.341	87
309.571	81
309.8	88
310.03	78
310.26	105
310.49	117
310.72	83
310.949	82
311.179	85
311.409	98
311.639	99
311.868	91
312.098	90
312.328	98
312.557	93
312.787	99
313.017	80
313.246	88
313.476	81
313.706	94
313.935	101
314.165	107
314.394	103
314.624	86
314.853	81
315.083	82
315.312	73
315.542	83
315.771	92
316.001	79
316.23	85
316.46	83
316.689	68
316.919	100
317.148	74
317.377	84
317.607	73
317.836	103
318.065	102
318.295	84
318.524	76
318.753	90
318.983	87
319.212	87
319.441	91
319.67	79
319.9	77
320.129	86
320.358	85
320.587	82
320.816	80
321.046	97
321.275	96
321.504	88
321.733	84
321.962	96
322.191	92
322.42	91
322.649	104
322.878	97
323.108	109
323.337	112
323.566	126
323.795	147
324.024	226
324.253	418
324.482	926
324.71	1886
324.939	2453
325.168	890
325.397	247
325.626	148
325.855	129
326.084	121
326.313	142
326.542	138
326.77	219
326.999	486
327.228	1013
327.457	1902
327.686	1540
327.914	385
328.143	184
328.372	126
328.6	111
328.829	110
329.058	129
329.287	118
329.515	106
329.744	82
329.972	94
330.201	97
330.43	99
330.658	100
330.887	108
331.115	113
331.344	93
331.572	100
331.801	88
332.03	101
332.258	92
332.486	89
332.715	88
332.943	93
333.172	90
333.4	82
333.629	103
333.857	96
334.085	84
334.314	100
334.542	91
334.771	90
334.999	86
335.227	92
335.455	94
335.684	98
335.912	84
336.14	95
336.369	92
336.597	81
336.825	91
337.053	81
337.281	81
337.51	91
337.738	93
337.966	88
338.194	81
338.422	92
338.65	89
338.878	90
339.106	83
339.334	75
339.562	83
339.79	91
340.018	89
340.246	80
340.474	88
340.702	88
340.93	78
341.158	81
341.386	84
341.614	90
341.842	89
342.07	92
342.298	88
342.526	77
342.754	84
342.981	88
343.209	83
343.437	91
343.665	90
343.893	74
344.12	97
344.348	95
344.576	86
344.804	96
345.031	94
345.259	89
345.487	82
345.714	92
345.942	79
346.17	97
346.397	83
346.625	99
346.853	100
347.08	84
347.308	92
347.535	92
347.763	87
347.99	70
348.218	96
348.445	95
348.673	95
348.9	94
349.128	100
349.355	103
349.583	89
349.81	84
350.037	82
350.265	84
350.492	85
350.72	88
350.947	92
351.174	99
351.402	100
351.629	96
351.856	88
352.083	95
352.311	90
352.538	93
352.765	99
352.992	116
353.22	108
353.447	107
353.674	98
353.901	82
354.128	100
354.355	87
354.583	82
354.81	98
355.037	80
355.264	86
355.491	87
355.718	96
355.945	94
356.172	88
356.399	89
356.626	95
356.853	96
357.08	87
357.307	89
357.534	75
357.761	94
357.988	78
358.215	82
358.441	82
358.668	93
358.895	87
359.122	78
359.349	79
359.576	92
359.802	91
360.029	101
360.256	86
360.483	83
360.709	94
360.936	88
361.163	96
361.39	87
361.616	92
361.843	86
362.07	93
362.296	105
362.523	81
362.749	92
362.976	91
363.203	88
363.429	90
363.656	83
363.882	94
364.109	83
364.335	88
364.562	75
364.788	69
365.015	98
365.241	96
365.468	96
365.694	86
365.92	92
366.147	99
366.373	85
366.599	86
366.826	104
367.052	79
367.278	81
367.505	91
367.731	80
367.957	90
368.184	84
368.41	76
368.636	84
368.862	86
369.089	99
369.315	91
369.541	96
369.767	85
369.993	83
370.219	84
370.445	82
370.672	70
370.898	83
371.124	70
371.35	78
371.576	82
371.802	81
372.028	91
372.254	79
372.48	80
372.706	83
372.932	80
373.158	83
373.384	75
373.61	96
373.835	84
374.061	83
374.287	74
374.513	79
374.739	86
374.965	88
375.191	83
375.416	91
375.642	93
375.868	94
376.094	84
376.319	84
376.545	87
376.771	77
376.997	93
377.222	92
377.448	89
377.674	99
377.899	88
378.125	81
378.35	80
378.576	82
378.802	87
379.027	84
379.253	94
379.478	91
379.704	93
379.929	91
380.155	85
380.38	83
380.606	75
380.831	81
381.057	96
381.282	84
381.507	73
381.733	101
381.958	91
382.184	94
382.409	78
382.634	107
382.86	96
383.085	97
383.31	91
383.535	104
383.761	94
383.986	99
384.211	94
384.436	98
384.662	91
384.887	94
385.112	92
385.337	77
385.562	95
385.787	83
386.013	111
386.238	99
386.463	93
386.688	102
386.913	87
387.138	98
387.363	94
387.588	98
387.813	87
388.038	85
388.263	99
388.488	106
388.713	101
388.938	95
389.163	89
389.387	95
389.612	91
389.837	99
390.062	89
390.287	88
390.512	89
390.736	85
390.961	80
391.186	83
391.411	98
391.636	92
391.86	85
392.085	80
392.31	88
392.534	72
392.759	84
392.984	64
393.208	92
393.433	84
393.658	86
393.882	92
394.107	91
394.331	103
394.556	83
394.78	98
395.005	89
395.229	83
395.454	69
395.678	70
395.903	75
396.127	78
396.352	84
396.576	92
396.801	91
397.025	92
397.249	88
397.474	66
397.698	72
397.922	79
398.147	76
398.371	85
398.595	90
398.82	81
399.044	85
399.268	82
399.492	79
399.717	87
399.941	77
400.165	80
400.389	99
400.613	91
400.837	84
401.062	72
401.286	88
401.51	78
401.734	89
401.958	91
402.182	110
402.406	131
402.63	121
402.854	83
403.078	74
403.302	88
403.526	85
403.75	77
403.974	98
404.198	85
404.422	89
404.645	82
404.869	79
405.093	87
405.317	96
405.541	79
405.765	91
405.988	113
406.212	146
406.436	200
406.66	144
406.883	96
407.107	83
407.331	84
407.555	115
407.778	104
408.002	83
408.226	80
408.449	99
408.673	96
408.896	99
409.12	91
409.344	82
409.567	79
409.791	86
410.014	84
410.238	73
410.461	95
410.685	97
410.908	99
411.132	94
411.355	88
411.578	102
411.802	92
412.025	67
412.249	88
412.472	78
412.695	95
412.919	71
413.142	89
413.365	77
413.589	88
413.812	92
414.035	95
414.258	87
414.482	74
414.705	84
414.928	92
415.151	83
415.374	91
415.597	78
415.821	92
416.044	84
416.267	80
416.49	86
416.713	78
416.936	82
417.159	88
417.382	85
417.605	91
417.828	90
418.051	79
418.274	76
418.497	81
418.72	89
418.943	99
419.166	90
419.389	85
419.611	70
419.834	80
420.057	86
420.28	79
420.503	78
420.726	73
420.948	90
421.171	95
421.394	92
421.617	78
421.839	90
422.062	87
422.285	93
422.507	92
422.73	96
422.953	83
423.175	86
423.398	80
423.621	86
423.843	82
424.066	91
424.288	83
424.511	88
424.733	82
424.956	102
425.178	85
425.401	94
425.623	91
425.846	90
426.068	83
426.291	89
426.513	88
426.735	95
426.958	87
427.18	98
427.402	136
427.625	156
427.847	122
428.069	101
428.292	82
428.514	87
428.736	85
428.958	77
429.181	86
429.403	83
429.625	74
429.847	86
430.069	89
430.292	92
430.514	89
430.736	102
430.958	81
431.18	85
431.402	92
431.624	83
431.846	76
432.068	87
432.29	86
432.512	74
432.734	83
432.956	90
433.178	85
433.4	76
433.622	94
433.844	91
434.066	93
434.287	89
434.509	87
434.731	80
434.953	88
435.175	90
435.397	84
435.618	87
435.84	114
436.062	116
436.284	115
436.505	107
436.727	105
436.949	81
437.17	84
437.392	80
437.614	79
437.835	91
438.057	107
438.278	108
438.5	100
438.721	116
438.943	93
439.165	99
439.386	67
439.608	95
439.829	89
440.05	121
440.272	121
440.493	95
440.715	93
440.936	77
441.158	75
441.379	83
441.6	82
441.822	76
442.043	83
442.264	111
442.486	103
442.707	85
442.928	85
443.149	108
443.371	126
443.592	105
443.813	103
444.034	122
444.255	95
444.476	77
444.698	87
444.919	80
445.14	110
445.361	120
445.582	106
445.803	131
446.024	128
446.245	150
446.466	97
446.687	92
446.908	79
447.129	89
447.35	71
447.571	82
447.792	83
448.013	90
448.234	93
448.455	84
448.675	103
448.896	119
449.117	87
449.338	112
449.559	127
449.779	134
450	95
450.221	80
450.442	80
450.662	82
450.883	88
451.104	97
451.324	80
451.545	92
451.766	82
451.986	87
452.207	80
452.428	95
452.648	94
452.869	103
453.089	96
453.31	99
453.53	76
453.751	93
453.971	92
454.192	91
454.412	65
454.633	80
454.853	79
455.073	80
455.294	65
455.514	91
455.734	94
455.955	80
456.175	85
456.395	74
456.616	88
456.836	83
457.056	72
457.276	81
457.497	68
457.717	73
457.937	91
458.157	91
458.377	87
458.598	99
458.818	142
459.038	140
459.258	117
459.478	87
459.698	73
459.918	82
460.138	78
460.358	69
460.578	73
460.798	70
461.018	86
461.238	72
461.458	79
461.678	88
461.898	92
462.118	81
462.338	80
462.558	73
462.777	80
462.997	90
463.217	86
463.437	87
463.657	78
463.876	78
464.096	72
464.316	72
464.536	91
464.755	82
464.975	90
465.195	125
465.414	142
465.634	97
465.854	75
466.073	70
466.293	82
466.512	90
466.732	84
466.951	82
467.171	82
467.391	100
467.61	87
467.829	92
468.049	87
468.268	78
468.488	89
468.707	86
468.927	101
469.146	78
469.365	84
469.585	98
469.804	90
470.023	89
470.243	74
470.462	86
470.681	102
470.901	88
471.12	84
471.339	74
471.558	83
471.777	81
471.997	91
472.216	82
472.435	95
472.654	91
472.873	74
473.092	81
473.311	91
473.53	88
473.749	84
473.968	96
474.187	108
474.406	92
474.625	91
474.844	84
475.063	81
475.282	90
475.501	83
475.72	80
475.939	83
476.158	75
476.377	86
476.596	75
476.814	90
477.033	87
477.252	73
477.471	78
477.69	79
477.908	79
478.127	94
478.346	84
478.564	89
478.783	92
479.002	98
479.22	84
479.439	101
479.658	103
479.876	98
480.095	94
480.313	82
480.532	103
480.751	83
480.969	92
481.188	100
481.406	105
481.624	90
481.843	88
482.061	83
482.28	81
482.498	88
482.717	73
482.935	83
483.153	96
483.372	86
483.59	94
483.808	88
484.027	89
484.245	72
484.463	86
484.681	97
484.9	80
485.118	90
485.336	94
485.554	96
485.772	82
485.99	92
486.209	95
486.427	116
486.645	95
486.863	92
487.081	83
487.299	107
487.517	90
487.735	89
487.953	78
488.171	101
488.389	86
488.607	91
488.825	90
489.043	90
489.261	89
489.479	86
489.696	79
489.914	89
490.132	96
490.35	75
490.568	87
490.786	82
491.003	78
491.221	110
491.439	88
491.657	86
491.874	88
492.092	84
492.31	89
492.527	86
492.745	89
492.963	85
493.18	83
493.398	90
493.615	92
493.833	91
494.05	83
494.268	77
494.485	84
494.703	84
494.92	77
495.138	97
495.355	71
495.573	78
495.79	86
496.008	101
496.225	88
496.442	73
496.66	89
496.877	93
497.094	91
497.312	73
497.529	85
497.746	86
497.963	91
498.181	83
498.398	91
498.615	107
498.832	85
499.049	83
499.267	84
499.484	83
499.701	84
499.918	95
500.135	75
500.352	84
500.569	84
500.786	83
501.003	95
501.22	87
501.437	96
501.654	84
501.871	88
502.088	87
502.305	99
502.522	92
502.739	73
502.956	78
503.172	80
503.389	73
503.606	102
503.823	81
504.04	78
504.256	82
504.473	83
504.69	77
504.907	82
505.123	86
505.34	101
505.557	100
505.773	87
505.99	88
506.207	95
506.423	72
506.64	80
506.856	81
507.073	94
507.289	84
507.506	91
507.722	101
507.939	91
508.155	85
508.372	88
508.588	101
508.805	82
509.021	85
509.238	92
509.454	88
509.67	87
509.887	109
510.103	118
510.319	208
510.536	755
510.752	2312
510.968	640
511.184	156
511.401	99
511.617	83
511.833	74
512.049	79
512.265	65
512.481	88
512.698	89
512.914	87
513.13	87
513.346	85
513.562	82
513.778	94
513.994	92
514.21	105
514.426	111
514.642	127
514.858	114
515.074	152
515.29	406
515.506	1280
515.721	487
515.937	146
516.153	102
516.369	97
516.585	98
516.801	99
517.016	84
517.232	87
517.448	81
517.664	93
517.879	98
518.095	84
518.311	85
518.527	90
518.742	101
518.958	85
519.173	92
519.389	96
519.605	94
519.82	91
520.036	96
520.251	107
520.467	112
520.682	104
520.898	86
521.113	93
521.329	121
521.544	204
521.76	489
521.975	2232
522.19	1282
522.406	278
522.621	112
522.836	100
523.052	86
523.267	100
523.482	102
523.698	102
523.913	107
524.128	105
524.343	98
524.559	96
524.774	93
524.989	96
525.204	94
525.419	95
525.634	83
525.849	79
526.064	90
526.28	76
526.495	81
526.71	94
526.925	89
527.14	82
527.355	75
527.57	80
527.785	83
527.999	89
528.214	85
528.429	100
528.644	82
528.859	92
529.074	92
529.289	118
529.503	166
529.718	113
529.933	83
530.148	74
530.363	89
530.577	84
530.792	99
531.007	91
531.221	78
531.436	83
531.651	82
531.865	81
532.08	82
532.295	96
532.509	97
532.724	80
532.938	96
533.153	92
533.367	95
533.582	88
533.796	97
534.011	80
534.225	86
534.44	78
534.654	99
534.868	96
535.083	89
535.297	91
535.511	90
535.726	88
535.94	95
536.154	98
536.369	96
536.583	97
536.797	83
537.011	92
537.225	90
537.44	98
537.654	82
537.868	56
538.082	102
538.296	87
538.51	72
538.724	90
538.938	85
539.153	79
539.367	97
539.581	78
539.795	81
540.009	78
540.222	82
540.436	80
540.65	83
540.864	79
541.078	96
541.292	82
541.506	97
541.72	89
541.934	86
542.147	68
542.361	89
542.575	86
542.789	81
543.002	76
543.216	100
543.43	94
543.644	86
543.857	88
544.071	89
544.285	92
544.498	72
544.712	92
544.925	90
545.139	86
545.352	88
545.566	80
545.779	62
545.993	92
546.206	85
546.42	88
546.633	87
546.847	88
547.06	85
547.274	80
547.487	86
547.7	68
547.914	89
548.127	92
548.34	81
548.554	82
548.767	70
548.98	89
549.193	91
549.407	90
549.62	87
549.833	102
550.046	80
550.259	95
550.473	91
550.686	105
550.899	87
551.112	87
551.325	77
551.538	83
551.751	88
551.964	85
552.177	71
552.39	79
552.603	85
552.816	70
553.029	82
553.242	73
553.455	92
553.667	90
553.88	98
554.093	98
554.306	83
554.519	87
554.732	75
554.944	90
555.157	79
555.37	84
555.583	91
555.795	90
556.008	79
556.221	78
556.433	81
556.646	82
556.859	84
557.071	85
557.284	81
557.496	95
557.709	83
557.921	97
558.134	81
558.346	75
558.559	74
558.771	81
558.984	80
559.196	96
559.409	72
559.621	82
559.833	77
560.046	67
560.258	86
560.47	83
560.683	92
560.895	88
561.107	82
561.32	95
561.532	88
561.744	85
561.956	83
562.168	84
562.381	91
562.593	78
562.805	96
563.017	74
563.229	82
563.441	78
563.653	67
563.865	72
564.077	81
564.289	78
564.501	89
564.713	83
564.925	88
565.137	92
565.349	92
565.561	87
565.773	85
565.985	81
566.197	90
566.408	81
566.62	99
566.832	72
567.044	63
567.255	78
567.467	92
567.679	62
567.891	95
568.102	77
568.314	85
568.526	91
568.737	101
568.949	87
569.161	75
569.372	70
569.584	86
569.795	82
570.007	103
570.218	221
570.43	118
570.641	92
570.853	88
571.064	90
571.276	82
571.487	72
571.698	68
571.91	66
572.121	92
572.333	92
572.544	90
572.755	78
572.966	82
573.178	80
573.389	77
573.6	71
573.811	87
574.023	73
574.234	88
574.445	90
574.656	98
574.867	90
575.078	76
575.289	80
575.501	89
575.712	80
575.923	79
576.134	87
576.345	68
576.556	95
576.767	78
576.978	82
577.188	79
577.399	67
577.61	83
577.821	98
578.032	113
578.243	262
578.454	750
578.665	203
578.875	93
579.086	80
579.297	88
579.508	81
579.718	78
579.929	80
580.14	78
580.35	82
580.561	64
580.772	72
580.982	80
581.193	68
581.403	82
581.614	72
581.825	84
582.035	71
582.246	84
582.456	84
582.667	82
582.877	86
583.087	80
583.298	76
583.508	81
583.719	86
583.929	77
584.139	80
584.35	73
584.56	91
584.77	88
584.981	71
585.191	86
585.401	91
585.611	84
585.821	81
586.032	87
586.242	87
586.452	89
586.662	90
586.872	75
587.082	86
587.292	81
587.502	98
