Data from Uncirc_1999_H10_HRD10591_00081.txt Node
Date: Wed Jan 03 11:22:21 EST 2024
User: Yrep
Spectrometer: HR+D1059
Trigger mode: 1
Integration Time (sec): 1.000000E-1
Scans to average: 1
Electric dark correction enabled: true
Nonlinearity correction enabled: false
Boxcar width: 0
XAxis mode: Wavelengths
Number of Pixels in Spectrum: 2048
>>>>>Begin Spectral Data<<<<<
223.165	-22.69
223.4	-22.69
223.635	-22.69
223.869	-0.69
224.104	-15.69
224.338	-16.69
224.573	-28.69
224.808	-13.69
225.042	-6.69
225.277	-2.69
225.511	-1.69
225.746	-0.69
225.98	15.31
226.215	9.31
226.449	2.31
226.683	24.31
226.918	34.31
227.152	24.31
227.387	39.31
227.621	37.31
227.856	50.31
228.09	55.31
228.324	58.31
228.559	73.31
228.793	65.31
229.027	66.31
229.262	89.31
229.496	81.31
229.73	79.31
229.964	82.31
230.199	78.31
230.433	64.31
230.667	77.31
230.901	84.31
231.136	83.31
231.37	90.31
231.604	102.31
231.838	97.31
232.072	77.31
232.306	81.31
232.541	89.31
232.775	81.31
233.009	84.31
233.243	84.31
233.477	73.31
233.711	76.31
233.945	83.31
234.179	80.31
234.413	80.31
234.647	76.31
234.881	79.31
235.115	94.31
235.349	81.31
235.583	90.31
235.817	94.31
236.051	95.31
236.285	86.31
236.519	90.31
236.753	89.31
236.987	81.31
237.221	89.31
237.455	103.31
237.689	96.31
237.922	73.31
238.156	86.31
238.39	96.31
238.624	78.31
238.858	88.31
239.091	78.31
239.325	83.31
239.559	80.31
239.793	99.31
240.027	84.31
240.26	86.31
240.494	86.31
240.728	78.31
240.961	83.31
241.195	85.31
241.429	74.31
241.662	84.31
241.896	93.31
242.13	91.31
242.363	81.31
242.597	91.31
242.83	88.31
243.064	87.31
243.298	79.31
243.531	68.31
243.765	86.31
243.998	82.31
244.232	101.31
244.465	76.31
244.699	82.31
244.932	67.31
245.166	78.31
245.399	83.31
245.633	87.31
245.866	87.31
246.099	82.31
246.333	76.31
246.566	67.31
246.8	86.31
247.033	87.31
247.266	87.31
247.5	96.31
247.733	75.31
247.966	89.31
248.2	99.31
248.433	95.31
248.666	102.31
248.899	89.31
249.133	69.31
249.366	100.31
249.599	98.31
249.832	100.31
250.066	91.31
250.299	68.31
250.532	76.31
250.765	81.31
250.998	90.31
251.231	83.31
251.465	76.31
251.698	91.31
251.931	85.31
252.164	67.31
252.397	81.31
252.63	86.31
252.863	76.31
253.096	88.31
253.329	90.31
253.562	86.31
253.795	93.31
254.028	85.31
254.261	86.31
254.494	94.31
254.727	91.31
254.96	82.31
255.193	88.31
255.426	90.31
255.659	94.31
255.892	106.31
256.124	107.31
256.357	86.31
256.59	90.31
256.823	79.31
257.056	84.31
257.289	90.31
257.521	85.31
257.754	82.31
257.987	91.31
258.22	98.31
258.452	87.31
258.685	90.31
258.918	88.31
259.151	78.31
259.383	90.31
259.616	84.31
259.849	93.31
260.081	89.31
260.314	80.31
260.547	78.31
260.779	94.31
261.012	97.31
261.244	89.31
261.477	101.31
261.71	82.31
261.942	109.31
262.175	120.31
262.407	90.31
262.64	80.31
262.872	84.31
263.105	85.31
263.337	103.31
263.57	74.31
263.802	95.31
264.035	97.31
264.267	97.31
264.499	66.31
264.732	85.31
264.964	97.31
265.197	88.31
265.429	85.31
265.661	97.31
265.894	93.31
266.126	89.31
266.358	81.31
266.591	84.31
266.823	88.31
267.055	96.31
267.287	83.31
267.52	85.31
267.752	92.31
267.984	81.31
268.216	90.31
268.448	92.31
268.681	88.31
268.913	92.31
269.145	72.31
269.377	82.31
269.609	93.31
269.841	91.31
270.073	100.31
270.306	94.31
270.538	102.31
270.77	89.31
271.002	101.31
271.234	75.31
271.466	80.31
271.698	84.31
271.93	83.31
272.162	96.31
272.394	101.31
272.626	99.31
272.858	83.31
273.09	95.31
273.322	82.31
273.553	91.31
273.785	68.31
274.017	67.31
274.249	96.31
274.481	87.31
274.713	96.31
274.945	83.31
275.176	88.31
275.408	95.31
275.64	84.31
275.872	100.31
276.104	84.31
276.335	98.31
276.567	105.31
276.799	116.31
277.031	92.31
277.262	97.31
277.494	95.31
277.726	84.31
277.957	91.31
278.189	101.31
278.421	94.31
278.652	104.31
278.884	77.31
279.115	76.31
279.347	92.31
279.579	87.31
279.81	91.31
280.042	82.31
280.273	102.31
280.505	93.31
280.736	92.31
280.968	92.31
281.199	77.31
281.431	97.31
281.662	95.31
281.894	85.31
282.125	99.31
282.356	99.31
282.588	129.31
282.819	97.31
283.051	77.31
283.282	98.31
283.513	94.31
283.745	88.31
283.976	106.31
284.207	101.31
284.439	93.31
284.67	88.31
284.901	88.31
285.132	81.31
285.364	92.31
285.595	91.31
285.826	92.31
286.057	90.31
286.288	92.31
286.52	81.31
286.751	88.31
286.982	91.31
287.213	90.31
287.444	81.31
287.675	93.31
287.906	83.31
288.138	88.31
288.369	99.31
288.6	98.31
288.831	93.31
289.062	96.31
289.293	105.31
289.524	80.31
289.755	91.31
289.986	89.31
290.217	84.31
290.448	96.31
290.679	100.31
290.91	95.31
291.141	87.31
291.371	98.31
291.602	91.31
291.833	98.31
292.064	85.31
292.295	98.31
292.526	97.31
292.757	90.31
292.987	85.31
293.218	77.31
293.449	97.31
293.68	89.31
293.91	86.31
294.141	88.31
294.372	86.31
294.603	98.31
294.833	92.31
295.064	97.31
295.295	91.31
295.525	85.31
295.756	101.31
295.987	103.31
296.217	127.31
296.448	125.31
296.679	98.31
296.909	107.31
297.14	82.31
297.37	97.31
297.601	90.31
297.831	82.31
298.062	87.31
298.292	97.31
298.523	91.31
298.753	82.31
298.984	93.31
299.214	94.31
299.445	93.31
299.675	96.31
299.905	90.31
300.136	106.31
300.366	104.31
300.597	88.31
300.827	105.31
301.057	102.31
301.288	96.31
301.518	73.31
301.748	110.31
301.979	86.31
302.209	78.31
302.439	80.31
302.669	94.31
302.9	103.31
303.13	92.31
303.36	88.31
303.59	93.31
303.82	105.31
304.051	112.31
304.281	89.31
304.511	102.31
304.741	88.31
304.971	95.31
305.201	93.31
305.431	93.31
305.661	84.31
305.891	95.31
306.121	93.31
306.352	99.31
306.582	118.31
306.812	93.31
307.042	95.31
307.272	100.31
307.502	94.31
307.731	82.31
307.961	94.31
308.191	100.31
308.421	93.31
308.651	89.31
308.881	99.31
309.111	93.31
309.341	100.31
309.571	96.31
309.8	86.31
310.03	113.31
310.26	98.31
310.49	99.31
310.72	116.31
310.949	93.31
311.179	102.31
311.409	94.31
311.639	100.31
311.868	96.31
312.098	95.31
312.328	106.31
312.557	112.31
312.787	112.31
313.017	109.31
313.246	90.31
313.476	93.31
313.706	99.31
313.935	106.31
314.165	96.31
314.394	92.31
314.624	91.31
314.853	100.31
315.083	100.31
315.312	105.31
315.542	99.31
315.771	94.31
316.001	83.31
316.23	92.31
316.46	88.31
316.689	95.31
316.919	98.31
317.148	96.31
317.377	107.31
317.607	92.31
317.836	97.31
318.065	91.31
318.295	99.31
318.524	75.31
318.753	88.31
318.983	84.31
319.212	91.31
319.441	103.31
319.67	112.31
319.9	97.31
320.129	96.31
320.358	108.31
320.587	93.31
320.816	94.31
321.046	98.31
321.275	98.31
321.504	91.31
321.733	83.31
321.962	99.31
322.191	117.31
322.42	100.31
322.649	115.31
322.878	122.31
323.108	116.31
323.337	133.31
323.566	109.31
323.795	150.31
324.024	217.31
324.253	414.31
324.482	868.31
324.71	1789.31
324.939	2301.31
325.168	864.31
325.397	259.31
325.626	166.31
325.855	137.31
326.084	128.31
326.313	133.31
326.542	169.31
326.77	243.31
326.999	493.31
327.228	1022.31
327.457	1809.31
327.686	1404.31
327.914	387.31
328.143	200.31
328.372	150.31
328.6	120.31
328.829	134.31
329.058	137.31
329.287	120.31
329.515	101.31
329.744	103.31
329.972	95.31
330.201	104.31
330.43	108.31
330.658	108.31
330.887	127.31
331.115	115.31
331.344	94.31
331.572	90.31
331.801	102.31
332.03	97.31
332.258	97.31
332.486	98.31
332.715	103.31
332.943	85.31
333.172	101.31
333.4	107.31
333.629	109.31
333.857	111.31
334.085	111.31
334.314	90.31
334.542	108.31
334.771	110.31
334.999	98.31
335.227	97.31
335.455	95.31
335.684	103.31
335.912	106.31
336.14	99.31
336.369	103.31
336.597	103.31
336.825	95.31
337.053	99.31
337.281	92.31
337.51	73.31
337.738	96.31
337.966	90.31
338.194	96.31
338.422	101.31
338.65	113.31
338.878	93.31
339.106	88.31
339.334	93.31
339.562	99.31
339.79	95.31
340.018	97.31
340.246	97.31
340.474	88.31
340.702	103.31
340.93	72.31
341.158	79.31
341.386	87.31
341.614	94.31
341.842	93.31
342.07	90.31
342.298	104.31
342.526	99.31
342.754	89.31
342.981	88.31
343.209	108.31
343.437	111.31
343.665	96.31
343.893	96.31
344.12	100.31
344.348	101.31
344.576	81.31
344.804	80.31
345.031	88.31
345.259	89.31
345.487	98.31
345.714	95.31
345.942	86.31
346.17	113.31
346.397	97.31
346.625	93.31
346.853	106.31
347.08	96.31
347.308	105.31
347.535	95.31
347.763	98.31
347.99	100.31
348.218	96.31
348.445	106.31
348.673	102.31
348.9	109.31
349.128	108.31
349.355	106.31
349.583	90.31
349.81	102.31
350.037	112.31
350.265	93.31
350.492	76.31
350.72	92.31
350.947	115.31
351.174	98.31
351.402	122.31
351.629	103.31
351.856	96.31
352.083	89.31
352.311	101.31
352.538	93.31
352.765	113.31
352.992	116.31
353.22	107.31
353.447	113.31
353.674	91.31
353.901	94.31
354.128	98.31
354.355	88.31
354.583	87.31
354.81	98.31
355.037	92.31
355.264	98.31
355.491	94.31
355.718	82.31
355.945	100.31
356.172	100.31
356.399	92.31
356.626	108.31
356.853	96.31
357.08	107.31
357.307	97.31
357.534	105.31
357.761	99.31
357.988	119.31
358.215	86.31
358.441	94.31
358.668	103.31
358.895	111.31
359.122	92.31
359.349	95.31
359.576	91.31
359.802	92.31
360.029	106.31
360.256	101.31
360.483	93.31
360.709	106.31
360.936	104.31
361.163	94.31
361.39	80.31
361.616	97.31
361.843	96.31
362.07	97.31
362.296	96.31
362.523	105.31
362.749	98.31
362.976	99.31
363.203	91.31
363.429	91.31
363.656	100.31
363.882	88.31
364.109	112.31
364.335	111.31
364.562	103.31
364.788	91.31
365.015	106.31
365.241	99.31
365.468	110.31
365.694	105.31
365.92	88.31
366.147	94.31
366.373	92.31
366.599	89.31
366.826	82.31
367.052	92.31
367.278	88.31
367.505	79.31
367.731	94.31
367.957	83.31
368.184	84.31
368.41	98.31
368.636	119.31
368.862	120.31
369.089	105.31
369.315	100.31
369.541	94.31
369.767	91.31
369.993	102.31
370.219	92.31
370.445	92.31
370.672	88.31
370.898	73.31
371.124	98.31
371.35	102.31
371.576	80.31
371.802	89.31
372.028	116.31
372.254	112.31
372.48	94.31
372.706	75.31
372.932	105.31
373.158	91.31
373.384	93.31
373.61	99.31
373.835	93.31
374.061	97.31
374.287	93.31
374.513	102.31
374.739	97.31
374.965	94.31
375.191	85.31
375.416	101.31
375.642	88.31
375.868	98.31
376.094	100.31
376.319	98.31
376.545	95.31
376.771	96.31
376.997	76.31
377.222	95.31
377.448	91.31
377.674	75.31
377.899	99.31
378.125	90.31
378.35	97.31
378.576	81.31
378.802	97.31
379.027	102.31
379.253	90.31
379.478	101.31
379.704	91.31
379.929	93.31
380.155	94.31
380.38	102.31
380.606	81.31
380.831	79.31
381.057	106.31
381.282	99.31
381.507	94.31
381.733	97.31
381.958	96.31
382.184	87.31
382.409	104.31
382.634	103.31
382.86	97.31
383.085	112.31
383.31	114.31
383.535	109.31
383.761	111.31
383.986	98.31
384.211	95.31
384.436	101.31
384.662	112.31
384.887	100.31
385.112	102.31
385.337	107.31
385.562	100.31
385.787	107.31
386.013	114.31
386.238	102.31
386.463	110.31
386.688	109.31
386.913	117.31
387.138	92.31
387.363	104.31
387.588	109.31
387.813	101.31
388.038	113.31
388.263	113.31
388.488	113.31
388.713	117.31
388.938	89.31
389.163	92.31
389.387	111.31
389.612	105.31
389.837	105.31
390.062	92.31
390.287	98.31
390.512	85.31
390.736	88.31
390.961	94.31
391.186	99.31
391.411	84.31
391.636	91.31
391.86	97.31
392.085	97.31
392.31	89.31
392.534	90.31
392.759	96.31
392.984	78.31
393.208	85.31
393.433	98.31
393.658	87.31
393.882	89.31
394.107	84.31
394.331	96.31
394.556	110.31
394.78	75.31
395.005	92.31
395.229	91.31
395.454	108.31
395.678	102.31
395.903	86.31
396.127	101.31
396.352	87.31
396.576	74.31
396.801	88.31
397.025	88.31
397.249	84.31
397.474	80.31
397.698	91.31
397.922	109.31
398.147	95.31
398.371	83.31
398.595	91.31
398.82	93.31
399.044	73.31
399.268	86.31
399.492	83.31
399.717	95.31
399.941	105.31
400.165	94.31
400.389	95.31
400.613	90.31
400.837	89.31
401.062	88.31
401.286	76.31
401.51	95.31
401.734	84.31
401.958	86.31
402.182	125.31
402.406	164.31
402.63	100.31
402.854	86.31
403.078	90.31
403.302	89.31
403.526	102.31
403.75	92.31
403.974	90.31
404.198	84.31
404.422	91.31
404.645	74.31
404.869	94.31
405.093	86.31
405.317	86.31
405.541	92.31
405.765	99.31
405.988	132.31
406.212	161.31
406.436	203.31
406.66	136.31
406.883	95.31
407.107	93.31
407.331	111.31
407.555	101.31
407.778	102.31
408.002	92.31
408.226	81.31
408.449	85.31
408.673	99.31
408.896	92.31
409.12	80.31
409.344	110.31
409.567	108.31
409.791	107.31
410.014	102.31
410.238	96.31
410.461	97.31
410.685	95.31
410.908	108.31
411.132	99.31
411.355	93.31
411.578	96.31
411.802	92.31
412.025	88.31
412.249	88.31
412.472	76.31
412.695	99.31
412.919	103.31
413.142	105.31
413.365	93.31
413.589	92.31
413.812	88.31
414.035	92.31
414.258	90.31
414.482	98.31
414.705	112.31
414.928	99.31
415.151	102.31
415.374	98.31
415.597	113.31
415.821	101.31
416.044	88.31
416.267	80.31
416.49	100.31
416.713	86.31
416.936	83.31
417.159	90.31
417.382	100.31
417.605	92.31
417.828	98.31
418.051	107.31
418.274	98.31
418.497	93.31
418.72	89.31
418.943	100.31
419.166	88.31
419.389	93.31
419.611	94.31
419.834	87.31
420.057	78.31
420.28	94.31
420.503	89.31
420.726	102.31
420.948	95.31
421.171	103.31
421.394	98.31
421.617	95.31
421.839	101.31
422.062	98.31
422.285	91.31
422.507	97.31
422.73	107.31
422.953	99.31
423.175	98.31
423.398	93.31
423.621	98.31
423.843	103.31
424.066	89.31
424.288	90.31
424.511	92.31
424.733	103.31
424.956	106.31
425.178	98.31
425.401	97.31
425.623	88.31
425.846	89.31
426.068	102.31
426.291	90.31
426.513	87.31
426.735	90.31
426.958	87.31
427.18	102.31
427.402	158.31
427.625	148.31
427.847	118.31
428.069	95.31
428.292	90.31
428.514	86.31
428.736	80.31
428.958	87.31
429.181	88.31
429.403	94.31
429.625	94.31
429.847	85.31
430.069	102.31
430.292	98.31
430.514	95.31
430.736	86.31
430.958	100.31
431.18	90.31
431.402	85.31
431.624	86.31
431.846	82.31
432.068	97.31
432.29	93.31
432.512	110.31
432.734	85.31
432.956	98.31
433.178	99.31
433.4	91.31
433.622	92.31
433.844	92.31
434.066	102.31
434.287	94.31
434.509	108.31
434.731	94.31
434.953	94.31
435.175	86.31
435.397	110.31
435.618	109.31
435.84	102.31
436.062	122.31
436.284	107.31
436.505	98.31
436.727	100.31
436.949	91.31
437.17	83.31
437.392	92.31
437.614	88.31
437.835	108.31
438.057	108.31
438.278	109.31
438.5	94.31
438.721	124.31
438.943	119.31
439.165	94.31
439.386	95.31
439.608	84.31
439.829	102.31
440.05	121.31
440.272	125.31
440.493	101.31
440.715	81.31
440.936	89.31
441.158	90.31
441.379	94.31
441.6	91.31
441.822	119.31
442.043	104.31
442.264	112.31
442.486	111.31
442.707	101.31
442.928	107.31
443.149	133.31
443.371	131.31
443.592	105.31
443.813	109.31
444.034	104.31
444.255	100.31
444.476	95.31
444.698	96.31
444.919	104.31
445.14	136.31
445.361	122.31
445.582	116.31
445.803	114.31
446.024	121.31
446.245	133.31
446.466	108.31
446.687	84.31
446.908	94.31
447.129	96.31
447.35	94.31
447.571	78.31
447.792	94.31
448.013	96.31
448.234	102.31
448.455	91.31
448.675	100.31
448.896	115.31
449.117	97.31
449.338	103.31
449.559	124.31
449.779	137.31
450	92.31
450.221	88.31
450.442	83.31
450.662	93.31
450.883	97.31
451.104	98.31
451.324	88.31
451.545	92.31
451.766	100.31
451.986	89.31
452.207	88.31
452.428	94.31
452.648	96.31
452.869	110.31
453.089	105.31
453.31	123.31
453.53	110.31
453.751	94.31
453.971	99.31
454.192	97.31
454.412	107.31
454.633	86.31
454.853	81.31
455.073	74.31
455.294	105.31
455.514	105.31
455.734	103.31
455.955	97.31
456.175	94.31
456.395	101.31
456.616	99.31
456.836	95.31
457.056	85.31
457.276	90.31
457.497	70.31
457.717	85.31
457.937	94.31
458.157	98.31
458.377	90.31
458.598	100.31
458.818	126.31
459.038	141.31
459.258	115.31
459.478	104.31
459.698	100.31
459.918	98.31
460.138	100.31
460.358	80.31
460.578	104.31
460.798	92.31
461.018	93.31
461.238	80.31
461.458	98.31
461.678	93.31
461.898	100.31
462.118	99.31
462.338	98.31
462.558	79.31
462.777	82.31
462.997	96.31
463.217	100.31
463.437	97.31
463.657	94.31
463.876	95.31
464.096	104.31
464.316	106.31
464.536	101.31
464.755	91.31
464.975	102.31
465.195	154.31
465.414	140.31
465.634	92.31
465.854	102.31
466.073	86.31
466.293	93.31
466.512	78.31
466.732	89.31
466.951	92.31
467.171	96.31
467.391	96.31
467.61	105.31
467.829	108.31
468.049	90.31
468.268	106.31
468.488	97.31
468.707	89.31
468.927	94.31
469.146	88.31
469.365	96.31
469.585	89.31
469.804	106.31
470.023	112.31
470.243	100.31
470.462	96.31
470.681	114.31
470.901	90.31
471.12	82.31
471.339	106.31
471.558	83.31
471.777	96.31
471.997	104.31
472.216	91.31
472.435	97.31
472.654	91.31
472.873	94.31
473.092	93.31
473.311	93.31
473.53	99.31
473.749	97.31
473.968	99.31
474.187	97.31
474.406	84.31
474.625	108.31
474.844	104.31
475.063	98.31
475.282	100.31
475.501	97.31
475.72	93.31
475.939	101.31
476.158	100.31
476.377	103.31
476.596	86.31
476.814	102.31
477.033	106.31
477.252	99.31
477.471	84.31
477.69	92.31
477.908	95.31
478.127	99.31
478.346	83.31
478.564	100.31
478.783	105.31
479.002	99.31
479.22	105.31
479.439	104.31
479.658	104.31
479.876	99.31
480.095	103.31
480.313	94.31
480.532	101.31
480.751	85.31
480.969	96.31
481.188	120.31
481.406	115.31
481.624	89.31
481.843	88.31
482.061	90.31
482.28	102.31
482.498	82.31
482.717	89.31
482.935	99.31
483.153	90.31
483.372	87.31
483.59	98.31
483.808	86.31
484.027	92.31
484.245	93.31
484.463	99.31
484.681	101.31
484.9	99.31
485.118	94.31
485.336	106.31
485.554	111.31
485.772	120.31
485.99	102.31
486.209	97.31
486.427	104.31
486.645	113.31
486.863	121.31
487.081	108.31
487.299	97.31
487.517	114.31
487.735	96.31
487.953	78.31
488.171	93.31
488.389	95.31
488.607	99.31
488.825	95.31
489.043	102.31
489.261	100.31
489.479	89.31
489.696	95.31
489.914	82.31
490.132	102.31
490.35	98.31
490.568	99.31
490.786	96.31
491.003	90.31
491.221	95.31
491.439	97.31
491.657	101.31
491.874	85.31
492.092	96.31
492.31	100.31
492.527	96.31
492.745	94.31
492.963	93.31
493.18	99.31
493.398	96.31
493.615	95.31
493.833	105.31
494.05	95.31
494.268	97.31
494.485	99.31
494.703	106.31
494.92	97.31
495.138	93.31
495.355	104.31
495.573	92.31
495.79	92.31
496.008	94.31
496.225	88.31
496.442	86.31
496.66	88.31
496.877	109.31
497.094	105.31
497.312	89.31
497.529	79.31
497.746	87.31
497.963	89.31
498.181	89.31
498.398	105.31
498.615	112.31
498.832	113.31
499.049	88.31
499.267	88.31
499.484	96.31
499.701	98.31
499.918	85.31
500.135	85.31
500.352	96.31
500.569	102.31
500.786	93.31
501.003	96.31
501.22	106.31
501.437	101.31
501.654	97.31
501.871	108.31
502.088	96.31
502.305	102.31
502.522	79.31
502.739	96.31
502.956	92.31
503.172	96.31
503.389	117.31
503.606	107.31
503.823	102.31
504.04	104.31
504.256	90.31
504.473	103.31
504.69	77.31
504.907	96.31
505.123	94.31
505.34	91.31
505.557	102.31
505.773	91.31
505.99	93.31
506.207	88.31
506.423	93.31
506.64	100.31
506.856	107.31
507.073	94.31
507.289	94.31
507.506	101.31
507.722	118.31
507.939	111.31
508.155	95.31
508.372	100.31
508.588	108.31
508.805	100.31
509.021	98.31
509.238	101.31
509.454	90.31
509.67	108.31
509.887	99.31
510.103	125.31
510.319	220.31
510.536	754.31
510.752	2222.31
510.968	630.31
511.184	143.31
511.401	112.31
511.617	107.31
511.833	91.31
512.049	85.31
512.265	110.31
512.481	110.31
512.698	86.31
512.914	107.31
513.13	101.31
513.346	92.31
513.562	106.31
513.778	106.31
513.994	97.31
514.21	97.31
