Data from Uncirc_1999_H10_HRD10591_00033.txt Node
Date: Wed Jan 03 11:22:11 EST 2024
User: Yrep
Spectrometer: HR+D1059
Trigger mode: 1
Integration Time (sec): 1.000000E-1
Scans to average: 1
Electric dark correction enabled: true
Nonlinearity correction enabled: false
Boxcar width: 0
XAxis mode: Wavelengths
Number of Pixels in Spectrum: 2048
>>>>>Begin Spectral Data<<<<<
223.165	-24.19
223.4	-24.19
223.635	-24.19
223.869	-22.19
224.104	-19.19
224.338	-16.19
224.573	-13.19
224.808	-19.19
225.042	-3.19
225.277	0.81
225.511	4.81
225.746	10.81
225.98	2.81
226.215	10.81
226.449	13.81
226.683	27.81
226.918	17.81
227.152	27.81
227.387	27.81
227.621	36.81
227.856	46.81
228.09	61.81
228.324	57.81
228.559	60.81
228.793	63.81
229.027	57.81
229.262	52.81
229.496	69.81
229.73	86.81
229.964	85.81
230.199	69.81
230.433	72.81
230.667	74.81
230.901	78.81
231.136	85.81
231.37	73.81
231.604	85.81
231.838	88.81
232.072	85.81
232.306	79.81
232.541	81.81
232.775	83.81
233.009	96.81
233.243	77.81
233.477	91.81
233.711	72.81
233.945	83.81
234.179	82.81
234.413	81.81
234.647	84.81
234.881	68.81
235.115	89.81
235.349	78.81
235.583	89.81
235.817	76.81
236.051	84.81
236.285	86.81
236.519	65.81
236.753	81.81
236.987	82.81
237.221	72.81
237.455	87.81
237.689	69.81
237.922	88.81
238.156	79.81
238.39	70.81
238.624	67.81
238.858	88.81
239.091	80.81
239.325	72.81
239.559	82.81
239.793	98.81
240.027	83.81
240.26	70.81
240.494	70.81
240.728	71.81
240.961	93.81
241.195	68.81
241.429	64.81
241.662	62.81
241.896	79.81
242.13	75.81
242.363	77.81
242.597	64.81
242.83	73.81
243.064	92.81
243.298	84.81
243.531	84.81
243.765	81.81
243.998	74.81
244.232	76.81
244.465	88.81
244.699	80.81
244.932	81.81
245.166	80.81
245.399	89.81
245.633	60.81
245.866	84.81
246.099	79.81
246.333	90.81
246.566	77.81
246.8	86.81
247.033	79.81
247.266	63.81
247.5	79.81
247.733	65.81
247.966	68.81
248.2	69.81
248.433	77.81
248.666	78.81
248.899	80.81
249.133	78.81
249.366	95.81
249.599	92.81
249.832	77.81
250.066	80.81
250.299	84.81
250.532	82.81
250.765	76.81
250.998	78.81
251.231	75.81
251.465	78.81
251.698	71.81
251.931	74.81
252.164	70.81
252.397	76.81
252.63	86.81
252.863	82.81
253.096	73.81
253.329	81.81
253.562	89.81
253.795	69.81
254.028	79.81
254.261	72.81
254.494	75.81
254.727	86.81
254.96	80.81
255.193	89.81
255.426	68.81
255.659	89.81
255.892	96.81
256.124	72.81
256.357	70.81
256.59	87.81
256.823	82.81
257.056	82.81
257.289	81.81
257.521	86.81
257.754	89.81
257.987	85.81
258.22	79.81
258.452	100.81
258.685	88.81
258.918	83.81
259.151	80.81
259.383	83.81
259.616	90.81
259.849	90.81
260.081	86.81
260.314	80.81
260.547	98.81
260.779	82.81
261.012	84.81
261.244	89.81
261.477	87.81
261.71	82.81
261.942	102.81
262.175	116.81
262.407	90.81
262.64	84.81
262.872	69.81
263.105	84.81
263.337	84.81
263.57	76.81
263.802	93.81
264.035	75.81
264.267	82.81
264.499	86.81
264.732	65.81
264.964	93.81
265.197	78.81
265.429	65.81
265.661	84.81
265.894	94.81
266.126	90.81
266.358	87.81
266.591	83.81
266.823	75.81
267.055	70.81
267.287	77.81
267.52	82.81
267.752	76.81
267.984	80.81
268.216	82.81
268.448	88.81
268.681	76.81
268.913	75.81
269.145	88.81
269.377	74.81
269.609	72.81
269.841	75.81
270.073	74.81
270.306	77.81
270.538	92.81
270.77	81.81
271.002	73.81
271.234	85.81
271.466	84.81
271.698	76.81
271.93	77.81
272.162	73.81
272.394	78.81
272.626	94.81
272.858	81.81
273.09	63.81
273.322	72.81
273.553	75.81
273.785	76.81
274.017	73.81
274.249	96.81
274.481	87.81
274.713	74.81
274.945	95.81
275.176	72.81
275.408	76.81
275.64	93.81
275.872	81.81
276.104	91.81
276.335	98.81
276.567	105.81
276.799	97.81
277.031	104.81
277.262	96.81
277.494	82.81
277.726	79.81
277.957	96.81
278.189	68.81
278.421	89.81
278.652	92.81
278.884	81.81
279.115	86.81
279.347	92.81
279.579	91.81
279.81	80.81
280.042	87.81
280.273	80.81
280.505	86.81
280.736	100.81
280.968	84.81
281.199	90.81
281.431	80.81
281.662	80.81
281.894	76.81
282.125	88.81
282.356	102.81
282.588	128.81
282.819	114.81
283.051	97.81
283.282	101.81
283.513	89.81
283.745	86.81
283.976	91.81
284.207	94.81
284.439	82.81
284.67	87.81
284.901	78.81
285.132	82.81
285.364	69.81
285.595	82.81
285.826	72.81
286.057	72.81
286.288	73.81
286.52	89.81
286.751	79.81
286.982	81.81
287.213	70.81
287.444	82.81
287.675	91.81
287.906	91.81
288.138	91.81
288.369	91.81
288.6	93.81
288.831	84.81
289.062	97.81
289.293	96.81
289.524	101.81
289.755	92.81
289.986	96.81
290.217	81.81
290.448	89.81
290.679	89.81
290.91	87.81
291.141	87.81
291.371	80.81
291.602	80.81
291.833	103.81
292.064	87.81
292.295	96.81
292.526	86.81
292.757	85.81
292.987	89.81
293.218	87.81
293.449	81.81
293.68	93.81
293.91	80.81
294.141	88.81
294.372	77.81
294.603	80.81
294.833	87.81
295.064	81.81
295.295	99.81
295.525	75.81
295.756	80.81
295.987	102.81
296.217	111.81
296.448	112.81
296.679	95.81
296.909	91.81
297.14	95.81
297.37	77.81
297.601	89.81
297.831	77.81
298.062	94.81
298.292	87.81
298.523	95.81
298.753	82.81
298.984	88.81
299.214	82.81
299.445	89.81
299.675	84.81
299.905	76.81
300.136	94.81
300.366	95.81
300.597	62.81
300.827	98.81
301.057	100.81
301.288	117.81
301.518	94.81
301.748	86.81
301.979	95.81
302.209	96.81
302.439	90.81
302.669	76.81
302.9	88.81
303.13	95.81
303.36	93.81
303.59	90.81
303.82	106.81
304.051	100.81
304.281	88.81
304.511	100.81
304.741	98.81
304.971	95.81
305.201	87.81
305.431	91.81
305.661	76.81
305.891	83.81
306.121	90.81
306.352	106.81
306.582	100.81
306.812	81.81
307.042	95.81
307.272	88.81
307.502	92.81
307.731	92.81
307.961	92.81
308.191	92.81
308.421	85.81
308.651	103.81
308.881	104.81
309.111	96.81
309.341	99.81
309.571	93.81
309.8	98.81
310.03	86.81
310.26	110.81
310.49	94.81
310.72	94.81
310.949	84.81
311.179	94.81
311.409	76.81
311.639	96.81
311.868	94.81
312.098	105.81
312.328	95.81
312.557	96.81
312.787	98.81
313.017	92.81
313.246	77.81
313.476	89.81
313.706	104.81
313.935	95.81
314.165	92.81
314.394	96.81
314.624	96.81
314.853	90.81
315.083	93.81
315.312	95.81
315.542	82.81
315.771	99.81
316.001	93.81
316.23	101.81
316.46	107.81
316.689	80.81
316.919	94.81
317.148	103.81
317.377	96.81
317.607	101.81
317.836	108.81
318.065	94.81
318.295	74.81
318.524	93.81
318.753	75.81
318.983	96.81
319.212	90.81
319.441	91.81
319.67	105.81
319.9	111.81
320.129	106.81
320.358	93.81
320.587	98.81
320.816	96.81
321.046	98.81
321.275	81.81
321.504	104.81
321.733	83.81
321.962	85.81
322.191	108.81
322.42	94.81
322.649	96.81
322.878	117.81
323.108	120.81
323.337	121.81
323.566	118.81
323.795	157.81
324.024	188.81
324.253	373.81
324.482	802.81
324.71	1618.81
324.939	2122.81
325.168	775.81
325.397	229.81
325.626	159.81
325.855	124.81
326.084	126.81
326.313	127.81
326.542	152.81
326.77	223.81
326.999	454.81
327.228	922.81
327.457	1644.81
327.686	1291.81
327.914	342.81
328.143	173.81
328.372	137.81
328.6	116.81
328.829	112.81
329.058	108.81
329.287	105.81
329.515	91.81
329.744	101.81
329.972	103.81
330.201	112.81
330.43	111.81
330.658	109.81
330.887	115.81
331.115	116.81
331.344	99.81
331.572	107.81
331.801	88.81
332.03	102.81
332.258	101.81
332.486	95.81
332.715	89.81
332.943	90.81
333.172	96.81
333.4	94.81
333.629	100.81
333.857	105.81
334.085	116.81
334.314	98.81
334.542	118.81
334.771	93.81
334.999	96.81
335.227	94.81
335.455	92.81
335.684	97.81
335.912	95.81
336.14	103.81
336.369	86.81
336.597	101.81
336.825	89.81
337.053	100.81
337.281	94.81
337.51	77.81
337.738	93.81
337.966	87.81
338.194	91.81
338.422	96.81
338.65	94.81
338.878	100.81
339.106	97.81
339.334	105.81
339.562	78.81
339.79	95.81
340.018	96.81
340.246	97.81
340.474	87.81
340.702	97.81
340.93	88.81
341.158	88.81
341.386	101.81
341.614	92.81
341.842	100.81
342.07	77.81
342.298	88.81
342.526	80.81
342.754	77.81
342.981	84.81
343.209	76.81
343.437	107.81
343.665	76.81
343.893	104.81
344.12	101.81
344.348	90.81
344.576	95.81
344.804	89.81
345.031	96.81
345.259	98.81
345.487	78.81
345.714	95.81
345.942	85.81
346.17	98.81
346.397	102.81
346.625	98.81
346.853	88.81
347.08	106.81
347.308	96.81
347.535	91.81
347.763	101.81
347.99	96.81
348.218	103.81
348.445	102.81
348.673	93.81
348.9	92.81
349.128	104.81
349.355	82.81
349.583	81.81
349.81	87.81
350.037	107.81
350.265	82.81
350.492	101.81
350.72	108.81
350.947	101.81
351.174	122.81
351.402	122.81
351.629	94.81
351.856	94.81
352.083	104.81
352.311	103.81
352.538	99.81
352.765	104.81
352.992	108.81
353.22	104.81
353.447	109.81
353.674	101.81
353.901	98.81
354.128	90.81
354.355	91.81
354.583	117.81
354.81	108.81
355.037	103.81
355.264	95.81
355.491	92.81
355.718	73.81
355.945	101.81
356.172	92.81
356.399	89.81
356.626	92.81
356.853	89.81
357.08	83.81
357.307	85.81
357.534	92.81
357.761	86.81
357.988	94.81
358.215	103.81
358.441	95.81
358.668	89.81
358.895	92.81
359.122	87.81
359.349	97.81
359.576	112.81
359.802	103.81
360.029	108.81
360.256	95.81
360.483	91.81
360.709	94.81
360.936	107.81
361.163	86.81
361.39	77.81
361.616	103.81
361.843	94.81
362.07	97.81
362.296	100.81
362.523	97.81
362.749	102.81
362.976	107.81
363.203	98.81
363.429	98.81
363.656	92.81
363.882	85.81
364.109	89.81
364.335	92.81
364.562	95.81
364.788	72.81
365.015	90.81
365.241	88.81
365.468	87.81
365.694	112.81
365.92	90.81
366.147	78.81
366.373	96.81
366.599	88.81
366.826	87.81
367.052	80.81
367.278	82.81
367.505	88.81
367.731	90.81
367.957	96.81
368.184	99.81
368.41	85.81
368.636	110.81
368.862	117.81
369.089	99.81
369.315	93.81
369.541	102.81
369.767	90.81
369.993	98.81
370.219	82.81
370.445	88.81
370.672	109.81
370.898	80.81
371.124	82.81
371.35	77.81
371.576	80.81
371.802	82.81
372.028	94.81
372.254	84.81
372.48	96.81
372.706	66.81
372.932	100.81
373.158	88.81
373.384	93.81
373.61	88.81
373.835	81.81
374.061	88.81
374.287	92.81
374.513	92.81
374.739	82.81
374.965	95.81
375.191	89.81
375.416	101.81
375.642	88.81
375.868	91.81
376.094	98.81
376.319	84.81
376.545	77.81
376.771	98.81
376.997	85.81
377.222	85.81
377.448	102.81
377.674	80.81
377.899	86.81
378.125	85.81
378.35	89.81
378.576	94.81
378.802	103.81
379.027	93.81
379.253	97.81
379.478	99.81
379.704	99.81
379.929	102.81
380.155	107.81
380.38	106.81
380.606	108.81
380.831	93.81
381.057	97.81
381.282	87.81
381.507	102.81
381.733	97.81
381.958	87.81
382.184	97.81
382.409	95.81
382.634	94.81
382.86	104.81
383.085	98.81
383.31	93.81
383.535	91.81
383.761	100.81
383.986	108.81
384.211	117.81
384.436	100.81
384.662	115.81
384.887	107.81
385.112	110.81
385.337	127.81
385.562	109.81
385.787	122.81
386.013	114.81
386.238	119.81
386.463	98.81
386.688	111.81
386.913	109.81
387.138	116.81
387.363	111.81
387.588	102.81
387.813	102.81
388.038	106.81
388.263	111.81
388.488	121.81
388.713	100.81
388.938	110.81
389.163	112.81
389.387	102.81
389.612	98.81
389.837	90.81
390.062	80.81
390.287	92.81
390.512	105.81
390.736	95.81
390.961	101.81
391.186	108.81
391.411	105.81
391.636	82.81
391.86	88.81
392.085	103.81
392.31	85.81
392.534	86.81
392.759	90.81
392.984	82.81
393.208	89.81
393.433	93.81
393.658	71.81
393.882	84.81
394.107	88.81
394.331	92.81
394.556	79.81
394.78	91.81
395.005	97.81
395.229	89.81
395.454	97.81
395.678	76.81
395.903	76.81
396.127	87.81
396.352	79.81
396.576	86.81
396.801	108.81
397.025	84.81
397.249	100.81
397.474	93.81
397.698	94.81
397.922	88.81
398.147	74.81
398.371	90.81
398.595	92.81
398.82	89.81
399.044	80.81
399.268	84.81
399.492	91.81
399.717	92.81
399.941	76.81
400.165	103.81
400.389	96.81
400.613	91.81
400.837	93.81
401.062	90.81
401.286	90.81
401.51	89.81
401.734	88.81
401.958	93.81
402.182	131.81
402.406	138.81
402.63	120.81
402.854	89.81
403.078	105.81
403.302	93.81
403.526	84.81
403.75	76.81
403.974	90.81
404.198	106.81
404.422	92.81
404.645	85.81
404.869	85.81
405.093	91.81
405.317	97.81
405.541	85.81
405.765	82.81
405.988	98.81
406.212	162.81
406.436	208.81
406.66	137.81
406.883	104.81
407.107	92.81
407.331	85.81
407.555	99.81
407.778	75.81
408.002	93.81
408.226	86.81
408.449	93.81
408.673	78.81
408.896	90.81
409.12	90.81
409.344	79.81
409.567	89.81
409.791	76.81
410.014	93.81
410.238	88.81
410.461	95.81
410.685	100.81
410.908	99.81
411.132	103.81
411.355	106.81
411.578	81.81
411.802	85.81
412.025	98.81
412.249	92.81
412.472	99.81
412.695	90.81
412.919	94.81
413.142	80.81
413.365	85.81
413.589	93.81
413.812	88.81
414.035	84.81
414.258	97.81
414.482	102.81
414.705	80.81
414.928	100.81
415.151	87.81
415.374	92.81
415.597	93.81
415.821	106.81
416.044	90.81
416.267	83.81
416.49	93.81
416.713	86.81
416.936	89.81
417.159	85.81
417.382	94.81
417.605	95.81
417.828	89.81
418.051	93.81
418.274	88.81
418.497	92.81
418.72	87.81
418.943	100.81
419.166	88.81
419.389	98.81
419.611	92.81
419.834	96.81
420.057	81.81
420.28	97.81
420.503	79.81
420.726	92.81
420.948	91.81
421.171	81.81
421.394	101.81
421.617	90.81
421.839	96.81
422.062	102.81
422.285	85.81
422.507	92.81
422.73	99.81
422.953	90.81
423.175	72.81
423.398	98.81
423.621	95.81
423.843	91.81
424.066	88.81
424.288	101.81
424.511	80.81
424.733	95.81
424.956	98.81
425.178	98.81
425.401	98.81
425.623	98.81
425.846	108.81
426.068	96.81
426.291	98.81
426.513	99.81
426.735	87.81
426.958	69.81
427.18	110.81
427.402	117.81
427.625	135.81
427.847	114.81
428.069	126.81
428.292	98.81
428.514	92.81
428.736	86.81
428.958	71.81
429.181	82.81
429.403	86.81
429.625	105.81
429.847	82.81
430.069	107.81
430.292	102.81
430.514	96.81
430.736	92.81
430.958	78.81
431.18	81.81
431.402	78.81
431.624	76.81
431.846	85.81
432.068	80.81
432.29	76.81
432.512	63.81
432.734	90.81
432.956	81.81
433.178	96.81
433.4	105.81
433.622	80.81
433.844	80.81
434.066	97.81
434.287	88.81
434.509	87.81
434.731	94.81
434.953	101.81
435.175	88.81
435.397	87.81
435.618	105.81
435.84	104.81
436.062	111.81
436.284	100.81
436.505	93.81
436.727	109.81
436.949	95.81
437.17	97.81
437.392	90.81
437.614	92.81
437.835	104.81
438.057	112.81
438.278	102.81
438.5	92.81
438.721	124.81
438.943	92.81
439.165	93.81
439.386	83.81
439.608	105.81
439.829	101.81
440.05	112.81
440.272	126.81
440.493	84.81
440.715	85.81
440.936	97.81
441.158	95.81
441.379	85.81
441.6	96.81
441.822	90.81
442.043	94.81
442.264	86.81
442.486	91.81
442.707	87.81
442.928	102.81
443.149	128.81
443.371	102.81
443.592	98.81
443.813	100.81
444.034	102.81
444.255	79.81
444.476	86.81
444.698	86.81
444.919	92.81
445.14	137.81
445.361	114.81
445.582	106.81
445.803	129.81
446.024	125.81
446.245	111.81
446.466	107.81
446.687	92.81
446.908	87.81
447.129	98.81
447.35	84.81
447.571	94.81
447.792	86.81
448.013	99.81
448.234	110.81
448.455	90.81
448.675	112.81
448.896	125.81
449.117	78.81
449.338	94.81
449.559	112.81
449.779	121.81
450	92.81
450.221	85.81
450.442	84.81
450.662	86.81
450.883	92.81
451.104	100.81
451.324	93.81
451.545	88.81
451.766	94.81
451.986	82.81
452.207	88.81
452.428	96.81
452.648	87.81
452.869	110.81
453.089	105.81
453.31	112.81
453.53	93.81
453.751	91.81
453.971	87.81
454.192	105.81
454.412	76.81
454.633	75.81
454.853	95.81
455.073	86.81
455.294	76.81
455.514	94.81
455.734	85.81
455.955	79.81
456.175	94.81
456.395	88.81
456.616	81.81
456.836	79.81
457.056	94.81
457.276	100.81
457.497	86.81
457.717	69.81
457.937	87.81
458.157	99.81
458.377	79.81
458.598	100.81
458.818	132.81
459.038	136.81
459.258	98.81
459.478	76.81
459.698	79.81
459.918	86.81
460.138	85.81
460.358	81.81
460.578	76.81
460.798	78.81
461.018	85.81
461.238	96.81
461.458	92.81
461.678	93.81
461.898	70.81
462.118	94.81
462.338	101.81
462.558	88.81
462.777	86.81
462.997	82.81
463.217	82.81
463.437	97.81
463.657	91.81
463.876	77.81
464.096	93.81
464.316	83.81
464.536	98.81
464.755	96.81
464.975	101.81
465.195	151.81
465.414	130.81
465.634	87.81
465.854	102.81
466.073	65.81
466.293	78.81
466.512	95.81
466.732	78.81
466.951	81.81
467.171	96.81
467.391	86.81
467.61	98.81
467.829	99.81
468.049	99.81
468.268	102.81
468.488	91.81
468.707	83.81
468.927	97.81
469.146	92.81
469.365	97.81
469.585	79.81
469.804	102.81
470.023	94.81
470.243	80.81
470.462	97.81
470.681	93.81
470.901	75.81
471.12	72.81
471.339	80.81
471.558	76.81
471.777	88.81
471.997	84.81
472.216	89.81
472.435	101.81
472.654	95.81
472.873	92.81
473.092	86.81
473.311	87.81
473.53	92.81
473.749	81.81
473.968	74.81
474.187	92.81
474.406	81.81
474.625	87.81
474.844	77.81
475.063	82.81
475.282	82.81
475.501	90.81
475.72	95.81
475.939	85.81
476.158	92.81
476.377	77.81
476.596	77.81
476.814	88.81
477.033	84.81
477.252	90.81
477.471	86.81
477.69	89.81
477.908	80.81
478.127	76.81
478.346	83.81
478.564	87.81
478.783	97.81
479.002	95.81
479.22	90.81
479.439	105.81
479.658	110.81
479.876	95.81
480.095	82.81
480.313	90.81
480.532	81.81
480.751	95.81
480.969	97.81
481.188	122.81
481.406	102.81
481.624	84.81
481.843	84.81
482.061	96.81
482.28	86.81
482.498	105.81
482.717	98.81
482.935	90.81
483.153	85.81
483.372	84.81
483.59	91.81
483.808	91.81
484.027	87.81
484.245	87.81
484.463	90.81
484.681	109.81
484.9	87.81
485.118	88.81
485.336	97.81
485.554	96.81
485.772	101.81
485.99	97.81
486.209	88.81
486.427	119.81
486.645	106.81
486.863	117.81
487.081	100.81
487.299	92.81
487.517	101.81
487.735	98.81
487.953	94.81
488.171	84.81
488.389	80.81
488.607	89.81
488.825	78.81
489.043	82.81
489.261	97.81
489.479	101.81
489.696	92.81
489.914	89.81
490.132	95.81
490.35	109.81
490.568	90.81
490.786	78.81
491.003	89.81
491.221	93.81
491.439	83.81
491.657	101.81
491.874	90.81
492.092	91.81
492.31	80.81
492.527	76.81
492.745	78.81
492.963	81.81
493.18	84.81
493.398	97.81
493.615	84.81
493.833	108.81
494.05	95.81
494.268	97.81
494.485	94.81
494.703	92.81
494.92	89.81
495.138	93.81
495.355	98.81
495.573	97.81
495.79	105.81
496.008	96.81
496.225	84.81
496.442	83.81
496.66	96.81
496.877	87.81
497.094	81.81
497.312	101.81
497.529	98.81
497.746	89.81
497.963	100.81
498.181	96.81
498.398	96.81
498.615	99.81
498.832	99.81
499.049	101.81
499.267	89.81
499.484	98.81
499.701	86.81
499.918	97.81
500.135	97.81
500.352	80.81
500.569	87.81
500.786	87.81
501.003	92.81
501.22	100.81
501.437	97.81
501.654	92.81
501.871	99.81
502.088	101.81
502.305	92.81
502.522	97.81
502.739	93.81
502.956	78.81
503.172	84.81
503.389	93.81
503.606	101.81
503.823	94.81
504.04	82.81
504.256	77.81
504.473	74.81
504.69	84.81
504.907	89.81
505.123	77.81
505.34	95.81
505.557	93.81
505.773	104.81
505.99	85.81
506.207	86.81
506.423	103.81
506.64	87.81
506.856	93.81
507.073	84.81
507.289	91.81
507.506	101.81
507.722	103.81
507.939	93.81
508.155	97.81
508.372	104.81
508.588	97.81
508.805	87.81
509.021	95.81
509.238	93.81
509.454	101.81
509.67	99.81
509.887	98.81
510.103	125.81
510.319	209.81
510.536	711.81
510.752	2150.81
510.968	599.81
511.184	137.81
511.401	113.81
511.617	97.81
511.833	87.81
512.049	107.81
512.265	85.81
512.481	97.81
512.698	97.81
512.914	94.81
513.13	88.81
513.346	88.81
513.562	105.81
513.778	88.81
513.994	94.81
514.21	115.81
514.426	111.81
514.642	120.81
514.858	112.81
515.074	149.81
515.29	382.81
515.506	1243.81
515.721	485.81
515.937	135.81
