Data from Uncirc_1999_H10_HRD10591_00062.txt Node
Date: Wed Jan 03 11:22:17 EST 2024
User: Yrep
Spectrometer: HR+D1059
Trigger mode: 1
Integration Time (sec): 1.000000E-1
Scans to average: 1
Electric dark correction enabled: true
Nonlinearity correction enabled: false
Boxcar width: 0
XAxis mode: Wavelengths
Number of Pixels in Spectrum: 2048
>>>>>Begin Spectral Data<<<<<
223.165	-25.81
223.4	-25.81
223.635	-25.81
223.869	-18.81
224.104	-14.81
224.338	-11.81
224.573	-15.81
224.808	-6.81
225.042	-12.81
225.277	-5.81
225.511	-9.81
225.746	4.19
225.98	9.19
226.215	11.19
226.449	19.19
226.683	22.19
226.918	30.19
227.152	26.19
227.387	29.19
227.621	41.19
227.856	38.19
228.09	46.19
228.324	46.19
228.559	62.19
228.793	61.19
229.027	78.19
229.262	58.19
229.496	75.19
229.73	72.19
229.964	82.19
230.199	68.19
230.433	72.19
230.667	85.19
230.901	90.19
231.136	89.19
231.37	96.19
231.604	88.19
231.838	84.19
232.072	85.19
232.306	90.19
232.541	76.19
232.775	74.19
233.009	68.19
233.243	82.19
233.477	94.19
233.711	97.19
233.945	80.19
234.179	75.19
234.413	97.19
234.647	85.19
234.881	89.19
235.115	84.19
235.349	67.19
235.583	78.19
235.817	88.19
236.051	78.19
236.285	77.19
236.519	83.19
236.753	83.19
236.987	80.19
237.221	82.19
237.455	73.19
237.689	78.19
237.922	75.19
238.156	74.19
238.39	83.19
238.624	90.19
238.858	97.19
239.091	77.19
239.325	68.19
239.559	86.19
239.793	63.19
240.027	92.19
240.26	84.19
240.494	84.19
240.728	91.19
240.961	78.19
241.195	67.19
241.429	84.19
241.662	96.19
241.896	83.19
242.13	78.19
242.363	90.19
242.597	78.19
242.83	72.19
243.064	83.19
243.298	74.19
243.531	85.19
243.765	78.19
243.998	84.19
244.232	93.19
244.465	98.19
244.699	68.19
244.932	77.19
245.166	88.19
245.399	81.19
245.633	82.19
245.866	75.19
246.099	85.19
246.333	72.19
246.566	80.19
246.8	94.19
247.033	66.19
247.266	96.19
247.5	80.19
247.733	84.19
247.966	70.19
248.2	78.19
248.433	79.19
248.666	95.19
248.899	79.19
249.133	80.19
249.366	99.19
249.599	91.19
249.832	81.19
250.066	74.19
250.299	77.19
250.532	81.19
250.765	80.19
250.998	80.19
251.231	91.19
251.465	75.19
251.698	91.19
251.931	88.19
252.164	80.19
252.397	74.19
252.63	75.19
252.863	90.19
253.096	86.19
253.329	99.19
253.562	91.19
253.795	95.19
254.028	65.19
254.261	90.19
254.494	84.19
254.727	93.19
254.96	84.19
255.193	90.19
255.426	78.19
255.659	81.19
255.892	83.19
256.124	82.19
256.357	94.19
256.59	98.19
256.823	96.19
257.056	92.19
257.289	80.19
257.521	80.19
257.754	93.19
257.987	92.19
258.22	80.19
258.452	93.19
258.685	82.19
258.918	89.19
259.151	83.19
259.383	88.19
259.616	102.19
259.849	86.19
260.081	90.19
260.314	81.19
260.547	90.19
260.779	86.19
261.012	87.19
261.244	79.19
261.477	93.19
261.71	88.19
261.942	120.19
262.175	124.19
262.407	100.19
262.64	81.19
262.872	77.19
263.105	86.19
263.337	85.19
263.57	86.19
263.802	84.19
264.035	87.19
264.267	96.19
264.499	80.19
264.732	82.19
264.964	89.19
265.197	89.19
265.429	85.19
265.661	90.19
265.894	83.19
266.126	89.19
266.358	90.19
266.591	97.19
266.823	84.19
267.055	83.19
267.287	87.19
267.52	101.19
267.752	82.19
267.984	85.19
268.216	72.19
268.448	81.19
268.681	88.19
268.913	82.19
269.145	90.19
269.377	79.19
269.609	87.19
269.841	97.19
270.073	74.19
270.306	87.19
270.538	91.19
270.77	102.19
271.002	95.19
271.234	84.19
271.466	102.19
271.698	108.19
271.93	90.19
272.162	94.19
272.394	99.19
272.626	86.19
272.858	82.19
273.09	74.19
273.322	90.19
273.553	96.19
273.785	94.19
274.017	101.19
274.249	91.19
274.481	89.19
274.713	93.19
274.945	89.19
275.176	90.19
275.408	90.19
275.64	91.19
275.872	84.19
276.104	81.19
276.335	85.19
276.567	98.19
276.799	100.19
277.031	97.19
277.262	86.19
277.494	85.19
277.726	93.19
277.957	87.19
278.189	79.19
278.421	88.19
278.652	93.19
278.884	94.19
279.115	94.19
279.347	81.19
279.579	79.19
279.81	86.19
280.042	89.19
280.273	92.19
280.505	90.19
280.736	84.19
280.968	97.19
281.199	89.19
281.431	97.19
281.662	97.19
281.894	99.19
282.125	92.19
282.356	97.19
282.588	109.19
282.819	116.19
283.051	97.19
283.282	90.19
283.513	96.19
283.745	96.19
283.976	106.19
284.207	88.19
284.439	99.19
284.67	105.19
284.901	86.19
285.132	82.19
285.364	91.19
285.595	101.19
285.826	89.19
286.057	83.19
286.288	96.19
286.52	81.19
286.751	84.19
286.982	86.19
287.213	89.19
287.444	95.19
287.675	92.19
287.906	82.19
288.138	93.19
288.369	111.19
288.6	95.19
288.831	105.19
289.062	88.19
289.293	97.19
289.524	107.19
289.755	97.19
289.986	101.19
290.217	79.19
290.448	80.19
290.679	91.19
290.91	88.19
291.141	86.19
291.371	90.19
291.602	105.19
291.833	95.19
292.064	87.19
292.295	85.19
292.526	90.19
292.757	99.19
292.987	101.19
293.218	87.19
293.449	95.19
293.68	98.19
293.91	99.19
294.141	93.19
294.372	88.19
294.603	90.19
294.833	81.19
295.064	83.19
295.295	103.19
295.525	93.19
295.756	103.19
295.987	144.19
296.217	127.19
296.448	119.19
296.679	90.19
296.909	83.19
297.14	82.19
297.37	88.19
297.601	86.19
297.831	107.19
298.062	88.19
298.292	92.19
298.523	95.19
298.753	96.19
298.984	112.19
299.214	96.19
299.445	97.19
299.675	95.19
299.905	93.19
300.136	85.19
300.366	95.19
300.597	91.19
300.827	91.19
301.057	99.19
301.288	108.19
301.518	111.19
301.748	92.19
301.979	102.19
302.209	91.19
302.439	92.19
302.669	99.19
302.9	94.19
303.13	91.19
303.36	103.19
303.59	100.19
303.82	103.19
304.051	106.19
304.281	88.19
304.511	98.19
304.741	90.19
304.971	85.19
305.201	74.19
305.431	80.19
305.661	91.19
305.891	105.19
306.121	82.19
306.352	91.19
306.582	122.19
306.812	101.19
307.042	100.19
307.272	97.19
307.502	94.19
307.731	82.19
307.961	85.19
308.191	104.19
308.421	96.19
308.651	100.19
308.881	99.19
309.111	102.19
309.341	101.19
309.571	99.19
309.8	107.19
310.03	99.19
310.26	98.19
310.49	97.19
310.72	102.19
310.949	102.19
311.179	92.19
311.409	94.19
311.639	99.19
311.868	100.19
312.098	92.19
312.328	112.19
312.557	92.19
312.787	111.19
313.017	101.19
313.246	73.19
313.476	96.19
313.706	92.19
313.935	92.19
314.165	95.19
314.394	101.19
314.624	83.19
314.853	97.19
315.083	93.19
315.312	109.19
315.542	109.19
315.771	98.19
316.001	113.19
316.23	116.19
316.46	99.19
316.689	101.19
316.919	98.19
317.148	104.19
317.377	100.19
317.607	98.19
317.836	101.19
318.065	99.19
318.295	97.19
318.524	99.19
318.753	98.19
318.983	92.19
319.212	98.19
319.441	105.19
319.67	106.19
319.9	89.19
320.129	100.19
320.358	93.19
320.587	93.19
320.816	106.19
321.046	98.19
321.275	110.19
321.504	100.19
321.733	100.19
321.962	108.19
322.191	113.19
322.42	85.19
322.649	128.19
322.878	114.19
323.108	115.19
323.337	125.19
323.566	128.19
323.795	160.19
324.024	216.19
324.253	402.19
324.482	850.19
324.71	1796.19
324.939	2316.19
325.168	837.19
325.397	242.19
325.626	150.19
325.855	117.19
326.084	128.19
326.313	145.19
326.542	156.19
326.77	246.19
326.999	486.19
327.228	992.19
327.457	1803.19
327.686	1428.19
327.914	375.19
328.143	184.19
328.372	144.19
328.6	129.19
328.829	111.19
329.058	119.19
329.287	126.19
329.515	121.19
329.744	117.19
329.972	96.19
330.201	99.19
330.43	121.19
330.658	115.19
330.887	113.19
331.115	108.19
331.344	93.19
331.572	96.19
331.801	107.19
332.03	90.19
332.258	94.19
332.486	84.19
332.715	110.19
332.943	93.19
333.172	106.19
333.4	101.19
333.629	109.19
333.857	106.19
334.085	105.19
334.314	109.19
334.542	109.19
334.771	97.19
334.999	92.19
335.227	93.19
335.455	102.19
335.684	111.19
335.912	104.19
336.14	97.19
336.369	96.19
336.597	97.19
336.825	117.19
337.053	97.19
337.281	105.19
337.51	105.19
337.738	93.19
337.966	112.19
338.194	113.19
338.422	90.19
338.65	88.19
338.878	94.19
339.106	101.19
339.334	92.19
339.562	101.19
339.79	93.19
340.018	102.19
340.246	104.19
340.474	102.19
340.702	107.19
340.93	109.19
341.158	94.19
341.386	102.19
341.614	103.19
341.842	94.19
342.07	86.19
342.298	97.19
342.526	91.19
342.754	95.19
342.981	102.19
343.209	105.19
343.437	108.19
343.665	83.19
343.893	104.19
344.12	90.19
344.348	108.19
344.576	90.19
344.804	90.19
345.031	100.19
345.259	98.19
345.487	102.19
345.714	104.19
345.942	97.19
346.17	84.19
346.397	101.19
346.625	100.19
346.853	92.19
347.08	92.19
347.308	101.19
347.535	106.19
347.763	93.19
347.99	99.19
348.218	110.19
348.445	97.19
348.673	97.19
348.9	102.19
349.128	100.19
349.355	102.19
349.583	102.19
349.81	100.19
350.037	104.19
350.265	108.19
350.492	109.19
350.72	91.19
350.947	97.19
351.174	105.19
351.402	112.19
351.629	94.19
351.856	111.19
352.083	91.19
352.311	83.19
352.538	107.19
352.765	121.19
352.992	115.19
353.22	126.19
353.447	95.19
353.674	100.19
353.901	100.19
354.128	108.19
354.355	97.19
354.583	104.19
354.81	102.19
355.037	101.19
355.264	108.19
355.491	90.19
355.718	96.19
355.945	98.19
356.172	102.19
356.399	86.19
356.626	91.19
356.853	102.19
357.08	89.19
357.307	99.19
357.534	117.19
357.761	100.19
357.988	80.19
358.215	101.19
358.441	92.19
358.668	110.19
358.895	113.19
359.122	104.19
359.349	91.19
359.576	95.19
359.802	94.19
360.029	108.19
360.256	115.19
360.483	98.19
360.709	92.19
360.936	98.19
361.163	86.19
361.39	96.19
361.616	100.19
361.843	87.19
362.07	92.19
362.296	111.19
362.523	90.19
362.749	91.19
362.976	102.19
363.203	100.19
363.429	88.19
363.656	104.19
363.882	93.19
364.109	95.19
364.335	91.19
364.562	81.19
364.788	91.19
365.015	117.19
365.241	98.19
365.468	115.19
365.694	120.19
365.92	94.19
366.147	93.19
366.373	102.19
366.599	84.19
366.826	96.19
367.052	98.19
367.278	90.19
367.505	88.19
367.731	89.19
367.957	95.19
368.184	91.19
368.41	96.19
368.636	109.19
368.862	129.19
369.089	116.19
369.315	110.19
369.541	93.19
369.767	102.19
369.993	98.19
370.219	95.19
370.445	97.19
370.672	100.19
370.898	96.19
371.124	94.19
371.35	84.19
371.576	98.19
371.802	108.19
372.028	88.19
372.254	101.19
372.48	92.19
372.706	105.19
372.932	87.19
373.158	89.19
373.384	96.19
373.61	99.19
373.835	84.19
374.061	102.19
374.287	84.19
374.513	84.19
374.739	91.19
374.965	88.19
375.191	84.19
375.416	82.19
375.642	104.19
375.868	96.19
376.094	82.19
376.319	95.19
376.545	103.19
376.771	99.19
376.997	92.19
377.222	98.19
377.448	101.19
377.674	107.19
377.899	106.19
378.125	99.19
378.35	98.19
378.576	98.19
378.802	97.19
379.027	90.19
379.253	106.19
379.478	98.19
379.704	105.19
379.929	96.19
380.155	88.19
380.38	108.19
380.606	99.19
380.831	91.19
381.057	114.19
381.282	91.19
381.507	116.19
381.733	106.19
381.958	104.19
382.184	93.19
382.409	95.19
382.634	106.19
382.86	80.19
383.085	95.19
383.31	100.19
383.535	112.19
383.761	106.19
383.986	85.19
384.211	94.19
384.436	106.19
384.662	111.19
384.887	112.19
385.112	100.19
385.337	108.19
385.562	104.19
385.787	111.19
386.013	118.19
386.238	107.19
386.463	97.19
386.688	122.19
386.913	97.19
387.138	125.19
387.363	98.19
387.588	99.19
387.813	111.19
388.038	126.19
388.263	103.19
388.488	124.19
388.713	92.19
388.938	100.19
389.163	107.19
389.387	103.19
389.612	99.19
389.837	100.19
390.062	96.19
390.287	108.19
390.512	96.19
390.736	104.19
390.961	90.19
391.186	82.19
391.411	112.19
391.636	108.19
391.86	97.19
392.085	92.19
392.31	106.19
392.534	99.19
392.759	73.19
392.984	92.19
393.208	93.19
393.433	100.19
393.658	83.19
393.882	90.19
394.107	98.19
394.331	92.19
394.556	98.19
394.78	102.19
395.005	90.19
395.229	84.19
395.454	87.19
395.678	111.19
395.903	82.19
396.127	81.19
396.352	97.19
396.576	79.19
396.801	92.19
397.025	95.19
397.249	94.19
397.474	78.19
397.698	90.19
397.922	96.19
398.147	101.19
398.371	93.19
398.595	85.19
398.82	87.19
399.044	85.19
399.268	96.19
399.492	94.19
399.717	103.19
399.941	95.19
400.165	99.19
400.389	95.19
400.613	82.19
400.837	94.19
401.062	97.19
401.286	83.19
401.51	100.19
401.734	96.19
401.958	97.19
402.182	110.19
402.406	153.19
402.63	108.19
402.854	105.19
403.078	94.19
403.302	100.19
403.526	109.19
403.75	100.19
403.974	104.19
404.198	91.19
404.422	99.19
404.645	87.19
404.869	95.19
405.093	94.19
405.317	90.19
405.541	104.19
405.765	103.19
405.988	101.19
406.212	158.19
406.436	200.19
406.66	132.19
406.883	99.19
407.107	97.19
407.331	97.19
407.555	92.19
407.778	90.19
408.002	93.19
408.226	100.19
408.449	101.19
408.673	90.19
408.896	102.19
409.12	98.19
409.344	98.19
409.567	100.19
409.791	101.19
410.014	101.19
410.238	108.19
410.461	96.19
410.685	88.19
410.908	98.19
411.132	97.19
411.355	97.19
411.578	99.19
411.802	84.19
412.025	83.19
412.249	90.19
412.472	110.19
412.695	92.19
412.919	84.19
413.142	85.19
413.365	101.19
413.589	90.19
413.812	85.19
414.035	107.19
414.258	80.19
414.482	91.19
414.705	85.19
414.928	95.19
415.151	100.19
415.374	99.19
415.597	89.19
415.821	92.19
416.044	93.19
416.267	84.19
416.49	93.19
416.713	88.19
416.936	91.19
417.159	112.19
417.382	101.19
417.605	96.19
417.828	86.19
418.051	85.19
418.274	97.19
418.497	87.19
418.72	102.19
418.943	87.19
419.166	89.19
419.389	95.19
419.611	83.19
419.834	88.19
420.057	90.19
420.28	97.19
420.503	90.19
420.726	104.19
420.948	83.19
421.171	98.19
421.394	86.19
421.617	104.19
421.839	96.19
422.062	98.19
422.285	112.19
422.507	106.19
422.73	123.19
422.953	92.19
423.175	93.19
423.398	98.19
423.621	90.19
423.843	92.19
424.066	89.19
424.288	86.19
424.511	81.19
424.733	91.19
424.956	101.19
425.178	94.19
425.401	95.19
425.623	94.19
425.846	76.19
426.068	102.19
426.291	100.19
426.513	89.19
426.735	113.19
426.958	96.19
427.18	112.19
427.402	131.19
427.625	155.19
427.847	115.19
428.069	97.19
428.292	100.19
428.514	96.19
428.736	98.19
428.958	84.19
429.181	83.19
429.403	84.19
429.625	85.19
429.847	81.19
430.069	94.19
430.292	86.19
430.514	77.19
430.736	93.19
430.958	89.19
431.18	89.19
431.402	77.19
431.624	82.19
431.846	94.19
432.068	92.19
432.29	95.19
432.512	94.19
432.734	84.19
432.956	85.19
433.178	101.19
433.4	92.19
433.622	86.19
433.844	101.19
434.066	76.19
434.287	86.19
434.509	79.19
434.731	104.19
434.953	91.19
435.175	82.19
435.397	90.19
435.618	91.19
435.84	94.19
436.062	117.19
436.284	117.19
436.505	96.19
436.727	108.19
436.949	95.19
437.17	92.19
437.392	90.19
437.614	104.19
437.835	100.19
438.057	108.19
438.278	112.19
438.5	104.19
438.721	115.19
438.943	98.19
439.165	94.19
439.386	94.19
439.608	96.19
439.829	91.19
440.05	110.19
440.272	140.19
440.493	110.19
440.715	96.19
440.936	101.19
441.158	90.19
441.379	94.19
441.6	90.19
441.822	102.19
442.043	108.19
442.264	90.19
442.486	88.19
442.707	97.19
442.928	109.19
443.149	122.19
443.371	123.19
443.592	106.19
443.813	116.19
444.034	113.19
444.255	91.19
444.476	88.19
444.698	90.19
444.919	93.19
445.14	138.19
445.361	129.19
445.582	100.19
445.803	139.19
446.024	137.19
446.245	133.19
446.466	104.19
446.687	90.19
446.908	73.19
447.129	86.19
447.35	98.19
447.571	100.19
447.792	93.19
448.013	99.19
448.234	88.19
448.455	92.19
448.675	103.19
448.896	118.19
449.117	113.19
449.338	112.19
449.559	127.19
449.779	132.19
450	94.19
450.221	101.19
450.442	91.19
450.662	99.19
450.883	96.19
451.104	103.19
451.324	104.19
451.545	82.19
451.766	88.19
451.986	87.19
452.207	88.19
452.428	105.19
452.648	82.19
452.869	103.19
453.089	102.19
453.31	109.19
453.53	92.19
453.751	91.19
453.971	103.19
454.192	82.19
454.412	79.19
454.633	94.19
454.853	91.19
455.073	79.19
455.294	101.19
455.514	90.19
455.734	91.19
455.955	79.19
456.175	85.19
456.395	93.19
456.616	89.19
456.836	91.19
457.056	93.19
457.276	75.19
457.497	100.19
457.717	91.19
457.937	91.19
458.157	95.19
458.377	104.19
458.598	111.19
458.818	130.19
459.038	127.19
459.258	118.19
459.478	88.19
459.698	92.19
459.918	88.19
460.138	90.19
460.358	90.19
460.578	90.19
460.798	84.19
461.018	93.19
461.238	92.19
461.458	92.19
461.678	84.19
461.898	82.19
462.118	97.19
462.338	88.19
462.558	96.19
462.777	85.19
462.997	91.19
463.217	77.19
463.437	84.19
463.657	73.19
463.876	90.19
464.096	77.19
464.316	96.19
464.536	102.19
464.755	91.19
464.975	94.19
465.195	155.19
465.414	138.19
465.634	97.19
465.854	85.19
466.073	86.19
466.293	95.19
466.512	76.19
466.732	93.19
466.951	91.19
467.171	91.19
467.391	87.19
467.61	106.19
467.829	92.19
468.049	94.19
468.268	85.19
468.488	95.19
468.707	87.19
468.927	92.19
469.146	94.19
469.365	95.19
469.585	88.19
469.804	101.19
470.023	98.19
470.243	97.19
470.462	100.19
470.681	108.19
470.901	94.19
471.12	81.19
471.339	103.19
471.558	103.19
471.777	91.19
471.997	95.19
472.216	90.19
472.435	96.19
472.654	85.19
472.873	83.19
473.092	70.19
473.311	67.19
473.53	88.19
473.749	92.19
473.968	100.19
474.187	100.19
474.406	99.19
474.625	94.19
474.844	90.19
475.063	97.19
475.282	90.19
475.501	92.19
475.72	91.19
475.939	90.19
476.158	84.19
476.377	95.19
476.596	100.19
476.814	108.19
477.033	103.19
477.252	91.19
477.471	98.19
477.69	103.19
477.908	91.19
478.127	91.19
478.346	93.19
478.564	98.19
478.783	96.19
479.002	96.19
479.22	97.19
479.439	109.19
479.658	109.19
479.876	97.19
480.095	93.19
480.313	93.19
480.532	97.19
480.751	88.19
480.969	96.19
481.188	120.19
481.406	108.19
481.624	99.19
481.843	111.19
482.061	99.19
482.28	96.19
482.498	102.19
482.717	86.19
482.935	101.19
483.153	97.19
483.372	95.19
483.59	104.19
483.808	96.19
484.027	110.19
484.245	91.19
484.463	100.19
484.681	93.19
484.9	98.19
485.118	96.19
485.336	106.19
485.554	96.19
485.772	116.19
485.99	108.19
486.209	118.19
486.427	97.19
486.645	98.19
486.863	98.19
487.081	106.19
487.299	106.19
487.517	100.19
487.735	94.19
487.953	95.19
488.171	99.19
488.389	105.19
488.607	95.19
488.825	88.19
489.043	96.19
489.261	101.19
489.479	93.19
489.696	90.19
489.914	99.19
490.132	96.19
490.35	99.19
490.568	102.19
490.786	83.19
491.003	91.19
491.221	98.19
491.439	96.19
491.657	85.19
491.874	99.19
492.092	101.19
492.31	90.19
492.527	91.19
492.745	87.19
492.963	95.19
493.18	93.19
493.398	102.19
493.615	102.19
493.833	106.19
494.05	94.19
494.268	91.19
494.485	114.19
494.703	94.19
494.92	93.19
495.138	89.19
495.355	99.19
495.573	110.19
495.79	89.19
496.008	90.19
496.225	96.19
496.442	101.19
496.66	94.19
496.877	107.19
497.094	96.19
497.312	92.19
497.529	84.19
497.746	101.19
497.963	106.19
498.181	99.19
498.398	92.19
498.615	118.19
498.832	108.19
499.049	100.19
499.267	103.19
499.484	100.19
499.701	103.19
499.918	84.19
500.135	101.19
500.352	96.19
500.569	107.19
500.786	108.19
501.003	102.19
501.22	96.19
501.437	86.19
501.654	105.19
501.871	100.19
502.088	109.19
502.305	97.19
502.522	99.19
502.739	88.19
502.956	93.19
503.172	111.19
503.389	97.19
503.606	93.19
503.823	98.19
504.04	95.19
504.256	99.19
504.473	88.19
504.69	80.19
504.907	103.19
505.123	86.19
505.34	104.19
505.557	106.19
505.773	96.19
505.99	97.19
506.207	102.19
506.423	93.19
506.64	91.19
506.856	93.19
507.073	97.19
507.289	88.19
507.506	99.19
507.722	94.19
507.939	106.19
508.155	92.19
508.372	92.19
508.588	96.19
508.805	109.19
509.021	84.19
509.238	100.19
509.454	91.19
509.67	119.19
509.887	123.19
510.103	129.19
510.319	201.19
510.536	714.19
510.752	2210.19
510.968	624.19
511.184	145.19
511.401	110.19
511.617	105.19
511.833	106.19
512.049	89.19
512.265	102.19
512.481	99.19
512.698	92.19
512.914	107.19
513.13	68.19
513.346	95.19
513.562	104.19
513.778	96.19
513.994	104.19
