Data from Uncirc_1999_H10_HRD10591_00030.txt Node
Date: Wed Jan 03 11:22:11 EST 2024
User: Yrep
Spectrometer: HR+D1059
Trigger mode: 1
Integration Time (sec): 1.000000E-1
Scans to average: 1
Electric dark correction enabled: true
Nonlinearity correction enabled: false
Boxcar width: 0
XAxis mode: Wavelengths
Number of Pixels in Spectrum: 2048
>>>>>Begin Spectral Data<<<<<
223.165	-24.56
223.4	-24.56
223.635	-24.56
223.869	-17.56
224.104	-18.56
224.338	-19.56
224.573	-20.56
224.808	-26.56
225.042	-9.56
225.277	-9.56
225.511	2.44
225.746	15.44
225.98	16.44
226.215	8.44
226.449	6.44
226.683	38.44
226.918	17.44
227.152	41.44
227.387	39.44
227.621	38.44
227.856	45.44
228.09	44.44
228.324	42.44
228.559	50.44
228.793	53.44
229.027	46.44
229.262	53.44
229.496	72.44
229.73	74.44
229.964	59.44
230.199	76.44
230.433	60.44
230.667	55.44
230.901	75.44
231.136	65.44
231.37	70.44
231.604	70.44
231.838	77.44
232.072	89.44
232.306	79.44
232.541	80.44
232.775	73.44
233.009	71.44
233.243	93.44
233.477	88.44
233.711	90.44
233.945	71.44
234.179	74.44
234.413	58.44
234.647	61.44
234.881	56.44
235.115	77.44
235.349	86.44
235.583	75.44
235.817	72.44
236.051	69.44
236.285	66.44
236.519	78.44
236.753	75.44
236.987	72.44
237.221	71.44
237.455	77.44
237.689	57.44
237.922	78.44
238.156	77.44
238.39	71.44
238.624	74.44
238.858	69.44
239.091	85.44
239.325	77.44
239.559	62.44
239.793	76.44
240.027	70.44
240.26	80.44
240.494	75.44
240.728	74.44
240.961	68.44
241.195	71.44
241.429	87.44
241.662	77.44
241.896	59.44
242.13	66.44
242.363	75.44
242.597	66.44
242.83	76.44
243.064	65.44
243.298	78.44
243.531	76.44
243.765	70.44
243.998	85.44
244.232	73.44
244.465	86.44
244.699	79.44
244.932	63.44
245.166	77.44
245.399	84.44
245.633	72.44
245.866	97.44
246.099	80.44
246.333	94.44
246.566	69.44
246.8	63.44
247.033	71.44
247.266	65.44
247.5	62.44
247.733	78.44
247.966	66.44
248.2	83.44
248.433	81.44
248.666	66.44
248.899	72.44
249.133	73.44
249.366	79.44
249.599	99.44
249.832	70.44
250.066	89.44
250.299	57.44
250.532	74.44
250.765	75.44
250.998	79.44
251.231	59.44
251.465	76.44
251.698	71.44
251.931	57.44
252.164	82.44
252.397	90.44
252.63	73.44
252.863	60.44
253.096	76.44
253.329	86.44
253.562	61.44
253.795	81.44
254.028	81.44
254.261	66.44
254.494	69.44
254.727	91.44
254.96	62.44
255.193	74.44
255.426	62.44
255.659	86.44
255.892	81.44
256.124	74.44
256.357	88.44
256.59	92.44
256.823	80.44
257.056	83.44
257.289	75.44
257.521	77.44
257.754	75.44
257.987	94.44
258.22	81.44
258.452	86.44
258.685	77.44
258.918	86.44
259.151	60.44
259.383	89.44
259.616	86.44
259.849	82.44
260.081	89.44
260.314	82.44
260.547	75.44
260.779	77.44
261.012	74.44
261.244	82.44
261.477	93.44
261.71	81.44
261.942	90.44
262.175	98.44
262.407	74.44
262.64	85.44
262.872	67.44
263.105	83.44
263.337	76.44
263.57	98.44
263.802	84.44
264.035	81.44
264.267	80.44
264.499	84.44
264.732	88.44
264.964	81.44
265.197	76.44
265.429	70.44
265.661	74.44
265.894	77.44
266.126	88.44
266.358	79.44
266.591	88.44
266.823	71.44
267.055	82.44
267.287	101.44
267.52	76.44
267.752	79.44
267.984	75.44
268.216	84.44
268.448	76.44
268.681	89.44
268.913	74.44
269.145	77.44
269.377	70.44
269.609	84.44
269.841	71.44
270.073	87.44
270.306	60.44
270.538	79.44
270.77	70.44
271.002	78.44
271.234	77.44
271.466	82.44
271.698	73.44
271.93	74.44
272.162	94.44
272.394	81.44
272.626	53.44
272.858	81.44
273.09	80.44
273.322	71.44
273.553	71.44
273.785	87.44
274.017	77.44
274.249	83.44
274.481	85.44
274.713	82.44
274.945	87.44
275.176	84.44
275.408	73.44
275.64	78.44
275.872	95.44
276.104	83.44
276.335	94.44
276.567	105.44
276.799	111.44
277.031	99.44
277.262	88.44
277.494	75.44
277.726	86.44
277.957	86.44
278.189	78.44
278.421	86.44
278.652	100.44
278.884	80.44
279.115	86.44
279.347	75.44
279.579	81.44
279.81	84.44
280.042	82.44
280.273	85.44
280.505	83.44
280.736	86.44
280.968	91.44
281.199	80.44
281.431	83.44
281.662	84.44
281.894	73.44
282.125	91.44
282.356	115.44
282.588	116.44
282.819	101.44
283.051	80.44
283.282	77.44
283.513	83.44
283.745	71.44
283.976	83.44
284.207	94.44
284.439	83.44
284.67	73.44
284.901	84.44
285.132	74.44
285.364	73.44
285.595	92.44
285.826	91.44
286.057	91.44
286.288	94.44
286.52	85.44
286.751	95.44
286.982	88.44
287.213	90.44
287.444	82.44
287.675	98.44
287.906	84.44
288.138	88.44
288.369	92.44
288.6	80.44
288.831	77.44
289.062	91.44
289.293	75.44
289.524	71.44
289.755	83.44
289.986	91.44
290.217	88.44
290.448	92.44
290.679	94.44
290.91	87.44
291.141	84.44
291.371	87.44
291.602	74.44
291.833	81.44
292.064	78.44
292.295	78.44
292.526	96.44
292.757	85.44
292.987	69.44
293.218	85.44
293.449	93.44
293.68	94.44
293.91	75.44
294.141	86.44
294.372	79.44
294.603	84.44
294.833	100.44
295.064	85.44
295.295	99.44
295.525	104.44
295.756	100.44
295.987	100.44
296.217	125.44
296.448	124.44
296.679	94.44
296.909	80.44
297.14	77.44
297.37	81.44
297.601	89.44
297.831	88.44
298.062	90.44
298.292	86.44
298.523	83.44
298.753	76.44
298.984	92.44
299.214	98.44
299.445	79.44
299.675	89.44
299.905	88.44
300.136	93.44
300.366	94.44
300.597	94.44
300.827	92.44
301.057	82.44
301.288	87.44
301.518	91.44
301.748	77.44
301.979	94.44
302.209	87.44
302.439	91.44
302.669	85.44
302.9	78.44
303.13	94.44
303.36	88.44
303.59	93.44
303.82	100.44
304.051	86.44
304.281	87.44
304.511	93.44
304.741	85.44
304.971	87.44
305.201	88.44
305.431	85.44
305.661	87.44
305.891	97.44
306.121	89.44
306.352	99.44
306.582	98.44
306.812	77.44
307.042	86.44
307.272	96.44
307.502	92.44
307.731	89.44
307.961	76.44
308.191	77.44
308.421	81.44
308.651	94.44
308.881	92.44
309.111	116.44
309.341	98.44
309.571	103.44
309.8	101.44
310.03	87.44
310.26	93.44
310.49	91.44
310.72	93.44
310.949	95.44
311.179	97.44
311.409	94.44
311.639	94.44
311.868	89.44
312.098	103.44
312.328	97.44
312.557	94.44
312.787	103.44
313.017	90.44
313.246	83.44
313.476	93.44
313.706	91.44
313.935	91.44
314.165	93.44
314.394	101.44
314.624	82.44
314.853	95.44
315.083	93.44
315.312	83.44
315.542	85.44
315.771	85.44
316.001	94.44
316.23	81.44
316.46	85.44
316.689	118.44
316.919	89.44
317.148	95.44
317.377	92.44
317.607	88.44
317.836	85.44
318.065	91.44
318.295	90.44
318.524	78.44
318.753	95.44
318.983	93.44
319.212	102.44
319.441	97.44
319.67	77.44
319.9	99.44
320.129	94.44
320.358	97.44
320.587	89.44
320.816	99.44
321.046	97.44
321.275	88.44
321.504	90.44
321.733	91.44
321.962	80.44
322.191	86.44
322.42	99.44
322.649	116.44
322.878	103.44
323.108	124.44
323.337	113.44
323.566	119.44
323.795	120.44
324.024	208.44
324.253	405.44
324.482	817.44
324.71	1707.44
324.939	2204.44
325.168	819.44
325.397	242.44
325.626	155.44
325.855	106.44
326.084	124.44
326.313	131.44
326.542	149.44
326.77	220.44
326.999	449.44
327.228	951.44
327.457	1737.44
327.686	1392.44
327.914	365.44
328.143	173.44
328.372	126.44
328.6	116.44
328.829	117.44
329.058	126.44
329.287	105.44
329.515	115.44
329.744	99.44
329.972	101.44
330.201	103.44
330.43	107.44
330.658	113.44
330.887	124.44
331.115	111.44
331.344	90.44
331.572	102.44
331.801	106.44
332.03	113.44
332.258	88.44
332.486	99.44
332.715	81.44
332.943	82.44
333.172	91.44
333.4	88.44
333.629	87.44
333.857	102.44
334.085	89.44
334.314	105.44
334.542	108.44
334.771	95.44
334.999	83.44
335.227	93.44
335.455	91.44
335.684	98.44
335.912	73.44
336.14	103.44
336.369	95.44
336.597	96.44
336.825	91.44
337.053	90.44
337.281	84.44
337.51	86.44
337.738	84.44
337.966	95.44
338.194	90.44
338.422	86.44
338.65	98.44
338.878	98.44
339.106	80.44
339.334	84.44
339.562	79.44
339.79	104.44
340.018	83.44
340.246	90.44
340.474	92.44
340.702	97.44
340.93	90.44
341.158	97.44
341.386	96.44
341.614	79.44
341.842	99.44
342.07	88.44
342.298	86.44
342.526	90.44
342.754	91.44
342.981	77.44
343.209	85.44
343.437	77.44
343.665	82.44
343.893	94.44
344.12	88.44
344.348	94.44
344.576	77.44
344.804	99.44
345.031	89.44
345.259	88.44
345.487	91.44
345.714	81.44
345.942	95.44
346.17	78.44
346.397	101.44
346.625	84.44
346.853	99.44
347.08	82.44
347.308	104.44
347.535	94.44
347.763	93.44
347.99	90.44
348.218	93.44
348.445	106.44
348.673	101.44
348.9	87.44
349.128	95.44
349.355	111.44
349.583	85.44
349.81	88.44
350.037	93.44
350.265	99.44
350.492	92.44
350.72	95.44
350.947	103.44
351.174	81.44
351.402	90.44
351.629	93.44
351.856	89.44
352.083	102.44
352.311	113.44
352.538	94.44
352.765	108.44
352.992	108.44
353.22	95.44
353.447	101.44
353.674	83.44
353.901	89.44
354.128	87.44
354.355	98.44
354.583	90.44
354.81	98.44
355.037	89.44
355.264	103.44
355.491	107.44
355.718	97.44
355.945	81.44
356.172	80.44
356.399	92.44
356.626	93.44
356.853	87.44
357.08	94.44
357.307	92.44
357.534	93.44
357.761	83.44
357.988	89.44
358.215	92.44
358.441	92.44
358.668	92.44
358.895	94.44
359.122	91.44
359.349	81.44
359.576	103.44
359.802	84.44
360.029	92.44
360.256	92.44
360.483	93.44
360.709	90.44
360.936	113.44
361.163	89.44
361.39	88.44
361.616	91.44
361.843	93.44
362.07	98.44
362.296	88.44
362.523	92.44
362.749	92.44
362.976	106.44
363.203	90.44
363.429	79.44
363.656	80.44
363.882	90.44
364.109	87.44
364.335	92.44
364.562	93.44
364.788	87.44
365.015	101.44
365.241	94.44
365.468	99.44
365.694	101.44
365.92	86.44
366.147	101.44
366.373	84.44
366.599	85.44
366.826	86.44
367.052	98.44
367.278	90.44
367.505	94.44
367.731	87.44
367.957	94.44
368.184	101.44
368.41	101.44
368.636	113.44
368.862	114.44
369.089	106.44
369.315	96.44
369.541	102.44
369.767	86.44
369.993	94.44
370.219	81.44
370.445	93.44
370.672	92.44
370.898	87.44
371.124	83.44
371.35	87.44
371.576	87.44
371.802	78.44
372.028	81.44
372.254	74.44
372.48	81.44
372.706	89.44
372.932	87.44
373.158	85.44
373.384	76.44
373.61	84.44
373.835	85.44
374.061	78.44
374.287	83.44
374.513	83.44
374.739	87.44
374.965	94.44
375.191	91.44
375.416	80.44
375.642	81.44
375.868	74.44
376.094	90.44
376.319	82.44
376.545	100.44
376.771	84.44
376.997	93.44
377.222	90.44
377.448	94.44
377.674	89.44
377.899	85.44
378.125	102.44
378.35	100.44
378.576	92.44
378.802	89.44
379.027	86.44
379.253	73.44
379.478	84.44
379.704	87.44
379.929	87.44
380.155	89.44
380.38	87.44
380.606	95.44
380.831	95.44
381.057	101.44
381.282	79.44
381.507	105.44
381.733	92.44
381.958	90.44
382.184	94.44
382.409	95.44
382.634	102.44
382.86	98.44
383.085	99.44
383.31	105.44
383.535	116.44
383.761	115.44
383.986	101.44
384.211	93.44
384.436	91.44
384.662	101.44
384.887	98.44
385.112	124.44
385.337	103.44
385.562	113.44
385.787	108.44
386.013	93.44
386.238	113.44
386.463	123.44
386.688	120.44
386.913	113.44
387.138	125.44
387.363	113.44
387.588	101.44
387.813	87.44
388.038	118.44
388.263	113.44
388.488	124.44
388.713	95.44
388.938	96.44
389.163	99.44
389.387	103.44
389.612	98.44
389.837	96.44
390.062	78.44
390.287	82.44
390.512	92.44
390.736	90.44
390.961	85.44
391.186	105.44
391.411	83.44
391.636	91.44
391.86	90.44
392.085	82.44
392.31	87.44
392.534	84.44
392.759	94.44
392.984	81.44
393.208	79.44
393.433	97.44
393.658	89.44
393.882	83.44
394.107	91.44
394.331	77.44
394.556	79.44
394.78	90.44
395.005	93.44
395.229	77.44
395.454	78.44
395.678	93.44
395.903	83.44
396.127	96.44
396.352	102.44
396.576	82.44
396.801	92.44
397.025	80.44
397.249	83.44
397.474	97.44
397.698	81.44
397.922	76.44
398.147	91.44
398.371	80.44
398.595	91.44
398.82	73.44
399.044	86.44
399.268	89.44
399.492	80.44
399.717	88.44
399.941	107.44
400.165	100.44
400.389	95.44
400.613	97.44
400.837	84.44
401.062	78.44
401.286	86.44
401.51	78.44
401.734	101.44
401.958	100.44
402.182	114.44
402.406	136.44
402.63	108.44
402.854	85.44
403.078	59.44
403.302	94.44
403.526	74.44
403.75	82.44
403.974	87.44
404.198	86.44
404.422	93.44
404.645	88.44
404.869	66.44
405.093	80.44
405.317	100.44
405.541	92.44
405.765	94.44
405.988	112.44
406.212	137.44
406.436	200.44
406.66	114.44
406.883	89.44
407.107	80.44
407.331	93.44
407.555	93.44
407.778	79.44
408.002	89.44
408.226	91.44
408.449	88.44
408.673	90.44
408.896	92.44
409.12	91.44
409.344	82.44
409.567	82.44
409.791	98.44
410.014	95.44
410.238	96.44
410.461	80.44
410.685	84.44
410.908	88.44
411.132	97.44
411.355	96.44
411.578	98.44
411.802	88.44
412.025	84.44
412.249	91.44
412.472	80.44
412.695	78.44
412.919	109.44
413.142	89.44
413.365	84.44
413.589	90.44
413.812	82.44
414.035	94.44
414.258	76.44
414.482	74.44
414.705	89.44
414.928	103.44
415.151	112.44
415.374	99.44
415.597	85.44
415.821	86.44
416.044	81.44
416.267	79.44
416.49	78.44
416.713	81.44
416.936	79.44
417.159	89.44
417.382	86.44
417.605	85.44
417.828	93.44
418.051	81.44
418.274	94.44
418.497	92.44
418.72	95.44
418.943	79.44
419.166	94.44
419.389	102.44
419.611	90.44
419.834	71.44
420.057	88.44
420.28	78.44
420.503	68.44
420.726	78.44
420.948	69.44
421.171	98.44
421.394	91.44
421.617	72.44
421.839	81.44
422.062	86.44
422.285	75.44
422.507	100.44
422.73	95.44
422.953	81.44
423.175	99.44
423.398	95.44
423.621	77.44
423.843	87.44
424.066	88.44
424.288	68.44
424.511	79.44
424.733	92.44
424.956	108.44
425.178	88.44
425.401	99.44
425.623	98.44
425.846	102.44
426.068	82.44
426.291	83.44
426.513	76.44
426.735	92.44
426.958	90.44
427.18	98.44
427.402	120.44
427.625	135.44
427.847	113.44
428.069	97.44
428.292	80.44
428.514	81.44
428.736	80.44
428.958	93.44
429.181	87.44
429.403	90.44
429.625	74.44
429.847	79.44
430.069	85.44
430.292	90.44
430.514	85.44
430.736	92.44
430.958	82.44
431.18	75.44
431.402	78.44
431.624	87.44
431.846	89.44
432.068	74.44
432.29	81.44
432.512	84.44
432.734	82.44
432.956	85.44
433.178	98.44
433.4	95.44
433.622	99.44
433.844	83.44
434.066	87.44
434.287	92.44
434.509	92.44
434.731	86.44
434.953	85.44
435.175	75.44
435.397	92.44
435.618	100.44
435.84	83.44
436.062	109.44
436.284	106.44
436.505	96.44
436.727	94.44
436.949	82.44
437.17	95.44
437.392	84.44
437.614	81.44
437.835	94.44
438.057	100.44
438.278	84.44
438.5	101.44
438.721	115.44
438.943	95.44
439.165	75.44
439.386	93.44
439.608	82.44
439.829	94.44
440.05	103.44
440.272	132.44
440.493	97.44
440.715	93.44
440.936	92.44
441.158	74.44
441.379	83.44
441.6	77.44
441.822	91.44
442.043	95.44
442.264	91.44
442.486	95.44
442.707	84.44
442.928	94.44
443.149	125.44
443.371	119.44
443.592	95.44
443.813	103.44
444.034	102.44
444.255	91.44
444.476	95.44
444.698	74.44
444.919	101.44
445.14	131.44
445.361	113.44
445.582	99.44
445.803	107.44
446.024	136.44
446.245	101.44
446.466	105.44
446.687	73.44
446.908	99.44
447.129	88.44
447.35	79.44
447.571	94.44
447.792	80.44
448.013	91.44
448.234	97.44
448.455	87.44
448.675	111.44
448.896	108.44
449.117	101.44
449.338	79.44
449.559	113.44
449.779	124.44
450	82.44
450.221	79.44
450.442	97.44
450.662	98.44
450.883	98.44
451.104	89.44
451.324	75.44
451.545	102.44
451.766	85.44
451.986	79.44
452.207	83.44
452.428	81.44
452.648	94.44
452.869	104.44
453.089	106.44
453.31	115.44
453.53	104.44
453.751	85.44
453.971	86.44
454.192	95.44
454.412	90.44
454.633	83.44
454.853	83.44
455.073	82.44
455.294	85.44
455.514	91.44
455.734	91.44
455.955	82.44
456.175	82.44
456.395	75.44
456.616	90.44
456.836	90.44
457.056	79.44
457.276	75.44
457.497	89.44
457.717	85.44
457.937	87.44
458.157	83.44
458.377	80.44
458.598	100.44
458.818	118.44
459.038	139.44
459.258	110.44
459.478	74.44
459.698	83.44
459.918	85.44
460.138	70.44
460.358	76.44
460.578	86.44
460.798	80.44
461.018	83.44
461.238	84.44
461.458	88.44
461.678	92.44
461.898	79.44
462.118	74.44
462.338	85.44
462.558	85.44
462.777	85.44
462.997	82.44
463.217	83.44
463.437	75.44
463.657	105.44
463.876	81.44
464.096	77.44
464.316	86.44
464.536	83.44
464.755	79.44
464.975	109.44
465.195	132.44
465.414	147.44
465.634	86.44
465.854	76.44
466.073	72.44
466.293	90.44
466.512	82.44
466.732	89.44
466.951	85.44
467.171	91.44
467.391	91.44
467.61	86.44
467.829	92.44
468.049	91.44
468.268	76.44
468.488	73.44
468.707	71.44
468.927	80.44
469.146	75.44
469.365	77.44
469.585	99.44
469.804	92.44
470.023	83.44
470.243	90.44
470.462	89.44
470.681	100.44
470.901	83.44
471.12	85.44
471.339	83.44
471.558	81.44
471.777	101.44
471.997	77.44
472.216	99.44
472.435	88.44
472.654	75.44
472.873	72.44
473.092	98.44
473.311	72.44
473.53	90.44
473.749	81.44
473.968	65.44
474.187	89.44
474.406	90.44
474.625	87.44
474.844	76.44
475.063	82.44
475.282	83.44
475.501	83.44
475.72	104.44
475.939	93.44
476.158	76.44
476.377	86.44
476.596	81.44
476.814	89.44
477.033	88.44
477.252	79.44
477.471	90.44
477.69	89.44
477.908	91.44
478.127	75.44
478.346	87.44
478.564	80.44
478.783	91.44
479.002	76.44
479.22	82.44
479.439	99.44
479.658	94.44
479.876	87.44
480.095	92.44
480.313	93.44
480.532	82.44
480.751	74.44
480.969	93.44
481.188	104.44
481.406	115.44
481.624	85.44
481.843	101.44
482.061	74.44
482.28	89.44
482.498	89.44
482.717	97.44
482.935	84.44
483.153	79.44
483.372	78.44
483.59	90.44
483.808	81.44
484.027	88.44
484.245	102.44
484.463	83.44
484.681	81.44
484.9	81.44
485.118	99.44
485.336	86.44
485.554	97.44
485.772	98.44
485.99	96.44
486.209	91.44
486.427	89.44
486.645	90.44
486.863	94.44
487.081	102.44
487.299	98.44
487.517	88.44
487.735	75.44
487.953	94.44
488.171	98.44
488.389	92.44
488.607	92.44
488.825	89.44
489.043	83.44
489.261	82.44
489.479	89.44
489.696	93.44
489.914	86.44
490.132	94.44
490.35	75.44
490.568	103.44
490.786	87.44
491.003	92.44
491.221	98.44
491.439	75.44
491.657	87.44
491.874	81.44
492.092	87.44
492.31	83.44
492.527	92.44
492.745	78.44
492.963	95.44
493.18	87.44
493.398	95.44
493.615	95.44
493.833	99.44
494.05	94.44
494.268	101.44
494.485	83.44
494.703	93.44
494.92	94.44
495.138	84.44
495.355	67.44
495.573	90.44
495.79	82.44
496.008	87.44
496.225	89.44
496.442	95.44
496.66	91.44
496.877	94.44
497.094	89.44
497.312	92.44
497.529	91.44
497.746	90.44
497.963	91.44
498.181	88.44
498.398	96.44
498.615	86.44
498.832	95.44
499.049	98.44
499.267	88.44
499.484	85.44
499.701	83.44
499.918	89.44
500.135	90.44
500.352	93.44
500.569	92.44
500.786	92.44
501.003	91.44
501.22	84.44
501.437	77.44
501.654	92.44
501.871	92.44
502.088	87.44
502.305	103.44
502.522	97.44
502.739	90.44
502.956	86.44
503.172	94.44
503.389	101.44
503.606	98.44
503.823	87.44
504.04	73.44
504.256	99.44
504.473	82.44
504.69	85.44
504.907	77.44
505.123	69.44
505.34	84.44
505.557	87.44
505.773	88.44
505.99	85.44
506.207	89.44
506.423	84.44
506.64	88.44
506.856	83.44
507.073	90.44
507.289	92.44
507.506	89.44
507.722	110.44
507.939	101.44
508.155	91.44
508.372	81.44
508.588	85.44
508.805	86.44
509.021	83.44
509.238	91.44
509.454	113.44
509.67	97.44
509.887	106.44
510.103	111.44
510.319	197.44
510.536	693.44
510.752	2146.44
510.968	613.44
511.184	156.44
511.401	109.44
511.617	93.44
511.833	97.44
512.049	86.44
512.265	95.44
512.481	87.44
512.698	81.44
512.914	84.44
513.13	86.44
513.346	91.44
513.562	92.44
513.778	92.44
513.994	101.44
514.21	107.44
514.426	110.44
514.642	120.44
514.858	117.44
515.074	138.44
515.29	389.44
515.506	1248.44
515.721	463.44
515.937	131.44
516.153	106.44
516.369	89.44
516.585	103.44
516.801	90.44
517.016	98.44
