Data from Uncirc_1999_H10_HRD10591_00013.txt Node
Date: Wed Jan 03 11:22:07 EST 2024
User: Yrep
Spectrometer: HR+D1059
Trigger mode: 1
Integration Time (sec): 1.000000E-1
Scans to average: 1
Electric dark correction enabled: true
Nonlinearity correction enabled: false
Boxcar width: 0
XAxis mode: Wavelengths
Number of Pixels in Spectrum: 2048
>>>>>Begin Spectral Data<<<<<
223.165	-12.5
223.4	-12.5
223.635	-12.5
223.869	-2.5
224.104	-27.5
224.338	-26.5
224.573	-30.5
224.808	-14.5
225.042	-7.5
225.277	-5.5
225.511	8.5
225.746	8.5
225.98	14.5
226.215	7.5
226.449	17.5
226.683	16.5
226.918	25.5
227.152	28.5
227.387	31.5
227.621	32.5
227.856	32.5
228.09	65.5
228.324	41.5
228.559	37.5
228.793	43.5
229.027	63.5
229.262	60.5
229.496	71.5
229.73	73.5
229.964	70.5
230.199	71.5
230.433	88.5
230.667	70.5
230.901	80.5
231.136	75.5
231.37	79.5
231.604	73.5
231.838	84.5
232.072	83.5
232.306	77.5
232.541	78.5
232.775	62.5
233.009	63.5
233.243	73.5
233.477	77.5
233.711	73.5
233.945	91.5
234.179	77.5
234.413	80.5
234.647	75.5
234.881	81.5
235.115	78.5
235.349	65.5
235.583	80.5
235.817	96.5
236.051	80.5
236.285	73.5
236.519	76.5
236.753	60.5
236.987	79.5
237.221	77.5
237.455	83.5
237.689	73.5
237.922	87.5
238.156	79.5
238.39	85.5
238.624	81.5
238.858	77.5
239.091	67.5
239.325	58.5
239.559	78.5
239.793	84.5
240.027	65.5
240.26	79.5
240.494	75.5
240.728	71.5
240.961	75.5
241.195	61.5
241.429	71.5
241.662	78.5
241.896	88.5
242.13	87.5
242.363	73.5
242.597	82.5
242.83	62.5
243.064	85.5
243.298	84.5
243.531	76.5
243.765	75.5
243.998	68.5
244.232	74.5
244.465	78.5
244.699	86.5
244.932	79.5
245.166	73.5
245.399	73.5
245.633	72.5
245.866	68.5
246.099	75.5
246.333	93.5
246.566	76.5
246.8	72.5
247.033	79.5
247.266	60.5
247.5	85.5
247.733	74.5
247.966	91.5
248.2	76.5
248.433	97.5
248.666	75.5
248.899	80.5
249.133	89.5
249.366	82.5
249.599	83.5
249.832	79.5
250.066	87.5
250.299	87.5
250.532	80.5
250.765	81.5
250.998	91.5
251.231	80.5
251.465	70.5
251.698	76.5
251.931	85.5
252.164	83.5
252.397	73.5
252.63	89.5
252.863	90.5
253.096	77.5
253.329	71.5
253.562	64.5
253.795	89.5
254.028	74.5
254.261	74.5
254.494	74.5
254.727	74.5
254.96	77.5
255.193	95.5
255.426	76.5
255.659	84.5
255.892	79.5
256.124	91.5
256.357	79.5
256.59	76.5
256.823	78.5
257.056	67.5
257.289	74.5
257.521	82.5
257.754	78.5
257.987	87.5
258.22	79.5
258.452	86.5
258.685	89.5
258.918	84.5
259.151	79.5
259.383	83.5
259.616	67.5
259.849	75.5
260.081	76.5
260.314	79.5
260.547	80.5
260.779	83.5
261.012	83.5
261.244	84.5
261.477	86.5
261.71	84.5
261.942	87.5
262.175	105.5
262.407	94.5
262.64	90.5
262.872	90.5
263.105	79.5
263.337	88.5
263.57	79.5
263.802	79.5
264.035	74.5
264.267	64.5
264.499	83.5
264.732	81.5
264.964	79.5
265.197	64.5
265.429	61.5
265.661	76.5
265.894	79.5
266.126	79.5
266.358	102.5
266.591	87.5
266.823	89.5
267.055	81.5
267.287	80.5
267.52	83.5
267.752	78.5
267.984	78.5
268.216	69.5
268.448	71.5
268.681	69.5
268.913	84.5
269.145	83.5
269.377	73.5
269.609	97.5
269.841	80.5
270.073	71.5
270.306	73.5
270.538	84.5
270.77	84.5
271.002	75.5
271.234	78.5
271.466	85.5
271.698	78.5
271.93	67.5
272.162	79.5
272.394	79.5
272.626	75.5
272.858	88.5
273.09	73.5
273.322	86.5
273.553	83.5
273.785	83.5
274.017	83.5
274.249	79.5
274.481	93.5
274.713	83.5
274.945	76.5
275.176	80.5
275.408	75.5
275.64	81.5
275.872	83.5
276.104	80.5
276.335	81.5
276.567	98.5
276.799	103.5
277.031	82.5
277.262	71.5
277.494	97.5
277.726	83.5
277.957	87.5
278.189	79.5
278.421	77.5
278.652	82.5
278.884	91.5
279.115	73.5
279.347	81.5
279.579	90.5
279.81	84.5
280.042	73.5
280.273	85.5
280.505	94.5
280.736	90.5
280.968	79.5
281.199	81.5
281.431	77.5
281.662	86.5
281.894	75.5
282.125	95.5
282.356	97.5
282.588	109.5
282.819	103.5
283.051	80.5
283.282	90.5
283.513	89.5
283.745	94.5
283.976	83.5
284.207	82.5
284.439	91.5
284.67	79.5
284.901	92.5
285.132	88.5
285.364	77.5
285.595	89.5
285.826	83.5
286.057	78.5
286.288	77.5
286.52	87.5
286.751	76.5
286.982	79.5
287.213	82.5
287.444	84.5
287.675	87.5
287.906	95.5
288.138	97.5
288.369	85.5
288.6	84.5
288.831	85.5
289.062	91.5
289.293	92.5
289.524	79.5
289.755	78.5
289.986	82.5
290.217	77.5
290.448	84.5
290.679	85.5
290.91	84.5
291.141	84.5
291.371	88.5
291.602	91.5
291.833	73.5
292.064	97.5
292.295	94.5
292.526	90.5
292.757	89.5
292.987	90.5
293.218	94.5
293.449	86.5
293.68	75.5
293.91	78.5
294.141	82.5
294.372	83.5
294.603	90.5
294.833	80.5
295.064	80.5
295.295	96.5
295.525	93.5
295.756	88.5
295.987	112.5
296.217	115.5
296.448	103.5
296.679	91.5
296.909	93.5
297.14	66.5
297.37	78.5
297.601	93.5
297.831	85.5
298.062	89.5
298.292	89.5
298.523	83.5
298.753	81.5
298.984	97.5
299.214	81.5
299.445	86.5
299.675	90.5
299.905	97.5
300.136	80.5
300.366	66.5
300.597	81.5
300.827	89.5
301.057	75.5
301.288	88.5
301.518	100.5
301.748	86.5
301.979	108.5
302.209	94.5
302.439	98.5
302.669	85.5
302.9	90.5
303.13	95.5
303.36	88.5
303.59	95.5
303.82	95.5
304.051	97.5
304.281	83.5
304.511	77.5
304.741	88.5
304.971	95.5
305.201	86.5
305.431	78.5
305.661	84.5
305.891	94.5
306.121	105.5
306.352	91.5
306.582	87.5
306.812	94.5
307.042	83.5
307.272	86.5
307.502	86.5
307.731	94.5
307.961	85.5
308.191	83.5
308.421	70.5
308.651	91.5
308.881	89.5
309.111	98.5
309.341	91.5
309.571	79.5
309.8	93.5
310.03	85.5
310.26	92.5
310.49	88.5
310.72	91.5
310.949	98.5
311.179	94.5
311.409	104.5
311.639	88.5
311.868	77.5
312.098	86.5
312.328	80.5
312.557	83.5
312.787	100.5
313.017	89.5
313.246	89.5
313.476	83.5
313.706	91.5
313.935	96.5
314.165	81.5
314.394	94.5
314.624	96.5
314.853	106.5
315.083	91.5
315.312	93.5
315.542	90.5
315.771	85.5
316.001	83.5
316.23	99.5
316.46	91.5
316.689	88.5
316.919	98.5
317.148	86.5
317.377	88.5
317.607	88.5
317.836	90.5
318.065	78.5
318.295	90.5
318.524	110.5
318.753	81.5
318.983	89.5
319.212	81.5
319.441	95.5
319.67	93.5
319.9	83.5
320.129	85.5
320.358	85.5
320.587	94.5
320.816	83.5
321.046	100.5
321.275	95.5
321.504	100.5
321.733	98.5
321.962	87.5
322.191	90.5
322.42	107.5
322.649	99.5
322.878	104.5
323.108	87.5
323.337	111.5
323.566	131.5
323.795	139.5
324.024	180.5
324.253	371.5
324.482	797.5
324.71	1545.5
324.939	2088.5
325.168	774.5
325.397	227.5
325.626	138.5
325.855	131.5
326.084	113.5
326.313	126.5
326.542	144.5
326.77	200.5
326.999	434.5
327.228	901.5
327.457	1654.5
327.686	1307.5
327.914	345.5
328.143	164.5
328.372	123.5
328.6	124.5
328.829	104.5
329.058	127.5
329.287	108.5
329.515	90.5
329.744	97.5
329.972	94.5
330.201	96.5
330.43	105.5
330.658	116.5
330.887	118.5
331.115	119.5
331.344	90.5
331.572	95.5
331.801	109.5
332.03	109.5
332.258	87.5
332.486	91.5
332.715	83.5
332.943	90.5
333.172	84.5
333.4	105.5
333.629	91.5
333.857	94.5
334.085	107.5
334.314	97.5
334.542	93.5
334.771	104.5
334.999	107.5
335.227	84.5
335.455	93.5
335.684	86.5
335.912	98.5
336.14	103.5
336.369	101.5
336.597	102.5
336.825	90.5
337.053	94.5
337.281	84.5
337.51	87.5
337.738	81.5
337.966	75.5
338.194	105.5
338.422	85.5
338.65	85.5
338.878	96.5
339.106	90.5
339.334	85.5
339.562	90.5
339.79	89.5
340.018	96.5
340.246	86.5
340.474	91.5
340.702	101.5
340.93	99.5
341.158	96.5
341.386	90.5
341.614	80.5
341.842	87.5
342.07	75.5
342.298	85.5
342.526	85.5
342.754	94.5
342.981	88.5
343.209	87.5
343.437	88.5
343.665	72.5
343.893	93.5
344.12	75.5
344.348	79.5
344.576	76.5
344.804	100.5
345.031	90.5
345.259	92.5
345.487	94.5
345.714	108.5
345.942	83.5
346.17	71.5
346.397	86.5
346.625	89.5
346.853	96.5
347.08	95.5
347.308	97.5
347.535	93.5
347.763	84.5
347.99	100.5
348.218	92.5
348.445	100.5
348.673	96.5
348.9	84.5
349.128	85.5
349.355	99.5
349.583	101.5
349.81	81.5
350.037	96.5
350.265	88.5
350.492	94.5
350.72	89.5
350.947	97.5
351.174	114.5
351.402	103.5
351.629	105.5
351.856	90.5
352.083	95.5
352.311	96.5
352.538	109.5
352.765	103.5
352.992	114.5
353.22	107.5
353.447	96.5
353.674	102.5
353.901	92.5
354.128	104.5
354.355	107.5
354.583	108.5
354.81	121.5
355.037	104.5
355.264	88.5
355.491	86.5
355.718	91.5
355.945	97.5
356.172	104.5
356.399	107.5
356.626	97.5
356.853	81.5
357.08	94.5
357.307	93.5
357.534	87.5
357.761	100.5
357.988	101.5
358.215	97.5
358.441	104.5
358.668	97.5
358.895	83.5
359.122	103.5
359.349	92.5
359.576	76.5
359.802	100.5
360.029	96.5
360.256	100.5
360.483	112.5
360.709	87.5
360.936	92.5
361.163	88.5
361.39	98.5
361.616	84.5
361.843	94.5
362.07	88.5
362.296	84.5
362.523	87.5
362.749	88.5
362.976	101.5
363.203	93.5
363.429	93.5
363.656	86.5
363.882	77.5
364.109	74.5
364.335	83.5
364.562	101.5
364.788	89.5
365.015	80.5
365.241	94.5
365.468	102.5
365.694	105.5
365.92	103.5
366.147	100.5
366.373	92.5
366.599	91.5
366.826	88.5
367.052	78.5
367.278	85.5
367.505	85.5
367.731	75.5
367.957	85.5
368.184	92.5
368.41	96.5
368.636	97.5
368.862	105.5
369.089	86.5
369.315	83.5
369.541	84.5
369.767	86.5
369.993	92.5
370.219	95.5
370.445	87.5
370.672	86.5
370.898	97.5
371.124	89.5
371.35	91.5
371.576	97.5
371.802	80.5
372.028	83.5
372.254	97.5
372.48	87.5
372.706	91.5
372.932	73.5
373.158	95.5
373.384	86.5
373.61	100.5
373.835	71.5
374.061	95.5
374.287	88.5
374.513	99.5
374.739	88.5
374.965	96.5
375.191	93.5
375.416	101.5
375.642	103.5
375.868	99.5
376.094	110.5
376.319	94.5
376.545	86.5
376.771	79.5
376.997	83.5
377.222	96.5
377.448	88.5
377.674	97.5
377.899	77.5
378.125	100.5
378.35	91.5
378.576	95.5
378.802	73.5
379.027	84.5
379.253	100.5
379.478	103.5
379.704	95.5
379.929	89.5
380.155	93.5
380.38	109.5
380.606	97.5
380.831	103.5
381.057	106.5
381.282	108.5
381.507	95.5
381.733	103.5
381.958	100.5
382.184	110.5
382.409	95.5
382.634	109.5
382.86	114.5
383.085	115.5
383.31	117.5
383.535	110.5
383.761	113.5
383.986	109.5
384.211	122.5
384.436	106.5
384.662	120.5
384.887	131.5
385.112	119.5
385.337	118.5
385.562	139.5
385.787	120.5
386.013	128.5
386.238	137.5
386.463	124.5
386.688	125.5
386.913	120.5
387.138	128.5
387.363	134.5
387.588	120.5
387.813	121.5
388.038	136.5
388.263	151.5
388.488	135.5
388.713	103.5
388.938	103.5
389.163	110.5
389.387	95.5
389.612	88.5
389.837	87.5
390.062	83.5
390.287	85.5
390.512	92.5
390.736	97.5
390.961	99.5
391.186	77.5
391.411	91.5
391.636	104.5
391.86	90.5
392.085	84.5
392.31	89.5
392.534	99.5
392.759	77.5
392.984	86.5
393.208	85.5
393.433	94.5
393.658	77.5
393.882	79.5
394.107	86.5
394.331	90.5
394.556	75.5
394.78	80.5
395.005	85.5
395.229	91.5
395.454	85.5
395.678	80.5
395.903	91.5
396.127	93.5
396.352	89.5
396.576	93.5
396.801	73.5
397.025	89.5
397.249	87.5
397.474	78.5
397.698	92.5
397.922	95.5
398.147	91.5
398.371	87.5
398.595	97.5
398.82	80.5
399.044	89.5
399.268	87.5
399.492	93.5
399.717	81.5
399.941	106.5
400.165	102.5
400.389	111.5
400.613	80.5
400.837	83.5
401.062	103.5
401.286	83.5
401.51	88.5
401.734	75.5
401.958	94.5
402.182	105.5
402.406	148.5
402.63	117.5
402.854	84.5
403.078	92.5
403.302	93.5
403.526	74.5
403.75	97.5
403.974	72.5
404.198	82.5
404.422	97.5
404.645	80.5
404.869	80.5
405.093	95.5
405.317	84.5
405.541	90.5
405.765	93.5
405.988	99.5
406.212	141.5
406.436	193.5
406.66	118.5
406.883	92.5
407.107	81.5
407.331	83.5
407.555	87.5
407.778	94.5
408.002	94.5
408.226	94.5
408.449	85.5
408.673	80.5
408.896	92.5
409.12	92.5
409.344	102.5
409.567	76.5
409.791	99.5
410.014	96.5
410.238	78.5
410.461	100.5
410.685	90.5
410.908	86.5
411.132	97.5
411.355	107.5
411.578	99.5
411.802	82.5
412.025	87.5
412.249	83.5
412.472	96.5
412.695	81.5
412.919	81.5
413.142	89.5
413.365	84.5
413.589	93.5
413.812	91.5
414.035	92.5
414.258	90.5
414.482	76.5
414.705	89.5
414.928	73.5
415.151	106.5
415.374	100.5
415.597	91.5
415.821	97.5
416.044	90.5
416.267	76.5
416.49	90.5
416.713	99.5
416.936	92.5
417.159	91.5
417.382	83.5
417.605	79.5
417.828	106.5
418.051	105.5
418.274	86.5
418.497	90.5
418.72	97.5
418.943	95.5
419.166	90.5
419.389	92.5
419.611	86.5
419.834	91.5
420.057	93.5
420.28	92.5
420.503	103.5
420.726	103.5
420.948	100.5
421.171	87.5
421.394	90.5
421.617	94.5
421.839	75.5
422.062	85.5
422.285	80.5
422.507	99.5
422.73	103.5
422.953	85.5
423.175	91.5
423.398	87.5
423.621	89.5
423.843	80.5
424.066	81.5
424.288	88.5
424.511	93.5
424.733	83.5
424.956	105.5
425.178	93.5
425.401	96.5
425.623	101.5
425.846	96.5
426.068	93.5
426.291	89.5
426.513	93.5
426.735	72.5
426.958	100.5
427.18	118.5
427.402	139.5
427.625	139.5
427.847	99.5
428.069	112.5
428.292	82.5
428.514	72.5
428.736	88.5
428.958	75.5
429.181	82.5
429.403	88.5
429.625	89.5
429.847	89.5
430.069	94.5
430.292	88.5
430.514	80.5
430.736	66.5
430.958	78.5
431.18	105.5
431.402	88.5
431.624	91.5
431.846	87.5
432.068	83.5
432.29	83.5
432.512	88.5
432.734	88.5
432.956	87.5
433.178	85.5
433.4	86.5
433.622	99.5
433.844	88.5
434.066	85.5
434.287	91.5
434.509	87.5
434.731	89.5
434.953	81.5
435.175	71.5
435.397	91.5
435.618	92.5
435.84	92.5
436.062	134.5
436.284	105.5
436.505	91.5
436.727	94.5
436.949	95.5
437.17	82.5
437.392	83.5
437.614	78.5
437.835	96.5
438.057	91.5
438.278	103.5
438.5	97.5
438.721	119.5
438.943	97.5
439.165	101.5
439.386	96.5
439.608	80.5
439.829	98.5
440.05	105.5
440.272	133.5
440.493	83.5
440.715	91.5
440.936	80.5
441.158	88.5
441.379	75.5
441.6	86.5
441.822	95.5
442.043	92.5
442.264	109.5
442.486	96.5
442.707	77.5
442.928	95.5
443.149	106.5
443.371	107.5
443.592	112.5
443.813	116.5
444.034	109.5
444.255	92.5
444.476	94.5
444.698	86.5
444.919	100.5
445.14	133.5
445.361	111.5
445.582	110.5
445.803	125.5
446.024	127.5
446.245	116.5
446.466	85.5
446.687	88.5
446.908	84.5
447.129	91.5
447.35	89.5
447.571	85.5
447.792	104.5
448.013	90.5
448.234	98.5
448.455	96.5
448.675	110.5
448.896	115.5
449.117	106.5
449.338	101.5
449.559	127.5
449.779	125.5
450	91.5
450.221	71.5
450.442	95.5
450.662	102.5
450.883	111.5
451.104	103.5
451.324	86.5
451.545	88.5
451.766	85.5
451.986	76.5
452.207	75.5
452.428	83.5
452.648	108.5
452.869	106.5
453.089	75.5
453.31	107.5
453.53	83.5
453.751	90.5
453.971	102.5
454.192	106.5
454.412	85.5
454.633	85.5
454.853	83.5
455.073	80.5
455.294	81.5
455.514	95.5
455.734	94.5
455.955	79.5
456.175	65.5
456.395	87.5
456.616	87.5
456.836	77.5
457.056	97.5
457.276	63.5
457.497	83.5
457.717	72.5
457.937	93.5
458.157	84.5
458.377	90.5
458.598	101.5
458.818	111.5
459.038	121.5
459.258	116.5
459.478	86.5
459.698	75.5
459.918	89.5
460.138	70.5
460.358	83.5
460.578	78.5
460.798	86.5
461.018	81.5
461.238	80.5
461.458	78.5
461.678	84.5
461.898	85.5
462.118	91.5
462.338	63.5
462.558	90.5
462.777	93.5
462.997	80.5
463.217	87.5
463.437	86.5
463.657	80.5
463.876	70.5
464.096	89.5
464.316	93.5
464.536	99.5
464.755	96.5
464.975	93.5
465.195	137.5
465.414	128.5
465.634	96.5
465.854	88.5
466.073	97.5
466.293	95.5
466.512	95.5
466.732	87.5
466.951	83.5
467.171	94.5
467.391	76.5
467.61	98.5
467.829	104.5
468.049	95.5
468.268	89.5
468.488	79.5
468.707	85.5
468.927	82.5
469.146	89.5
469.365	91.5
469.585	79.5
469.804	100.5
470.023	90.5
470.243	99.5
470.462	82.5
470.681	93.5
470.901	76.5
471.12	82.5
471.339	86.5
471.558	93.5
471.777	90.5
471.997	87.5
472.216	95.5
472.435	115.5
472.654	102.5
472.873	75.5
473.092	87.5
473.311	80.5
473.53	89.5
473.749	68.5
473.968	95.5
474.187	101.5
474.406	92.5
474.625	81.5
474.844	94.5
475.063	83.5
475.282	87.5
475.501	89.5
475.72	92.5
475.939	76.5
476.158	88.5
476.377	77.5
476.596	83.5
476.814	77.5
477.033	83.5
477.252	84.5
477.471	85.5
477.69	88.5
477.908	97.5
478.127	90.5
478.346	83.5
478.564	97.5
478.783	109.5
479.002	90.5
479.22	86.5
479.439	82.5
479.658	94.5
479.876	91.5
480.095	70.5
480.313	88.5
480.532	85.5
480.751	91.5
480.969	92.5
481.188	129.5
481.406	108.5
481.624	78.5
481.843	88.5
482.061	92.5
482.28	89.5
482.498	86.5
482.717	77.5
482.935	84.5
483.153	92.5
483.372	97.5
483.59	89.5
483.808	77.5
484.027	100.5
484.245	89.5
484.463	89.5
484.681	90.5
484.9	91.5
485.118	93.5
485.336	92.5
485.554	81.5
485.772	94.5
485.99	105.5
486.209	94.5
486.427	111.5
486.645	102.5
486.863	108.5
487.081	101.5
487.299	95.5
487.517	90.5
487.735	92.5
487.953	90.5
488.171	100.5
488.389	94.5
488.607	90.5
488.825	96.5
489.043	88.5
489.261	90.5
489.479	86.5
489.696	90.5
489.914	74.5
490.132	89.5
490.35	106.5
490.568	87.5
490.786	93.5
491.003	87.5
491.221	96.5
491.439	77.5
491.657	100.5
491.874	98.5
492.092	102.5
492.31	109.5
492.527	93.5
492.745	88.5
492.963	87.5
493.18	96.5
493.398	96.5
493.615	100.5
493.833	87.5
494.05	83.5
494.268	85.5
494.485	83.5
494.703	89.5
494.92	97.5
495.138	85.5
495.355	96.5
495.573	94.5
495.79	87.5
496.008	87.5
496.225	96.5
496.442	83.5
496.66	102.5
496.877	88.5
497.094	90.5
497.312	87.5
497.529	94.5
497.746	85.5
497.963	81.5
498.181	93.5
498.398	96.5
498.615	102.5
498.832	99.5
499.049	89.5
499.267	99.5
499.484	96.5
499.701	95.5
499.918	102.5
500.135	108.5
500.352	92.5
500.569	87.5
500.786	76.5
501.003	92.5
501.22	96.5
501.437	90.5
501.654	108.5
501.871	100.5
502.088	96.5
502.305	88.5
502.522	97.5
502.739	98.5
502.956	86.5
503.172	84.5
503.389	91.5
503.606	98.5
503.823	88.5
504.04	93.5
504.256	90.5
504.473	91.5
504.69	93.5
504.907	82.5
505.123	82.5
505.34	86.5
505.557	83.5
505.773	89.5
505.99	82.5
506.207	81.5
506.423	96.5
506.64	94.5
506.856	87.5
507.073	81.5
507.289	87.5
507.506	102.5
507.722	91.5
507.939	84.5
508.155	96.5
508.372	94.5
508.588	90.5
508.805	100.5
509.021	93.5
509.238	91.5
509.454	85.5
509.67	109.5
509.887	118.5
510.103	133.5
510.319	179.5
510.536	602.5
510.752	1742.5
510.968	511.5
511.184	127.5
511.401	104.5
511.617	94.5
511.833	84.5
512.049	84.5
512.265	86.5
512.481	99.5
512.698	87.5
512.914	99.5
513.13	95.5
513.346	95.5
513.562	85.5
513.778	86.5
513.994	97.5
514.21	116.5
514.426	111.5
514.642	117.5
514.858	113.5
515.074	139.5
515.29	352.5
515.506	1030.5
515.721	407.5
515.937	134.5
516.153	95.5
516.369	94.5
516.585	90.5
516.801	101.5
517.016	99.5
517.232	101.5
517.448	90.5
517.664	76.5
517.879	87.5
518.095	95.5
518.311	100.5
518.527	95.5
518.742	90.5
518.958	88.5
519.173	99.5
519.389	95.5
519.605	91.5
519.82	99.5
520.036	91.5
520.251	119.5
520.467	110.5
520.682	105.5
520.898	107.5
521.113	114.5
521.329	108.5
521.544	161.5
521.76	401.5
521.975	1657.5
522.19	1033.5
522.406	249.5
522.621	110.5
522.836	93.5
523.052	97.5
523.267	87.5
523.482	89.5
523.698	103.5
523.913	123.5
524.128	101.5
524.343	91.5
524.559	87.5
524.774	86.5
524.989	89.5
525.204	99.5
525.419	95.5
525.634	88.5
525.849	90.5
526.064	92.5
526.28	87.5
526.495	76.5
526.71	83.5
526.925	87.5
527.14	83.5
527.355	81.5
527.57	82.5
527.785	88.5
527.999	85.5
528.214	105.5
528.429	95.5
528.644	89.5
528.859	83.5
529.074	91.5
529.289	105.5
529.503	160.5
529.718	106.5
529.933	80.5
530.148	91.5
530.363	88.5
530.577	72.5
530.792	74.5
531.007	88.5
531.221	86.5
531.436	106.5
531.651	101.5
531.865	96.5
532.08	94.5
532.295	95.5
532.509	93.5
532.724	99.5
532.938	77.5
533.153	88.5
533.367	95.5
533.582	77.5
533.796	86.5
534.011	89.5
534.225	89.5
534.44	97.5
534.654	94.5
534.868	78.5
535.083	93.5
535.297	85.5
535.511	104.5
535.726	95.5
535.94	109.5
536.154	101.5
