Data from Uncirc_1999_H10_HRD10591_00099.txt Node
Date: Wed Jan 03 11:22:25 EST 2024
User: Yrep
Spectrometer: HR+D1059
Trigger mode: 1
Integration Time (sec): 1.000000E-1
Scans to average: 1
Electric dark correction enabled: true
Nonlinearity correction enabled: false
Boxcar width: 0
XAxis mode: Wavelengths
Number of Pixels in Spectrum: 2048
>>>>>Begin Spectral Data<<<<<
223.165	-19.25
223.4	-19.25
223.635	-19.25
223.869	-13.25
224.104	-20.25
224.338	-28.25
224.573	-10.25
224.808	-13.25
225.042	-0.25
225.277	-9.25
225.511	-4.25
225.746	5.75
225.98	20.75
226.215	5.75
226.449	14.75
226.683	16.75
226.918	17.75
227.152	36.75
227.387	35.75
227.621	31.75
227.856	43.75
228.09	56.75
228.324	40.75
228.559	46.75
228.793	59.75
229.027	66.75
229.262	70.75
229.496	60.75
229.73	83.75
229.964	81.75
230.199	72.75
230.433	82.75
230.667	70.75
230.901	80.75
231.136	82.75
231.37	84.75
231.604	77.75
231.838	83.75
232.072	61.75
232.306	74.75
232.541	76.75
232.775	63.75
233.009	77.75
233.243	75.75
233.477	69.75
233.711	86.75
233.945	81.75
234.179	63.75
234.413	77.75
234.647	85.75
234.881	74.75
235.115	78.75
235.349	76.75
235.583	69.75
235.817	58.75
236.051	75.75
236.285	76.75
236.519	80.75
236.753	71.75
236.987	78.75
237.221	85.75
237.455	71.75
237.689	76.75
237.922	76.75
238.156	71.75
238.39	64.75
238.624	73.75
238.858	71.75
239.091	62.75
239.325	66.75
239.559	88.75
239.793	82.75
240.027	77.75
240.26	82.75
240.494	84.75
240.728	63.75
240.961	78.75
241.195	78.75
241.429	80.75
241.662	72.75
241.896	61.75
242.13	88.75
242.363	85.75
242.597	76.75
242.83	84.75
243.064	75.75
243.298	73.75
243.531	79.75
243.765	79.75
243.998	78.75
244.232	70.75
244.465	74.75
244.699	85.75
244.932	74.75
245.166	64.75
245.399	79.75
245.633	84.75
245.866	77.75
246.099	82.75
246.333	63.75
246.566	76.75
246.8	72.75
247.033	68.75
247.266	76.75
247.5	73.75
247.733	78.75
247.966	81.75
248.2	84.75
248.433	75.75
248.666	78.75
248.899	82.75
249.133	71.75
249.366	90.75
249.599	91.75
249.832	89.75
250.066	68.75
250.299	88.75
250.532	86.75
250.765	75.75
250.998	81.75
251.231	57.75
251.465	74.75
251.698	77.75
251.931	95.75
252.164	69.75
252.397	91.75
252.63	86.75
252.863	78.75
253.096	79.75
253.329	67.75
253.562	82.75
253.795	91.75
254.028	87.75
254.261	66.75
254.494	78.75
254.727	87.75
254.96	69.75
255.193	73.75
255.426	80.75
255.659	84.75
255.892	87.75
256.124	70.75
256.357	80.75
256.59	75.75
256.823	78.75
257.056	87.75
257.289	78.75
257.521	79.75
257.754	88.75
257.987	87.75
258.22	85.75
258.452	73.75
258.685	78.75
258.918	73.75
259.151	79.75
259.383	72.75
259.616	83.75
259.849	76.75
260.081	77.75
260.314	84.75
260.547	75.75
260.779	101.75
261.012	92.75
261.244	82.75
261.477	83.75
261.71	93.75
261.942	106.75
262.175	93.75
262.407	84.75
262.64	88.75
262.872	85.75
263.105	83.75
263.337	102.75
263.57	77.75
263.802	87.75
264.035	75.75
264.267	78.75
264.499	85.75
264.732	72.75
264.964	70.75
265.197	84.75
265.429	80.75
265.661	71.75
265.894	83.75
266.126	79.75
266.358	79.75
266.591	79.75
266.823	70.75
267.055	86.75
267.287	80.75
267.52	79.75
267.752	78.75
267.984	80.75
268.216	84.75
268.448	94.75
268.681	85.75
268.913	73.75
269.145	90.75
269.377	80.75
269.609	84.75
269.841	72.75
270.073	72.75
270.306	86.75
270.538	81.75
270.77	66.75
271.002	87.75
271.234	88.75
271.466	78.75
271.698	91.75
271.93	83.75
272.162	83.75
272.394	82.75
272.626	79.75
272.858	87.75
273.09	91.75
273.322	74.75
273.553	80.75
273.785	85.75
274.017	83.75
274.249	81.75
274.481	92.75
274.713	79.75
274.945	95.75
275.176	94.75
275.408	83.75
275.64	80.75
275.872	72.75
276.104	94.75
276.335	85.75
276.567	92.75
276.799	96.75
277.031	102.75
277.262	88.75
277.494	95.75
277.726	94.75
277.957	91.75
278.189	80.75
278.421	72.75
278.652	92.75
278.884	81.75
279.115	87.75
279.347	80.75
279.579	72.75
279.81	75.75
280.042	93.75
280.273	79.75
280.505	86.75
280.736	84.75
280.968	90.75
281.199	80.75
281.431	92.75
281.662	93.75
281.894	93.75
282.125	89.75
282.356	105.75
282.588	127.75
282.819	107.75
283.051	90.75
283.282	86.75
283.513	81.75
283.745	85.75
283.976	70.75
284.207	75.75
284.439	95.75
284.67	86.75
284.901	82.75
285.132	90.75
285.364	81.75
285.595	96.75
285.826	95.75
286.057	105.75
286.288	84.75
286.52	84.75
286.751	88.75
286.982	98.75
287.213	81.75
287.444	77.75
287.675	69.75
287.906	100.75
288.138	89.75
288.369	94.75
288.6	101.75
288.831	74.75
289.062	82.75
289.293	93.75
289.524	81.75
289.755	80.75
289.986	76.75
290.217	76.75
290.448	84.75
290.679	86.75
290.91	90.75
291.141	97.75
291.371	84.75
291.602	61.75
291.833	82.75
292.064	83.75
292.295	89.75
292.526	89.75
292.757	82.75
292.987	94.75
293.218	93.75
293.449	90.75
293.68	84.75
293.91	75.75
294.141	85.75
294.372	90.75
294.603	99.75
294.833	93.75
295.064	95.75
295.295	85.75
295.525	98.75
295.756	96.75
295.987	110.75
296.217	134.75
296.448	106.75
296.679	92.75
296.909	90.75
297.14	85.75
297.37	87.75
297.601	88.75
297.831	99.75
298.062	87.75
298.292	85.75
298.523	96.75
298.753	92.75
298.984	101.75
299.214	90.75
299.445	89.75
299.675	95.75
299.905	100.75
300.136	91.75
300.366	90.75
300.597	94.75
300.827	91.75
301.057	98.75
301.288	92.75
301.518	92.75
301.748	84.75
301.979	102.75
302.209	82.75
302.439	90.75
302.669	84.75
302.9	75.75
303.13	74.75
303.36	103.75
303.59	87.75
303.82	107.75
304.051	90.75
304.281	84.75
304.511	96.75
304.741	87.75
304.971	87.75
305.201	92.75
305.431	84.75
305.661	79.75
305.891	88.75
306.121	74.75
306.352	102.75
306.582	106.75
306.812	91.75
307.042	94.75
307.272	93.75
307.502	88.75
307.731	90.75
307.961	84.75
308.191	85.75
308.421	87.75
308.651	85.75
308.881	86.75
309.111	84.75
309.341	98.75
309.571	93.75
309.8	92.75
310.03	76.75
310.26	106.75
310.49	96.75
310.72	92.75
310.949	106.75
311.179	100.75
311.409	95.75
311.639	77.75
311.868	87.75
312.098	91.75
312.328	97.75
312.557	89.75
312.787	116.75
313.017	106.75
313.246	93.75
313.476	99.75
313.706	92.75
313.935	95.75
314.165	90.75
314.394	115.75
314.624	95.75
314.853	89.75
315.083	84.75
315.312	95.75
315.542	88.75
315.771	88.75
316.001	112.75
316.23	90.75
316.46	87.75
316.689	92.75
316.919	87.75
317.148	114.75
317.377	98.75
317.607	92.75
317.836	89.75
318.065	88.75
318.295	86.75
318.524	87.75
318.753	84.75
318.983	79.75
319.212	86.75
319.441	102.75
319.67	99.75
319.9	99.75
320.129	92.75
320.358	88.75
320.587	104.75
320.816	99.75
321.046	99.75
321.275	96.75
321.504	97.75
321.733	93.75
321.962	89.75
322.191	100.75
322.42	102.75
322.649	121.75
322.878	111.75
323.108	104.75
323.337	123.75
323.566	132.75
323.795	148.75
324.024	200.75
324.253	427.75
324.482	916.75
324.71	1831.75
324.939	2417.75
325.168	870.75
325.397	250.75
325.626	152.75
325.855	111.75
326.084	124.75
326.313	130.75
326.542	148.75
326.77	236.75
326.999	511.75
327.228	1018.75
327.457	1837.75
327.686	1473.75
327.914	392.75
328.143	186.75
328.372	138.75
328.6	117.75
328.829	119.75
329.058	117.75
329.287	117.75
329.515	96.75
329.744	104.75
329.972	96.75
330.201	98.75
330.43	116.75
330.658	118.75
330.887	135.75
331.115	130.75
331.344	89.75
331.572	90.75
331.801	91.75
332.03	91.75
332.258	81.75
332.486	94.75
332.715	94.75
332.943	95.75
333.172	96.75
333.4	86.75
333.629	90.75
333.857	110.75
334.085	103.75
334.314	87.75
334.542	111.75
334.771	96.75
334.999	78.75
335.227	88.75
335.455	92.75
335.684	95.75
335.912	88.75
336.14	98.75
336.369	93.75
336.597	99.75
336.825	99.75
337.053	95.75
337.281	89.75
337.51	96.75
337.738	80.75
337.966	79.75
338.194	102.75
338.422	90.75
338.65	84.75
338.878	89.75
339.106	91.75
339.334	94.75
339.562	79.75
339.79	91.75
340.018	88.75
340.246	94.75
340.474	83.75
340.702	90.75
340.93	90.75
341.158	77.75
341.386	85.75
341.614	92.75
341.842	82.75
342.07	100.75
342.298	92.75
342.526	95.75
342.754	71.75
342.981	83.75
343.209	90.75
343.437	94.75
343.665	96.75
343.893	88.75
344.12	107.75
344.348	109.75
344.576	85.75
344.804	94.75
345.031	95.75
345.259	84.75
345.487	93.75
345.714	87.75
345.942	79.75
346.17	92.75
346.397	93.75
346.625	90.75
346.853	78.75
347.08	88.75
347.308	93.75
347.535	85.75
347.763	95.75
347.99	96.75
348.218	94.75
348.445	96.75
348.673	93.75
348.9	95.75
349.128	84.75
349.355	96.75
349.583	85.75
349.81	92.75
350.037	86.75
350.265	90.75
350.492	79.75
350.72	100.75
350.947	102.75
351.174	97.75
351.402	107.75
351.629	99.75
351.856	102.75
352.083	96.75
352.311	89.75
352.538	109.75
352.765	106.75
352.992	115.75
353.22	100.75
353.447	96.75
353.674	102.75
353.901	108.75
354.128	114.75
354.355	96.75
354.583	101.75
354.81	103.75
355.037	89.75
355.264	97.75
355.491	83.75
355.718	86.75
355.945	78.75
356.172	91.75
356.399	84.75
356.626	87.75
356.853	91.75
357.08	88.75
357.307	100.75
357.534	87.75
357.761	78.75
357.988	83.75
358.215	91.75
358.441	90.75
358.668	92.75
358.895	88.75
359.122	91.75
359.349	70.75
359.576	85.75
359.802	80.75
360.029	103.75
360.256	95.75
360.483	100.75
360.709	86.75
360.936	88.75
361.163	98.75
361.39	87.75
361.616	79.75
361.843	86.75
362.07	93.75
362.296	100.75
362.523	86.75
362.749	87.75
362.976	96.75
363.203	95.75
363.429	94.75
363.656	86.75
363.882	87.75
364.109	84.75
364.335	104.75
364.562	86.75
364.788	85.75
365.015	89.75
365.241	91.75
365.468	92.75
365.694	116.75
365.92	101.75
366.147	87.75
366.373	94.75
366.599	89.75
366.826	96.75
367.052	90.75
367.278	82.75
367.505	86.75
367.731	79.75
367.957	96.75
368.184	96.75
368.41	100.75
368.636	121.75
368.862	118.75
369.089	82.75
369.315	85.75
369.541	68.75
369.767	96.75
369.993	100.75
370.219	82.75
370.445	77.75
370.672	80.75
370.898	95.75
371.124	95.75
371.35	107.75
371.576	89.75
371.802	96.75
372.028	90.75
372.254	88.75
372.48	82.75
372.706	85.75
372.932	87.75
373.158	85.75
373.384	85.75
373.61	93.75
373.835	79.75
374.061	93.75
374.287	83.75
374.513	81.75
374.739	82.75
374.965	85.75
375.191	72.75
375.416	91.75
375.642	99.75
375.868	87.75
376.094	77.75
376.319	74.75
376.545	87.75
376.771	79.75
376.997	98.75
377.222	88.75
377.448	82.75
377.674	90.75
377.899	80.75
378.125	94.75
378.35	85.75
378.576	97.75
378.802	91.75
379.027	99.75
379.253	97.75
379.478	71.75
379.704	100.75
379.929	100.75
380.155	96.75
380.38	94.75
380.606	95.75
380.831	89.75
381.057	82.75
381.282	100.75
381.507	86.75
381.733	102.75
381.958	96.75
382.184	101.75
382.409	94.75
382.634	113.75
382.86	99.75
383.085	96.75
383.31	92.75
383.535	85.75
383.761	98.75
383.986	102.75
384.211	100.75
384.436	87.75
384.662	93.75
384.887	95.75
385.112	90.75
385.337	92.75
385.562	104.75
385.787	109.75
386.013	112.75
386.238	109.75
386.463	81.75
386.688	118.75
386.913	85.75
387.138	117.75
387.363	98.75
387.588	95.75
387.813	99.75
388.038	102.75
388.263	101.75
388.488	90.75
388.713	84.75
388.938	90.75
389.163	93.75
389.387	89.75
389.612	82.75
389.837	100.75
390.062	115.75
390.287	94.75
390.512	84.75
390.736	74.75
390.961	73.75
391.186	87.75
391.411	104.75
391.636	100.75
391.86	83.75
392.085	85.75
392.31	88.75
392.534	80.75
392.759	83.75
392.984	79.75
393.208	73.75
393.433	100.75
393.658	76.75
393.882	93.75
394.107	87.75
394.331	78.75
394.556	76.75
394.78	94.75
395.005	79.75
395.229	88.75
395.454	84.75
395.678	86.75
395.903	90.75
396.127	87.75
396.352	92.75
396.576	70.75
396.801	90.75
397.025	67.75
397.249	78.75
397.474	91.75
397.698	84.75
397.922	93.75
398.147	86.75
398.371	104.75
398.595	98.75
398.82	88.75
399.044	75.75
399.268	97.75
399.492	80.75
399.717	87.75
399.941	97.75
400.165	88.75
400.389	89.75
400.613	74.75
400.837	86.75
401.062	72.75
401.286	77.75
401.51	100.75
401.734	91.75
401.958	100.75
402.182	122.75
402.406	135.75
402.63	112.75
402.854	81.75
403.078	87.75
403.302	92.75
403.526	97.75
403.75	92.75
403.974	80.75
404.198	86.75
404.422	80.75
404.645	65.75
404.869	79.75
405.093	89.75
405.317	78.75
405.541	87.75
405.765	94.75
405.988	109.75
406.212	170.75
406.436	199.75
406.66	127.75
406.883	96.75
407.107	85.75
407.331	74.75
407.555	100.75
407.778	99.75
408.002	78.75
408.226	77.75
408.449	88.75
408.673	83.75
408.896	89.75
409.12	83.75
409.344	83.75
409.567	91.75
409.791	91.75
410.014	85.75
410.238	87.75
410.461	98.75
410.685	89.75
410.908	104.75
411.132	102.75
411.355	90.75
411.578	79.75
411.802	93.75
412.025	72.75
412.249	90.75
412.472	91.75
412.695	108.75
412.919	82.75
413.142	84.75
413.365	92.75
413.589	96.75
413.812	86.75
414.035	80.75
414.258	75.75
414.482	92.75
414.705	88.75
414.928	90.75
415.151	89.75
415.374	95.75
415.597	93.75
415.821	74.75
416.044	72.75
416.267	87.75
416.49	86.75
416.713	81.75
416.936	74.75
417.159	83.75
417.382	89.75
417.605	95.75
417.828	90.75
418.051	89.75
418.274	69.75
418.497	87.75
418.72	75.75
418.943	92.75
419.166	91.75
419.389	83.75
419.611	82.75
419.834	84.75
420.057	84.75
420.28	87.75
420.503	78.75
420.726	89.75
420.948	86.75
421.171	89.75
421.394	86.75
421.617	72.75
421.839	92.75
422.062	94.75
422.285	90.75
422.507	93.75
422.73	101.75
422.953	96.75
423.175	92.75
423.398	99.75
423.621	79.75
423.843	88.75
424.066	87.75
424.288	79.75
424.511	97.75
424.733	89.75
424.956	117.75
425.178	86.75
425.401	101.75
425.623	90.75
425.846	90.75
426.068	92.75
426.291	97.75
426.513	77.75
426.735	79.75
426.958	79.75
427.18	95.75
427.402	130.75
427.625	152.75
427.847	114.75
428.069	88.75
428.292	83.75
428.514	83.75
428.736	72.75
428.958	93.75
429.181	85.75
429.403	92.75
429.625	91.75
429.847	100.75
430.069	103.75
430.292	98.75
430.514	71.75
430.736	81.75
430.958	93.75
431.18	93.75
431.402	85.75
431.624	79.75
431.846	85.75
432.068	72.75
432.29	82.75
432.512	98.75
432.734	68.75
432.956	78.75
433.178	103.75
433.4	93.75
433.622	100.75
433.844	97.75
434.066	94.75
434.287	79.75
434.509	86.75
434.731	85.75
434.953	92.75
435.175	80.75
435.397	80.75
435.618	105.75
435.84	98.75
436.062	124.75
436.284	115.75
436.505	120.75
436.727	84.75
436.949	84.75
437.17	92.75
437.392	89.75
437.614	95.75
437.835	107.75
438.057	112.75
438.278	99.75
438.5	93.75
438.721	109.75
438.943	98.75
439.165	93.75
439.386	89.75
439.608	84.75
439.829	111.75
440.05	124.75
440.272	149.75
440.493	79.75
440.715	78.75
440.936	85.75
441.158	76.75
441.379	77.75
441.6	102.75
441.822	90.75
442.043	92.75
442.264	96.75
442.486	97.75
442.707	80.75
442.928	100.75
443.149	118.75
443.371	112.75
443.592	115.75
443.813	113.75
444.034	97.75
444.255	85.75
444.476	95.75
444.698	82.75
444.919	78.75
445.14	135.75
445.361	119.75
445.582	105.75
445.803	119.75
446.024	138.75
446.245	138.75
446.466	110.75
446.687	82.75
446.908	87.75
447.129	79.75
447.35	95.75
447.571	93.75
447.792	97.75
448.013	98.75
448.234	109.75
448.455	95.75
448.675	103.75
448.896	104.75
449.117	100.75
449.338	85.75
449.559	131.75
449.779	135.75
450	103.75
450.221	82.75
450.442	74.75
450.662	90.75
450.883	110.75
451.104	104.75
451.324	94.75
451.545	85.75
451.766	82.75
451.986	76.75
452.207	69.75
452.428	82.75
452.648	103.75
452.869	95.75
453.089	110.75
453.31	130.75
453.53	84.75
453.751	82.75
453.971	96.75
454.192	111.75
454.412	82.75
454.633	83.75
454.853	86.75
455.073	74.75
455.294	91.75
455.514	92.75
455.734	88.75
455.955	89.75
456.175	90.75
456.395	88.75
456.616	76.75
456.836	75.75
457.056	65.75
457.276	73.75
457.497	90.75
457.717	112.75
457.937	72.75
458.157	87.75
458.377	88.75
458.598	112.75
458.818	116.75
459.038	144.75
459.258	103.75
459.478	88.75
459.698	83.75
459.918	92.75
460.138	72.75
460.358	83.75
460.578	82.75
460.798	88.75
461.018	91.75
461.238	86.75
461.458	86.75
461.678	73.75
461.898	85.75
462.118	83.75
462.338	89.75
462.558	95.75
462.777	93.75
462.997	69.75
463.217	80.75
463.437	74.75
463.657	93.75
463.876	96.75
464.096	91.75
464.316	86.75
464.536	85.75
464.755	80.75
464.975	97.75
465.195	138.75
465.414	158.75
465.634	84.75
465.854	101.75
466.073	92.75
466.293	80.75
466.512	79.75
466.732	98.75
466.951	93.75
467.171	85.75
467.391	81.75
467.61	102.75
467.829	98.75
468.049	105.75
468.268	70.75
468.488	84.75
468.707	86.75
468.927	80.75
469.146	86.75
469.365	89.75
469.585	83.75
469.804	88.75
470.023	94.75
470.243	91.75
470.462	90.75
470.681	94.75
470.901	103.75
471.12	104.75
471.339	75.75
471.558	76.75
471.777	99.75
471.997	91.75
472.216	85.75
472.435	112.75
472.654	90.75
472.873	84.75
473.092	84.75
473.311	88.75
473.53	87.75
473.749	86.75
473.968	92.75
474.187	85.75
474.406	92.75
474.625	87.75
474.844	90.75
475.063	88.75
475.282	84.75
475.501	88.75
475.72	86.75
475.939	88.75
476.158	88.75
476.377	84.75
476.596	94.75
476.814	83.75
477.033	84.75
477.252	85.75
477.471	91.75
477.69	88.75
477.908	88.75
478.127	79.75
478.346	84.75
478.564	93.75
478.783	93.75
479.002	92.75
479.22	95.75
479.439	91.75
479.658	87.75
479.876	91.75
480.095	81.75
480.313	98.75
480.532	80.75
480.751	87.75
480.969	92.75
481.188	119.75
481.406	111.75
481.624	82.75
481.843	74.75
482.061	88.75
482.28	82.75
482.498	90.75
482.717	88.75
482.935	78.75
483.153	97.75
483.372	77.75
483.59	89.75
483.808	92.75
484.027	91.75
484.245	79.75
484.463	104.75
484.681	100.75
484.9	96.75
485.118	95.75
485.336	93.75
485.554	86.75
485.772	102.75
485.99	109.75
486.209	102.75
486.427	102.75
486.645	96.75
486.863	100.75
487.081	95.75
487.299	95.75
487.517	91.75
487.735	95.75
487.953	90.75
488.171	93.75
488.389	99.75
488.607	97.75
488.825	96.75
489.043	91.75
489.261	85.75
489.479	70.75
489.696	71.75
489.914	74.75
490.132	89.75
490.35	78.75
490.568	76.75
490.786	80.75
491.003	84.75
491.221	86.75
491.439	68.75
491.657	77.75
491.874	84.75
492.092	89.75
492.31	87.75
492.527	70.75
492.745	77.75
492.963	75.75
493.18	85.75
493.398	95.75
493.615	94.75
493.833	78.75
494.05	70.75
494.268	78.75
494.485	71.75
494.703	96.75
494.92	86.75
495.138	100.75
495.355	96.75
495.573	92.75
495.79	104.75
496.008	93.75
496.225	90.75
496.442	107.75
496.66	100.75
496.877	74.75
497.094	96.75
497.312	88.75
497.529	90.75
497.746	93.75
497.963	88.75
498.181	86.75
498.398	88.75
498.615	101.75
498.832	109.75
499.049	93.75
499.267	85.75
499.484	97.75
499.701	97.75
499.918	109.75
500.135	94.75
500.352	84.75
500.569	98.75
500.786	96.75
501.003	98.75
501.22	85.75
501.437	68.75
501.654	106.75
501.871	111.75
502.088	106.75
502.305	95.75
502.522	87.75
502.739	93.75
502.956	104.75
503.172	96.75
503.389	85.75
503.606	104.75
503.823	107.75
504.04	90.75
504.256	85.75
504.473	74.75
504.69	88.75
504.907	115.75
505.123	84.75
505.34	99.75
505.557	78.75
505.773	86.75
505.99	95.75
506.207	70.75
506.423	88.75
506.64	88.75
506.856	100.75
507.073	75.75
507.289	83.75
507.506	83.75
507.722	100.75
507.939	122.75
508.155	101.75
508.372	97.75
508.588	92.75
508.805	92.75
509.021	91.75
509.238	99.75
509.454	109.75
509.67	99.75
509.887	107.75
510.103	135.75
510.319	222.75
510.536	749.75
510.752	2254.75
510.968	607.75
511.184	140.75
511.401	101.75
511.617	112.75
511.833	79.75
512.049	76.75
512.265	82.75
512.481	88.75
512.698	95.75
512.914	83.75
513.13	86.75
513.346	83.75
513.562	96.75
513.778	92.75
513.994	91.75
514.21	92.75
514.426	98.75
514.642	107.75
514.858	125.75
515.074	141.75
515.29	402.75
515.506	1312.75
515.721	482.75
515.937	125.75
516.153	107.75
516.369	94.75
516.585	93.75
