Data from Uncirc_1999_H10_HRD10591_00023.txt Node
Date: Wed Jan 03 11:22:09 EST 2024
User: Yrep
Spectrometer: HR+D1059
Trigger mode: 1
Integration Time (sec): 1.000000E-1
Scans to average: 1
Electric dark correction enabled: true
Nonlinearity correction enabled: false
Boxcar width: 0
XAxis mode: Wavelengths
Number of Pixels in Spectrum: 2048
>>>>>Begin Spectral Data<<<<<
223.165	-29.31
223.4	-29.31
223.635	-29.31
223.869	-16.31
224.104	-17.31
224.338	-20.31
224.573	-11.31
224.808	-3.31
225.042	-4.31
225.277	-3.31
225.511	10.69
225.746	-2.31
225.98	9.69
226.215	0.69
226.449	26.69
226.683	17.69
226.918	29.69
227.152	12.69
227.387	34.69
227.621	36.69
227.856	39.69
228.09	42.69
228.324	38.69
228.559	62.69
228.793	68.69
229.027	65.69
229.262	49.69
229.496	84.69
229.73	87.69
229.964	84.69
230.199	69.69
230.433	59.69
230.667	72.69
230.901	94.69
231.136	91.69
231.37	80.69
231.604	84.69
231.838	87.69
232.072	88.69
232.306	82.69
232.541	83.69
232.775	86.69
233.009	83.69
233.243	79.69
233.477	87.69
233.711	77.69
233.945	73.69
234.179	87.69
234.413	108.69
234.647	85.69
234.881	83.69
235.115	82.69
235.349	76.69
235.583	83.69
235.817	84.69
236.051	64.69
236.285	65.69
236.519	84.69
236.753	78.69
236.987	79.69
237.221	79.69
237.455	83.69
237.689	81.69
237.922	80.69
238.156	84.69
238.39	59.69
238.624	80.69
238.858	63.69
239.091	80.69
239.325	68.69
239.559	89.69
239.793	88.69
240.027	68.69
240.26	78.69
240.494	73.69
240.728	86.69
240.961	64.69
241.195	75.69
241.429	75.69
241.662	82.69
241.896	95.69
242.13	70.69
242.363	90.69
242.597	71.69
242.83	81.69
243.064	75.69
243.298	82.69
243.531	88.69
243.765	88.69
243.998	91.69
244.232	75.69
244.465	79.69
244.699	87.69
244.932	89.69
245.166	76.69
245.399	77.69
245.633	72.69
245.866	82.69
246.099	81.69
246.333	92.69
246.566	80.69
246.8	73.69
247.033	79.69
247.266	84.69
247.5	80.69
247.733	84.69
247.966	71.69
248.2	76.69
248.433	85.69
248.666	78.69
248.899	77.69
249.133	76.69
249.366	91.69
249.599	93.69
249.832	83.69
250.066	98.69
250.299	78.69
250.532	75.69
250.765	64.69
250.998	78.69
251.231	72.69
251.465	73.69
251.698	86.69
251.931	87.69
252.164	70.69
252.397	91.69
252.63	64.69
252.863	83.69
253.096	60.69
253.329	83.69
253.562	90.69
253.795	91.69
254.028	87.69
254.261	83.69
254.494	75.69
254.727	75.69
254.96	82.69
255.193	97.69
255.426	82.69
255.659	72.69
255.892	83.69
256.124	93.69
256.357	87.69
256.59	80.69
256.823	81.69
257.056	83.69
257.289	80.69
257.521	78.69
257.754	92.69
257.987	83.69
258.22	82.69
258.452	84.69
258.685	87.69
258.918	80.69
259.151	86.69
259.383	88.69
259.616	68.69
259.849	87.69
260.081	80.69
260.314	80.69
260.547	88.69
260.779	83.69
261.012	81.69
261.244	74.69
261.477	88.69
261.71	92.69
261.942	102.69
262.175	97.69
262.407	94.69
262.64	83.69
262.872	86.69
263.105	103.69
263.337	76.69
263.57	90.69
263.802	86.69
264.035	80.69
264.267	94.69
264.499	82.69
264.732	87.69
264.964	87.69
265.197	87.69
265.429	96.69
265.661	91.69
265.894	91.69
266.126	81.69
266.358	72.69
266.591	82.69
266.823	90.69
267.055	87.69
267.287	86.69
267.52	103.69
267.752	78.69
267.984	80.69
268.216	82.69
268.448	85.69
268.681	87.69
268.913	70.69
269.145	93.69
269.377	87.69
269.609	81.69
269.841	78.69
270.073	74.69
270.306	102.69
270.538	95.69
270.77	80.69
271.002	82.69
271.234	80.69
271.466	69.69
271.698	81.69
271.93	83.69
272.162	92.69
272.394	83.69
272.626	87.69
272.858	92.69
273.09	77.69
273.322	87.69
273.553	67.69
273.785	81.69
274.017	89.69
274.249	83.69
274.481	79.69
274.713	83.69
274.945	87.69
275.176	82.69
275.408	75.69
275.64	83.69
275.872	90.69
276.104	100.69
276.335	88.69
276.567	83.69
276.799	90.69
277.031	104.69
277.262	85.69
277.494	81.69
277.726	91.69
277.957	96.69
278.189	88.69
278.421	85.69
278.652	90.69
278.884	77.69
279.115	79.69
279.347	82.69
279.579	100.69
279.81	100.69
280.042	90.69
280.273	99.69
280.505	83.69
280.736	89.69
280.968	80.69
281.199	80.69
281.431	70.69
281.662	82.69
281.894	91.69
282.125	93.69
282.356	107.69
282.588	113.69
282.819	107.69
283.051	100.69
283.282	91.69
283.513	94.69
283.745	99.69
283.976	84.69
284.207	100.69
284.439	103.69
284.67	76.69
284.901	97.69
285.132	74.69
285.364	84.69
285.595	67.69
285.826	95.69
286.057	82.69
286.288	97.69
286.52	82.69
286.751	85.69
286.982	86.69
287.213	93.69
287.444	96.69
287.675	92.69
287.906	65.69
288.138	86.69
288.369	98.69
288.6	83.69
288.831	86.69
289.062	96.69
289.293	95.69
289.524	84.69
289.755	97.69
289.986	87.69
290.217	82.69
290.448	76.69
290.679	91.69
290.91	93.69
291.141	87.69
291.371	93.69
291.602	100.69
291.833	100.69
292.064	96.69
292.295	89.69
292.526	90.69
292.757	86.69
292.987	87.69
293.218	88.69
293.449	92.69
293.68	89.69
293.91	101.69
294.141	88.69
294.372	92.69
294.603	96.69
294.833	96.69
295.064	72.69
295.295	83.69
295.525	84.69
295.756	87.69
295.987	106.69
296.217	120.69
296.448	116.69
296.679	99.69
296.909	87.69
297.14	83.69
297.37	86.69
297.601	90.69
297.831	86.69
298.062	86.69
298.292	82.69
298.523	88.69
298.753	86.69
298.984	96.69
299.214	81.69
299.445	84.69
299.675	104.69
299.905	93.69
300.136	99.69
300.366	94.69
300.597	81.69
300.827	101.69
301.057	90.69
301.288	99.69
301.518	98.69
301.748	86.69
301.979	99.69
302.209	71.69
302.439	75.69
302.669	76.69
302.9	99.69
303.13	98.69
303.36	91.69
303.59	96.69
303.82	105.69
304.051	95.69
304.281	86.69
304.511	84.69
304.741	91.69
304.971	82.69
305.201	98.69
305.431	85.69
305.661	91.69
305.891	86.69
306.121	92.69
306.352	98.69
306.582	99.69
306.812	86.69
307.042	84.69
307.272	83.69
307.502	90.69
307.731	88.69
307.961	105.69
308.191	99.69
308.421	90.69
308.651	87.69
308.881	106.69
309.111	89.69
309.341	96.69
309.571	95.69
309.8	87.69
310.03	97.69
310.26	102.69
310.49	85.69
310.72	93.69
310.949	100.69
311.179	99.69
311.409	98.69
311.639	99.69
311.868	75.69
312.098	95.69
312.328	89.69
312.557	95.69
312.787	88.69
313.017	103.69
313.246	72.69
313.476	92.69
313.706	80.69
313.935	99.69
314.165	85.69
314.394	99.69
314.624	91.69
314.853	85.69
315.083	86.69
315.312	90.69
315.542	95.69
315.771	98.69
316.001	83.69
316.23	89.69
316.46	96.69
316.689	85.69
316.919	88.69
317.148	98.69
317.377	98.69
317.607	82.69
317.836	104.69
318.065	94.69
318.295	97.69
318.524	100.69
318.753	89.69
318.983	88.69
319.212	99.69
319.441	107.69
319.67	118.69
319.9	93.69
320.129	90.69
320.358	108.69
320.587	83.69
320.816	79.69
321.046	90.69
321.275	101.69
321.504	103.69
321.733	107.69
321.962	107.69
322.191	96.69
322.42	110.69
322.649	99.69
322.878	107.69
323.108	130.69
323.337	119.69
323.566	123.69
323.795	136.69
324.024	209.69
324.253	382.69
324.482	800.69
324.71	1601.69
324.939	2102.69
325.168	774.69
325.397	217.69
325.626	157.69
325.855	136.69
326.084	131.69
326.313	133.69
326.542	157.69
326.77	231.69
326.999	428.69
327.228	895.69
327.457	1651.69
327.686	1342.69
327.914	361.69
328.143	170.69
328.372	131.69
328.6	106.69
328.829	99.69
329.058	118.69
329.287	120.69
329.515	110.69
329.744	108.69
329.972	98.69
330.201	88.69
330.43	100.69
330.658	110.69
330.887	108.69
331.115	92.69
331.344	102.69
331.572	112.69
331.801	99.69
332.03	106.69
332.258	107.69
332.486	100.69
332.715	88.69
332.943	109.69
333.172	98.69
333.4	98.69
333.629	110.69
333.857	108.69
334.085	100.69
334.314	99.69
334.542	108.69
334.771	95.69
334.999	96.69
335.227	99.69
335.455	86.69
335.684	105.69
335.912	97.69
336.14	113.69
336.369	86.69
336.597	109.69
336.825	102.69
337.053	93.69
337.281	99.69
337.51	92.69
337.738	94.69
337.966	96.69
338.194	91.69
338.422	95.69
338.65	101.69
338.878	91.69
339.106	101.69
339.334	92.69
339.562	95.69
339.79	102.69
340.018	105.69
340.246	88.69
340.474	77.69
340.702	88.69
340.93	95.69
341.158	84.69
341.386	87.69
341.614	92.69
341.842	81.69
342.07	106.69
342.298	93.69
342.526	89.69
342.754	92.69
342.981	98.69
343.209	86.69
343.437	105.69
343.665	84.69
343.893	94.69
344.12	88.69
344.348	88.69
344.576	97.69
344.804	88.69
345.031	110.69
345.259	100.69
345.487	98.69
345.714	96.69
345.942	98.69
346.17	104.69
346.397	88.69
346.625	108.69
346.853	96.69
347.08	94.69
347.308	106.69
347.535	95.69
347.763	104.69
347.99	85.69
348.218	102.69
348.445	116.69
348.673	101.69
348.9	99.69
349.128	107.69
349.355	95.69
349.583	91.69
349.81	86.69
350.037	86.69
350.265	107.69
350.492	113.69
350.72	105.69
350.947	94.69
351.174	101.69
351.402	100.69
351.629	102.69
351.856	110.69
352.083	96.69
352.311	97.69
352.538	114.69
352.765	106.69
352.992	118.69
353.22	116.69
353.447	107.69
353.674	91.69
353.901	104.69
354.128	106.69
354.355	97.69
354.583	94.69
354.81	98.69
355.037	86.69
355.264	66.69
355.491	98.69
355.718	87.69
355.945	99.69
356.172	97.69
356.399	96.69
356.626	107.69
356.853	97.69
357.08	109.69
357.307	106.69
357.534	82.69
357.761	112.69
357.988	89.69
358.215	103.69
358.441	97.69
358.668	115.69
358.895	81.69
359.122	86.69
359.349	88.69
359.576	86.69
359.802	97.69
360.029	107.69
360.256	103.69
360.483	90.69
360.709	95.69
360.936	92.69
361.163	83.69
361.39	86.69
361.616	104.69
361.843	110.69
362.07	84.69
362.296	87.69
362.523	70.69
362.749	81.69
362.976	80.69
363.203	84.69
363.429	98.69
363.656	109.69
363.882	106.69
364.109	97.69
364.335	100.69
364.562	83.69
364.788	80.69
365.015	89.69
365.241	87.69
365.468	99.69
365.694	100.69
365.92	94.69
366.147	95.69
366.373	88.69
366.599	92.69
366.826	87.69
367.052	92.69
367.278	94.69
367.505	94.69
367.731	109.69
367.957	81.69
368.184	96.69
368.41	100.69
368.636	100.69
368.862	106.69
369.089	90.69
369.315	90.69
369.541	90.69
369.767	80.69
369.993	90.69
370.219	84.69
370.445	92.69
370.672	104.69
370.898	80.69
371.124	89.69
371.35	85.69
371.576	80.69
371.802	96.69
372.028	82.69
372.254	80.69
372.48	77.69
372.706	85.69
372.932	92.69
373.158	79.69
373.384	87.69
373.61	96.69
373.835	105.69
374.061	90.69
374.287	98.69
374.513	99.69
374.739	103.69
374.965	98.69
375.191	87.69
375.416	90.69
375.642	86.69
375.868	105.69
376.094	76.69
376.319	91.69
376.545	91.69
376.771	98.69
376.997	93.69
377.222	103.69
377.448	91.69
377.674	102.69
377.899	97.69
378.125	102.69
378.35	102.69
378.576	88.69
378.802	106.69
379.027	86.69
379.253	99.69
379.478	86.69
379.704	92.69
379.929	106.69
380.155	102.69
380.38	88.69
380.606	100.69
380.831	118.69
381.057	107.69
381.282	99.69
381.507	113.69
381.733	95.69
381.958	97.69
382.184	113.69
382.409	104.69
382.634	109.69
382.86	108.69
383.085	112.69
383.31	121.69
383.535	119.69
383.761	102.69
383.986	110.69
384.211	115.69
384.436	107.69
384.662	114.69
384.887	120.69
385.112	120.69
385.337	129.69
385.562	116.69
385.787	133.69
386.013	120.69
386.238	123.69
386.463	120.69
386.688	117.69
386.913	108.69
387.138	112.69
387.363	127.69
387.588	94.69
387.813	102.69
388.038	122.69
388.263	140.69
388.488	120.69
388.713	104.69
388.938	116.69
389.163	78.69
389.387	95.69
389.612	103.69
389.837	98.69
390.062	86.69
390.287	94.69
390.512	102.69
390.736	87.69
390.961	84.69
391.186	107.69
391.411	94.69
391.636	100.69
391.86	81.69
392.085	93.69
392.31	80.69
392.534	93.69
392.759	90.69
392.984	90.69
393.208	87.69
393.433	99.69
393.658	92.69
393.882	90.69
394.107	112.69
394.331	89.69
394.556	97.69
394.78	97.69
395.005	83.69
395.229	72.69
395.454	86.69
395.678	91.69
395.903	98.69
396.127	89.69
396.352	97.69
396.576	84.69
396.801	87.69
397.025	81.69
397.249	89.69
397.474	92.69
397.698	84.69
397.922	82.69
398.147	76.69
398.371	91.69
398.595	88.69
398.82	84.69
399.044	95.69
399.268	87.69
399.492	84.69
399.717	100.69
399.941	98.69
400.165	99.69
400.389	78.69
400.613	97.69
400.837	97.69
401.062	110.69
401.286	80.69
401.51	78.69
401.734	91.69
401.958	102.69
402.182	113.69
402.406	148.69
402.63	114.69
402.854	90.69
403.078	87.69
403.302	90.69
403.526	80.69
403.75	102.69
403.974	92.69
404.198	97.69
404.422	90.69
404.645	94.69
404.869	91.69
405.093	104.69
405.317	97.69
405.541	87.69
405.765	79.69
405.988	116.69
406.212	162.69
406.436	186.69
406.66	118.69
406.883	100.69
407.107	83.69
407.331	89.69
407.555	100.69
407.778	104.69
408.002	84.69
408.226	91.69
408.449	119.69
408.673	96.69
408.896	86.69
409.12	87.69
409.344	92.69
409.567	100.69
409.791	110.69
410.014	92.69
410.238	105.69
410.461	105.69
410.685	110.69
410.908	114.69
411.132	98.69
411.355	111.69
411.578	98.69
411.802	88.69
412.025	92.69
412.249	99.69
412.472	89.69
412.695	87.69
412.919	89.69
413.142	86.69
413.365	108.69
413.589	88.69
413.812	93.69
414.035	86.69
414.258	91.69
414.482	87.69
414.705	98.69
414.928	81.69
415.151	95.69
415.374	99.69
415.597	89.69
415.821	87.69
416.044	103.69
416.267	93.69
416.49	96.69
416.713	82.69
416.936	101.69
417.159	115.69
417.382	80.69
417.605	84.69
417.828	90.69
418.051	107.69
418.274	81.69
418.497	86.69
418.72	96.69
418.943	93.69
419.166	90.69
419.389	91.69
419.611	85.69
419.834	87.69
420.057	91.69
420.28	87.69
420.503	83.69
420.726	86.69
420.948	97.69
421.171	103.69
421.394	99.69
421.617	83.69
421.839	92.69
422.062	99.69
422.285	82.69
422.507	92.69
422.73	105.69
422.953	91.69
423.175	95.69
423.398	93.69
423.621	90.69
423.843	87.69
424.066	89.69
424.288	103.69
424.511	96.69
424.733	98.69
424.956	93.69
425.178	104.69
425.401	107.69
425.623	103.69
425.846	91.69
426.068	93.69
426.291	105.69
426.513	97.69
426.735	99.69
426.958	109.69
427.18	112.69
427.402	136.69
427.625	138.69
427.847	124.69
428.069	95.69
428.292	106.69
428.514	79.69
428.736	99.69
428.958	85.69
429.181	88.69
429.403	100.69
429.625	92.69
429.847	86.69
430.069	110.69
430.292	89.69
430.514	90.69
430.736	91.69
430.958	87.69
431.18	93.69
431.402	94.69
431.624	87.69
431.846	83.69
432.068	94.69
432.29	93.69
432.512	95.69
432.734	90.69
432.956	99.69
433.178	112.69
433.4	106.69
433.622	103.69
433.844	96.69
434.066	102.69
434.287	94.69
434.509	94.69
434.731	78.69
434.953	100.69
435.175	95.69
435.397	96.69
435.618	105.69
435.84	103.69
436.062	122.69
436.284	116.69
436.505	92.69
436.727	98.69
436.949	86.69
437.17	96.69
437.392	92.69
437.614	105.69
437.835	95.69
438.057	119.69
438.278	108.69
438.5	103.69
438.721	124.69
438.943	114.69
439.165	84.69
439.386	82.69
439.608	83.69
439.829	98.69
440.05	127.69
440.272	117.69
440.493	99.69
440.715	80.69
440.936	97.69
441.158	74.69
441.379	84.69
441.6	90.69
441.822	96.69
442.043	114.69
442.264	88.69
442.486	89.69
442.707	92.69
442.928	96.69
443.149	123.69
443.371	108.69
443.592	95.69
443.813	101.69
444.034	111.69
444.255	98.69
444.476	86.69
444.698	95.69
444.919	96.69
445.14	128.69
445.361	125.69
445.582	113.69
445.803	120.69
446.024	117.69
446.245	114.69
446.466	123.69
446.687	87.69
446.908	84.69
447.129	103.69
447.35	86.69
447.571	104.69
447.792	103.69
448.013	97.69
448.234	110.69
448.455	99.69
448.675	108.69
448.896	124.69
449.117	81.69
449.338	97.69
449.559	113.69
449.779	112.69
450	98.69
450.221	86.69
450.442	93.69
450.662	98.69
450.883	94.69
451.104	112.69
451.324	107.69
451.545	95.69
451.766	83.69
451.986	88.69
452.207	93.69
452.428	87.69
452.648	93.69
452.869	95.69
453.089	112.69
453.31	112.69
453.53	102.69
453.751	97.69
453.971	106.69
454.192	92.69
454.412	104.69
454.633	82.69
454.853	86.69
455.073	83.69
455.294	86.69
455.514	94.69
455.734	86.69
455.955	83.69
456.175	100.69
456.395	91.69
456.616	106.69
456.836	98.69
457.056	81.69
457.276	81.69
457.497	90.69
457.717	97.69
457.937	79.69
458.157	74.69
458.377	97.69
458.598	114.69
458.818	126.69
459.038	141.69
459.258	99.69
459.478	90.69
459.698	88.69
459.918	86.69
460.138	87.69
460.358	96.69
460.578	91.69
460.798	90.69
461.018	86.69
461.238	85.69
461.458	81.69
461.678	80.69
461.898	97.69
462.118	87.69
462.338	84.69
462.558	87.69
462.777	81.69
462.997	92.69
463.217	88.69
463.437	108.69
463.657	94.69
463.876	92.69
464.096	95.69
464.316	107.69
464.536	94.69
464.755	90.69
464.975	112.69
465.195	141.69
465.414	115.69
465.634	90.69
465.854	93.69
466.073	89.69
466.293	90.69
466.512	84.69
466.732	100.69
466.951	90.69
467.171	99.69
467.391	90.69
467.61	102.69
467.829	100.69
468.049	80.69
468.268	84.69
468.488	93.69
468.707	82.69
468.927	98.69
469.146	87.69
469.365	90.69
469.585	100.69
469.804	108.69
470.023	91.69
470.243	87.69
470.462	95.69
470.681	103.69
470.901	92.69
471.12	85.69
471.339	91.69
471.558	79.69
471.777	80.69
471.997	87.69
472.216	93.69
472.435	100.69
472.654	103.69
472.873	100.69
473.092	89.69
473.311	78.69
473.53	77.69
473.749	96.69
473.968	90.69
474.187	87.69
474.406	96.69
474.625	103.69
474.844	96.69
475.063	101.69
475.282	94.69
475.501	91.69
475.72	93.69
475.939	86.69
476.158	87.69
476.377	85.69
476.596	89.69
476.814	118.69
477.033	91.69
477.252	101.69
477.471	91.69
477.69	91.69
477.908	88.69
478.127	95.69
478.346	106.69
478.564	82.69
478.783	95.69
479.002	100.69
479.22	87.69
479.439	89.69
479.658	96.69
479.876	99.69
480.095	75.69
480.313	84.69
480.532	107.69
480.751	90.69
480.969	96.69
481.188	131.69
481.406	102.69
481.624	100.69
481.843	89.69
482.061	81.69
482.28	107.69
482.498	92.69
482.717	91.69
482.935	96.69
483.153	94.69
483.372	88.69
483.59	97.69
483.808	75.69
484.027	102.69
484.245	92.69
484.463	98.69
484.681	98.69
484.9	102.69
485.118	103.69
485.336	114.69
485.554	93.69
485.772	107.69
485.99	109.69
486.209	108.69
486.427	108.69
486.645	110.69
486.863	103.69
487.081	102.69
487.299	100.69
487.517	108.69
487.735	95.69
487.953	86.69
488.171	91.69
488.389	96.69
488.607	93.69
488.825	86.69
489.043	104.69
489.261	96.69
489.479	110.69
489.696	93.69
489.914	94.69
490.132	98.69
490.35	84.69
490.568	80.69
490.786	88.69
491.003	87.69
491.221	88.69
491.439	83.69
491.657	96.69
491.874	90.69
492.092	75.69
492.31	91.69
492.527	113.69
492.745	90.69
492.963	97.69
493.18	107.69
493.398	86.69
493.615	112.69
493.833	96.69
494.05	89.69
494.268	88.69
494.485	90.69
494.703	94.69
494.92	81.69
495.138	96.69
495.355	97.69
495.573	85.69
495.79	107.69
496.008	102.69
496.225	105.69
496.442	95.69
496.66	88.69
496.877	95.69
497.094	94.69
497.312	83.69
497.529	92.69
497.746	108.69
497.963	92.69
498.181	107.69
498.398	95.69
498.615	111.69
498.832	122.69
499.049	98.69
499.267	91.69
499.484	106.69
499.701	98.69
499.918	93.69
500.135	102.69
500.352	96.69
500.569	111.69
500.786	99.69
501.003	92.69
501.22	85.69
501.437	89.69
501.654	90.69
501.871	114.69
502.088	73.69
502.305	97.69
502.522	94.69
502.739	87.69
502.956	96.69
503.172	98.69
503.389	91.69
503.606	99.69
503.823	102.69
504.04	78.69
504.256	88.69
504.473	95.69
504.69	95.69
504.907	99.69
505.123	87.69
505.34	79.69
505.557	88.69
505.773	95.69
505.99	92.69
506.207	99.69
506.423	85.69
506.64	96.69
506.856	106.69
507.073	104.69
507.289	104.69
507.506	103.69
507.722	98.69
507.939	85.69
508.155	97.69
508.372	95.69
508.588	102.69
508.805	106.69
509.021	97.69
509.238	96.69
509.454	108.69
509.67	103.69
509.887	100.69
510.103	123.69
510.319	191.69
510.536	620.69
510.752	1866.69
510.968	546.69
511.184	161.69
511.401	114.69
511.617	93.69
511.833	75.69
512.049	99.69
512.265	82.69
512.481	93.69
512.698	100.69
512.914	82.69
513.13	100.69
513.346	90.69
513.562	84.69
513.778	100.69
513.994	96.69
514.21	95.69
514.426	114.69
514.642	127.69
514.858	96.69
515.074	156.69
