Data from Uncirc_1999_H10_HRD10591_00051.txt Node
Date: Wed Jan 03 11:22:15 EST 2024
User: Yrep
Spectrometer: HR+D1059
Trigger mode: 1
Integration Time (sec): 1.000000E-1
Scans to average: 1
Electric dark correction enabled: true
Nonlinearity correction enabled: false
Boxcar width: 0
XAxis mode: Wavelengths
Number of Pixels in Spectrum: 2048
>>>>>Begin Spectral Data<<<<<
223.165	-24.5
223.4	-24.5
223.635	-24.5
223.869	-30.5
224.104	-26.5
224.338	-6.5
224.573	-10.5
224.808	-7.5
225.042	-13.5
225.277	-11.5
225.511	0.5
225.746	3.5
225.98	18.5
226.215	13.5
226.449	24.5
226.683	23.5
226.918	21.5
227.152	25.5
227.387	31.5
227.621	23.5
227.856	56.5
228.09	38.5
228.324	61.5
228.559	53.5
228.793	61.5
229.027	47.5
229.262	61.5
229.496	70.5
229.73	85.5
229.964	86.5
230.199	84.5
230.433	87.5
230.667	89.5
230.901	93.5
231.136	81.5
231.37	91.5
231.604	79.5
231.838	76.5
232.072	83.5
232.306	86.5
232.541	79.5
232.775	85.5
233.009	83.5
233.243	89.5
233.477	94.5
233.711	78.5
233.945	91.5
234.179	92.5
234.413	76.5
234.647	87.5
234.881	97.5
235.115	76.5
235.349	87.5
235.583	84.5
235.817	85.5
236.051	76.5
236.285	71.5
236.519	76.5
236.753	93.5
236.987	80.5
237.221	77.5
237.455	97.5
237.689	90.5
237.922	89.5
238.156	71.5
238.39	89.5
238.624	82.5
238.858	63.5
239.091	87.5
239.325	63.5
239.559	84.5
239.793	92.5
240.027	80.5
240.26	65.5
240.494	66.5
240.728	88.5
240.961	87.5
241.195	97.5
241.429	83.5
241.662	90.5
241.896	86.5
242.13	91.5
242.363	75.5
242.597	87.5
242.83	87.5
243.064	78.5
243.298	74.5
243.531	75.5
243.765	68.5
243.998	73.5
244.232	88.5
244.465	99.5
244.699	91.5
244.932	75.5
245.166	71.5
245.399	91.5
245.633	82.5
245.866	78.5
246.099	95.5
246.333	85.5
246.566	74.5
246.8	77.5
247.033	92.5
247.266	83.5
247.5	87.5
247.733	91.5
247.966	90.5
248.2	72.5
248.433	72.5
248.666	71.5
248.899	87.5
249.133	94.5
249.366	103.5
249.599	92.5
249.832	80.5
250.066	86.5
250.299	73.5
250.532	77.5
250.765	83.5
250.998	75.5
251.231	71.5
251.465	80.5
251.698	79.5
251.931	83.5
252.164	82.5
252.397	83.5
252.63	82.5
252.863	81.5
253.096	96.5
253.329	90.5
253.562	102.5
253.795	83.5
254.028	80.5
254.261	82.5
254.494	73.5
254.727	100.5
254.96	109.5
255.193	96.5
255.426	92.5
255.659	88.5
255.892	78.5
256.124	83.5
256.357	73.5
256.59	85.5
256.823	74.5
257.056	92.5
257.289	97.5
257.521	75.5
257.754	79.5
257.987	76.5
258.22	66.5
258.452	75.5
258.685	81.5
258.918	98.5
259.151	96.5
259.383	75.5
259.616	87.5
259.849	80.5
260.081	93.5
260.314	78.5
260.547	75.5
260.779	79.5
261.012	89.5
261.244	83.5
261.477	90.5
261.71	85.5
261.942	118.5
262.175	115.5
262.407	107.5
262.64	95.5
262.872	83.5
263.105	99.5
263.337	93.5
263.57	82.5
263.802	82.5
264.035	86.5
264.267	94.5
264.499	80.5
264.732	96.5
264.964	83.5
265.197	88.5
265.429	85.5
265.661	88.5
265.894	89.5
266.126	85.5
266.358	101.5
266.591	79.5
266.823	78.5
267.055	80.5
267.287	80.5
267.52	78.5
267.752	85.5
267.984	82.5
268.216	83.5
268.448	92.5
268.681	91.5
268.913	82.5
269.145	82.5
269.377	90.5
269.609	73.5
269.841	95.5
270.073	87.5
270.306	83.5
270.538	80.5
270.77	77.5
271.002	95.5
271.234	80.5
271.466	88.5
271.698	81.5
271.93	82.5
272.162	85.5
272.394	81.5
272.626	78.5
272.858	86.5
273.09	101.5
273.322	97.5
273.553	80.5
273.785	99.5
274.017	90.5
274.249	101.5
274.481	88.5
274.713	87.5
274.945	100.5
275.176	97.5
275.408	91.5
275.64	91.5
275.872	67.5
276.104	76.5
276.335	89.5
276.567	85.5
276.799	98.5
277.031	87.5
277.262	107.5
277.494	83.5
277.726	84.5
277.957	96.5
278.189	88.5
278.421	92.5
278.652	87.5
278.884	82.5
279.115	87.5
279.347	79.5
279.579	86.5
279.81	96.5
280.042	93.5
280.273	90.5
280.505	82.5
280.736	81.5
280.968	85.5
281.199	81.5
281.431	87.5
281.662	100.5
281.894	87.5
282.125	101.5
282.356	106.5
282.588	109.5
282.819	104.5
283.051	98.5
283.282	77.5
283.513	107.5
283.745	103.5
283.976	83.5
284.207	92.5
284.439	88.5
284.67	104.5
284.901	85.5
285.132	95.5
285.364	84.5
285.595	84.5
285.826	88.5
286.057	83.5
286.288	76.5
286.52	90.5
286.751	77.5
286.982	91.5
287.213	89.5
287.444	95.5
287.675	91.5
287.906	100.5
288.138	100.5
288.369	99.5
288.6	89.5
288.831	74.5
289.062	84.5
289.293	105.5
289.524	84.5
289.755	91.5
289.986	83.5
290.217	91.5
290.448	79.5
290.679	86.5
290.91	99.5
291.141	82.5
291.371	93.5
291.602	98.5
291.833	83.5
292.064	79.5
292.295	89.5
292.526	89.5
292.757	95.5
292.987	105.5
293.218	79.5
293.449	96.5
293.68	83.5
293.91	95.5
294.141	101.5
294.372	107.5
294.603	104.5
294.833	96.5
295.064	89.5
295.295	99.5
295.525	100.5
295.756	98.5
295.987	97.5
296.217	133.5
296.448	115.5
296.679	83.5
296.909	83.5
297.14	91.5
297.37	94.5
297.601	90.5
297.831	100.5
298.062	92.5
298.292	104.5
298.523	83.5
298.753	79.5
298.984	90.5
299.214	81.5
299.445	88.5
299.675	88.5
299.905	94.5
300.136	88.5
300.366	81.5
300.597	93.5
300.827	89.5
301.057	108.5
301.288	104.5
301.518	88.5
301.748	97.5
301.979	83.5
302.209	90.5
302.439	99.5
302.669	101.5
302.9	104.5
303.13	108.5
303.36	99.5
303.59	95.5
303.82	97.5
304.051	93.5
304.281	78.5
304.511	91.5
304.741	80.5
304.971	94.5
305.201	88.5
305.431	99.5
305.661	98.5
305.891	88.5
306.121	90.5
306.352	103.5
306.582	106.5
306.812	99.5
307.042	97.5
307.272	92.5
307.502	81.5
307.731	107.5
307.961	96.5
308.191	84.5
308.421	97.5
308.651	96.5
308.881	91.5
309.111	92.5
309.341	93.5
309.571	88.5
309.8	102.5
310.03	99.5
310.26	101.5
310.49	106.5
310.72	105.5
310.949	91.5
311.179	111.5
311.409	92.5
311.639	103.5
311.868	95.5
312.098	92.5
312.328	95.5
312.557	106.5
312.787	115.5
313.017	101.5
313.246	92.5
313.476	105.5
313.706	100.5
313.935	97.5
314.165	86.5
314.394	115.5
314.624	101.5
314.853	110.5
315.083	105.5
315.312	100.5
315.542	106.5
315.771	91.5
316.001	98.5
316.23	98.5
316.46	96.5
316.689	85.5
316.919	99.5
317.148	100.5
317.377	97.5
317.607	94.5
317.836	92.5
318.065	106.5
318.295	95.5
318.524	80.5
318.753	98.5
318.983	92.5
319.212	101.5
319.441	114.5
319.67	107.5
319.9	75.5
320.129	97.5
320.358	101.5
320.587	97.5
320.816	76.5
321.046	103.5
321.275	107.5
321.504	103.5
321.733	100.5
321.962	89.5
322.191	93.5
322.42	115.5
322.649	107.5
322.878	107.5
323.108	107.5
323.337	119.5
323.566	126.5
323.795	146.5
324.024	201.5
324.253	393.5
324.482	816.5
324.71	1661.5
324.939	2178.5
325.168	809.5
325.397	239.5
325.626	133.5
325.855	117.5
326.084	138.5
326.313	132.5
326.542	155.5
326.77	245.5
326.999	449.5
327.228	943.5
327.457	1695.5
327.686	1354.5
327.914	352.5
328.143	189.5
328.372	132.5
328.6	128.5
328.829	108.5
329.058	114.5
329.287	131.5
329.515	116.5
329.744	109.5
329.972	101.5
330.201	105.5
330.43	111.5
330.658	116.5
330.887	124.5
331.115	111.5
331.344	93.5
331.572	93.5
331.801	111.5
332.03	92.5
332.258	105.5
332.486	88.5
332.715	92.5
332.943	110.5
333.172	89.5
333.4	100.5
333.629	94.5
333.857	100.5
334.085	96.5
334.314	107.5
334.542	108.5
334.771	101.5
334.999	90.5
335.227	97.5
335.455	109.5
335.684	108.5
335.912	110.5
336.14	104.5
336.369	104.5
336.597	88.5
336.825	111.5
337.053	87.5
337.281	101.5
337.51	109.5
337.738	100.5
337.966	92.5
338.194	96.5
338.422	105.5
338.65	99.5
338.878	98.5
339.106	97.5
339.334	95.5
339.562	90.5
339.79	97.5
340.018	90.5
340.246	95.5
340.474	97.5
340.702	102.5
340.93	113.5
341.158	105.5
341.386	98.5
341.614	109.5
341.842	88.5
342.07	96.5
342.298	83.5
342.526	86.5
342.754	94.5
342.981	93.5
343.209	92.5
343.437	95.5
343.665	89.5
343.893	88.5
344.12	104.5
344.348	92.5
344.576	94.5
344.804	87.5
345.031	99.5
345.259	116.5
345.487	89.5
345.714	105.5
345.942	96.5
346.17	96.5
346.397	93.5
346.625	103.5
346.853	104.5
347.08	96.5
347.308	104.5
347.535	103.5
347.763	98.5
347.99	79.5
348.218	116.5
348.445	94.5
348.673	93.5
348.9	102.5
349.128	101.5
349.355	107.5
349.583	104.5
349.81	85.5
350.037	93.5
350.265	99.5
350.492	81.5
350.72	96.5
350.947	91.5
351.174	121.5
351.402	111.5
351.629	104.5
351.856	88.5
352.083	101.5
352.311	104.5
352.538	110.5
352.765	100.5
352.992	108.5
353.22	110.5
353.447	91.5
353.674	106.5
353.901	97.5
354.128	102.5
354.355	110.5
354.583	90.5
354.81	100.5
355.037	107.5
355.264	105.5
355.491	101.5
355.718	96.5
355.945	93.5
356.172	110.5
356.399	90.5
356.626	102.5
356.853	91.5
357.08	96.5
357.307	111.5
357.534	85.5
357.761	103.5
357.988	88.5
358.215	85.5
358.441	108.5
358.668	114.5
358.895	96.5
359.122	105.5
359.349	91.5
359.576	105.5
359.802	116.5
360.029	112.5
360.256	106.5
360.483	101.5
360.709	89.5
360.936	93.5
361.163	94.5
361.39	97.5
361.616	98.5
361.843	93.5
362.07	104.5
362.296	96.5
362.523	97.5
362.749	92.5
362.976	84.5
363.203	91.5
363.429	100.5
363.656	99.5
363.882	82.5
364.109	115.5
364.335	92.5
364.562	80.5
364.788	89.5
365.015	99.5
365.241	100.5
365.468	122.5
365.694	97.5
365.92	97.5
366.147	90.5
366.373	86.5
366.599	96.5
366.826	93.5
367.052	86.5
367.278	98.5
367.505	91.5
367.731	98.5
367.957	93.5
368.184	87.5
368.41	98.5
368.636	96.5
368.862	127.5
369.089	107.5
369.315	105.5
369.541	103.5
369.767	97.5
369.993	96.5
370.219	112.5
370.445	104.5
370.672	105.5
370.898	97.5
371.124	96.5
371.35	89.5
371.576	108.5
371.802	79.5
372.028	104.5
372.254	103.5
372.48	85.5
372.706	83.5
372.932	80.5
373.158	91.5
373.384	106.5
373.61	88.5
373.835	93.5
374.061	83.5
374.287	91.5
374.513	83.5
374.739	100.5
374.965	88.5
375.191	93.5
375.416	83.5
375.642	94.5
375.868	85.5
376.094	92.5
376.319	104.5
376.545	101.5
376.771	91.5
376.997	94.5
377.222	96.5
377.448	85.5
377.674	85.5
377.899	86.5
378.125	84.5
378.35	92.5
378.576	80.5
378.802	88.5
379.027	114.5
379.253	95.5
379.478	103.5
379.704	90.5
379.929	97.5
380.155	103.5
380.38	92.5
380.606	103.5
380.831	97.5
381.057	106.5
381.282	97.5
381.507	103.5
381.733	107.5
381.958	105.5
382.184	104.5
382.409	97.5
382.634	107.5
382.86	98.5
383.085	93.5
383.31	98.5
383.535	97.5
383.761	88.5
383.986	93.5
384.211	104.5
384.436	112.5
384.662	115.5
384.887	106.5
385.112	100.5
385.337	123.5
385.562	101.5
385.787	105.5
386.013	98.5
386.238	116.5
386.463	95.5
386.688	117.5
386.913	105.5
387.138	110.5
387.363	100.5
387.588	117.5
387.813	92.5
388.038	101.5
388.263	106.5
388.488	113.5
388.713	93.5
388.938	103.5
389.163	93.5
389.387	104.5
389.612	91.5
389.837	98.5
390.062	88.5
390.287	97.5
390.512	98.5
390.736	83.5
390.961	91.5
391.186	95.5
391.411	105.5
391.636	87.5
391.86	101.5
392.085	105.5
392.31	86.5
392.534	77.5
392.759	81.5
392.984	90.5
393.208	85.5
393.433	96.5
393.658	95.5
393.882	88.5
394.107	97.5
394.331	78.5
394.556	84.5
394.78	100.5
395.005	103.5
395.229	89.5
395.454	84.5
395.678	93.5
395.903	89.5
396.127	77.5
396.352	93.5
396.576	81.5
396.801	93.5
397.025	85.5
397.249	90.5
397.474	84.5
397.698	85.5
397.922	95.5
398.147	78.5
398.371	84.5
398.595	97.5
398.82	98.5
399.044	95.5
399.268	104.5
399.492	91.5
399.717	91.5
399.941	109.5
400.165	101.5
400.389	95.5
400.613	76.5
400.837	92.5
401.062	101.5
401.286	93.5
401.51	79.5
401.734	99.5
401.958	112.5
402.182	116.5
402.406	145.5
402.63	120.5
402.854	83.5
403.078	96.5
403.302	95.5
403.526	79.5
403.75	93.5
403.974	90.5
404.198	85.5
404.422	100.5
404.645	95.5
404.869	87.5
405.093	84.5
405.317	93.5
405.541	100.5
405.765	99.5
405.988	111.5
406.212	165.5
406.436	205.5
406.66	136.5
406.883	91.5
407.107	96.5
407.331	106.5
407.555	117.5
407.778	113.5
408.002	86.5
408.226	93.5
408.449	80.5
408.673	92.5
408.896	87.5
409.12	87.5
409.344	80.5
409.567	89.5
409.791	102.5
410.014	98.5
410.238	95.5
410.461	97.5
410.685	106.5
410.908	95.5
411.132	114.5
411.355	101.5
411.578	89.5
411.802	93.5
412.025	78.5
412.249	86.5
412.472	103.5
412.695	91.5
412.919	97.5
413.142	101.5
413.365	100.5
413.589	88.5
413.812	83.5
414.035	87.5
414.258	96.5
414.482	108.5
414.705	83.5
414.928	102.5
415.151	89.5
415.374	102.5
415.597	91.5
415.821	92.5
416.044	95.5
416.267	104.5
416.49	79.5
416.713	92.5
416.936	92.5
417.159	87.5
417.382	92.5
417.605	96.5
417.828	99.5
418.051	91.5
418.274	105.5
418.497	99.5
418.72	92.5
418.943	87.5
419.166	75.5
419.389	91.5
419.611	96.5
419.834	91.5
420.057	80.5
420.28	90.5
420.503	84.5
420.726	93.5
420.948	89.5
421.171	99.5
421.394	107.5
421.617	99.5
421.839	91.5
422.062	90.5
422.285	95.5
422.507	103.5
422.73	95.5
422.953	99.5
423.175	99.5
423.398	80.5
423.621	92.5
423.843	96.5
424.066	108.5
424.288	110.5
424.511	85.5
424.733	116.5
424.956	100.5
425.178	98.5
425.401	101.5
425.623	98.5
425.846	95.5
426.068	86.5
426.291	100.5
426.513	99.5
426.735	104.5
426.958	82.5
427.18	102.5
427.402	123.5
427.625	144.5
427.847	135.5
428.069	109.5
428.292	84.5
428.514	83.5
428.736	67.5
428.958	94.5
429.181	81.5
429.403	82.5
429.625	86.5
429.847	92.5
430.069	106.5
430.292	88.5
430.514	76.5
430.736	82.5
430.958	75.5
431.18	91.5
431.402	92.5
431.624	89.5
431.846	98.5
432.068	95.5
432.29	90.5
432.512	91.5
432.734	99.5
432.956	96.5
433.178	107.5
433.4	91.5
433.622	86.5
433.844	95.5
434.066	90.5
434.287	101.5
434.509	82.5
434.731	102.5
434.953	84.5
435.175	84.5
435.397	98.5
435.618	100.5
435.84	95.5
436.062	125.5
436.284	109.5
436.505	114.5
436.727	87.5
436.949	93.5
437.17	91.5
437.392	94.5
437.614	103.5
437.835	102.5
438.057	104.5
438.278	125.5
438.5	107.5
438.721	111.5
438.943	97.5
439.165	89.5
439.386	98.5
439.608	93.5
439.829	102.5
440.05	97.5
440.272	129.5
440.493	110.5
440.715	99.5
440.936	91.5
441.158	106.5
441.379	87.5
441.6	92.5
441.822	92.5
442.043	97.5
442.264	84.5
442.486	104.5
442.707	103.5
442.928	99.5
443.149	130.5
443.371	121.5
443.592	102.5
443.813	105.5
444.034	109.5
444.255	85.5
444.476	90.5
444.698	93.5
444.919	94.5
445.14	146.5
445.361	118.5
445.582	109.5
445.803	115.5
446.024	125.5
446.245	115.5
446.466	106.5
446.687	97.5
446.908	86.5
447.129	97.5
447.35	87.5
447.571	94.5
447.792	106.5
448.013	88.5
448.234	111.5
448.455	101.5
448.675	101.5
448.896	116.5
449.117	104.5
449.338	115.5
449.559	110.5
449.779	132.5
450	105.5
450.221	82.5
450.442	109.5
450.662	98.5
450.883	101.5
451.104	108.5
451.324	88.5
451.545	108.5
451.766	91.5
451.986	92.5
452.207	90.5
452.428	89.5
452.648	101.5
452.869	113.5
453.089	101.5
453.31	127.5
453.53	81.5
453.751	91.5
453.971	93.5
454.192	93.5
454.412	101.5
454.633	97.5
454.853	104.5
455.073	90.5
455.294	92.5
455.514	88.5
455.734	81.5
455.955	87.5
456.175	90.5
456.395	86.5
456.616	87.5
456.836	91.5
457.056	100.5
457.276	80.5
457.497	78.5
457.717	90.5
457.937	96.5
458.157	90.5
458.377	90.5
458.598	113.5
458.818	145.5
459.038	154.5
459.258	101.5
459.478	88.5
459.698	80.5
459.918	87.5
460.138	80.5
460.358	78.5
460.578	91.5
460.798	87.5
461.018	89.5
461.238	94.5
461.458	81.5
461.678	93.5
461.898	77.5
462.118	95.5
462.338	87.5
462.558	87.5
462.777	96.5
462.997	82.5
463.217	92.5
463.437	96.5
463.657	93.5
463.876	85.5
464.096	92.5
464.316	103.5
464.536	97.5
464.755	89.5
464.975	104.5
465.195	153.5
465.414	135.5
465.634	100.5
465.854	91.5
466.073	101.5
466.293	95.5
466.512	91.5
466.732	95.5
466.951	99.5
467.171	87.5
467.391	98.5
467.61	101.5
467.829	89.5
468.049	89.5
468.268	88.5
468.488	96.5
468.707	77.5
468.927	100.5
469.146	93.5
469.365	90.5
469.585	87.5
469.804	98.5
470.023	84.5
470.243	93.5
470.462	107.5
470.681	111.5
470.901	96.5
471.12	99.5
471.339	82.5
471.558	81.5
471.777	95.5
471.997	89.5
472.216	104.5
472.435	99.5
472.654	92.5
472.873	85.5
473.092	83.5
473.311	78.5
473.53	79.5
473.749	85.5
473.968	107.5
474.187	97.5
474.406	81.5
474.625	102.5
474.844	89.5
475.063	95.5
475.282	105.5
475.501	97.5
475.72	85.5
475.939	83.5
476.158	94.5
476.377	75.5
476.596	82.5
476.814	75.5
477.033	99.5
477.252	87.5
477.471	93.5
477.69	83.5
477.908	101.5
478.127	105.5
478.346	105.5
478.564	92.5
478.783	82.5
479.002	81.5
479.22	87.5
479.439	108.5
479.658	100.5
479.876	89.5
480.095	84.5
480.313	95.5
480.532	89.5
480.751	100.5
480.969	100.5
481.188	117.5
481.406	130.5
481.624	91.5
481.843	114.5
482.061	100.5
482.28	95.5
482.498	81.5
482.717	100.5
482.935	79.5
483.153	93.5
483.372	101.5
483.59	95.5
483.808	80.5
484.027	103.5
484.245	101.5
484.463	94.5
484.681	110.5
484.9	98.5
485.118	106.5
485.336	98.5
485.554	94.5
485.772	110.5
485.99	109.5
486.209	106.5
486.427	85.5
486.645	124.5
486.863	107.5
487.081	101.5
487.299	105.5
487.517	101.5
487.735	95.5
487.953	83.5
488.171	101.5
488.389	87.5
488.607	86.5
488.825	94.5
489.043	83.5
489.261	89.5
489.479	106.5
489.696	102.5
489.914	89.5
490.132	96.5
490.35	98.5
490.568	98.5
490.786	97.5
491.003	96.5
491.221	87.5
491.439	91.5
491.657	78.5
491.874	95.5
492.092	90.5
492.31	94.5
492.527	92.5
492.745	93.5
492.963	82.5
493.18	89.5
493.398	96.5
493.615	100.5
493.833	98.5
494.05	87.5
494.268	91.5
494.485	95.5
494.703	74.5
494.92	106.5
495.138	86.5
495.355	87.5
495.573	98.5
495.79	108.5
496.008	89.5
496.225	94.5
496.442	105.5
496.66	96.5
496.877	95.5
497.094	90.5
497.312	100.5
497.529	95.5
497.746	84.5
497.963	87.5
498.181	93.5
498.398	83.5
498.615	110.5
498.832	108.5
499.049	87.5
499.267	88.5
499.484	96.5
499.701	90.5
499.918	92.5
500.135	89.5
500.352	94.5
500.569	92.5
500.786	102.5
501.003	96.5
501.22	104.5
501.437	88.5
501.654	104.5
501.871	95.5
502.088	90.5
502.305	93.5
502.522	90.5
502.739	99.5
502.956	88.5
503.172	77.5
503.389	76.5
503.606	84.5
503.823	111.5
504.04	83.5
504.256	85.5
504.473	100.5
504.69	96.5
504.907	97.5
505.123	93.5
505.34	88.5
505.557	79.5
505.773	90.5
505.99	82.5
506.207	105.5
506.423	95.5
506.64	94.5
506.856	82.5
507.073	91.5
507.289	99.5
507.506	86.5
507.722	106.5
507.939	104.5
508.155	100.5
508.372	106.5
508.588	99.5
508.805	95.5
509.021	103.5
509.238	101.5
509.454	93.5
509.67	100.5
509.887	115.5
510.103	122.5
510.319	217.5
510.536	729.5
510.752	2189.5
510.968	613.5
511.184	161.5
511.401	120.5
511.617	93.5
511.833	105.5
512.049	89.5
512.265	88.5
512.481	88.5
512.698	98.5
512.914	73.5
513.13	88.5
513.346	91.5
513.562	97.5
513.778	103.5
513.994	107.5
514.21	104.5
514.426	112.5
514.642	136.5
514.858	121.5
515.074	161.5
515.29	366.5
515.506	1240.5
515.721	458.5
515.937	144.5
516.153	107.5
516.369	106.5
516.585	98.5
516.801	92.5
517.016	95.5
517.232	86.5
517.448	115.5
517.664	110.5
517.879	94.5
518.095	99.5
518.311	93.5
518.527	80.5
518.742	96.5
518.958	93.5
519.173	96.5
519.389	93.5
519.605	98.5
519.82	104.5
520.036	109.5
520.251	123.5
520.467	108.5
520.682	98.5
520.898	111.5
521.113	120.5
521.329	128.5
521.544	176.5
521.76	486.5
521.975	2047.5
522.19	1231.5
522.406	274.5
522.621	112.5
522.836	111.5
523.052	99.5
523.267	101.5
523.482	82.5
523.698	101.5
523.913	120.5
524.128	94.5
524.343	90.5
524.559	108.5
524.774	99.5
524.989	96.5
525.204	92.5
525.419	99.5
525.634	92.5
525.849	99.5
526.064	101.5
526.28	93.5
526.495	104.5
526.71	95.5
526.925	92.5
527.14	72.5
527.355	102.5
527.57	89.5
527.785	98.5
527.999	81.5
528.214	95.5
528.429	95.5
528.644	97.5
528.859	97.5
529.074	94.5
529.289	119.5
529.503	159.5
529.718	102.5
529.933	101.5
530.148	85.5
530.363	80.5
530.577	82.5
530.792	107.5
531.007	98.5
531.221	89.5
531.436	94.5
531.651	98.5
531.865	88.5
532.08	94.5
532.295	94.5
532.509	80.5
532.724	95.5
532.938	100.5
533.153	114.5
533.367	100.5
533.582	101.5
533.796	93.5
