Data from Uncirc_1999_H10_HRD10591_00044.txt Node
Date: Wed Jan 03 11:22:14 EST 2024
User: Yrep
Spectrometer: HR+D1059
Trigger mode: 1
Integration Time (sec): 1.000000E-1
Scans to average: 1
Electric dark correction enabled: true
Nonlinearity correction enabled: false
Boxcar width: 0
XAxis mode: Wavelengths
Number of Pixels in Spectrum: 2048
>>>>>Begin Spectral Data<<<<<
223.165	-18.44
223.4	-18.44
223.635	-18.44
223.869	-21.44
224.104	-19.44
224.338	-26.44
224.573	-5.44
224.808	-15.44
225.042	-2.44
225.277	-10.44
225.511	-6.44
225.746	-0.44
225.98	3.56
226.215	17.56
226.449	26.56
226.683	17.56
226.918	35.56
227.152	25.56
227.387	32.56
227.621	36.56
227.856	35.56
228.09	54.56
228.324	59.56
228.559	56.56
228.793	58.56
229.027	67.56
229.262	87.56
229.496	69.56
229.73	80.56
229.964	78.56
230.199	48.56
230.433	83.56
230.667	82.56
230.901	83.56
231.136	83.56
231.37	83.56
231.604	89.56
231.838	90.56
232.072	85.56
232.306	84.56
232.541	64.56
232.775	71.56
233.009	83.56
233.243	102.56
233.477	97.56
233.711	80.56
233.945	75.56
234.179	71.56
234.413	70.56
234.647	71.56
234.881	77.56
235.115	77.56
235.349	86.56
235.583	87.56
235.817	73.56
236.051	95.56
236.285	79.56
236.519	73.56
236.753	65.56
236.987	77.56
237.221	93.56
237.455	89.56
237.689	79.56
237.922	72.56
238.156	81.56
238.39	75.56
238.624	73.56
238.858	76.56
239.091	80.56
239.325	76.56
239.559	60.56
239.793	77.56
240.027	82.56
240.26	83.56
240.494	87.56
240.728	73.56
240.961	80.56
241.195	79.56
241.429	63.56
241.662	60.56
241.896	79.56
242.13	76.56
242.363	85.56
242.597	76.56
242.83	70.56
243.064	70.56
243.298	92.56
243.531	96.56
243.765	92.56
243.998	84.56
244.232	68.56
244.465	77.56
244.699	79.56
244.932	78.56
245.166	89.56
245.399	91.56
245.633	86.56
245.866	81.56
246.099	83.56
246.333	68.56
246.566	86.56
246.8	73.56
247.033	77.56
247.266	81.56
247.5	78.56
247.733	88.56
247.966	89.56
248.2	72.56
248.433	63.56
248.666	74.56
248.899	70.56
249.133	79.56
249.366	85.56
249.599	92.56
249.832	84.56
250.066	88.56
250.299	87.56
250.532	92.56
250.765	88.56
250.998	89.56
251.231	93.56
251.465	83.56
251.698	62.56
251.931	75.56
252.164	85.56
252.397	69.56
252.63	84.56
252.863	79.56
253.096	70.56
253.329	81.56
253.562	91.56
253.795	72.56
254.028	74.56
254.261	91.56
254.494	79.56
254.727	80.56
254.96	86.56
255.193	79.56
255.426	91.56
255.659	97.56
255.892	91.56
256.124	73.56
256.357	75.56
256.59	82.56
256.823	78.56
257.056	69.56
257.289	85.56
257.521	97.56
257.754	90.56
257.987	72.56
258.22	76.56
258.452	70.56
258.685	72.56
258.918	75.56
259.151	82.56
259.383	86.56
259.616	79.56
259.849	63.56
260.081	86.56
260.314	84.56
260.547	73.56
260.779	87.56
261.012	82.56
261.244	85.56
261.477	92.56
261.71	97.56
261.942	112.56
262.175	120.56
262.407	98.56
262.64	73.56
262.872	84.56
263.105	81.56
263.337	79.56
263.57	82.56
263.802	77.56
264.035	97.56
264.267	82.56
264.499	93.56
264.732	71.56
264.964	83.56
265.197	82.56
265.429	84.56
265.661	87.56
265.894	82.56
266.126	90.56
266.358	75.56
266.591	78.56
266.823	91.56
267.055	79.56
267.287	97.56
267.52	75.56
267.752	85.56
267.984	89.56
268.216	84.56
268.448	81.56
268.681	71.56
268.913	84.56
269.145	85.56
269.377	76.56
269.609	86.56
269.841	88.56
270.073	87.56
270.306	80.56
270.538	92.56
270.77	94.56
271.002	80.56
271.234	83.56
271.466	80.56
271.698	91.56
271.93	87.56
272.162	80.56
272.394	86.56
272.626	91.56
272.858	81.56
273.09	72.56
273.322	88.56
273.553	74.56
273.785	92.56
274.017	76.56
274.249	84.56
274.481	68.56
274.713	72.56
274.945	76.56
275.176	81.56
275.408	95.56
275.64	90.56
275.872	77.56
276.104	89.56
276.335	87.56
276.567	94.56
276.799	86.56
277.031	87.56
277.262	79.56
277.494	85.56
277.726	104.56
277.957	86.56
278.189	84.56
278.421	82.56
278.652	85.56
278.884	87.56
279.115	89.56
279.347	76.56
279.579	88.56
279.81	93.56
280.042	83.56
280.273	83.56
280.505	86.56
280.736	87.56
280.968	73.56
281.199	79.56
281.431	85.56
281.662	96.56
281.894	91.56
282.125	89.56
282.356	119.56
282.588	145.56
282.819	115.56
283.051	87.56
283.282	90.56
283.513	80.56
283.745	74.56
283.976	88.56
284.207	92.56
284.439	103.56
284.67	79.56
284.901	77.56
285.132	80.56
285.364	74.56
285.595	80.56
285.826	83.56
286.057	84.56
286.288	105.56
286.52	91.56
286.751	88.56
286.982	99.56
287.213	79.56
287.444	87.56
287.675	91.56
287.906	71.56
288.138	82.56
288.369	93.56
288.6	82.56
288.831	82.56
289.062	90.56
289.293	78.56
289.524	81.56
289.755	86.56
289.986	97.56
290.217	85.56
290.448	71.56
290.679	94.56
290.91	80.56
291.141	94.56
291.371	97.56
291.602	90.56
291.833	84.56
292.064	86.56
292.295	101.56
292.526	93.56
292.757	92.56
292.987	95.56
293.218	91.56
293.449	83.56
293.68	88.56
293.91	84.56
294.141	92.56
294.372	85.56
294.603	91.56
294.833	89.56
295.064	80.56
295.295	82.56
295.525	80.56
295.756	97.56
295.987	116.56
296.217	128.56
296.448	102.56
296.679	85.56
296.909	88.56
297.14	92.56
297.37	91.56
297.601	84.56
297.831	77.56
298.062	89.56
298.292	98.56
298.523	91.56
298.753	89.56
298.984	80.56
299.214	88.56
299.445	93.56
299.675	86.56
299.905	97.56
300.136	97.56
300.366	86.56
300.597	91.56
300.827	85.56
301.057	101.56
301.288	101.56
301.518	88.56
301.748	97.56
301.979	90.56
302.209	89.56
302.439	84.56
302.669	80.56
302.9	80.56
303.13	85.56
303.36	97.56
303.59	102.56
303.82	99.56
304.051	91.56
304.281	90.56
304.511	87.56
304.741	89.56
304.971	90.56
305.201	89.56
305.431	89.56
305.661	82.56
305.891	96.56
306.121	85.56
306.352	97.56
306.582	111.56
306.812	83.56
307.042	86.56
307.272	87.56
307.502	98.56
307.731	98.56
307.961	86.56
308.191	90.56
308.421	93.56
308.651	95.56
308.881	92.56
309.111	78.56
309.341	92.56
309.571	97.56
309.8	73.56
310.03	118.56
310.26	104.56
310.49	87.56
310.72	94.56
310.949	94.56
311.179	96.56
311.409	98.56
311.639	80.56
311.868	77.56
312.098	76.56
312.328	102.56
312.557	107.56
312.787	102.56
313.017	106.56
313.246	100.56
313.476	92.56
313.706	87.56
313.935	91.56
314.165	91.56
314.394	90.56
314.624	93.56
314.853	89.56
315.083	84.56
315.312	107.56
315.542	85.56
315.771	92.56
316.001	97.56
316.23	89.56
316.46	101.56
316.689	78.56
316.919	95.56
317.148	88.56
317.377	102.56
317.607	97.56
317.836	86.56
318.065	99.56
318.295	91.56
318.524	97.56
318.753	100.56
318.983	89.56
319.212	94.56
319.441	95.56
319.67	88.56
319.9	68.56
320.129	80.56
320.358	77.56
320.587	99.56
320.816	108.56
321.046	96.56
321.275	92.56
321.504	92.56
321.733	98.56
321.962	94.56
322.191	99.56
322.42	100.56
322.649	108.56
322.878	103.56
323.108	118.56
323.337	124.56
323.566	146.56
323.795	147.56
324.024	207.56
324.253	409.56
324.482	863.56
324.71	1760.56
324.939	2296.56
325.168	844.56
325.397	257.56
325.626	154.56
325.855	131.56
326.084	131.56
326.313	126.56
326.542	149.56
326.77	234.56
326.999	476.56
327.228	1019.56
327.457	1802.56
327.686	1437.56
327.914	400.56
328.143	203.56
328.372	135.56
328.6	122.56
328.829	122.56
329.058	133.56
329.287	142.56
329.515	115.56
329.744	97.56
329.972	89.56
330.201	100.56
330.43	96.56
330.658	105.56
330.887	137.56
331.115	117.56
331.344	100.56
331.572	108.56
331.801	117.56
332.03	102.56
332.258	109.56
332.486	92.56
332.715	101.56
332.943	85.56
333.172	102.56
333.4	97.56
333.629	104.56
333.857	107.56
334.085	94.56
334.314	101.56
334.542	112.56
334.771	106.56
334.999	95.56
335.227	101.56
335.455	102.56
335.684	105.56
335.912	87.56
336.14	99.56
336.369	88.56
336.597	102.56
336.825	92.56
337.053	86.56
337.281	94.56
337.51	90.56
337.738	87.56
337.966	92.56
338.194	89.56
338.422	107.56
338.65	104.56
338.878	84.56
339.106	81.56
339.334	85.56
339.562	100.56
339.79	75.56
340.018	92.56
340.246	87.56
340.474	82.56
340.702	99.56
340.93	95.56
341.158	89.56
341.386	111.56
341.614	92.56
341.842	90.56
342.07	96.56
342.298	94.56
342.526	89.56
342.754	94.56
342.981	79.56
343.209	75.56
343.437	105.56
343.665	97.56
343.893	95.56
344.12	88.56
344.348	91.56
344.576	94.56
344.804	91.56
345.031	83.56
345.259	92.56
345.487	96.56
345.714	101.56
345.942	79.56
346.17	85.56
346.397	87.56
346.625	87.56
346.853	97.56
347.08	86.56
347.308	88.56
347.535	87.56
347.763	107.56
347.99	101.56
348.218	97.56
348.445	95.56
348.673	94.56
348.9	93.56
349.128	97.56
349.355	102.56
349.583	83.56
349.81	97.56
350.037	91.56
350.265	107.56
350.492	90.56
350.72	94.56
350.947	91.56
351.174	105.56
351.402	98.56
351.629	101.56
351.856	108.56
352.083	102.56
352.311	112.56
352.538	97.56
352.765	121.56
352.992	122.56
353.22	104.56
353.447	90.56
353.674	107.56
353.901	78.56
354.128	100.56
354.355	104.56
354.583	102.56
354.81	85.56
355.037	99.56
355.264	100.56
355.491	92.56
355.718	86.56
355.945	92.56
356.172	108.56
356.399	94.56
356.626	95.56
356.853	87.56
357.08	89.56
357.307	91.56
357.534	93.56
357.761	97.56
357.988	100.56
358.215	95.56
358.441	86.56
358.668	95.56
358.895	81.56
359.122	95.56
359.349	107.56
359.576	87.56
359.802	94.56
360.029	114.56
360.256	124.56
360.483	108.56
360.709	102.56
360.936	89.56
361.163	94.56
361.39	90.56
361.616	87.56
361.843	90.56
362.07	96.56
362.296	91.56
362.523	98.56
362.749	80.56
362.976	89.56
363.203	96.56
363.429	85.56
363.656	93.56
363.882	102.56
364.109	101.56
364.335	91.56
364.562	83.56
364.788	93.56
365.015	89.56
365.241	82.56
365.468	82.56
365.694	103.56
365.92	98.56
366.147	93.56
366.373	99.56
366.599	98.56
366.826	95.56
367.052	87.56
367.278	104.56
367.505	94.56
367.731	90.56
367.957	89.56
368.184	98.56
368.41	107.56
368.636	103.56
368.862	130.56
369.089	105.56
369.315	99.56
369.541	88.56
369.767	83.56
369.993	81.56
370.219	86.56
370.445	88.56
370.672	93.56
370.898	89.56
371.124	87.56
371.35	88.56
371.576	91.56
371.802	69.56
372.028	91.56
372.254	89.56
372.48	98.56
372.706	80.56
372.932	77.56
373.158	87.56
373.384	86.56
373.61	94.56
373.835	94.56
374.061	87.56
374.287	92.56
374.513	85.56
374.739	84.56
374.965	86.56
375.191	97.56
375.416	88.56
375.642	92.56
375.868	103.56
376.094	99.56
376.319	92.56
376.545	99.56
376.771	83.56
376.997	76.56
377.222	97.56
377.448	108.56
377.674	94.56
377.899	87.56
378.125	83.56
378.35	89.56
378.576	81.56
378.802	87.56
379.027	100.56
379.253	103.56
379.478	110.56
379.704	91.56
379.929	96.56
380.155	93.56
380.38	93.56
380.606	88.56
380.831	103.56
381.057	103.56
381.282	94.56
381.507	86.56
381.733	96.56
381.958	111.56
382.184	101.56
382.409	97.56
382.634	103.56
382.86	104.56
383.085	113.56
383.31	119.56
383.535	97.56
383.761	99.56
383.986	107.56
384.211	103.56
384.436	105.56
384.662	95.56
384.887	96.56
385.112	103.56
385.337	115.56
385.562	101.56
385.787	106.56
386.013	113.56
386.238	119.56
386.463	108.56
386.688	115.56
386.913	109.56
387.138	101.56
387.363	109.56
387.588	109.56
387.813	101.56
388.038	101.56
388.263	120.56
388.488	98.56
388.713	97.56
388.938	96.56
389.163	93.56
389.387	91.56
389.612	81.56
389.837	89.56
390.062	107.56
390.287	106.56
390.512	100.56
390.736	88.56
390.961	88.56
391.186	93.56
391.411	87.56
391.636	83.56
391.86	74.56
392.085	103.56
392.31	75.56
392.534	103.56
392.759	93.56
392.984	102.56
393.208	83.56
393.433	86.56
393.658	92.56
393.882	95.56
394.107	82.56
394.331	82.56
394.556	88.56
394.78	94.56
395.005	105.56
395.229	85.56
395.454	107.56
395.678	91.56
395.903	91.56
396.127	95.56
396.352	77.56
396.576	83.56
396.801	89.56
397.025	91.56
397.249	88.56
397.474	72.56
397.698	92.56
397.922	91.56
398.147	107.56
398.371	87.56
398.595	87.56
398.82	93.56
399.044	88.56
399.268	91.56
399.492	83.56
399.717	91.56
399.941	97.56
400.165	100.56
400.389	78.56
400.613	89.56
400.837	89.56
401.062	68.56
401.286	93.56
401.51	106.56
401.734	72.56
401.958	97.56
402.182	125.56
402.406	147.56
402.63	113.56
402.854	94.56
403.078	85.56
403.302	82.56
403.526	86.56
403.75	87.56
403.974	105.56
404.198	108.56
404.422	84.56
404.645	88.56
404.869	107.56
405.093	94.56
405.317	100.56
405.541	108.56
405.765	112.56
405.988	111.56
406.212	165.56
406.436	204.56
406.66	144.56
406.883	107.56
407.107	100.56
407.331	89.56
407.555	99.56
407.778	104.56
408.002	97.56
408.226	107.56
408.449	104.56
408.673	86.56
408.896	103.56
409.12	100.56
409.344	87.56
409.567	88.56
409.791	90.56
410.014	85.56
410.238	87.56
410.461	110.56
410.685	86.56
410.908	109.56
411.132	106.56
411.355	87.56
411.578	83.56
411.802	88.56
412.025	72.56
412.249	91.56
412.472	98.56
412.695	95.56
412.919	87.56
413.142	83.56
413.365	104.56
413.589	90.56
413.812	93.56
414.035	91.56
414.258	93.56
414.482	88.56
414.705	93.56
414.928	95.56
415.151	108.56
415.374	89.56
415.597	78.56
415.821	87.56
416.044	84.56
416.267	75.56
416.49	100.56
416.713	95.56
416.936	83.56
417.159	93.56
417.382	81.56
417.605	82.56
417.828	100.56
418.051	85.56
418.274	97.56
418.497	105.56
418.72	86.56
418.943	96.56
419.166	96.56
419.389	82.56
419.611	98.56
419.834	76.56
420.057	95.56
420.28	96.56
420.503	86.56
420.726	93.56
420.948	86.56
421.171	91.56
421.394	95.56
421.617	87.56
421.839	89.56
422.062	85.56
422.285	92.56
422.507	94.56
422.73	99.56
422.953	92.56
423.175	90.56
423.398	96.56
423.621	87.56
423.843	79.56
424.066	96.56
424.288	93.56
424.511	95.56
424.733	97.56
424.956	88.56
425.178	94.56
425.401	102.56
425.623	95.56
425.846	72.56
426.068	94.56
426.291	89.56
426.513	90.56
426.735	93.56
426.958	88.56
427.18	111.56
427.402	124.56
427.625	154.56
427.847	124.56
428.069	90.56
428.292	96.56
428.514	87.56
428.736	80.56
428.958	93.56
429.181	93.56
429.403	92.56
429.625	81.56
429.847	92.56
430.069	102.56
430.292	93.56
430.514	88.56
430.736	85.56
430.958	80.56
431.18	87.56
431.402	86.56
431.624	97.56
431.846	108.56
432.068	94.56
432.29	72.56
432.512	102.56
432.734	89.56
432.956	101.56
433.178	93.56
433.4	103.56
433.622	79.56
433.844	98.56
434.066	91.56
434.287	93.56
434.509	81.56
434.731	96.56
434.953	85.56
435.175	94.56
435.397	90.56
435.618	89.56
435.84	106.56
436.062	119.56
436.284	92.56
436.505	99.56
436.727	100.56
436.949	96.56
437.17	83.56
437.392	75.56
437.614	89.56
437.835	102.56
438.057	128.56
438.278	117.56
438.5	102.56
438.721	112.56
438.943	88.56
439.165	94.56
439.386	85.56
439.608	83.56
439.829	109.56
440.05	121.56
440.272	147.56
440.493	94.56
440.715	91.56
440.936	80.56
441.158	84.56
441.379	84.56
441.6	93.56
441.822	84.56
442.043	97.56
442.264	111.56
442.486	104.56
442.707	100.56
442.928	101.56
443.149	127.56
443.371	128.56
443.592	104.56
443.813	113.56
444.034	112.56
444.255	93.56
444.476	89.56
444.698	91.56
444.919	86.56
445.14	127.56
445.361	119.56
445.582	106.56
445.803	140.56
446.024	132.56
446.245	127.56
446.466	115.56
446.687	84.56
446.908	94.56
447.129	88.56
447.35	99.56
447.571	78.56
447.792	91.56
448.013	109.56
448.234	111.56
448.455	99.56
448.675	94.56
448.896	116.56
449.117	86.56
449.338	93.56
449.559	127.56
449.779	142.56
450	97.56
450.221	85.56
450.442	91.56
450.662	91.56
450.883	93.56
451.104	102.56
451.324	88.56
451.545	91.56
451.766	86.56
451.986	77.56
452.207	87.56
452.428	93.56
452.648	89.56
452.869	109.56
453.089	114.56
453.31	98.56
453.53	101.56
453.751	91.56
453.971	88.56
454.192	110.56
454.412	98.56
454.633	97.56
454.853	101.56
455.073	83.56
455.294	105.56
455.514	100.56
455.734	95.56
455.955	83.56
456.175	94.56
456.395	80.56
456.616	85.56
456.836	89.56
457.056	91.56
457.276	88.56
457.497	91.56
457.717	98.56
457.937	87.56
458.157	88.56
458.377	92.56
458.598	92.56
458.818	140.56
459.038	144.56
459.258	117.56
459.478	88.56
459.698	85.56
459.918	78.56
460.138	86.56
460.358	91.56
460.578	91.56
460.798	92.56
461.018	90.56
461.238	76.56
461.458	79.56
461.678	89.56
461.898	90.56
462.118	84.56
462.338	89.56
462.558	87.56
462.777	100.56
462.997	91.56
463.217	90.56
463.437	79.56
463.657	71.56
463.876	85.56
464.096	85.56
464.316	97.56
464.536	97.56
464.755	87.56
464.975	114.56
465.195	150.56
465.414	163.56
465.634	100.56
465.854	86.56
466.073	81.56
466.293	83.56
466.512	82.56
466.732	76.56
466.951	87.56
467.171	108.56
467.391	75.56
467.61	107.56
467.829	77.56
468.049	95.56
468.268	98.56
468.488	89.56
468.707	78.56
468.927	97.56
469.146	79.56
469.365	82.56
469.585	85.56
469.804	79.56
470.023	89.56
470.243	82.56
470.462	100.56
470.681	88.56
470.901	97.56
471.12	88.56
471.339	93.56
471.558	82.56
471.777	90.56
471.997	94.56
472.216	79.56
472.435	100.56
472.654	100.56
472.873	75.56
473.092	87.56
473.311	103.56
473.53	89.56
473.749	81.56
473.968	91.56
474.187	100.56
474.406	103.56
474.625	83.56
474.844	89.56
475.063	104.56
475.282	82.56
475.501	79.56
475.72	87.56
475.939	82.56
476.158	94.56
476.377	95.56
476.596	91.56
476.814	93.56
477.033	88.56
477.252	94.56
477.471	81.56
477.69	86.56
477.908	103.56
478.127	95.56
478.346	100.56
478.564	97.56
478.783	93.56
479.002	89.56
479.22	100.56
479.439	101.56
479.658	94.56
479.876	89.56
480.095	110.56
480.313	101.56
480.532	92.56
480.751	80.56
480.969	99.56
481.188	128.56
481.406	87.56
481.624	90.56
481.843	83.56
482.061	78.56
482.28	87.56
482.498	92.56
482.717	95.56
482.935	88.56
483.153	72.56
483.372	80.56
483.59	73.56
483.808	90.56
484.027	88.56
484.245	95.56
484.463	86.56
484.681	100.56
484.9	94.56
485.118	93.56
485.336	89.56
485.554	103.56
485.772	104.56
485.99	96.56
486.209	102.56
486.427	105.56
486.645	103.56
486.863	104.56
487.081	105.56
487.299	100.56
487.517	95.56
487.735	86.56
487.953	97.56
488.171	88.56
488.389	93.56
488.607	101.56
488.825	96.56
489.043	92.56
489.261	101.56
489.479	91.56
489.696	99.56
489.914	83.56
490.132	98.56
490.35	90.56
490.568	86.56
490.786	84.56
491.003	87.56
491.221	84.56
491.439	99.56
491.657	99.56
491.874	101.56
492.092	94.56
492.31	94.56
492.527	88.56
492.745	87.56
492.963	96.56
493.18	95.56
493.398	91.56
493.615	108.56
493.833	96.56
494.05	104.56
494.268	104.56
494.485	95.56
494.703	77.56
494.92	91.56
495.138	94.56
495.355	93.56
495.573	97.56
495.79	96.56
496.008	89.56
496.225	101.56
496.442	105.56
496.66	96.56
496.877	87.56
497.094	95.56
497.312	90.56
497.529	94.56
497.746	84.56
497.963	100.56
498.181	92.56
498.398	92.56
498.615	100.56
498.832	104.56
499.049	102.56
499.267	103.56
499.484	92.56
499.701	91.56
499.918	85.56
500.135	80.56
500.352	94.56
500.569	94.56
500.786	104.56
501.003	95.56
501.22	94.56
501.437	89.56
501.654	84.56
501.871	97.56
502.088	79.56
502.305	92.56
502.522	76.56
502.739	86.56
502.956	84.56
503.172	90.56
503.389	94.56
503.606	103.56
503.823	94.56
504.04	81.56
504.256	95.56
504.473	83.56
504.69	98.56
504.907	110.56
505.123	88.56
505.34	83.56
505.557	89.56
505.773	84.56
505.99	99.56
506.207	84.56
506.423	98.56
506.64	93.56
506.856	91.56
507.073	91.56
507.289	94.56
507.506	100.56
507.722	113.56
507.939	93.56
508.155	100.56
508.372	91.56
508.588	89.56
508.805	96.56
509.021	94.56
509.238	91.56
509.454	94.56
509.67	117.56
509.887	121.56
510.103	123.56
510.319	210.56
510.536	811.56
510.752	2429.56
510.968	672.56
511.184	190.56
511.401	116.56
511.617	81.56
511.833	87.56
512.049	95.56
512.265	93.56
512.481	91.56
512.698	102.56
512.914	103.56
513.13	88.56
513.346	104.56
513.562	98.56
513.778	107.56
513.994	90.56
514.21	105.56
514.426	121.56
514.642	125.56
514.858	115.56
515.074	155.56
515.29	462.56
515.506	1459.56
