Data from Uncirc_1999_H10_HRD10591_00065.txt Node
Date: Wed Jan 03 11:22:18 EST 2024
User: Yrep
Spectrometer: HR+D1059
Trigger mode: 1
Integration Time (sec): 1.000000E-1
Scans to average: 1
Electric dark correction enabled: true
Nonlinearity correction enabled: false
Boxcar width: 0
XAxis mode: Wavelengths
Number of Pixels in Spectrum: 2048
>>>>>Begin Spectral Data<<<<<
223.165	-24.62
223.4	-24.62
223.635	-24.62
223.869	-12.62
224.104	-8.62
224.338	-8.62
224.573	-25.62
224.808	-11.62
225.042	-11.62
225.277	-10.62
225.511	12.38
225.746	4.38
225.98	5.38
226.215	9.38
226.449	20.38
226.683	14.38
226.918	16.38
227.152	31.38
227.387	28.38
227.621	31.38
227.856	32.38
228.09	32.38
228.324	55.38
228.559	63.38
228.793	65.38
229.027	65.38
229.262	68.38
229.496	72.38
229.73	74.38
229.964	79.38
230.199	74.38
230.433	77.38
230.667	73.38
230.901	75.38
231.136	74.38
231.37	76.38
231.604	73.38
231.838	74.38
232.072	68.38
232.306	68.38
232.541	96.38
232.775	79.38
233.009	81.38
233.243	68.38
233.477	88.38
233.711	60.38
233.945	81.38
234.179	87.38
234.413	79.38
234.647	63.38
234.881	73.38
235.115	68.38
235.349	75.38
235.583	89.38
235.817	73.38
236.051	73.38
236.285	77.38
236.519	68.38
236.753	78.38
236.987	88.38
237.221	76.38
237.455	100.38
237.689	79.38
237.922	72.38
238.156	59.38
238.39	63.38
238.624	75.38
238.858	76.38
239.091	72.38
239.325	67.38
239.559	72.38
239.793	84.38
240.027	63.38
240.26	70.38
240.494	81.38
240.728	77.38
240.961	65.38
241.195	97.38
241.429	87.38
241.662	60.38
241.896	68.38
242.13	60.38
242.363	65.38
242.597	69.38
242.83	69.38
243.064	63.38
243.298	81.38
243.531	82.38
243.765	86.38
243.998	94.38
244.232	75.38
244.465	97.38
244.699	74.38
244.932	85.38
245.166	93.38
245.399	72.38
245.633	80.38
245.866	77.38
246.099	70.38
246.333	73.38
246.566	72.38
246.8	90.38
247.033	77.38
247.266	63.38
247.5	65.38
247.733	74.38
247.966	74.38
248.2	61.38
248.433	70.38
248.666	78.38
248.899	100.38
249.133	80.38
249.366	83.38
249.599	90.38
249.832	84.38
250.066	79.38
250.299	65.38
250.532	72.38
250.765	74.38
250.998	82.38
251.231	80.38
251.465	79.38
251.698	72.38
251.931	84.38
252.164	69.38
252.397	77.38
252.63	91.38
252.863	78.38
253.096	82.38
253.329	86.38
253.562	85.38
253.795	88.38
254.028	86.38
254.261	84.38
254.494	57.38
254.727	61.38
254.96	89.38
255.193	72.38
255.426	81.38
255.659	89.38
255.892	91.38
256.124	75.38
256.357	73.38
256.59	86.38
256.823	74.38
257.056	89.38
257.289	69.38
257.521	88.38
257.754	83.38
257.987	79.38
258.22	71.38
258.452	80.38
258.685	76.38
258.918	82.38
259.151	85.38
259.383	90.38
259.616	74.38
259.849	85.38
260.081	77.38
260.314	81.38
260.547	84.38
260.779	72.38
261.012	63.38
261.244	84.38
261.477	96.38
261.71	86.38
261.942	94.38
262.175	104.38
262.407	86.38
262.64	95.38
262.872	88.38
263.105	74.38
263.337	88.38
263.57	80.38
263.802	78.38
264.035	86.38
264.267	74.38
264.499	76.38
264.732	91.38
264.964	75.38
265.197	92.38
265.429	79.38
265.661	84.38
265.894	78.38
266.126	82.38
266.358	100.38
266.591	70.38
266.823	74.38
267.055	76.38
267.287	83.38
267.52	75.38
267.752	80.38
267.984	85.38
268.216	76.38
268.448	75.38
268.681	82.38
268.913	87.38
269.145	82.38
269.377	82.38
269.609	104.38
269.841	89.38
270.073	87.38
270.306	98.38
270.538	85.38
270.77	71.38
271.002	82.38
271.234	75.38
271.466	73.38
271.698	87.38
271.93	77.38
272.162	84.38
272.394	89.38
272.626	83.38
272.858	78.38
273.09	89.38
273.322	79.38
273.553	80.38
273.785	87.38
274.017	85.38
274.249	79.38
274.481	84.38
274.713	84.38
274.945	78.38
275.176	84.38
275.408	92.38
275.64	88.38
275.872	84.38
276.104	78.38
276.335	86.38
276.567	80.38
276.799	83.38
277.031	89.38
277.262	93.38
277.494	75.38
277.726	100.38
277.957	85.38
278.189	98.38
278.421	77.38
278.652	82.38
278.884	85.38
279.115	74.38
279.347	90.38
279.579	77.38
279.81	85.38
280.042	81.38
280.273	91.38
280.505	77.38
280.736	81.38
280.968	89.38
281.199	77.38
281.431	92.38
281.662	78.38
281.894	76.38
282.125	91.38
282.356	117.38
282.588	117.38
282.819	84.38
283.051	84.38
283.282	71.38
283.513	82.38
283.745	97.38
283.976	95.38
284.207	88.38
284.439	97.38
284.67	88.38
284.901	87.38
285.132	84.38
285.364	89.38
285.595	86.38
285.826	110.38
286.057	79.38
286.288	84.38
286.52	95.38
286.751	81.38
286.982	89.38
287.213	94.38
287.444	89.38
287.675	78.38
287.906	93.38
288.138	108.38
288.369	84.38
288.6	98.38
288.831	78.38
289.062	85.38
289.293	96.38
289.524	78.38
289.755	83.38
289.986	85.38
290.217	90.38
290.448	90.38
290.679	91.38
290.91	90.38
291.141	74.38
291.371	87.38
291.602	81.38
291.833	80.38
292.064	105.38
292.295	92.38
292.526	86.38
292.757	87.38
292.987	92.38
293.218	83.38
293.449	94.38
293.68	85.38
293.91	81.38
294.141	84.38
294.372	91.38
294.603	83.38
294.833	87.38
295.064	93.38
295.295	89.38
295.525	87.38
295.756	92.38
295.987	103.38
296.217	114.38
296.448	123.38
296.679	92.38
296.909	98.38
297.14	90.38
297.37	97.38
297.601	93.38
297.831	108.38
298.062	92.38
298.292	99.38
298.523	88.38
298.753	100.38
298.984	87.38
299.214	75.38
299.445	100.38
299.675	94.38
299.905	94.38
300.136	95.38
300.366	80.38
300.597	95.38
300.827	98.38
301.057	84.38
301.288	95.38
301.518	80.38
301.748	82.38
301.979	112.38
302.209	105.38
302.439	88.38
302.669	93.38
302.9	84.38
303.13	88.38
303.36	86.38
303.59	104.38
303.82	107.38
304.051	102.38
304.281	92.38
304.511	91.38
304.741	89.38
304.971	97.38
305.201	89.38
305.431	86.38
305.661	86.38
305.891	82.38
306.121	98.38
306.352	101.38
306.582	90.38
306.812	94.38
307.042	94.38
307.272	98.38
307.502	88.38
307.731	87.38
307.961	83.38
308.191	77.38
308.421	82.38
308.651	82.38
308.881	91.38
309.111	90.38
309.341	89.38
309.571	95.38
309.8	90.38
310.03	91.38
310.26	109.38
310.49	92.38
310.72	85.38
310.949	98.38
311.179	103.38
311.409	94.38
311.639	95.38
311.868	103.38
312.098	91.38
312.328	86.38
312.557	98.38
312.787	82.38
313.017	92.38
313.246	94.38
313.476	98.38
313.706	90.38
313.935	90.38
314.165	103.38
314.394	93.38
314.624	100.38
314.853	106.38
315.083	89.38
315.312	94.38
315.542	75.38
315.771	84.38
316.001	83.38
316.23	94.38
316.46	89.38
316.689	93.38
316.919	92.38
317.148	88.38
317.377	97.38
317.607	90.38
317.836	91.38
318.065	83.38
318.295	107.38
318.524	89.38
318.753	89.38
318.983	79.38
319.212	97.38
319.441	103.38
319.67	97.38
319.9	96.38
320.129	82.38
320.358	88.38
320.587	97.38
320.816	97.38
321.046	85.38
321.275	90.38
321.504	84.38
321.733	94.38
321.962	93.38
322.191	97.38
322.42	103.38
322.649	101.38
322.878	102.38
323.108	109.38
323.337	119.38
323.566	126.38
323.795	146.38
324.024	199.38
324.253	373.38
324.482	795.38
324.71	1655.38
324.939	2173.38
325.168	791.38
325.397	237.38
325.626	146.38
325.855	130.38
326.084	135.38
326.313	142.38
326.542	149.38
326.77	234.38
326.999	452.38
327.228	926.38
327.457	1720.38
327.686	1350.38
327.914	345.38
328.143	186.38
328.372	145.38
328.6	113.38
328.829	121.38
329.058	124.38
329.287	125.38
329.515	100.38
329.744	111.38
329.972	93.38
330.201	112.38
330.43	106.38
330.658	123.38
330.887	133.38
331.115	119.38
331.344	88.38
331.572	101.38
331.801	107.38
332.03	98.38
332.258	107.38
332.486	82.38
332.715	95.38
332.943	92.38
333.172	87.38
333.4	90.38
333.629	90.38
333.857	106.38
334.085	108.38
334.314	92.38
334.542	85.38
334.771	113.38
334.999	94.38
335.227	99.38
335.455	98.38
335.684	89.38
335.912	105.38
336.14	92.38
336.369	100.38
336.597	85.38
336.825	90.38
337.053	88.38
337.281	91.38
337.51	75.38
337.738	96.38
337.966	100.38
338.194	86.38
338.422	90.38
338.65	104.38
338.878	96.38
339.106	93.38
339.334	101.38
339.562	80.38
339.79	92.38
340.018	69.38
340.246	79.38
340.474	81.38
340.702	104.38
340.93	93.38
341.158	97.38
341.386	99.38
341.614	97.38
341.842	104.38
342.07	90.38
342.298	95.38
342.526	90.38
342.754	81.38
342.981	77.38
343.209	85.38
343.437	98.38
343.665	87.38
343.893	83.38
344.12	99.38
344.348	102.38
344.576	102.38
344.804	94.38
345.031	89.38
345.259	104.38
345.487	83.38
345.714	98.38
345.942	97.38
346.17	101.38
346.397	81.38
346.625	93.38
346.853	98.38
347.08	76.38
347.308	87.38
347.535	95.38
347.763	94.38
347.99	101.38
348.218	103.38
348.445	82.38
348.673	85.38
348.9	109.38
349.128	87.38
349.355	89.38
349.583	95.38
349.81	80.38
350.037	78.38
350.265	114.38
350.492	91.38
350.72	95.38
350.947	98.38
351.174	94.38
351.402	108.38
351.629	99.38
351.856	104.38
352.083	88.38
352.311	95.38
352.538	110.38
352.765	114.38
352.992	97.38
353.22	114.38
353.447	104.38
353.674	102.38
353.901	112.38
354.128	101.38
354.355	104.38
354.583	97.38
354.81	88.38
355.037	115.38
355.264	102.38
355.491	84.38
355.718	98.38
355.945	84.38
356.172	104.38
356.399	95.38
356.626	86.38
356.853	84.38
357.08	87.38
357.307	88.38
357.534	102.38
357.761	86.38
357.988	97.38
358.215	81.38
358.441	122.38
358.668	93.38
358.895	90.38
359.122	92.38
359.349	79.38
359.576	80.38
359.802	91.38
360.029	100.38
360.256	96.38
360.483	82.38
360.709	80.38
360.936	80.38
361.163	92.38
361.39	96.38
361.616	96.38
361.843	83.38
362.07	85.38
362.296	93.38
362.523	86.38
362.749	79.38
362.976	87.38
363.203	78.38
363.429	76.38
363.656	86.38
363.882	81.38
364.109	88.38
364.335	104.38
364.562	81.38
364.788	90.38
365.015	78.38
365.241	95.38
365.468	118.38
365.694	87.38
365.92	96.38
366.147	115.38
366.373	86.38
366.599	95.38
366.826	93.38
367.052	87.38
367.278	88.38
367.505	90.38
367.731	96.38
367.957	85.38
368.184	90.38
368.41	93.38
368.636	97.38
368.862	104.38
369.089	104.38
369.315	101.38
369.541	105.38
369.767	89.38
369.993	82.38
370.219	80.38
370.445	92.38
370.672	77.38
370.898	80.38
371.124	97.38
371.35	84.38
371.576	88.38
371.802	93.38
372.028	86.38
372.254	92.38
372.48	93.38
372.706	99.38
372.932	85.38
373.158	84.38
373.384	89.38
373.61	102.38
373.835	94.38
374.061	78.38
374.287	91.38
374.513	91.38
374.739	78.38
374.965	91.38
375.191	91.38
375.416	84.38
375.642	92.38
375.868	93.38
376.094	76.38
376.319	84.38
376.545	94.38
376.771	98.38
376.997	100.38
377.222	97.38
377.448	95.38
377.674	85.38
377.899	98.38
378.125	89.38
378.35	89.38
378.576	97.38
378.802	97.38
379.027	89.38
379.253	102.38
379.478	88.38
379.704	107.38
379.929	85.38
380.155	83.38
380.38	89.38
380.606	87.38
380.831	89.38
381.057	99.38
381.282	77.38
381.507	97.38
381.733	103.38
381.958	93.38
382.184	117.38
382.409	97.38
382.634	101.38
382.86	90.38
383.085	99.38
383.31	99.38
383.535	116.38
383.761	119.38
383.986	101.38
384.211	91.38
384.436	103.38
384.662	84.38
384.887	100.38
385.112	94.38
385.337	96.38
385.562	105.38
385.787	116.38
386.013	93.38
386.238	97.38
386.463	98.38
386.688	110.38
386.913	92.38
387.138	102.38
387.363	101.38
387.588	106.38
387.813	104.38
388.038	102.38
388.263	114.38
388.488	85.38
388.713	88.38
388.938	78.38
389.163	105.38
389.387	100.38
389.612	85.38
389.837	84.38
390.062	98.38
390.287	90.38
390.512	85.38
390.736	90.38
390.961	105.38
391.186	87.38
391.411	100.38
391.636	81.38
391.86	84.38
392.085	84.38
392.31	78.38
392.534	84.38
392.759	86.38
392.984	74.38
393.208	79.38
393.433	85.38
393.658	87.38
393.882	96.38
394.107	84.38
394.331	84.38
394.556	77.38
394.78	92.38
395.005	100.38
395.229	78.38
395.454	82.38
395.678	94.38
395.903	86.38
396.127	88.38
396.352	88.38
396.576	86.38
396.801	87.38
397.025	78.38
397.249	97.38
397.474	93.38
397.698	91.38
397.922	82.38
398.147	78.38
398.371	88.38
398.595	81.38
398.82	105.38
399.044	72.38
399.268	97.38
399.492	87.38
399.717	105.38
399.941	87.38
400.165	103.38
400.389	86.38
400.613	90.38
400.837	84.38
401.062	95.38
401.286	84.38
401.51	86.38
401.734	96.38
401.958	101.38
402.182	123.38
402.406	153.38
402.63	122.38
402.854	92.38
403.078	87.38
403.302	80.38
403.526	92.38
403.75	101.38
403.974	86.38
404.198	86.38
404.422	91.38
404.645	92.38
404.869	99.38
405.093	88.38
405.317	79.38
405.541	89.38
405.765	92.38
405.988	109.38
406.212	164.38
406.436	194.38
406.66	132.38
406.883	106.38
407.107	84.38
407.331	97.38
407.555	92.38
407.778	99.38
408.002	92.38
408.226	76.38
408.449	74.38
408.673	93.38
408.896	80.38
409.12	104.38
409.344	89.38
409.567	74.38
409.791	79.38
410.014	89.38
410.238	105.38
410.461	84.38
410.685	109.38
410.908	102.38
411.132	98.38
411.355	93.38
411.578	81.38
411.802	89.38
412.025	87.38
412.249	102.38
412.472	89.38
412.695	88.38
412.919	92.38
413.142	93.38
413.365	84.38
413.589	79.38
413.812	88.38
414.035	85.38
414.258	95.38
414.482	84.38
414.705	95.38
414.928	96.38
415.151	93.38
415.374	91.38
415.597	89.38
415.821	103.38
416.044	81.38
416.267	95.38
416.49	90.38
416.713	85.38
416.936	84.38
417.159	82.38
417.382	81.38
417.605	91.38
417.828	93.38
418.051	89.38
418.274	96.38
418.497	81.38
418.72	88.38
418.943	96.38
419.166	87.38
419.389	74.38
419.611	93.38
419.834	94.38
420.057	88.38
420.28	100.38
420.503	90.38
420.726	73.38
420.948	106.38
421.171	85.38
421.394	93.38
421.617	79.38
421.839	95.38
422.062	89.38
422.285	89.38
422.507	80.38
422.73	86.38
422.953	102.38
423.175	95.38
423.398	84.38
423.621	84.38
423.843	75.38
424.066	98.38
424.288	90.38
424.511	95.38
424.733	106.38
424.956	101.38
425.178	82.38
425.401	90.38
425.623	96.38
425.846	94.38
426.068	93.38
426.291	88.38
426.513	89.38
426.735	96.38
426.958	102.38
427.18	93.38
427.402	118.38
427.625	139.38
427.847	98.38
428.069	85.38
428.292	94.38
428.514	82.38
428.736	90.38
428.958	88.38
429.181	84.38
429.403	88.38
429.625	80.38
429.847	96.38
430.069	93.38
430.292	92.38
430.514	100.38
430.736	91.38
430.958	90.38
431.18	88.38
431.402	87.38
431.624	74.38
431.846	83.38
432.068	83.38
432.29	86.38
432.512	88.38
432.734	90.38
432.956	84.38
433.178	94.38
433.4	77.38
433.622	86.38
433.844	95.38
434.066	91.38
434.287	107.38
434.509	79.38
434.731	87.38
434.953	81.38
435.175	82.38
435.397	98.38
435.618	86.38
435.84	111.38
436.062	110.38
436.284	109.38
436.505	87.38
436.727	105.38
436.949	93.38
437.17	91.38
437.392	77.38
437.614	87.38
437.835	98.38
438.057	110.38
438.278	103.38
438.5	97.38
438.721	109.38
438.943	85.38
439.165	106.38
439.386	91.38
439.608	91.38
439.829	101.38
440.05	118.38
440.272	133.38
440.493	89.38
440.715	95.38
440.936	84.38
441.158	85.38
441.379	86.38
441.6	89.38
441.822	90.38
442.043	88.38
442.264	108.38
442.486	97.38
442.707	83.38
442.928	109.38
443.149	109.38
443.371	108.38
443.592	110.38
443.813	104.38
444.034	94.38
444.255	92.38
444.476	92.38
444.698	85.38
444.919	86.38
445.14	141.38
445.361	122.38
445.582	100.38
445.803	107.38
446.024	123.38
446.245	127.38
446.466	116.38
446.687	86.38
446.908	73.38
447.129	98.38
447.35	87.38
447.571	95.38
447.792	92.38
448.013	101.38
448.234	96.38
448.455	92.38
448.675	103.38
448.896	114.38
449.117	103.38
449.338	100.38
449.559	114.38
449.779	131.38
450	102.38
450.221	102.38
450.442	110.38
450.662	92.38
450.883	99.38
451.104	95.38
451.324	92.38
451.545	83.38
451.766	90.38
451.986	67.38
452.207	84.38
452.428	81.38
452.648	99.38
452.869	95.38
453.089	118.38
453.31	102.38
453.53	95.38
453.751	98.38
453.971	102.38
454.192	116.38
454.412	89.38
454.633	92.38
454.853	103.38
455.073	82.38
455.294	95.38
455.514	97.38
455.734	70.38
455.955	90.38
456.175	86.38
456.395	86.38
456.616	94.38
456.836	84.38
457.056	91.38
457.276	79.38
457.497	79.38
457.717	69.38
457.937	86.38
458.157	95.38
458.377	79.38
458.598	100.38
458.818	118.38
459.038	152.38
459.258	112.38
459.478	93.38
459.698	86.38
459.918	86.38
460.138	91.38
460.358	80.38
460.578	95.38
460.798	89.38
461.018	87.38
461.238	73.38
461.458	89.38
461.678	100.38
461.898	88.38
462.118	86.38
462.338	101.38
462.558	77.38
462.777	72.38
462.997	96.38
463.217	70.38
463.437	73.38
463.657	87.38
463.876	72.38
464.096	78.38
464.316	91.38
464.536	93.38
464.755	101.38
464.975	105.38
465.195	152.38
465.414	135.38
465.634	99.38
465.854	79.38
466.073	76.38
466.293	89.38
466.512	69.38
466.732	91.38
466.951	93.38
467.171	81.38
467.391	92.38
467.61	91.38
467.829	100.38
468.049	91.38
468.268	78.38
468.488	83.38
468.707	73.38
468.927	79.38
469.146	92.38
469.365	83.38
469.585	88.38
469.804	95.38
470.023	97.38
470.243	86.38
470.462	89.38
470.681	96.38
470.901	97.38
471.12	83.38
471.339	85.38
471.558	90.38
471.777	91.38
471.997	94.38
472.216	95.38
472.435	85.38
472.654	94.38
472.873	99.38
473.092	98.38
473.311	76.38
473.53	80.38
473.749	76.38
473.968	89.38
474.187	100.38
474.406	96.38
474.625	79.38
474.844	90.38
475.063	85.38
475.282	94.38
475.501	104.38
475.72	91.38
475.939	86.38
476.158	84.38
476.377	83.38
476.596	83.38
476.814	96.38
477.033	90.38
477.252	81.38
477.471	81.38
477.69	95.38
477.908	81.38
478.127	92.38
478.346	85.38
478.564	89.38
478.783	110.38
479.002	103.38
479.22	80.38
479.439	93.38
479.658	85.38
479.876	89.38
480.095	91.38
480.313	78.38
480.532	89.38
480.751	96.38
480.969	95.38
481.188	109.38
481.406	94.38
481.624	89.38
481.843	83.38
482.061	82.38
482.28	80.38
482.498	93.38
482.717	89.38
482.935	89.38
483.153	90.38
483.372	80.38
483.59	82.38
483.808	91.38
484.027	90.38
484.245	96.38
484.463	97.38
484.681	98.38
484.9	92.38
485.118	90.38
485.336	112.38
485.554	112.38
485.772	94.38
485.99	93.38
486.209	93.38
486.427	105.38
486.645	107.38
486.863	98.38
487.081	88.38
487.299	103.38
487.517	89.38
487.735	94.38
487.953	83.38
488.171	94.38
488.389	91.38
488.607	86.38
488.825	88.38
489.043	96.38
489.261	79.38
489.479	87.38
489.696	88.38
489.914	87.38
490.132	78.38
490.35	100.38
490.568	96.38
490.786	80.38
491.003	87.38
491.221	100.38
491.439	103.38
491.657	88.38
491.874	96.38
492.092	85.38
492.31	101.38
492.527	97.38
492.745	109.38
492.963	92.38
493.18	78.38
493.398	100.38
493.615	94.38
493.833	97.38
494.05	81.38
494.268	95.38
494.485	81.38
494.703	93.38
494.92	86.38
495.138	89.38
495.355	102.38
495.573	94.38
495.79	104.38
496.008	101.38
496.225	87.38
496.442	84.38
496.66	81.38
496.877	104.38
497.094	86.38
497.312	79.38
497.529	90.38
497.746	104.38
497.963	91.38
498.181	87.38
498.398	86.38
498.615	112.38
498.832	95.38
499.049	95.38
499.267	100.38
499.484	78.38
499.701	96.38
499.918	93.38
500.135	96.38
500.352	94.38
500.569	78.38
500.786	106.38
501.003	86.38
501.22	86.38
501.437	85.38
501.654	98.38
501.871	101.38
502.088	90.38
502.305	92.38
502.522	94.38
502.739	85.38
502.956	101.38
503.172	81.38
503.389	90.38
503.606	109.38
503.823	94.38
504.04	93.38
504.256	91.38
504.473	93.38
504.69	88.38
504.907	93.38
505.123	98.38
505.34	94.38
505.557	93.38
505.773	92.38
505.99	96.38
506.207	89.38
506.423	92.38
506.64	101.38
506.856	88.38
507.073	104.38
507.289	92.38
507.506	102.38
507.722	110.38
507.939	112.38
508.155	94.38
508.372	92.38
508.588	102.38
508.805	85.38
509.021	97.38
509.238	102.38
509.454	89.38
509.67	96.38
509.887	100.38
510.103	148.38
510.319	199.38
510.536	727.38
510.752	2155.38
510.968	606.38
511.184	128.38
511.401	118.38
511.617	100.38
511.833	85.38
512.049	79.38
512.265	83.38
512.481	89.38
512.698	104.38
512.914	97.38
513.13	84.38
513.346	80.38
513.562	88.38
513.778	98.38
513.994	84.38
514.21	102.38
514.426	110.38
514.642	129.38
514.858	108.38
515.074	159.38
515.29	406.38
515.506	1252.38
515.721	454.38
515.937	137.38
516.153	116.38
