Data from Uncirc_1999_H10_HRD10591_00011.txt Node
Date: Wed Jan 03 11:22:07 EST 2024
User: Yrep
Spectrometer: HR+D1059
Trigger mode: 1
Integration Time (sec): 1.000000E-1
Scans to average: 1
Electric dark correction enabled: true
Nonlinearity correction enabled: false
Boxcar width: 0
XAxis mode: Wavelengths
Number of Pixels in Spectrum: 2048
>>>>>Begin Spectral Data<<<<<
223.165	-15.25
223.4	-15.25
223.635	-15.25
223.869	-13.25
224.104	-9.25
224.338	-10.25
224.573	-1.25
224.808	-15.25
225.042	-22.25
225.277	-1.25
225.511	-6.25
225.746	-0.25
225.98	2.75
226.215	6.75
226.449	5.75
226.683	26.75
226.918	23.75
227.152	28.75
227.387	36.75
227.621	48.75
227.856	43.75
228.09	38.75
228.324	56.75
228.559	55.75
228.793	48.75
229.027	55.75
229.262	61.75
229.496	62.75
229.73	85.75
229.964	78.75
230.199	66.75
230.433	84.75
230.667	75.75
230.901	77.75
231.136	78.75
231.37	84.75
231.604	80.75
231.838	52.75
232.072	76.75
232.306	81.75
232.541	71.75
232.775	78.75
233.009	81.75
233.243	91.75
233.477	79.75
233.711	70.75
233.945	84.75
234.179	85.75
234.413	91.75
234.647	82.75
234.881	76.75
235.115	71.75
235.349	96.75
235.583	79.75
235.817	82.75
236.051	78.75
236.285	84.75
236.519	81.75
236.753	74.75
236.987	80.75
237.221	73.75
237.455	90.75
237.689	80.75
237.922	83.75
238.156	88.75
238.39	72.75
238.624	76.75
238.858	78.75
239.091	81.75
239.325	69.75
239.559	84.75
239.793	79.75
240.027	92.75
240.26	80.75
240.494	83.75
240.728	70.75
240.961	75.75
241.195	86.75
241.429	71.75
241.662	62.75
241.896	68.75
242.13	78.75
242.363	83.75
242.597	74.75
242.83	84.75
243.064	68.75
243.298	70.75
243.531	65.75
243.765	63.75
243.998	68.75
244.232	82.75
244.465	91.75
244.699	78.75
244.932	84.75
245.166	88.75
245.399	78.75
245.633	66.75
245.866	62.75
246.099	78.75
246.333	74.75
246.566	66.75
246.8	88.75
247.033	74.75
247.266	85.75
247.5	73.75
247.733	73.75
247.966	82.75
248.2	80.75
248.433	92.75
248.666	82.75
248.899	80.75
249.133	91.75
249.366	92.75
249.599	98.75
249.832	80.75
250.066	69.75
250.299	76.75
250.532	73.75
250.765	77.75
250.998	68.75
251.231	80.75
251.465	78.75
251.698	76.75
251.931	84.75
252.164	82.75
252.397	83.75
252.63	75.75
252.863	75.75
253.096	79.75
253.329	80.75
253.562	81.75
253.795	90.75
254.028	72.75
254.261	61.75
254.494	90.75
254.727	76.75
254.96	74.75
255.193	88.75
255.426	87.75
255.659	87.75
255.892	90.75
256.124	88.75
256.357	77.75
256.59	83.75
256.823	77.75
257.056	85.75
257.289	80.75
257.521	85.75
257.754	67.75
257.987	78.75
258.22	93.75
258.452	72.75
258.685	80.75
258.918	87.75
259.151	72.75
259.383	80.75
259.616	92.75
259.849	75.75
260.081	74.75
260.314	65.75
260.547	81.75
260.779	69.75
261.012	76.75
261.244	76.75
261.477	83.75
261.71	87.75
261.942	102.75
262.175	106.75
262.407	75.75
262.64	80.75
262.872	91.75
263.105	72.75
263.337	85.75
263.57	76.75
263.802	84.75
264.035	76.75
264.267	87.75
264.499	80.75
264.732	93.75
264.964	76.75
265.197	82.75
265.429	81.75
265.661	89.75
265.894	80.75
266.126	85.75
266.358	87.75
266.591	82.75
266.823	80.75
267.055	85.75
267.287	92.75
267.52	87.75
267.752	80.75
267.984	94.75
268.216	68.75
268.448	86.75
268.681	91.75
268.913	78.75
269.145	95.75
269.377	92.75
269.609	94.75
269.841	81.75
270.073	89.75
270.306	84.75
270.538	86.75
270.77	96.75
271.002	90.75
271.234	83.75
271.466	99.75
271.698	97.75
271.93	82.75
272.162	95.75
272.394	85.75
272.626	87.75
272.858	83.75
273.09	78.75
273.322	86.75
273.553	88.75
273.785	87.75
274.017	79.75
274.249	89.75
274.481	81.75
274.713	77.75
274.945	85.75
275.176	80.75
275.408	89.75
275.64	96.75
275.872	75.75
276.104	75.75
276.335	89.75
276.567	84.75
276.799	95.75
277.031	95.75
277.262	90.75
277.494	109.75
277.726	74.75
277.957	92.75
278.189	84.75
278.421	80.75
278.652	85.75
278.884	78.75
279.115	70.75
279.347	85.75
279.579	85.75
279.81	71.75
280.042	84.75
280.273	91.75
280.505	69.75
280.736	81.75
280.968	92.75
281.199	84.75
281.431	93.75
281.662	106.75
281.894	90.75
282.125	84.75
282.356	116.75
282.588	114.75
282.819	106.75
283.051	87.75
283.282	92.75
283.513	89.75
283.745	85.75
283.976	89.75
284.207	85.75
284.439	84.75
284.67	90.75
284.901	92.75
285.132	83.75
285.364	85.75
285.595	91.75
285.826	94.75
286.057	85.75
286.288	80.75
286.52	84.75
286.751	87.75
286.982	93.75
287.213	88.75
287.444	77.75
287.675	86.75
287.906	91.75
288.138	108.75
288.369	89.75
288.6	103.75
288.831	74.75
289.062	86.75
289.293	94.75
289.524	87.75
289.755	74.75
289.986	89.75
290.217	74.75
290.448	90.75
290.679	91.75
290.91	97.75
291.141	99.75
291.371	98.75
291.602	81.75
291.833	83.75
292.064	87.75
292.295	94.75
292.526	95.75
292.757	93.75
292.987	88.75
293.218	93.75
293.449	102.75
293.68	90.75
293.91	92.75
294.141	98.75
294.372	81.75
294.603	96.75
294.833	78.75
295.064	86.75
295.295	108.75
295.525	91.75
295.756	84.75
295.987	103.75
296.217	102.75
296.448	115.75
296.679	82.75
296.909	81.75
297.14	94.75
297.37	94.75
297.601	75.75
297.831	88.75
298.062	89.75
298.292	100.75
298.523	90.75
298.753	89.75
298.984	81.75
299.214	83.75
299.445	84.75
299.675	70.75
299.905	79.75
300.136	74.75
300.366	85.75
300.597	68.75
300.827	73.75
301.057	90.75
301.288	102.75
301.518	95.75
301.748	80.75
301.979	99.75
302.209	92.75
302.439	79.75
302.669	84.75
302.9	86.75
303.13	94.75
303.36	100.75
303.59	100.75
303.82	102.75
304.051	103.75
304.281	71.75
304.511	85.75
304.741	101.75
304.971	96.75
305.201	82.75
305.431	82.75
305.661	80.75
305.891	91.75
306.121	104.75
306.352	94.75
306.582	89.75
306.812	106.75
307.042	102.75
307.272	84.75
307.502	88.75
307.731	78.75
307.961	92.75
308.191	92.75
308.421	91.75
308.651	87.75
308.881	93.75
309.111	92.75
309.341	78.75
309.571	95.75
309.8	101.75
310.03	85.75
310.26	105.75
310.49	90.75
310.72	100.75
310.949	96.75
311.179	93.75
311.409	88.75
311.639	92.75
311.868	108.75
312.098	102.75
312.328	97.75
312.557	90.75
312.787	93.75
313.017	102.75
313.246	88.75
313.476	89.75
313.706	91.75
313.935	102.75
314.165	94.75
314.394	96.75
314.624	105.75
314.853	84.75
315.083	103.75
315.312	99.75
315.542	92.75
315.771	97.75
316.001	92.75
316.23	97.75
316.46	94.75
316.689	86.75
316.919	90.75
317.148	105.75
317.377	104.75
317.607	89.75
317.836	93.75
318.065	101.75
318.295	87.75
318.524	83.75
318.753	104.75
318.983	87.75
319.212	107.75
319.441	100.75
319.67	104.75
319.9	101.75
320.129	95.75
320.358	81.75
320.587	89.75
320.816	104.75
321.046	98.75
321.275	98.75
321.504	79.75
321.733	91.75
321.962	90.75
322.191	109.75
322.42	80.75
322.649	106.75
322.878	104.75
323.108	113.75
323.337	112.75
323.566	126.75
323.795	143.75
324.024	192.75
324.253	363.75
324.482	754.75
324.71	1543.75
324.939	2040.75
325.168	732.75
325.397	233.75
325.626	155.75
325.855	129.75
326.084	116.75
326.313	128.75
326.542	138.75
326.77	220.75
326.999	434.75
327.228	905.75
327.457	1609.75
327.686	1256.75
327.914	346.75
328.143	170.75
328.372	131.75
328.6	125.75
328.829	111.75
329.058	112.75
329.287	94.75
329.515	100.75
329.744	116.75
329.972	93.75
330.201	93.75
330.43	111.75
330.658	123.75
330.887	128.75
331.115	116.75
331.344	86.75
331.572	99.75
331.801	93.75
332.03	109.75
332.258	98.75
332.486	103.75
332.715	99.75
332.943	80.75
333.172	96.75
333.4	106.75
333.629	97.75
333.857	92.75
334.085	90.75
334.314	97.75
334.542	103.75
334.771	111.75
334.999	78.75
335.227	94.75
335.455	90.75
335.684	95.75
335.912	89.75
336.14	94.75
336.369	71.75
336.597	95.75
336.825	89.75
337.053	92.75
337.281	86.75
337.51	87.75
337.738	105.75
337.966	86.75
338.194	89.75
338.422	102.75
338.65	99.75
338.878	90.75
339.106	83.75
339.334	85.75
339.562	76.75
339.79	94.75
340.018	97.75
340.246	85.75
340.474	87.75
340.702	88.75
340.93	94.75
341.158	90.75
341.386	104.75
341.614	91.75
341.842	99.75
342.07	82.75
342.298	87.75
342.526	95.75
342.754	85.75
342.981	96.75
343.209	86.75
343.437	91.75
343.665	95.75
343.893	94.75
344.12	89.75
344.348	89.75
344.576	97.75
344.804	86.75
345.031	92.75
345.259	101.75
345.487	94.75
345.714	96.75
345.942	83.75
346.17	102.75
346.397	104.75
346.625	101.75
346.853	88.75
347.08	98.75
347.308	106.75
347.535	96.75
347.763	92.75
347.99	96.75
348.218	93.75
348.445	92.75
348.673	94.75
348.9	94.75
349.128	101.75
349.355	96.75
349.583	78.75
349.81	107.75
350.037	98.75
350.265	104.75
350.492	95.75
350.72	81.75
350.947	94.75
351.174	97.75
351.402	110.75
351.629	108.75
351.856	110.75
352.083	95.75
352.311	107.75
352.538	97.75
352.765	99.75
352.992	98.75
353.22	104.75
353.447	104.75
353.674	92.75
353.901	88.75
354.128	97.75
354.355	98.75
354.583	96.75
354.81	103.75
355.037	104.75
355.264	109.75
355.491	97.75
355.718	93.75
355.945	105.75
356.172	106.75
356.399	96.75
356.626	104.75
356.853	85.75
357.08	98.75
357.307	91.75
357.534	108.75
357.761	109.75
357.988	101.75
358.215	104.75
358.441	110.75
358.668	89.75
358.895	89.75
359.122	96.75
359.349	85.75
359.576	78.75
359.802	87.75
360.029	97.75
360.256	104.75
360.483	81.75
360.709	82.75
360.936	94.75
361.163	96.75
361.39	84.75
361.616	96.75
361.843	97.75
362.07	100.75
362.296	92.75
362.523	105.75
362.749	90.75
362.976	92.75
363.203	101.75
363.429	89.75
363.656	81.75
363.882	86.75
364.109	74.75
364.335	95.75
364.562	98.75
364.788	91.75
365.015	90.75
365.241	100.75
365.468	90.75
365.694	97.75
365.92	95.75
366.147	95.75
366.373	87.75
366.599	97.75
366.826	87.75
367.052	95.75
367.278	91.75
367.505	95.75
367.731	95.75
367.957	90.75
368.184	84.75
368.41	87.75
368.636	105.75
368.862	109.75
369.089	99.75
369.315	79.75
369.541	95.75
369.767	79.75
369.993	84.75
370.219	83.75
370.445	87.75
370.672	95.75
370.898	93.75
371.124	96.75
371.35	89.75
371.576	92.75
371.802	85.75
372.028	85.75
372.254	94.75
372.48	112.75
372.706	88.75
372.932	82.75
373.158	89.75
373.384	100.75
373.61	102.75
373.835	92.75
374.061	89.75
374.287	90.75
374.513	88.75
374.739	94.75
374.965	99.75
375.191	91.75
375.416	86.75
375.642	100.75
375.868	106.75
376.094	89.75
376.319	87.75
376.545	94.75
376.771	106.75
376.997	94.75
377.222	99.75
377.448	91.75
377.674	97.75
377.899	106.75
378.125	90.75
378.35	96.75
378.576	99.75
378.802	100.75
379.027	108.75
379.253	93.75
379.478	103.75
379.704	101.75
379.929	99.75
380.155	107.75
380.38	108.75
380.606	98.75
380.831	108.75
381.057	115.75
381.282	116.75
381.507	107.75
381.733	101.75
381.958	99.75
382.184	122.75
382.409	107.75
382.634	106.75
382.86	116.75
383.085	114.75
383.31	127.75
383.535	110.75
383.761	123.75
383.986	111.75
384.211	120.75
384.436	123.75
384.662	109.75
384.887	136.75
385.112	124.75
385.337	138.75
385.562	133.75
385.787	144.75
386.013	129.75
386.238	160.75
386.463	123.75
386.688	121.75
386.913	124.75
387.138	133.75
387.363	134.75
387.588	108.75
387.813	111.75
388.038	135.75
388.263	146.75
388.488	147.75
388.713	103.75
388.938	89.75
389.163	92.75
389.387	98.75
389.612	96.75
389.837	98.75
390.062	94.75
390.287	89.75
390.512	88.75
390.736	110.75
390.961	100.75
391.186	97.75
391.411	100.75
391.636	76.75
391.86	87.75
392.085	88.75
392.31	85.75
392.534	94.75
392.759	81.75
392.984	85.75
393.208	102.75
393.433	98.75
393.658	86.75
393.882	110.75
394.107	96.75
394.331	84.75
394.556	98.75
394.78	94.75
395.005	87.75
395.229	85.75
395.454	89.75
395.678	66.75
395.903	93.75
396.127	72.75
396.352	84.75
396.576	99.75
396.801	91.75
397.025	83.75
397.249	93.75
397.474	95.75
397.698	90.75
397.922	82.75
398.147	92.75
398.371	90.75
398.595	79.75
398.82	98.75
399.044	86.75
399.268	89.75
399.492	79.75
399.717	89.75
399.941	105.75
400.165	90.75
400.389	90.75
400.613	82.75
400.837	92.75
401.062	96.75
401.286	74.75
401.51	94.75
401.734	85.75
401.958	101.75
402.182	110.75
402.406	142.75
402.63	107.75
402.854	96.75
403.078	98.75
403.302	81.75
403.526	81.75
403.75	90.75
403.974	86.75
404.198	104.75
404.422	101.75
404.645	98.75
404.869	86.75
405.093	101.75
405.317	90.75
405.541	127.75
405.765	95.75
405.988	110.75
406.212	129.75
406.436	190.75
406.66	129.75
406.883	93.75
407.107	96.75
407.331	91.75
407.555	104.75
407.778	95.75
408.002	95.75
408.226	88.75
408.449	91.75
408.673	107.75
408.896	93.75
409.12	88.75
409.344	77.75
409.567	100.75
409.791	99.75
410.014	102.75
410.238	86.75
410.461	94.75
410.685	101.75
410.908	102.75
411.132	105.75
411.355	96.75
411.578	103.75
411.802	97.75
412.025	78.75
412.249	75.75
412.472	90.75
412.695	89.75
412.919	75.75
413.142	97.75
413.365	91.75
413.589	77.75
413.812	86.75
414.035	90.75
414.258	96.75
414.482	97.75
414.705	104.75
414.928	80.75
415.151	106.75
415.374	101.75
415.597	86.75
415.821	100.75
416.044	88.75
416.267	84.75
416.49	93.75
416.713	80.75
416.936	94.75
417.159	86.75
417.382	71.75
417.605	101.75
417.828	101.75
418.051	102.75
418.274	102.75
418.497	88.75
418.72	93.75
418.943	86.75
419.166	88.75
419.389	81.75
419.611	100.75
419.834	99.75
420.057	90.75
420.28	87.75
420.503	96.75
420.726	78.75
420.948	84.75
421.171	100.75
421.394	94.75
421.617	101.75
421.839	102.75
422.062	98.75
422.285	89.75
422.507	95.75
422.73	90.75
422.953	86.75
423.175	92.75
423.398	95.75
423.621	86.75
423.843	92.75
424.066	104.75
424.288	96.75
424.511	92.75
424.733	101.75
424.956	93.75
425.178	87.75
425.401	97.75
425.623	87.75
425.846	95.75
426.068	106.75
426.291	87.75
426.513	86.75
426.735	107.75
426.958	89.75
427.18	96.75
427.402	125.75
427.625	137.75
427.847	111.75
428.069	112.75
428.292	107.75
428.514	89.75
428.736	84.75
428.958	94.75
429.181	95.75
429.403	81.75
429.625	79.75
429.847	85.75
430.069	80.75
430.292	95.75
430.514	91.75
430.736	97.75
430.958	87.75
431.18	90.75
431.402	88.75
431.624	83.75
431.846	90.75
432.068	103.75
432.29	92.75
432.512	97.75
432.734	89.75
432.956	100.75
433.178	102.75
433.4	91.75
433.622	80.75
433.844	96.75
434.066	87.75
434.287	90.75
434.509	94.75
434.731	90.75
434.953	100.75
435.175	97.75
435.397	93.75
435.618	99.75
435.84	85.75
436.062	118.75
436.284	111.75
436.505	83.75
436.727	91.75
436.949	82.75
437.17	87.75
437.392	70.75
437.614	81.75
437.835	83.75
438.057	104.75
438.278	111.75
438.5	89.75
438.721	114.75
438.943	108.75
439.165	71.75
439.386	99.75
439.608	77.75
439.829	90.75
440.05	105.75
440.272	125.75
440.493	98.75
440.715	81.75
440.936	81.75
441.158	98.75
441.379	93.75
441.6	74.75
441.822	101.75
442.043	97.75
442.264	102.75
442.486	97.75
442.707	88.75
442.928	99.75
443.149	119.75
443.371	116.75
443.592	89.75
443.813	104.75
444.034	113.75
444.255	92.75
444.476	85.75
444.698	90.75
444.919	94.75
445.14	126.75
445.361	112.75
445.582	112.75
445.803	125.75
446.024	111.75
446.245	115.75
446.466	110.75
446.687	84.75
446.908	89.75
447.129	91.75
447.35	89.75
447.571	90.75
447.792	93.75
448.013	74.75
448.234	99.75
448.455	96.75
448.675	108.75
448.896	132.75
449.117	95.75
449.338	103.75
449.559	118.75
449.779	116.75
450	92.75
450.221	104.75
450.442	91.75
450.662	96.75
450.883	98.75
451.104	113.75
451.324	86.75
451.545	93.75
451.766	94.75
451.986	70.75
452.207	96.75
452.428	82.75
452.648	93.75
452.869	106.75
453.089	103.75
453.31	99.75
453.53	101.75
453.751	89.75
453.971	74.75
454.192	106.75
454.412	89.75
454.633	84.75
454.853	79.75
455.073	87.75
455.294	82.75
455.514	96.75
455.734	84.75
455.955	90.75
456.175	81.75
456.395	90.75
456.616	98.75
456.836	92.75
457.056	95.75
457.276	78.75
457.497	73.75
457.717	77.75
457.937	82.75
458.157	91.75
458.377	76.75
458.598	97.75
458.818	116.75
459.038	141.75
459.258	102.75
459.478	84.75
459.698	97.75
459.918	88.75
460.138	89.75
460.358	93.75
460.578	91.75
460.798	79.75
461.018	97.75
461.238	93.75
461.458	84.75
461.678	90.75
461.898	89.75
462.118	87.75
462.338	85.75
462.558	81.75
462.777	96.75
462.997	76.75
463.217	100.75
463.437	88.75
463.657	84.75
463.876	81.75
464.096	86.75
464.316	98.75
464.536	87.75
464.755	86.75
464.975	111.75
465.195	141.75
465.414	138.75
465.634	84.75
465.854	98.75
466.073	91.75
466.293	97.75
466.512	86.75
466.732	88.75
466.951	86.75
467.171	93.75
467.391	91.75
467.61	98.75
467.829	92.75
468.049	84.75
468.268	106.75
468.488	87.75
468.707	72.75
468.927	80.75
469.146	95.75
469.365	75.75
469.585	85.75
469.804	86.75
470.023	101.75
470.243	85.75
470.462	96.75
470.681	100.75
470.901	109.75
471.12	95.75
471.339	80.75
471.558	87.75
471.777	80.75
471.997	82.75
472.216	93.75
472.435	109.75
472.654	84.75
472.873	90.75
473.092	90.75
473.311	90.75
473.53	101.75
473.749	100.75
473.968	96.75
474.187	100.75
474.406	85.75
474.625	92.75
474.844	93.75
475.063	88.75
475.282	99.75
475.501	79.75
475.72	89.75
475.939	82.75
476.158	82.75
476.377	94.75
476.596	80.75
476.814	94.75
477.033	94.75
477.252	93.75
477.471	92.75
477.69	90.75
477.908	103.75
478.127	89.75
478.346	98.75
478.564	101.75
478.783	101.75
479.002	97.75
479.22	104.75
479.439	100.75
479.658	98.75
479.876	92.75
480.095	90.75
480.313	94.75
480.532	85.75
480.751	82.75
480.969	107.75
481.188	132.75
481.406	109.75
481.624	97.75
481.843	86.75
482.061	97.75
482.28	101.75
482.498	107.75
482.717	105.75
482.935	92.75
483.153	92.75
483.372	91.75
483.59	92.75
483.808	87.75
484.027	93.75
484.245	82.75
484.463	106.75
484.681	95.75
484.9	82.75
485.118	93.75
485.336	93.75
485.554	104.75
485.772	105.75
485.99	106.75
486.209	96.75
486.427	104.75
486.645	95.75
486.863	117.75
487.081	109.75
487.299	99.75
487.517	90.75
487.735	98.75
487.953	99.75
488.171	103.75
488.389	105.75
488.607	102.75
488.825	90.75
489.043	87.75
489.261	100.75
489.479	85.75
489.696	90.75
489.914	92.75
490.132	101.75
490.35	86.75
490.568	90.75
490.786	84.75
491.003	88.75
491.221	92.75
491.439	95.75
491.657	78.75
491.874	93.75
492.092	85.75
492.31	93.75
492.527	80.75
492.745	78.75
492.963	106.75
493.18	95.75
493.398	96.75
493.615	102.75
493.833	92.75
494.05	87.75
494.268	95.75
494.485	97.75
494.703	90.75
494.92	103.75
495.138	86.75
495.355	100.75
495.573	96.75
495.79	96.75
496.008	109.75
496.225	90.75
496.442	103.75
496.66	90.75
496.877	92.75
497.094	95.75
497.312	98.75
497.529	100.75
497.746	95.75
497.963	94.75
498.181	96.75
498.398	104.75
498.615	106.75
498.832	96.75
499.049	100.75
499.267	111.75
499.484	99.75
499.701	103.75
499.918	91.75
500.135	86.75
500.352	104.75
500.569	103.75
500.786	87.75
501.003	82.75
501.22	97.75
501.437	101.75
501.654	97.75
501.871	108.75
502.088	99.75
502.305	96.75
502.522	94.75
502.739	85.75
502.956	87.75
503.172	98.75
503.389	102.75
503.606	94.75
503.823	101.75
504.04	98.75
504.256	89.75
504.473	85.75
504.69	95.75
504.907	108.75
505.123	99.75
505.34	95.75
505.557	106.75
505.773	94.75
505.99	100.75
506.207	113.75
506.423	89.75
506.64	100.75
506.856	84.75
507.073	97.75
507.289	94.75
507.506	101.75
507.722	102.75
507.939	108.75
508.155	102.75
508.372	98.75
508.588	94.75
508.805	87.75
509.021	89.75
509.238	95.75
509.454	108.75
509.67	97.75
509.887	109.75
510.103	120.75
510.319	208.75
510.536	618.75
510.752	1761.75
510.968	528.75
511.184	148.75
511.401	102.75
511.617	96.75
511.833	91.75
512.049	76.75
512.265	84.75
512.481	95.75
512.698	88.75
512.914	94.75
513.13	100.75
513.346	86.75
513.562	95.75
513.778	108.75
513.994	98.75
514.21	79.75
514.426	104.75
514.642	109.75
514.858	105.75
515.074	142.75
515.29	354.75
