Data from Uncirc_1999_H10_HRD10591_00049.txt Node
Date: Wed Jan 03 11:22:15 EST 2024
User: Yrep
Spectrometer: HR+D1059
Trigger mode: 1
Integration Time (sec): 1.000000E-1
Scans to average: 1
Electric dark correction enabled: true
Nonlinearity correction enabled: false
Boxcar width: 0
XAxis mode: Wavelengths
Number of Pixels in Spectrum: 2048
>>>>>Begin Spectral Data<<<<<
223.165	-18.56
223.4	-18.56
223.635	-18.56
223.869	-25.56
224.104	-17.56
224.338	-18.56
224.573	-12.56
224.808	-16.56
225.042	-14.56
225.277	1.44
225.511	-8.56
225.746	6.44
225.98	15.44
226.215	19.44
226.449	18.44
226.683	10.44
226.918	30.44
227.152	30.44
227.387	37.44
227.621	46.44
227.856	46.44
228.09	42.44
228.324	33.44
228.559	49.44
228.793	48.44
229.027	64.44
229.262	69.44
229.496	72.44
229.73	71.44
229.964	60.44
230.199	74.44
230.433	76.44
230.667	78.44
230.901	85.44
231.136	73.44
231.37	80.44
231.604	77.44
231.838	78.44
232.072	78.44
232.306	99.44
232.541	74.44
232.775	75.44
233.009	106.44
233.243	98.44
233.477	77.44
233.711	83.44
233.945	73.44
234.179	86.44
234.413	76.44
234.647	73.44
234.881	87.44
235.115	79.44
235.349	88.44
235.583	76.44
235.817	77.44
236.051	87.44
236.285	88.44
236.519	80.44
236.753	65.44
236.987	85.44
237.221	82.44
237.455	79.44
237.689	73.44
237.922	74.44
238.156	83.44
238.39	79.44
238.624	70.44
238.858	77.44
239.091	81.44
239.325	75.44
239.559	74.44
239.793	70.44
240.027	75.44
240.26	83.44
240.494	80.44
240.728	73.44
240.961	100.44
241.195	86.44
241.429	75.44
241.662	69.44
241.896	77.44
242.13	79.44
242.363	81.44
242.597	79.44
242.83	72.44
243.064	85.44
243.298	75.44
243.531	76.44
243.765	88.44
243.998	76.44
244.232	70.44
244.465	84.44
244.699	74.44
244.932	75.44
245.166	87.44
245.399	81.44
245.633	83.44
245.866	82.44
246.099	76.44
246.333	81.44
246.566	79.44
246.8	66.44
247.033	69.44
247.266	75.44
247.5	71.44
247.733	73.44
247.966	74.44
248.2	75.44
248.433	84.44
248.666	87.44
248.899	71.44
249.133	81.44
249.366	90.44
249.599	95.44
249.832	65.44
250.066	86.44
250.299	64.44
250.532	82.44
250.765	83.44
250.998	88.44
251.231	72.44
251.465	94.44
251.698	75.44
251.931	86.44
252.164	71.44
252.397	87.44
252.63	73.44
252.863	78.44
253.096	81.44
253.329	62.44
253.562	78.44
253.795	61.44
254.028	81.44
254.261	85.44
254.494	88.44
254.727	82.44
254.96	80.44
255.193	79.44
255.426	72.44
255.659	81.44
255.892	80.44
256.124	82.44
256.357	84.44
256.59	82.44
256.823	94.44
257.056	81.44
257.289	93.44
257.521	72.44
257.754	79.44
257.987	75.44
258.22	94.44
258.452	72.44
258.685	77.44
258.918	71.44
259.151	92.44
259.383	82.44
259.616	92.44
259.849	79.44
260.081	80.44
260.314	86.44
260.547	80.44
260.779	70.44
261.012	72.44
261.244	93.44
261.477	85.44
261.71	96.44
261.942	99.44
262.175	109.44
262.407	85.44
262.64	85.44
262.872	76.44
263.105	79.44
263.337	80.44
263.57	98.44
263.802	81.44
264.035	83.44
264.267	83.44
264.499	74.44
264.732	80.44
264.964	66.44
265.197	80.44
265.429	82.44
265.661	75.44
265.894	85.44
266.126	115.44
266.358	76.44
266.591	95.44
266.823	83.44
267.055	83.44
267.287	80.44
267.52	89.44
267.752	75.44
267.984	73.44
268.216	78.44
268.448	71.44
268.681	79.44
268.913	97.44
269.145	100.44
269.377	109.44
269.609	84.44
269.841	88.44
270.073	81.44
270.306	87.44
270.538	67.44
270.77	93.44
271.002	105.44
271.234	75.44
271.466	91.44
271.698	86.44
271.93	77.44
272.162	80.44
272.394	85.44
272.626	81.44
272.858	85.44
273.09	69.44
273.322	89.44
273.553	88.44
273.785	82.44
274.017	86.44
274.249	95.44
274.481	82.44
274.713	92.44
274.945	69.44
275.176	79.44
275.408	88.44
275.64	79.44
275.872	87.44
276.104	97.44
276.335	98.44
276.567	107.44
276.799	81.44
277.031	91.44
277.262	85.44
277.494	87.44
277.726	91.44
277.957	82.44
278.189	78.44
278.421	95.44
278.652	77.44
278.884	102.44
279.115	87.44
279.347	83.44
279.579	88.44
279.81	85.44
280.042	92.44
280.273	82.44
280.505	75.44
280.736	94.44
280.968	99.44
281.199	86.44
281.431	88.44
281.662	73.44
281.894	99.44
282.125	89.44
282.356	97.44
282.588	123.44
282.819	111.44
283.051	81.44
283.282	90.44
283.513	83.44
283.745	80.44
283.976	72.44
284.207	86.44
284.439	86.44
284.67	71.44
284.901	84.44
285.132	95.44
285.364	85.44
285.595	86.44
285.826	82.44
286.057	78.44
286.288	83.44
286.52	77.44
286.751	85.44
286.982	82.44
287.213	73.44
287.444	90.44
287.675	93.44
287.906	105.44
288.138	86.44
288.369	101.44
288.6	89.44
288.831	94.44
289.062	97.44
289.293	88.44
289.524	87.44
289.755	78.44
289.986	92.44
290.217	86.44
290.448	90.44
290.679	82.44
290.91	76.44
291.141	81.44
291.371	92.44
291.602	88.44
291.833	89.44
292.064	93.44
292.295	86.44
292.526	93.44
292.757	86.44
292.987	80.44
293.218	94.44
293.449	87.44
293.68	87.44
293.91	91.44
294.141	112.44
294.372	92.44
294.603	86.44
294.833	89.44
295.064	83.44
295.295	78.44
295.525	98.44
295.756	96.44
295.987	99.44
296.217	127.44
296.448	120.44
296.679	80.44
296.909	94.44
297.14	88.44
297.37	102.44
297.601	95.44
297.831	93.44
298.062	86.44
298.292	98.44
298.523	90.44
298.753	93.44
298.984	85.44
299.214	83.44
299.445	95.44
299.675	86.44
299.905	91.44
300.136	93.44
300.366	84.44
300.597	90.44
300.827	103.44
301.057	98.44
301.288	107.44
301.518	101.44
301.748	100.44
301.979	95.44
302.209	96.44
302.439	97.44
302.669	83.44
302.9	86.44
303.13	101.44
303.36	97.44
303.59	95.44
303.82	100.44
304.051	86.44
304.281	87.44
304.511	92.44
304.741	78.44
304.971	70.44
305.201	87.44
305.431	90.44
305.661	85.44
305.891	88.44
306.121	93.44
306.352	110.44
306.582	123.44
306.812	102.44
307.042	100.44
307.272	95.44
307.502	97.44
307.731	94.44
307.961	99.44
308.191	103.44
308.421	95.44
308.651	75.44
308.881	88.44
309.111	103.44
309.341	103.44
309.571	91.44
309.8	93.44
310.03	102.44
310.26	94.44
310.49	99.44
310.72	88.44
310.949	93.44
311.179	106.44
311.409	109.44
311.639	99.44
311.868	106.44
312.098	91.44
312.328	101.44
312.557	91.44
312.787	99.44
313.017	105.44
313.246	95.44
313.476	86.44
313.706	89.44
313.935	104.44
314.165	103.44
314.394	110.44
314.624	101.44
314.853	98.44
315.083	94.44
315.312	84.44
315.542	114.44
315.771	95.44
316.001	76.44
316.23	93.44
316.46	96.44
316.689	89.44
316.919	98.44
317.148	98.44
317.377	91.44
317.607	105.44
317.836	106.44
318.065	82.44
318.295	75.44
318.524	87.44
318.753	94.44
318.983	95.44
319.212	87.44
319.441	98.44
319.67	100.44
319.9	101.44
320.129	102.44
320.358	94.44
320.587	101.44
320.816	96.44
321.046	100.44
321.275	95.44
321.504	90.44
321.733	95.44
321.962	86.44
322.191	96.44
322.42	103.44
322.649	97.44
322.878	107.44
323.108	101.44
323.337	122.44
323.566	125.44
323.795	140.44
324.024	202.44
324.253	382.44
324.482	785.44
324.71	1673.44
324.939	2167.44
325.168	776.44
325.397	242.44
325.626	155.44
325.855	121.44
326.084	126.44
326.313	127.44
326.542	155.44
326.77	219.44
326.999	457.44
327.228	930.44
327.457	1695.44
327.686	1349.44
327.914	338.44
328.143	191.44
328.372	146.44
328.6	125.44
328.829	123.44
329.058	128.44
329.287	116.44
329.515	106.44
329.744	97.44
329.972	94.44
330.201	106.44
330.43	102.44
330.658	107.44
330.887	124.44
331.115	111.44
331.344	101.44
331.572	100.44
331.801	106.44
332.03	111.44
332.258	93.44
332.486	87.44
332.715	102.44
332.943	91.44
333.172	96.44
333.4	106.44
333.629	103.44
333.857	113.44
334.085	98.44
334.314	99.44
334.542	97.44
334.771	114.44
334.999	99.44
335.227	101.44
335.455	102.44
335.684	93.44
335.912	102.44
336.14	92.44
336.369	106.44
336.597	108.44
336.825	83.44
337.053	102.44
337.281	105.44
337.51	94.44
337.738	89.44
337.966	99.44
338.194	95.44
338.422	99.44
338.65	105.44
338.878	89.44
339.106	78.44
339.334	89.44
339.562	97.44
339.79	97.44
340.018	101.44
340.246	83.44
340.474	101.44
340.702	95.44
340.93	93.44
341.158	90.44
341.386	105.44
341.614	105.44
341.842	85.44
342.07	88.44
342.298	99.44
342.526	85.44
342.754	87.44
342.981	93.44
343.209	79.44
343.437	99.44
343.665	96.44
343.893	106.44
344.12	86.44
344.348	91.44
344.576	87.44
344.804	73.44
345.031	99.44
345.259	102.44
345.487	77.44
345.714	93.44
345.942	89.44
346.17	99.44
346.397	98.44
346.625	93.44
346.853	95.44
347.08	85.44
347.308	92.44
347.535	90.44
347.763	97.44
347.99	102.44
348.218	97.44
348.445	97.44
348.673	96.44
348.9	84.44
349.128	91.44
349.355	102.44
349.583	85.44
349.81	85.44
350.037	98.44
350.265	98.44
350.492	96.44
350.72	90.44
350.947	101.44
351.174	106.44
351.402	110.44
351.629	112.44
351.856	113.44
352.083	106.44
352.311	105.44
352.538	99.44
352.765	106.44
352.992	106.44
353.22	109.44
353.447	102.44
353.674	83.44
353.901	94.44
354.128	101.44
354.355	111.44
354.583	87.44
354.81	94.44
355.037	110.44
355.264	102.44
355.491	95.44
355.718	90.44
355.945	95.44
356.172	101.44
356.399	98.44
356.626	91.44
356.853	90.44
357.08	96.44
357.307	91.44
357.534	87.44
357.761	94.44
357.988	86.44
358.215	108.44
358.441	88.44
358.668	109.44
358.895	97.44
359.122	85.44
359.349	96.44
359.576	94.44
359.802	93.44
360.029	108.44
360.256	100.44
360.483	97.44
360.709	96.44
360.936	95.44
361.163	90.44
361.39	93.44
361.616	95.44
361.843	105.44
362.07	97.44
362.296	94.44
362.523	102.44
362.749	89.44
362.976	88.44
363.203	91.44
363.429	82.44
363.656	98.44
363.882	88.44
364.109	92.44
364.335	89.44
364.562	82.44
364.788	82.44
365.015	104.44
365.241	103.44
365.468	115.44
365.694	109.44
365.92	101.44
366.147	97.44
366.373	89.44
366.599	89.44
366.826	97.44
367.052	97.44
367.278	97.44
367.505	85.44
367.731	87.44
367.957	75.44
368.184	100.44
368.41	85.44
368.636	105.44
368.862	111.44
369.089	108.44
369.315	83.44
369.541	81.44
369.767	97.44
369.993	90.44
370.219	88.44
370.445	92.44
370.672	74.44
370.898	76.44
371.124	81.44
371.35	90.44
371.576	96.44
371.802	66.44
372.028	95.44
372.254	90.44
372.48	86.44
372.706	97.44
372.932	78.44
373.158	93.44
373.384	89.44
373.61	105.44
373.835	97.44
374.061	87.44
374.287	77.44
374.513	99.44
374.739	90.44
374.965	99.44
375.191	93.44
375.416	74.44
375.642	82.44
375.868	90.44
376.094	98.44
376.319	91.44
376.545	93.44
376.771	102.44
376.997	91.44
377.222	86.44
377.448	81.44
377.674	95.44
377.899	86.44
378.125	86.44
378.35	90.44
378.576	93.44
378.802	96.44
379.027	89.44
379.253	101.44
379.478	88.44
379.704	96.44
379.929	88.44
380.155	83.44
380.38	98.44
380.606	87.44
380.831	102.44
381.057	92.44
381.282	89.44
381.507	94.44
381.733	101.44
381.958	118.44
382.184	97.44
382.409	96.44
382.634	76.44
382.86	103.44
383.085	106.44
383.31	111.44
383.535	115.44
383.761	101.44
383.986	95.44
384.211	115.44
384.436	107.44
384.662	98.44
384.887	110.44
385.112	99.44
385.337	103.44
385.562	97.44
385.787	112.44
386.013	109.44
386.238	109.44
386.463	107.44
386.688	108.44
386.913	101.44
387.138	106.44
387.363	122.44
387.588	99.44
387.813	111.44
388.038	126.44
388.263	116.44
388.488	107.44
388.713	89.44
388.938	99.44
389.163	81.44
389.387	101.44
389.612	88.44
389.837	86.44
390.062	96.44
390.287	95.44
390.512	94.44
390.736	105.44
390.961	93.44
391.186	107.44
391.411	102.44
391.636	91.44
391.86	95.44
392.085	96.44
392.31	85.44
392.534	79.44
392.759	80.44
392.984	102.44
393.208	98.44
393.433	89.44
393.658	89.44
393.882	77.44
394.107	87.44
394.331	80.44
394.556	76.44
394.78	107.44
395.005	81.44
395.229	83.44
395.454	91.44
395.678	82.44
395.903	83.44
396.127	89.44
396.352	77.44
396.576	77.44
396.801	89.44
397.025	96.44
397.249	102.44
397.474	89.44
397.698	87.44
397.922	77.44
398.147	90.44
398.371	85.44
398.595	91.44
398.82	86.44
399.044	90.44
399.268	85.44
399.492	94.44
399.717	90.44
399.941	86.44
400.165	97.44
400.389	69.44
400.613	84.44
400.837	73.44
401.062	95.44
401.286	93.44
401.51	94.44
401.734	89.44
401.958	103.44
402.182	119.44
402.406	133.44
402.63	100.44
402.854	95.44
403.078	82.44
403.302	84.44
403.526	91.44
403.75	81.44
403.974	91.44
404.198	85.44
404.422	92.44
404.645	80.44
404.869	87.44
405.093	78.44
405.317	87.44
405.541	93.44
405.765	85.44
405.988	117.44
406.212	157.44
406.436	173.44
406.66	124.44
406.883	107.44
407.107	90.44
407.331	103.44
407.555	92.44
407.778	96.44
408.002	92.44
408.226	89.44
408.449	89.44
408.673	82.44
408.896	95.44
409.12	94.44
409.344	76.44
409.567	89.44
409.791	91.44
410.014	89.44
410.238	84.44
410.461	96.44
410.685	94.44
410.908	98.44
411.132	109.44
411.355	101.44
411.578	96.44
411.802	88.44
412.025	94.44
412.249	90.44
412.472	94.44
412.695	95.44
412.919	96.44
413.142	75.44
413.365	79.44
413.589	111.44
413.812	89.44
414.035	85.44
414.258	90.44
414.482	99.44
414.705	105.44
414.928	93.44
415.151	98.44
415.374	89.44
415.597	79.44
415.821	89.44
416.044	90.44
416.267	85.44
416.49	88.44
416.713	76.44
416.936	93.44
417.159	78.44
417.382	105.44
417.605	89.44
417.828	99.44
418.051	85.44
418.274	81.44
418.497	77.44
418.72	84.44
418.943	87.44
419.166	92.44
419.389	84.44
419.611	86.44
419.834	91.44
420.057	91.44
420.28	78.44
420.503	103.44
420.726	108.44
420.948	101.44
421.171	97.44
421.394	88.44
421.617	89.44
421.839	91.44
422.062	95.44
422.285	81.44
422.507	109.44
422.73	101.44
422.953	92.44
423.175	79.44
423.398	86.44
423.621	73.44
423.843	75.44
424.066	72.44
424.288	88.44
424.511	91.44
424.733	98.44
424.956	94.44
425.178	90.44
425.401	93.44
425.623	82.44
425.846	79.44
426.068	91.44
426.291	93.44
426.513	89.44
426.735	106.44
426.958	85.44
427.18	103.44
427.402	134.44
427.625	153.44
427.847	117.44
428.069	91.44
428.292	81.44
428.514	102.44
428.736	87.44
428.958	84.44
429.181	89.44
429.403	90.44
429.625	91.44
429.847	81.44
430.069	82.44
430.292	97.44
430.514	88.44
430.736	97.44
430.958	75.44
431.18	89.44
431.402	87.44
431.624	79.44
431.846	85.44
432.068	84.44
432.29	96.44
432.512	118.44
432.734	96.44
432.956	101.44
433.178	98.44
433.4	96.44
433.622	86.44
433.844	97.44
434.066	73.44
434.287	97.44
434.509	76.44
434.731	86.44
434.953	103.44
435.175	86.44
435.397	84.44
435.618	88.44
435.84	113.44
436.062	115.44
436.284	103.44
436.505	99.44
436.727	104.44
436.949	94.44
437.17	92.44
437.392	91.44
437.614	88.44
437.835	97.44
438.057	100.44
438.278	104.44
438.5	104.44
438.721	108.44
438.943	88.44
439.165	84.44
439.386	71.44
439.608	89.44
439.829	85.44
440.05	112.44
440.272	123.44
440.493	104.44
440.715	91.44
440.936	87.44
441.158	84.44
441.379	91.44
441.6	83.44
441.822	82.44
442.043	82.44
442.264	98.44
442.486	92.44
442.707	112.44
442.928	110.44
443.149	122.44
443.371	119.44
443.592	107.44
443.813	104.44
444.034	106.44
444.255	97.44
444.476	92.44
444.698	84.44
444.919	87.44
445.14	122.44
445.361	111.44
445.582	113.44
445.803	124.44
446.024	129.44
446.245	121.44
446.466	92.44
446.687	90.44
446.908	87.44
447.129	90.44
447.35	88.44
447.571	107.44
447.792	94.44
448.013	98.44
448.234	105.44
448.455	111.44
448.675	100.44
448.896	109.44
449.117	96.44
449.338	93.44
449.559	118.44
449.779	114.44
450	85.44
450.221	92.44
450.442	79.44
450.662	103.44
450.883	97.44
451.104	98.44
451.324	89.44
451.545	97.44
451.766	100.44
451.986	91.44
452.207	105.44
452.428	98.44
452.648	91.44
452.869	112.44
453.089	106.44
453.31	96.44
453.53	90.44
453.751	105.44
453.971	89.44
454.192	103.44
454.412	103.44
454.633	84.44
454.853	95.44
455.073	91.44
455.294	90.44
455.514	99.44
455.734	77.44
455.955	95.44
456.175	95.44
456.395	96.44
456.616	97.44
456.836	77.44
457.056	82.44
457.276	77.44
457.497	90.44
457.717	87.44
457.937	88.44
458.157	100.44
458.377	96.44
458.598	94.44
458.818	129.44
459.038	119.44
459.258	113.44
459.478	104.44
459.698	78.44
459.918	106.44
460.138	94.44
460.358	81.44
460.578	95.44
460.798	80.44
461.018	81.44
461.238	94.44
461.458	87.44
461.678	86.44
461.898	91.44
462.118	103.44
462.338	83.44
462.558	89.44
462.777	76.44
462.997	86.44
463.217	94.44
463.437	89.44
463.657	83.44
463.876	90.44
464.096	103.44
464.316	88.44
464.536	84.44
464.755	104.44
464.975	104.44
465.195	140.44
465.414	124.44
465.634	106.44
465.854	84.44
466.073	88.44
466.293	97.44
466.512	92.44
466.732	86.44
466.951	89.44
467.171	94.44
467.391	104.44
467.61	123.44
467.829	111.44
468.049	77.44
468.268	92.44
468.488	90.44
468.707	98.44
468.927	88.44
469.146	78.44
469.365	86.44
469.585	99.44
469.804	95.44
470.023	94.44
470.243	91.44
470.462	90.44
470.681	83.44
470.901	94.44
471.12	92.44
471.339	87.44
471.558	76.44
471.777	95.44
471.997	92.44
472.216	76.44
472.435	102.44
472.654	75.44
472.873	89.44
473.092	81.44
473.311	87.44
473.53	81.44
473.749	93.44
473.968	89.44
474.187	96.44
474.406	101.44
474.625	85.44
474.844	89.44
475.063	95.44
475.282	90.44
475.501	82.44
475.72	82.44
475.939	74.44
476.158	87.44
476.377	79.44
476.596	92.44
476.814	88.44
477.033	78.44
477.252	86.44
477.471	89.44
477.69	91.44
477.908	81.44
478.127	88.44
478.346	86.44
478.564	89.44
478.783	81.44
479.002	82.44
479.22	94.44
479.439	93.44
479.658	101.44
479.876	85.44
480.095	90.44
480.313	98.44
480.532	85.44
480.751	87.44
480.969	90.44
481.188	112.44
481.406	104.44
481.624	100.44
481.843	86.44
482.061	75.44
482.28	81.44
482.498	89.44
482.717	96.44
482.935	95.44
483.153	79.44
483.372	73.44
483.59	93.44
483.808	82.44
484.027	100.44
484.245	83.44
484.463	85.44
484.681	103.44
484.9	96.44
485.118	105.44
485.336	97.44
485.554	108.44
485.772	99.44
485.99	110.44
486.209	107.44
486.427	113.44
486.645	106.44
486.863	111.44
487.081	103.44
487.299	98.44
487.517	111.44
487.735	109.44
487.953	102.44
488.171	85.44
488.389	123.44
488.607	92.44
488.825	97.44
489.043	93.44
489.261	93.44
489.479	103.44
489.696	100.44
489.914	87.44
490.132	97.44
490.35	86.44
490.568	87.44
490.786	90.44
491.003	79.44
491.221	95.44
491.439	112.44
491.657	90.44
491.874	95.44
492.092	83.44
492.31	86.44
492.527	104.44
492.745	90.44
492.963	95.44
493.18	105.44
493.398	95.44
493.615	105.44
493.833	98.44
494.05	114.44
494.268	86.44
494.485	96.44
494.703	95.44
494.92	89.44
495.138	92.44
495.355	87.44
495.573	79.44
495.79	95.44
496.008	94.44
496.225	98.44
496.442	71.44
496.66	91.44
496.877	84.44
497.094	94.44
497.312	94.44
497.529	91.44
497.746	90.44
497.963	96.44
498.181	99.44
498.398	97.44
498.615	110.44
498.832	104.44
499.049	95.44
499.267	95.44
499.484	84.44
499.701	99.44
499.918	87.44
500.135	99.44
500.352	87.44
500.569	96.44
500.786	99.44
501.003	99.44
501.22	91.44
501.437	99.44
501.654	84.44
501.871	103.44
502.088	97.44
502.305	101.44
502.522	99.44
502.739	110.44
502.956	96.44
503.172	105.44
503.389	90.44
503.606	94.44
503.823	94.44
504.04	86.44
504.256	105.44
504.473	87.44
504.69	89.44
504.907	95.44
505.123	95.44
505.34	81.44
505.557	82.44
505.773	93.44
505.99	87.44
506.207	85.44
506.423	93.44
506.64	95.44
506.856	91.44
507.073	98.44
507.289	85.44
507.506	82.44
507.722	102.44
507.939	77.44
508.155	91.44
508.372	104.44
508.588	104.44
508.805	107.44
509.021	98.44
509.238	103.44
509.454	86.44
509.67	105.44
509.887	119.44
510.103	115.44
510.319	208.44
510.536	672.44
510.752	2023.44
510.968	557.44
511.184	153.44
511.401	95.44
511.617	99.44
511.833	93.44
512.049	100.44
512.265	96.44
512.481	97.44
512.698	74.44
512.914	95.44
513.13	102.44
513.346	93.44
513.562	98.44
513.778	106.44
513.994	104.44
514.21	98.44
514.426	113.44
514.642	118.44
514.858	135.44
515.074	146.44
515.29	370.44
515.506	1136.44
