Data from Uncirc_1999_H10_HRD10591_00052.txt Node
Date: Wed Jan 03 11:22:15 EST 2024
User: Yrep
Spectrometer: HR+D1059
Trigger mode: 1
Integration Time (sec): 1.000000E-1
Scans to average: 1
Electric dark correction enabled: true
Nonlinearity correction enabled: false
Boxcar width: 0
XAxis mode: Wavelengths
Number of Pixels in Spectrum: 2048
>>>>>Begin Spectral Data<<<<<
223.165	-13.12
223.4	-13.12
223.635	-13.12
223.869	-19.12
224.104	-15.12
224.338	-14.12
224.573	-15.12
224.808	-12.12
225.042	-5.12
225.277	-1.12
225.511	-6.12
225.746	-0.12
225.98	-5.12
226.215	17.88
226.449	18.88
226.683	20.88
226.918	26.88
227.152	21.88
227.387	52.88
227.621	54.88
227.856	33.88
228.09	54.88
228.324	52.88
228.559	60.88
228.793	51.88
229.027	78.88
229.262	61.88
229.496	73.88
229.73	70.88
229.964	85.88
230.199	60.88
230.433	78.88
230.667	89.88
230.901	83.88
231.136	75.88
231.37	86.88
231.604	76.88
231.838	84.88
232.072	92.88
232.306	84.88
232.541	84.88
232.775	87.88
233.009	65.88
233.243	74.88
233.477	72.88
233.711	76.88
233.945	84.88
234.179	81.88
234.413	80.88
234.647	78.88
234.881	72.88
235.115	57.88
235.349	75.88
235.583	68.88
235.817	84.88
236.051	74.88
236.285	83.88
236.519	79.88
236.753	80.88
236.987	86.88
237.221	86.88
237.455	84.88
237.689	84.88
237.922	74.88
238.156	82.88
238.39	68.88
238.624	83.88
238.858	74.88
239.091	83.88
239.325	85.88
239.559	81.88
239.793	80.88
240.027	72.88
240.26	63.88
240.494	73.88
240.728	85.88
240.961	86.88
241.195	71.88
241.429	79.88
241.662	75.88
241.896	88.88
242.13	73.88
242.363	70.88
242.597	89.88
242.83	79.88
243.064	72.88
243.298	79.88
243.531	60.88
243.765	78.88
243.998	93.88
244.232	68.88
244.465	89.88
244.699	75.88
244.932	77.88
245.166	84.88
245.399	85.88
245.633	87.88
245.866	84.88
246.099	63.88
246.333	73.88
246.566	74.88
246.8	77.88
247.033	79.88
247.266	53.88
247.5	68.88
247.733	91.88
247.966	62.88
248.2	77.88
248.433	86.88
248.666	83.88
248.899	74.88
249.133	84.88
249.366	85.88
249.599	99.88
249.832	85.88
250.066	75.88
250.299	82.88
250.532	85.88
250.765	72.88
250.998	77.88
251.231	77.88
251.465	80.88
251.698	73.88
251.931	70.88
252.164	88.88
252.397	100.88
252.63	84.88
252.863	76.88
253.096	78.88
253.329	85.88
253.562	86.88
253.795	82.88
254.028	75.88
254.261	78.88
254.494	89.88
254.727	91.88
254.96	86.88
255.193	84.88
255.426	94.88
255.659	81.88
255.892	86.88
256.124	81.88
256.357	90.88
256.59	82.88
256.823	73.88
257.056	75.88
257.289	49.88
257.521	86.88
257.754	59.88
257.987	92.88
258.22	87.88
258.452	84.88
258.685	76.88
258.918	94.88
259.151	84.88
259.383	86.88
259.616	82.88
259.849	72.88
260.081	85.88
260.314	72.88
260.547	84.88
260.779	88.88
261.012	80.88
261.244	80.88
261.477	80.88
261.71	87.88
261.942	96.88
262.175	106.88
262.407	83.88
262.64	82.88
262.872	86.88
263.105	82.88
263.337	93.88
263.57	81.88
263.802	86.88
264.035	69.88
264.267	71.88
264.499	84.88
264.732	96.88
264.964	87.88
265.197	77.88
265.429	76.88
265.661	87.88
265.894	76.88
266.126	84.88
266.358	90.88
266.591	83.88
266.823	89.88
267.055	79.88
267.287	82.88
267.52	86.88
267.752	80.88
267.984	89.88
268.216	87.88
268.448	65.88
268.681	83.88
268.913	88.88
269.145	93.88
269.377	88.88
269.609	91.88
269.841	73.88
270.073	95.88
270.306	80.88
270.538	68.88
270.77	81.88
271.002	87.88
271.234	90.88
271.466	79.88
271.698	89.88
271.93	87.88
272.162	87.88
272.394	82.88
272.626	77.88
272.858	87.88
273.09	93.88
273.322	84.88
273.553	89.88
273.785	79.88
274.017	84.88
274.249	104.88
274.481	88.88
274.713	96.88
274.945	83.88
275.176	94.88
275.408	76.88
275.64	80.88
275.872	84.88
276.104	78.88
276.335	86.88
276.567	101.88
276.799	95.88
277.031	93.88
277.262	93.88
277.494	92.88
277.726	90.88
277.957	83.88
278.189	79.88
278.421	84.88
278.652	89.88
278.884	81.88
279.115	87.88
279.347	94.88
279.579	84.88
279.81	84.88
280.042	80.88
280.273	105.88
280.505	73.88
280.736	89.88
280.968	87.88
281.199	83.88
281.431	87.88
281.662	90.88
281.894	91.88
282.125	95.88
282.356	105.88
282.588	119.88
282.819	105.88
283.051	92.88
283.282	93.88
283.513	81.88
283.745	97.88
283.976	93.88
284.207	87.88
284.439	80.88
284.67	86.88
284.901	78.88
285.132	85.88
285.364	81.88
285.595	77.88
285.826	82.88
286.057	91.88
286.288	95.88
286.52	85.88
286.751	89.88
286.982	80.88
287.213	64.88
287.444	95.88
287.675	90.88
287.906	96.88
288.138	95.88
288.369	68.88
288.6	94.88
288.831	85.88
289.062	104.88
289.293	91.88
289.524	84.88
289.755	95.88
289.986	87.88
290.217	91.88
290.448	74.88
290.679	86.88
290.91	91.88
291.141	91.88
291.371	91.88
291.602	82.88
291.833	83.88
292.064	88.88
292.295	98.88
292.526	90.88
292.757	87.88
292.987	85.88
293.218	77.88
293.449	80.88
293.68	80.88
293.91	86.88
294.141	96.88
294.372	101.88
294.603	88.88
294.833	85.88
295.064	73.88
295.295	98.88
295.525	89.88
295.756	98.88
295.987	109.88
296.217	126.88
296.448	120.88
296.679	97.88
296.909	92.88
297.14	81.88
297.37	84.88
297.601	93.88
297.831	77.88
298.062	95.88
298.292	93.88
298.523	94.88
298.753	86.88
298.984	83.88
299.214	87.88
299.445	103.88
299.675	80.88
299.905	89.88
300.136	84.88
300.366	86.88
300.597	81.88
300.827	86.88
301.057	88.88
301.288	104.88
301.518	90.88
301.748	94.88
301.979	107.88
302.209	77.88
302.439	88.88
302.669	82.88
302.9	90.88
303.13	72.88
303.36	100.88
303.59	95.88
303.82	87.88
304.051	101.88
304.281	96.88
304.511	86.88
304.741	73.88
304.971	86.88
305.201	90.88
305.431	92.88
305.661	88.88
305.891	89.88
306.121	86.88
306.352	94.88
306.582	89.88
306.812	85.88
307.042	102.88
307.272	91.88
307.502	98.88
307.731	80.88
307.961	79.88
308.191	89.88
308.421	84.88
308.651	98.88
308.881	83.88
309.111	90.88
309.341	96.88
309.571	94.88
309.8	88.88
310.03	102.88
310.26	89.88
310.49	89.88
310.72	101.88
310.949	95.88
311.179	92.88
311.409	99.88
311.639	98.88
311.868	94.88
312.098	88.88
312.328	94.88
312.557	97.88
312.787	95.88
313.017	91.88
313.246	89.88
313.476	78.88
313.706	94.88
313.935	95.88
314.165	108.88
314.394	103.88
314.624	80.88
314.853	77.88
315.083	103.88
315.312	92.88
315.542	95.88
315.771	90.88
316.001	97.88
316.23	80.88
316.46	74.88
316.689	102.88
316.919	101.88
317.148	94.88
317.377	86.88
317.607	95.88
317.836	83.88
318.065	75.88
318.295	90.88
318.524	89.88
318.753	93.88
318.983	95.88
319.212	97.88
319.441	105.88
319.67	97.88
319.9	96.88
320.129	88.88
320.358	92.88
320.587	90.88
320.816	87.88
321.046	95.88
321.275	92.88
321.504	80.88
321.733	95.88
321.962	86.88
322.191	113.88
322.42	106.88
322.649	101.88
322.878	109.88
323.108	129.88
323.337	104.88
323.566	134.88
323.795	156.88
324.024	200.88
324.253	374.88
324.482	806.88
324.71	1696.88
324.939	2196.88
325.168	787.88
325.397	254.88
325.626	141.88
325.855	122.88
326.084	120.88
326.313	105.88
326.542	146.88
326.77	243.88
326.999	449.88
327.228	951.88
327.457	1754.88
327.686	1357.88
327.914	370.88
328.143	189.88
328.372	132.88
328.6	142.88
328.829	132.88
329.058	118.88
329.287	108.88
329.515	118.88
329.744	101.88
329.972	95.88
330.201	102.88
330.43	103.88
330.658	127.88
330.887	137.88
331.115	108.88
331.344	82.88
331.572	102.88
331.801	96.88
332.03	92.88
332.258	110.88
332.486	97.88
332.715	92.88
332.943	96.88
333.172	103.88
333.4	102.88
333.629	101.88
333.857	110.88
334.085	100.88
334.314	82.88
334.542	96.88
334.771	90.88
334.999	102.88
335.227	100.88
335.455	91.88
335.684	104.88
335.912	72.88
336.14	105.88
336.369	93.88
336.597	86.88
336.825	97.88
337.053	107.88
337.281	98.88
337.51	97.88
337.738	89.88
337.966	87.88
338.194	92.88
338.422	79.88
338.65	92.88
338.878	97.88
339.106	87.88
339.334	102.88
339.562	90.88
339.79	93.88
340.018	91.88
340.246	88.88
340.474	96.88
340.702	80.88
340.93	94.88
341.158	85.88
341.386	93.88
341.614	76.88
341.842	112.88
342.07	86.88
342.298	81.88
342.526	99.88
342.754	89.88
342.981	82.88
343.209	89.88
343.437	97.88
343.665	80.88
343.893	87.88
344.12	88.88
344.348	78.88
344.576	89.88
344.804	96.88
345.031	101.88
345.259	106.88
345.487	98.88
345.714	76.88
345.942	77.88
346.17	92.88
346.397	107.88
346.625	112.88
346.853	90.88
347.08	81.88
347.308	94.88
347.535	111.88
347.763	103.88
347.99	110.88
348.218	91.88
348.445	105.88
348.673	100.88
348.9	92.88
349.128	91.88
349.355	78.88
349.583	86.88
349.81	79.88
350.037	82.88
350.265	91.88
350.492	96.88
350.72	98.88
350.947	102.88
351.174	113.88
351.402	107.88
351.629	95.88
351.856	99.88
352.083	86.88
352.311	105.88
352.538	107.88
352.765	104.88
352.992	109.88
353.22	101.88
353.447	105.88
353.674	112.88
353.901	105.88
354.128	102.88
354.355	109.88
354.583	105.88
354.81	96.88
355.037	95.88
355.264	87.88
355.491	94.88
355.718	95.88
355.945	88.88
356.172	84.88
356.399	92.88
356.626	96.88
356.853	93.88
357.08	94.88
357.307	100.88
357.534	110.88
357.761	93.88
357.988	92.88
358.215	102.88
358.441	97.88
358.668	90.88
358.895	97.88
359.122	98.88
359.349	108.88
359.576	93.88
359.802	87.88
360.029	99.88
360.256	114.88
360.483	102.88
360.709	96.88
360.936	86.88
361.163	98.88
361.39	94.88
361.616	97.88
361.843	89.88
362.07	91.88
362.296	90.88
362.523	88.88
362.749	98.88
362.976	94.88
363.203	110.88
363.429	87.88
363.656	90.88
363.882	88.88
364.109	89.88
364.335	88.88
364.562	103.88
364.788	81.88
365.015	92.88
365.241	97.88
365.468	103.88
365.694	103.88
365.92	77.88
366.147	82.88
366.373	87.88
366.599	84.88
366.826	95.88
367.052	91.88
367.278	86.88
367.505	85.88
367.731	83.88
367.957	90.88
368.184	85.88
368.41	105.88
368.636	108.88
368.862	121.88
369.089	111.88
369.315	97.88
369.541	82.88
369.767	91.88
369.993	97.88
370.219	84.88
370.445	96.88
370.672	86.88
370.898	94.88
371.124	90.88
371.35	89.88
371.576	89.88
371.802	92.88
372.028	97.88
372.254	98.88
372.48	92.88
372.706	94.88
372.932	92.88
373.158	92.88
373.384	84.88
373.61	97.88
373.835	98.88
374.061	93.88
374.287	78.88
374.513	80.88
374.739	96.88
374.965	92.88
375.191	98.88
375.416	85.88
375.642	90.88
375.868	103.88
376.094	89.88
376.319	83.88
376.545	99.88
376.771	98.88
376.997	93.88
377.222	91.88
377.448	104.88
377.674	97.88
377.899	87.88
378.125	85.88
378.35	96.88
378.576	89.88
378.802	91.88
379.027	97.88
379.253	88.88
379.478	103.88
379.704	102.88
379.929	95.88
380.155	87.88
380.38	90.88
380.606	95.88
380.831	93.88
381.057	110.88
381.282	98.88
381.507	88.88
381.733	92.88
381.958	88.88
382.184	90.88
382.409	96.88
382.634	104.88
382.86	116.88
383.085	116.88
383.31	111.88
383.535	110.88
383.761	113.88
383.986	109.88
384.211	98.88
384.436	104.88
384.662	112.88
384.887	98.88
385.112	113.88
385.337	111.88
385.562	103.88
385.787	97.88
386.013	108.88
386.238	112.88
386.463	111.88
386.688	113.88
386.913	99.88
387.138	114.88
387.363	98.88
387.588	94.88
387.813	106.88
388.038	112.88
388.263	88.88
388.488	108.88
388.713	101.88
388.938	88.88
389.163	96.88
389.387	94.88
389.612	94.88
389.837	101.88
390.062	98.88
390.287	101.88
390.512	90.88
390.736	95.88
390.961	97.88
391.186	86.88
391.411	86.88
391.636	99.88
391.86	77.88
392.085	93.88
392.31	85.88
392.534	65.88
392.759	92.88
392.984	72.88
393.208	74.88
393.433	103.88
393.658	90.88
393.882	102.88
394.107	89.88
394.331	85.88
394.556	79.88
394.78	84.88
395.005	91.88
395.229	88.88
395.454	98.88
395.678	83.88
395.903	90.88
396.127	92.88
396.352	94.88
396.576	80.88
396.801	94.88
397.025	96.88
397.249	91.88
397.474	89.88
397.698	86.88
397.922	89.88
398.147	76.88
398.371	77.88
398.595	85.88
398.82	87.88
399.044	85.88
399.268	88.88
399.492	87.88
399.717	101.88
399.941	82.88
400.165	86.88
400.389	88.88
400.613	85.88
400.837	87.88
401.062	99.88
401.286	88.88
401.51	90.88
401.734	88.88
401.958	116.88
402.182	120.88
402.406	142.88
402.63	98.88
402.854	98.88
403.078	85.88
403.302	96.88
403.526	104.88
403.75	89.88
403.974	82.88
404.198	94.88
404.422	86.88
404.645	94.88
404.869	76.88
405.093	97.88
405.317	94.88
405.541	100.88
405.765	87.88
405.988	110.88
406.212	154.88
406.436	208.88
406.66	138.88
406.883	98.88
407.107	93.88
407.331	99.88
407.555	94.88
407.778	92.88
408.002	101.88
408.226	84.88
408.449	81.88
408.673	92.88
408.896	87.88
409.12	108.88
409.344	99.88
409.567	90.88
409.791	84.88
410.014	77.88
410.238	101.88
410.461	90.88
410.685	75.88
410.908	102.88
411.132	82.88
411.355	99.88
411.578	99.88
411.802	88.88
412.025	90.88
412.249	81.88
412.472	80.88
412.695	89.88
412.919	102.88
413.142	109.88
413.365	91.88
413.589	91.88
413.812	96.88
414.035	86.88
414.258	87.88
414.482	85.88
414.705	88.88
414.928	86.88
415.151	97.88
415.374	85.88
415.597	94.88
415.821	84.88
416.044	82.88
416.267	88.88
416.49	84.88
416.713	71.88
416.936	85.88
417.159	81.88
417.382	78.88
417.605	93.88
417.828	101.88
418.051	88.88
418.274	91.88
418.497	76.88
418.72	78.88
418.943	75.88
419.166	86.88
419.389	91.88
419.611	105.88
419.834	86.88
420.057	80.88
420.28	90.88
420.503	94.88
420.726	74.88
420.948	98.88
421.171	100.88
421.394	80.88
421.617	85.88
421.839	92.88
422.062	85.88
422.285	93.88
422.507	77.88
422.73	93.88
422.953	85.88
423.175	77.88
423.398	85.88
423.621	101.88
423.843	84.88
424.066	81.88
424.288	97.88
424.511	107.88
424.733	92.88
424.956	95.88
425.178	104.88
425.401	88.88
425.623	94.88
425.846	90.88
426.068	90.88
426.291	81.88
426.513	92.88
426.735	92.88
426.958	89.88
427.18	119.88
427.402	121.88
427.625	142.88
427.847	116.88
428.069	108.88
428.292	77.88
428.514	79.88
428.736	83.88
428.958	97.88
429.181	93.88
429.403	90.88
429.625	101.88
429.847	80.88
430.069	97.88
430.292	71.88
430.514	85.88
430.736	84.88
430.958	91.88
431.18	78.88
431.402	90.88
431.624	80.88
431.846	89.88
432.068	77.88
432.29	82.88
432.512	79.88
432.734	92.88
432.956	91.88
433.178	111.88
433.4	88.88
433.622	100.88
433.844	92.88
434.066	100.88
434.287	92.88
434.509	97.88
434.731	85.88
434.953	104.88
435.175	86.88
435.397	102.88
435.618	84.88
435.84	96.88
436.062	114.88
436.284	116.88
436.505	102.88
436.727	106.88
436.949	80.88
437.17	90.88
437.392	89.88
437.614	94.88
437.835	87.88
438.057	107.88
438.278	100.88
438.5	109.88
438.721	120.88
438.943	106.88
439.165	86.88
439.386	80.88
439.608	85.88
439.829	100.88
440.05	112.88
440.272	119.88
440.493	98.88
440.715	90.88
440.936	92.88
441.158	87.88
441.379	107.88
441.6	85.88
441.822	86.88
442.043	86.88
442.264	105.88
442.486	97.88
442.707	88.88
442.928	104.88
443.149	122.88
443.371	117.88
443.592	122.88
443.813	110.88
444.034	116.88
444.255	88.88
444.476	99.88
444.698	84.88
444.919	79.88
445.14	125.88
445.361	136.88
445.582	112.88
445.803	118.88
446.024	138.88
446.245	123.88
446.466	104.88
446.687	97.88
446.908	88.88
447.129	83.88
447.35	84.88
447.571	78.88
447.792	86.88
448.013	103.88
448.234	102.88
448.455	104.88
448.675	106.88
448.896	105.88
449.117	105.88
449.338	94.88
449.559	122.88
449.779	116.88
450	102.88
450.221	100.88
450.442	85.88
450.662	91.88
450.883	109.88
451.104	99.88
451.324	82.88
451.545	98.88
451.766	88.88
451.986	85.88
452.207	99.88
452.428	81.88
452.648	93.88
452.869	90.88
453.089	95.88
453.31	121.88
453.53	94.88
453.751	97.88
453.971	100.88
454.192	107.88
454.412	98.88
454.633	90.88
454.853	91.88
455.073	78.88
455.294	85.88
455.514	93.88
455.734	87.88
455.955	84.88
456.175	87.88
456.395	90.88
456.616	81.88
456.836	89.88
457.056	76.88
457.276	84.88
457.497	90.88
457.717	95.88
457.937	98.88
458.157	101.88
458.377	84.88
458.598	100.88
458.818	143.88
459.038	150.88
459.258	112.88
459.478	97.88
459.698	94.88
459.918	84.88
460.138	88.88
460.358	86.88
460.578	93.88
460.798	95.88
461.018	84.88
461.238	89.88
461.458	81.88
461.678	81.88
461.898	94.88
462.118	79.88
462.338	88.88
462.558	89.88
462.777	79.88
462.997	74.88
463.217	86.88
463.437	95.88
463.657	74.88
463.876	98.88
464.096	96.88
464.316	93.88
464.536	86.88
464.755	91.88
464.975	80.88
465.195	141.88
465.414	133.88
465.634	96.88
465.854	100.88
466.073	82.88
466.293	80.88
466.512	76.88
466.732	86.88
466.951	89.88
467.171	84.88
467.391	85.88
467.61	105.88
467.829	88.88
468.049	96.88
468.268	85.88
468.488	93.88
468.707	88.88
468.927	88.88
469.146	84.88
469.365	92.88
469.585	84.88
469.804	80.88
470.023	102.88
470.243	84.88
470.462	95.88
470.681	110.88
470.901	97.88
471.12	89.88
471.339	97.88
471.558	93.88
471.777	86.88
471.997	96.88
472.216	100.88
472.435	94.88
472.654	91.88
472.873	102.88
473.092	94.88
473.311	90.88
473.53	100.88
473.749	82.88
473.968	87.88
474.187	99.88
474.406	87.88
474.625	81.88
474.844	80.88
475.063	82.88
475.282	85.88
475.501	88.88
475.72	89.88
475.939	85.88
476.158	93.88
476.377	84.88
476.596	84.88
476.814	96.88
477.033	92.88
477.252	98.88
477.471	98.88
477.69	86.88
477.908	80.88
478.127	80.88
478.346	89.88
478.564	88.88
478.783	101.88
479.002	93.88
479.22	110.88
479.439	110.88
479.658	101.88
479.876	89.88
480.095	74.88
480.313	93.88
480.532	89.88
480.751	92.88
480.969	107.88
481.188	103.88
481.406	97.88
481.624	84.88
481.843	90.88
482.061	81.88
482.28	93.88
482.498	82.88
482.717	87.88
482.935	87.88
483.153	84.88
483.372	110.88
483.59	85.88
483.808	80.88
484.027	92.88
484.245	90.88
484.463	101.88
484.681	103.88
484.9	98.88
485.118	107.88
485.336	100.88
485.554	94.88
485.772	81.88
485.99	101.88
486.209	99.88
486.427	98.88
486.645	103.88
486.863	119.88
487.081	96.88
487.299	103.88
487.517	92.88
487.735	76.88
487.953	85.88
488.171	86.88
488.389	94.88
488.607	83.88
488.825	99.88
489.043	100.88
489.261	101.88
489.479	93.88
489.696	74.88
489.914	94.88
490.132	83.88
490.35	91.88
490.568	92.88
490.786	93.88
491.003	89.88
491.221	105.88
491.439	92.88
491.657	95.88
491.874	101.88
492.092	105.88
492.31	85.88
492.527	88.88
492.745	108.88
492.963	86.88
493.18	90.88
493.398	93.88
493.615	97.88
493.833	91.88
494.05	110.88
494.268	94.88
494.485	97.88
494.703	87.88
494.92	85.88
495.138	104.88
495.355	96.88
495.573	98.88
495.79	85.88
496.008	86.88
496.225	92.88
496.442	94.88
496.66	109.88
496.877	78.88
497.094	95.88
497.312	81.88
497.529	83.88
497.746	92.88
497.963	99.88
498.181	64.88
498.398	89.88
498.615	110.88
498.832	101.88
499.049	87.88
499.267	88.88
499.484	73.88
499.701	93.88
499.918	90.88
500.135	94.88
500.352	94.88
500.569	78.88
500.786	92.88
501.003	82.88
501.22	79.88
501.437	94.88
501.654	92.88
501.871	118.88
502.088	88.88
502.305	86.88
502.522	97.88
502.739	98.88
502.956	92.88
503.172	87.88
503.389	103.88
503.606	112.88
503.823	95.88
504.04	80.88
504.256	88.88
504.473	89.88
504.69	85.88
504.907	73.88
505.123	90.88
505.34	97.88
505.557	98.88
505.773	94.88
505.99	95.88
506.207	83.88
506.423	91.88
506.64	92.88
506.856	94.88
507.073	91.88
507.289	98.88
507.506	86.88
507.722	101.88
507.939	99.88
508.155	77.88
508.372	88.88
508.588	93.88
508.805	94.88
509.021	92.88
509.238	109.88
509.454	101.88
509.67	99.88
509.887	112.88
510.103	134.88
510.319	202.88
510.536	711.88
510.752	2116.88
510.968	594.88
511.184	152.88
511.401	107.88
511.617	99.88
511.833	96.88
512.049	90.88
512.265	74.88
512.481	89.88
512.698	92.88
512.914	94.88
513.13	97.88
513.346	91.88
513.562	89.88
513.778	97.88
513.994	94.88
514.21	107.88
514.426	112.88
514.642	118.88
514.858	111.88
515.074	156.88
515.29	412.88
515.506	1230.88
515.721	456.88
515.937	149.88
