Data from Uncirc_1999_H10_HRD10591_00078.txt Node
Date: Wed Jan 03 11:22:20 EST 2024
User: Yrep
Spectrometer: HR+D1059
Trigger mode: 1
Integration Time (sec): 1.000000E-1
Scans to average: 1
Electric dark correction enabled: true
Nonlinearity correction enabled: false
Boxcar width: 0
XAxis mode: Wavelengths
Number of Pixels in Spectrum: 2048
>>>>>Begin Spectral Data<<<<<
223.165	-20.06
223.4	-20.06
223.635	-20.06
223.869	-17.06
224.104	-17.06
224.338	-16.06
224.573	-26.06
224.808	-5.06
225.042	-11.06
225.277	1.94
225.511	-9.06
225.746	2.94
225.98	7.94
226.215	12.94
226.449	22.94
226.683	8.94
226.918	30.94
227.152	32.94
227.387	21.94
227.621	38.94
227.856	46.94
228.09	51.94
228.324	53.94
228.559	57.94
228.793	49.94
229.027	51.94
229.262	71.94
229.496	61.94
229.73	81.94
229.964	86.94
230.199	62.94
230.433	66.94
230.667	90.94
230.901	79.94
231.136	70.94
231.37	86.94
231.604	75.94
231.838	81.94
232.072	76.94
232.306	76.94
232.541	87.94
232.775	80.94
233.009	73.94
233.243	86.94
233.477	75.94
233.711	83.94
233.945	69.94
234.179	78.94
234.413	83.94
234.647	73.94
234.881	63.94
235.115	75.94
235.349	80.94
235.583	81.94
235.817	74.94
236.051	82.94
236.285	75.94
236.519	65.94
236.753	62.94
236.987	70.94
237.221	73.94
237.455	90.94
237.689	78.94
237.922	80.94
238.156	83.94
238.39	65.94
238.624	83.94
238.858	78.94
239.091	86.94
239.325	92.94
239.559	83.94
239.793	74.94
240.027	81.94
240.26	71.94
240.494	62.94
240.728	62.94
240.961	60.94
241.195	72.94
241.429	85.94
241.662	74.94
241.896	89.94
242.13	77.94
242.363	72.94
242.597	69.94
242.83	71.94
243.064	69.94
243.298	72.94
243.531	73.94
243.765	81.94
243.998	74.94
244.232	82.94
244.465	71.94
244.699	90.94
244.932	82.94
245.166	78.94
245.399	67.94
245.633	86.94
245.866	74.94
246.099	72.94
246.333	70.94
246.566	73.94
246.8	76.94
247.033	65.94
247.266	75.94
247.5	74.94
247.733	81.94
247.966	77.94
248.2	79.94
248.433	72.94
248.666	69.94
248.899	81.94
249.133	80.94
249.366	91.94
249.599	97.94
249.832	80.94
250.066	69.94
250.299	74.94
250.532	79.94
250.765	69.94
250.998	67.94
251.231	83.94
251.465	67.94
251.698	73.94
251.931	73.94
252.164	81.94
252.397	70.94
252.63	82.94
252.863	70.94
253.096	84.94
253.329	86.94
253.562	66.94
253.795	71.94
254.028	70.94
254.261	79.94
254.494	74.94
254.727	74.94
254.96	58.94
255.193	79.94
255.426	92.94
255.659	78.94
255.892	82.94
256.124	73.94
256.357	72.94
256.59	77.94
256.823	71.94
257.056	68.94
257.289	72.94
257.521	76.94
257.754	83.94
257.987	81.94
258.22	78.94
258.452	77.94
258.685	64.94
258.918	87.94
259.151	65.94
259.383	69.94
259.616	76.94
259.849	81.94
260.081	78.94
260.314	97.94
260.547	71.94
260.779	85.94
261.012	80.94
261.244	83.94
261.477	77.94
261.71	88.94
261.942	111.94
262.175	93.94
262.407	97.94
262.64	84.94
262.872	75.94
263.105	91.94
263.337	77.94
263.57	90.94
263.802	81.94
264.035	84.94
264.267	89.94
264.499	88.94
264.732	81.94
264.964	81.94
265.197	83.94
265.429	79.94
265.661	70.94
265.894	84.94
266.126	86.94
266.358	83.94
266.591	93.94
266.823	74.94
267.055	70.94
267.287	87.94
267.52	81.94
267.752	88.94
267.984	85.94
268.216	90.94
268.448	81.94
268.681	84.94
268.913	80.94
269.145	62.94
269.377	95.94
269.609	88.94
269.841	73.94
270.073	88.94
270.306	82.94
270.538	78.94
270.77	91.94
271.002	88.94
271.234	79.94
271.466	86.94
271.698	86.94
271.93	77.94
272.162	77.94
272.394	89.94
272.626	86.94
272.858	87.94
273.09	83.94
273.322	84.94
273.553	94.94
273.785	82.94
274.017	83.94
274.249	94.94
274.481	71.94
274.713	93.94
274.945	98.94
275.176	77.94
275.408	78.94
275.64	86.94
275.872	90.94
276.104	91.94
276.335	94.94
276.567	90.94
276.799	102.94
277.031	99.94
277.262	91.94
277.494	71.94
277.726	91.94
277.957	77.94
278.189	86.94
278.421	77.94
278.652	79.94
278.884	82.94
279.115	98.94
279.347	102.94
279.579	79.94
279.81	90.94
280.042	88.94
280.273	71.94
280.505	62.94
280.736	77.94
280.968	96.94
281.199	83.94
281.431	83.94
281.662	83.94
281.894	76.94
282.125	92.94
282.356	126.94
282.588	132.94
282.819	117.94
283.051	85.94
283.282	82.94
283.513	79.94
283.745	73.94
283.976	81.94
284.207	85.94
284.439	81.94
284.67	79.94
284.901	78.94
285.132	76.94
285.364	75.94
285.595	78.94
285.826	82.94
286.057	84.94
286.288	74.94
286.52	75.94
286.751	78.94
286.982	83.94
287.213	88.94
287.444	76.94
287.675	98.94
287.906	82.94
288.138	100.94
288.369	78.94
288.6	104.94
288.831	81.94
289.062	84.94
289.293	91.94
289.524	81.94
289.755	89.94
289.986	87.94
290.217	94.94
290.448	87.94
290.679	92.94
290.91	88.94
291.141	90.94
291.371	73.94
291.602	88.94
291.833	82.94
292.064	95.94
292.295	74.94
292.526	94.94
292.757	78.94
292.987	97.94
293.218	82.94
293.449	69.94
293.68	81.94
293.91	96.94
294.141	92.94
294.372	88.94
294.603	85.94
294.833	90.94
295.064	95.94
295.295	88.94
295.525	85.94
295.756	99.94
295.987	116.94
296.217	142.94
296.448	123.94
296.679	86.94
296.909	96.94
297.14	83.94
297.37	80.94
297.601	77.94
297.831	86.94
298.062	91.94
298.292	95.94
298.523	90.94
298.753	81.94
298.984	88.94
299.214	66.94
299.445	94.94
299.675	77.94
299.905	96.94
300.136	79.94
300.366	83.94
300.597	75.94
300.827	92.94
301.057	96.94
301.288	95.94
301.518	87.94
301.748	76.94
301.979	95.94
302.209	79.94
302.439	91.94
302.669	95.94
302.9	84.94
303.13	101.94
303.36	95.94
303.59	103.94
303.82	107.94
304.051	95.94
304.281	87.94
304.511	85.94
304.741	94.94
304.971	96.94
305.201	79.94
305.431	89.94
305.661	76.94
305.891	94.94
306.121	83.94
306.352	97.94
306.582	109.94
306.812	103.94
307.042	83.94
307.272	89.94
307.502	90.94
307.731	98.94
307.961	82.94
308.191	92.94
308.421	81.94
308.651	93.94
308.881	99.94
309.111	106.94
309.341	91.94
309.571	101.94
309.8	90.94
310.03	86.94
310.26	95.94
310.49	86.94
310.72	114.94
310.949	100.94
311.179	103.94
311.409	86.94
311.639	103.94
311.868	94.94
312.098	87.94
312.328	88.94
312.557	94.94
312.787	100.94
313.017	105.94
313.246	89.94
313.476	82.94
313.706	94.94
313.935	90.94
314.165	98.94
314.394	98.94
314.624	101.94
314.853	94.94
315.083	90.94
315.312	94.94
315.542	88.94
315.771	89.94
316.001	85.94
316.23	91.94
316.46	98.94
316.689	87.94
316.919	97.94
317.148	86.94
317.377	81.94
317.607	91.94
317.836	93.94
318.065	95.94
318.295	90.94
318.524	88.94
318.753	95.94
318.983	94.94
319.212	95.94
319.441	101.94
319.67	89.94
319.9	91.94
320.129	98.94
320.358	95.94
320.587	99.94
320.816	93.94
321.046	103.94
321.275	110.94
321.504	88.94
321.733	89.94
321.962	107.94
322.191	92.94
322.42	101.94
322.649	99.94
322.878	127.94
323.108	126.94
323.337	122.94
323.566	146.94
323.795	151.94
324.024	218.94
324.253	470.94
324.482	972.94
324.71	2069.94
324.939	2724.94
325.168	976.94
325.397	277.94
325.626	157.94
325.855	148.94
326.084	126.94
326.313	143.94
326.542	167.94
326.77	249.94
326.999	548.94
327.228	1144.94
327.457	2093.94
327.686	1630.94
327.914	431.94
328.143	212.94
328.372	164.94
328.6	126.94
328.829	111.94
329.058	134.94
329.287	126.94
329.515	111.94
329.744	101.94
329.972	107.94
330.201	113.94
330.43	117.94
330.658	123.94
330.887	125.94
331.115	110.94
331.344	94.94
331.572	103.94
331.801	100.94
332.03	102.94
332.258	93.94
332.486	95.94
332.715	100.94
332.943	90.94
333.172	97.94
333.4	107.94
333.629	104.94
333.857	119.94
334.085	114.94
334.314	95.94
334.542	109.94
334.771	105.94
334.999	99.94
335.227	95.94
335.455	104.94
335.684	105.94
335.912	85.94
336.14	89.94
336.369	94.94
336.597	95.94
336.825	94.94
337.053	84.94
337.281	82.94
337.51	85.94
337.738	81.94
337.966	85.94
338.194	92.94
338.422	88.94
338.65	88.94
338.878	87.94
339.106	90.94
339.334	97.94
339.562	92.94
339.79	95.94
340.018	86.94
340.246	86.94
340.474	88.94
340.702	86.94
340.93	93.94
341.158	100.94
341.386	94.94
341.614	108.94
341.842	85.94
342.07	94.94
342.298	96.94
342.526	91.94
342.754	85.94
342.981	86.94
343.209	93.94
343.437	103.94
343.665	84.94
343.893	91.94
344.12	95.94
344.348	80.94
344.576	89.94
344.804	89.94
345.031	95.94
345.259	109.94
345.487	107.94
345.714	98.94
345.942	91.94
346.17	75.94
346.397	95.94
346.625	94.94
346.853	86.94
347.08	91.94
347.308	98.94
347.535	105.94
347.763	92.94
347.99	99.94
348.218	93.94
348.445	108.94
348.673	96.94
348.9	103.94
349.128	98.94
349.355	94.94
349.583	90.94
349.81	98.94
350.037	107.94
350.265	91.94
350.492	89.94
350.72	99.94
350.947	99.94
351.174	115.94
351.402	125.94
351.629	106.94
351.856	92.94
352.083	100.94
352.311	124.94
352.538	111.94
352.765	106.94
352.992	109.94
353.22	104.94
353.447	113.94
353.674	96.94
353.901	89.94
354.128	93.94
354.355	106.94
354.583	106.94
354.81	83.94
355.037	107.94
355.264	85.94
355.491	92.94
355.718	93.94
355.945	102.94
356.172	90.94
356.399	90.94
356.626	101.94
356.853	90.94
357.08	86.94
357.307	73.94
357.534	99.94
357.761	93.94
357.988	84.94
358.215	94.94
358.441	93.94
358.668	86.94
358.895	108.94
359.122	85.94
359.349	89.94
359.576	99.94
359.802	100.94
360.029	106.94
360.256	104.94
360.483	87.94
360.709	77.94
360.936	89.94
361.163	98.94
361.39	76.94
361.616	95.94
361.843	90.94
362.07	103.94
362.296	91.94
362.523	95.94
362.749	85.94
362.976	92.94
363.203	90.94
363.429	78.94
363.656	94.94
363.882	88.94
364.109	114.94
364.335	94.94
364.562	86.94
364.788	90.94
365.015	84.94
365.241	111.94
365.468	107.94
365.694	97.94
365.92	100.94
366.147	89.94
366.373	90.94
366.599	93.94
366.826	97.94
367.052	78.94
367.278	84.94
367.505	97.94
367.731	81.94
367.957	87.94
368.184	80.94
368.41	90.94
368.636	123.94
368.862	102.94
369.089	104.94
369.315	93.94
369.541	82.94
369.767	84.94
369.993	79.94
370.219	81.94
370.445	75.94
370.672	89.94
370.898	82.94
371.124	75.94
371.35	80.94
371.576	77.94
371.802	82.94
372.028	106.94
372.254	89.94
372.48	78.94
372.706	98.94
372.932	94.94
373.158	93.94
373.384	110.94
373.61	89.94
373.835	94.94
374.061	102.94
374.287	75.94
374.513	87.94
374.739	93.94
374.965	86.94
375.191	74.94
375.416	81.94
375.642	86.94
375.868	88.94
376.094	90.94
376.319	85.94
376.545	85.94
376.771	97.94
376.997	87.94
377.222	81.94
377.448	95.94
377.674	73.94
377.899	88.94
378.125	89.94
378.35	94.94
378.576	92.94
378.802	71.94
379.027	83.94
379.253	95.94
379.478	97.94
379.704	95.94
379.929	96.94
380.155	94.94
380.38	93.94
380.606	94.94
380.831	95.94
381.057	101.94
381.282	90.94
381.507	89.94
381.733	116.94
381.958	85.94
382.184	88.94
382.409	79.94
382.634	108.94
382.86	96.94
383.085	99.94
383.31	78.94
383.535	105.94
383.761	86.94
383.986	99.94
384.211	89.94
384.436	94.94
384.662	91.94
384.887	88.94
385.112	91.94
385.337	104.94
385.562	98.94
385.787	103.94
386.013	99.94
386.238	110.94
386.463	107.94
386.688	101.94
386.913	98.94
387.138	102.94
387.363	94.94
387.588	100.94
387.813	90.94
388.038	99.94
388.263	106.94
388.488	110.94
388.713	92.94
388.938	77.94
389.163	94.94
389.387	94.94
389.612	101.94
389.837	90.94
390.062	90.94
390.287	72.94
390.512	88.94
390.736	86.94
390.961	83.94
391.186	92.94
391.411	95.94
391.636	90.94
391.86	92.94
392.085	78.94
392.31	90.94
392.534	78.94
392.759	80.94
392.984	82.94
393.208	89.94
393.433	87.94
393.658	87.94
393.882	79.94
394.107	91.94
394.331	79.94
394.556	91.94
394.78	97.94
395.005	95.94
395.229	87.94
395.454	85.94
395.678	77.94
395.903	87.94
396.127	68.94
396.352	97.94
396.576	77.94
396.801	87.94
397.025	66.94
397.249	75.94
397.474	89.94
397.698	90.94
397.922	75.94
398.147	87.94
398.371	85.94
398.595	86.94
398.82	74.94
399.044	69.94
399.268	90.94
399.492	84.94
399.717	89.94
399.941	82.94
400.165	99.94
400.389	94.94
400.613	72.94
400.837	70.94
401.062	91.94
401.286	85.94
401.51	92.94
401.734	90.94
401.958	95.94
402.182	122.94
402.406	164.94
402.63	94.94
402.854	85.94
403.078	70.94
403.302	85.94
403.526	79.94
403.75	83.94
403.974	74.94
404.198	87.94
404.422	81.94
404.645	99.94
404.869	97.94
405.093	109.94
405.317	104.94
405.541	100.94
405.765	95.94
405.988	123.94
406.212	175.94
406.436	233.94
406.66	132.94
406.883	104.94
407.107	92.94
407.331	96.94
407.555	89.94
407.778	88.94
408.002	86.94
408.226	86.94
408.449	90.94
408.673	99.94
408.896	114.94
409.12	97.94
409.344	99.94
409.567	99.94
409.791	88.94
410.014	89.94
410.238	101.94
410.461	95.94
410.685	81.94
410.908	95.94
411.132	106.94
411.355	102.94
411.578	90.94
411.802	94.94
412.025	87.94
412.249	84.94
412.472	91.94
412.695	91.94
412.919	80.94
413.142	84.94
413.365	95.94
413.589	73.94
413.812	72.94
414.035	92.94
414.258	85.94
414.482	87.94
414.705	88.94
414.928	75.94
415.151	76.94
415.374	87.94
415.597	98.94
415.821	90.94
416.044	87.94
416.267	85.94
416.49	78.94
416.713	81.94
416.936	93.94
417.159	87.94
417.382	93.94
417.605	72.94
417.828	89.94
418.051	91.94
418.274	91.94
418.497	69.94
418.72	94.94
418.943	95.94
419.166	94.94
419.389	94.94
419.611	93.94
419.834	87.94
420.057	83.94
420.28	87.94
420.503	90.94
420.726	82.94
420.948	91.94
421.171	85.94
421.394	81.94
421.617	81.94
421.839	89.94
422.062	90.94
422.285	96.94
422.507	97.94
422.73	107.94
422.953	95.94
423.175	86.94
423.398	96.94
423.621	102.94
423.843	83.94
424.066	81.94
424.288	81.94
424.511	100.94
424.733	88.94
424.956	116.94
425.178	108.94
425.401	92.94
425.623	102.94
425.846	90.94
426.068	83.94
426.291	85.94
426.513	88.94
426.735	105.94
426.958	102.94
427.18	104.94
427.402	129.94
427.625	162.94
427.847	134.94
428.069	99.94
428.292	89.94
428.514	93.94
428.736	78.94
428.958	92.94
429.181	81.94
429.403	89.94
429.625	62.94
429.847	87.94
430.069	91.94
430.292	108.94
430.514	84.94
430.736	75.94
430.958	89.94
431.18	84.94
431.402	89.94
431.624	77.94
431.846	81.94
432.068	89.94
432.29	79.94
432.512	82.94
432.734	98.94
432.956	101.94
433.178	105.94
433.4	105.94
433.622	102.94
433.844	92.94
434.066	99.94
434.287	89.94
434.509	78.94
434.731	85.94
434.953	90.94
435.175	91.94
435.397	84.94
435.618	86.94
435.84	94.94
436.062	110.94
436.284	119.94
436.505	106.94
436.727	69.94
436.949	91.94
437.17	83.94
437.392	78.94
437.614	96.94
437.835	107.94
438.057	94.94
438.278	102.94
438.5	106.94
438.721	123.94
438.943	95.94
439.165	79.94
439.386	90.94
439.608	79.94
439.829	87.94
440.05	114.94
440.272	149.94
440.493	97.94
440.715	85.94
440.936	93.94
441.158	85.94
441.379	77.94
441.6	84.94
441.822	69.94
442.043	85.94
442.264	90.94
442.486	103.94
442.707	87.94
442.928	98.94
443.149	118.94
443.371	121.94
443.592	110.94
443.813	118.94
444.034	109.94
444.255	82.94
444.476	88.94
444.698	86.94
444.919	82.94
445.14	125.94
445.361	105.94
445.582	114.94
445.803	126.94
446.024	138.94
446.245	137.94
446.466	109.94
446.687	102.94
446.908	78.94
447.129	83.94
447.35	103.94
447.571	113.94
447.792	95.94
448.013	101.94
448.234	105.94
448.455	90.94
448.675	110.94
448.896	105.94
449.117	106.94
449.338	110.94
449.559	131.94
449.779	150.94
450	101.94
450.221	87.94
450.442	94.94
450.662	85.94
450.883	107.94
451.104	99.94
451.324	91.94
451.545	86.94
451.766	88.94
451.986	78.94
452.207	72.94
452.428	76.94
452.648	76.94
452.869	100.94
453.089	106.94
453.31	106.94
453.53	81.94
453.751	91.94
453.971	108.94
454.192	103.94
454.412	87.94
454.633	81.94
454.853	73.94
455.073	94.94
455.294	92.94
455.514	94.94
455.734	90.94
455.955	76.94
456.175	77.94
456.395	89.94
456.616	97.94
456.836	76.94
457.056	91.94
457.276	75.94
457.497	85.94
457.717	81.94
457.937	82.94
458.157	77.94
458.377	90.94
458.598	102.94
458.818	149.94
459.038	154.94
459.258	111.94
459.478	89.94
459.698	94.94
459.918	89.94
460.138	87.94
460.358	79.94
460.578	71.94
460.798	70.94
461.018	81.94
461.238	94.94
461.458	84.94
461.678	78.94
461.898	91.94
462.118	88.94
462.338	76.94
462.558	63.94
462.777	81.94
462.997	101.94
463.217	92.94
463.437	81.94
463.657	81.94
463.876	86.94
464.096	90.94
464.316	82.94
464.536	77.94
464.755	99.94
464.975	102.94
465.195	176.94
465.414	160.94
465.634	101.94
465.854	86.94
466.073	81.94
466.293	70.94
466.512	73.94
466.732	87.94
466.951	93.94
467.171	89.94
467.391	73.94
467.61	93.94
467.829	95.94
468.049	97.94
468.268	76.94
468.488	83.94
468.707	79.94
468.927	84.94
469.146	83.94
469.365	95.94
469.585	83.94
469.804	89.94
470.023	96.94
470.243	98.94
470.462	104.94
470.681	101.94
470.901	103.94
471.12	82.94
471.339	82.94
471.558	81.94
471.777	74.94
471.997	63.94
472.216	87.94
472.435	98.94
472.654	90.94
472.873	87.94
473.092	89.94
473.311	83.94
473.53	73.94
473.749	84.94
473.968	93.94
474.187	85.94
474.406	85.94
474.625	82.94
474.844	93.94
475.063	84.94
475.282	78.94
475.501	82.94
475.72	85.94
475.939	89.94
476.158	87.94
476.377	88.94
476.596	85.94
476.814	85.94
477.033	89.94
477.252	86.94
477.471	94.94
477.69	87.94
477.908	91.94
478.127	89.94
478.346	79.94
478.564	99.94
478.783	86.94
479.002	86.94
479.22	87.94
479.439	90.94
479.658	97.94
479.876	97.94
480.095	85.94
480.313	87.94
480.532	81.94
480.751	105.94
480.969	98.94
481.188	119.94
481.406	107.94
481.624	89.94
481.843	84.94
482.061	97.94
482.28	81.94
482.498	96.94
482.717	77.94
482.935	85.94
483.153	96.94
483.372	86.94
483.59	78.94
483.808	82.94
484.027	80.94
484.245	89.94
484.463	86.94
484.681	78.94
484.9	87.94
485.118	106.94
485.336	72.94
485.554	102.94
485.772	95.94
485.99	107.94
486.209	96.94
486.427	107.94
486.645	113.94
486.863	118.94
487.081	101.94
487.299	87.94
487.517	85.94
487.735	93.94
487.953	97.94
488.171	89.94
488.389	89.94
488.607	86.94
488.825	94.94
489.043	101.94
489.261	87.94
489.479	75.94
489.696	92.94
489.914	79.94
490.132	68.94
490.35	96.94
490.568	91.94
490.786	92.94
491.003	106.94
491.221	83.94
491.439	70.94
491.657	87.94
491.874	77.94
492.092	87.94
492.31	92.94
492.527	78.94
492.745	83.94
492.963	73.94
493.18	94.94
493.398	84.94
493.615	95.94
493.833	84.94
494.05	90.94
494.268	89.94
494.485	85.94
494.703	94.94
494.92	91.94
495.138	90.94
495.355	85.94
495.573	89.94
495.79	91.94
496.008	94.94
496.225	93.94
496.442	89.94
496.66	76.94
496.877	94.94
497.094	100.94
497.312	79.94
497.529	96.94
497.746	94.94
497.963	96.94
498.181	85.94
498.398	104.94
498.615	99.94
498.832	94.94
499.049	88.94
499.267	71.94
499.484	81.94
499.701	87.94
499.918	92.94
500.135	87.94
500.352	92.94
500.569	82.94
500.786	82.94
501.003	80.94
501.22	76.94
501.437	89.94
501.654	100.94
501.871	104.94
502.088	82.94
502.305	100.94
502.522	97.94
502.739	77.94
502.956	90.94
503.172	89.94
503.389	95.94
503.606	100.94
503.823	97.94
504.04	101.94
504.256	87.94
504.473	92.94
504.69	66.94
504.907	106.94
505.123	74.94
505.34	98.94
505.557	73.94
505.773	95.94
505.99	80.94
506.207	79.94
506.423	69.94
506.64	78.94
506.856	72.94
507.073	86.94
507.289	92.94
507.506	98.94
507.722	124.94
507.939	101.94
508.155	92.94
508.372	83.94
508.588	86.94
508.805	88.94
509.021	99.94
509.238	98.94
509.454	105.94
509.67	109.94
509.887	117.94
510.103	148.94
510.319	228.94
510.536	876.94
510.752	2826.94
510.968	754.94
511.184	144.94
511.401	101.94
511.617	85.94
511.833	102.94
512.049	89.94
512.265	105.94
512.481	85.94
512.698	83.94
512.914	90.94
513.13	89.94
513.346	95.94
513.562	102.94
513.778	87.94
513.994	89.94
514.21	93.94
514.426	100.94
514.642	117.94
514.858	132.94
515.074	173.94
515.29	524.94
515.506	1681.94
515.721	608.94
515.937	169.94
516.153	109.94
516.369	110.94
