Data from Uncirc_1999_H10_HRD10591_00056.txt Node
Date: Wed Jan 03 11:22:16 EST 2024
User: Yrep
Spectrometer: HR+D1059
Trigger mode: 1
Integration Time (sec): 1.000000E-1
Scans to average: 1
Electric dark correction enabled: true
Nonlinearity correction enabled: false
Boxcar width: 0
XAxis mode: Wavelengths
Number of Pixels in Spectrum: 2048
>>>>>Begin Spectral Data<<<<<
223.165	-21.75
223.4	-21.75
223.635	-21.75
223.869	-3.75
224.104	-17.75
224.338	-15.75
224.573	-24.75
224.808	-19.75
225.042	-1.75
225.277	-10.75
225.511	0.25
225.746	1.25
225.98	13.25
226.215	15.25
226.449	17.25
226.683	6.25
226.918	33.25
227.152	29.25
227.387	41.25
227.621	41.25
227.856	55.25
228.09	56.25
228.324	45.25
228.559	60.25
228.793	70.25
229.027	62.25
229.262	54.25
229.496	75.25
229.73	84.25
229.964	88.25
230.199	91.25
230.433	86.25
230.667	80.25
230.901	65.25
231.136	70.25
231.37	79.25
231.604	86.25
231.838	76.25
232.072	72.25
232.306	65.25
232.541	81.25
232.775	99.25
233.009	83.25
233.243	79.25
233.477	70.25
233.711	70.25
233.945	89.25
234.179	76.25
234.413	70.25
234.647	63.25
234.881	97.25
235.115	97.25
235.349	81.25
235.583	73.25
235.817	70.25
236.051	87.25
236.285	75.25
236.519	75.25
236.753	91.25
236.987	87.25
237.221	92.25
237.455	68.25
237.689	80.25
237.922	87.25
238.156	63.25
238.39	65.25
238.624	80.25
238.858	75.25
239.091	72.25
239.325	90.25
239.559	85.25
239.793	82.25
240.027	81.25
240.26	72.25
240.494	87.25
240.728	87.25
240.961	76.25
241.195	71.25
241.429	68.25
241.662	65.25
241.896	88.25
242.13	82.25
242.363	75.25
242.597	82.25
242.83	85.25
243.064	93.25
243.298	70.25
243.531	72.25
243.765	75.25
243.998	84.25
244.232	86.25
244.465	99.25
244.699	87.25
244.932	92.25
245.166	77.25
245.399	81.25
245.633	79.25
245.866	85.25
246.099	74.25
246.333	84.25
246.566	81.25
246.8	72.25
247.033	78.25
247.266	79.25
247.5	87.25
247.733	70.25
247.966	78.25
248.2	76.25
248.433	82.25
248.666	89.25
248.899	88.25
249.133	85.25
249.366	80.25
249.599	77.25
249.832	86.25
250.066	81.25
250.299	79.25
250.532	93.25
250.765	93.25
250.998	90.25
251.231	75.25
251.465	73.25
251.698	87.25
251.931	72.25
252.164	82.25
252.397	79.25
252.63	86.25
252.863	61.25
253.096	70.25
253.329	82.25
253.562	79.25
253.795	88.25
254.028	98.25
254.261	75.25
254.494	62.25
254.727	82.25
254.96	77.25
255.193	78.25
255.426	84.25
255.659	76.25
255.892	78.25
256.124	86.25
256.357	71.25
256.59	85.25
256.823	71.25
257.056	78.25
257.289	71.25
257.521	75.25
257.754	65.25
257.987	80.25
258.22	78.25
258.452	73.25
258.685	84.25
258.918	94.25
259.151	76.25
259.383	91.25
259.616	91.25
259.849	87.25
260.081	84.25
260.314	83.25
260.547	92.25
260.779	91.25
261.012	67.25
261.244	67.25
261.477	78.25
261.71	82.25
261.942	95.25
262.175	115.25
262.407	118.25
262.64	95.25
262.872	81.25
263.105	80.25
263.337	84.25
263.57	90.25
263.802	85.25
264.035	84.25
264.267	85.25
264.499	76.25
264.732	89.25
264.964	99.25
265.197	96.25
265.429	88.25
265.661	74.25
265.894	81.25
266.126	78.25
266.358	82.25
266.591	82.25
266.823	83.25
267.055	83.25
267.287	98.25
267.52	90.25
267.752	93.25
267.984	80.25
268.216	86.25
268.448	84.25
268.681	76.25
268.913	66.25
269.145	78.25
269.377	76.25
269.609	86.25
269.841	86.25
270.073	86.25
270.306	90.25
270.538	76.25
270.77	77.25
271.002	96.25
271.234	70.25
271.466	87.25
271.698	98.25
271.93	105.25
272.162	102.25
272.394	88.25
272.626	86.25
272.858	77.25
273.09	81.25
273.322	93.25
273.553	93.25
273.785	87.25
274.017	73.25
274.249	76.25
274.481	78.25
274.713	88.25
274.945	98.25
275.176	87.25
275.408	79.25
275.64	94.25
275.872	76.25
276.104	86.25
276.335	94.25
276.567	101.25
276.799	91.25
277.031	90.25
277.262	101.25
277.494	92.25
277.726	108.25
277.957	86.25
278.189	87.25
278.421	88.25
278.652	89.25
278.884	91.25
279.115	89.25
279.347	91.25
279.579	90.25
279.81	90.25
280.042	82.25
280.273	97.25
280.505	87.25
280.736	76.25
280.968	78.25
281.199	72.25
281.431	78.25
281.662	81.25
281.894	92.25
282.125	107.25
282.356	109.25
282.588	123.25
282.819	114.25
283.051	99.25
283.282	99.25
283.513	100.25
283.745	97.25
283.976	81.25
284.207	93.25
284.439	92.25
284.67	93.25
284.901	90.25
285.132	94.25
285.364	89.25
285.595	82.25
285.826	89.25
286.057	92.25
286.288	92.25
286.52	97.25
286.751	82.25
286.982	92.25
287.213	104.25
287.444	93.25
287.675	90.25
287.906	87.25
288.138	82.25
288.369	98.25
288.6	111.25
288.831	81.25
289.062	92.25
289.293	92.25
289.524	95.25
289.755	87.25
289.986	99.25
290.217	96.25
290.448	82.25
290.679	96.25
290.91	93.25
291.141	94.25
291.371	93.25
291.602	73.25
291.833	88.25
292.064	83.25
292.295	105.25
292.526	77.25
292.757	97.25
292.987	90.25
293.218	106.25
293.449	86.25
293.68	96.25
293.91	86.25
294.141	93.25
294.372	73.25
294.603	81.25
294.833	74.25
295.064	80.25
295.295	90.25
295.525	84.25
295.756	95.25
295.987	123.25
296.217	119.25
296.448	119.25
296.679	103.25
296.909	90.25
297.14	81.25
297.37	81.25
297.601	91.25
297.831	90.25
298.062	82.25
298.292	89.25
298.523	91.25
298.753	90.25
298.984	93.25
299.214	103.25
299.445	90.25
299.675	90.25
299.905	97.25
300.136	88.25
300.366	79.25
300.597	95.25
300.827	100.25
301.057	97.25
301.288	112.25
301.518	97.25
301.748	100.25
301.979	109.25
302.209	88.25
302.439	83.25
302.669	98.25
302.9	84.25
303.13	90.25
303.36	101.25
303.59	110.25
303.82	104.25
304.051	107.25
304.281	97.25
304.511	96.25
304.741	95.25
304.971	95.25
305.201	92.25
305.431	97.25
305.661	96.25
305.891	97.25
306.121	93.25
306.352	95.25
306.582	97.25
306.812	107.25
307.042	93.25
307.272	96.25
307.502	92.25
307.731	96.25
307.961	84.25
308.191	102.25
308.421	88.25
308.651	92.25
308.881	96.25
309.111	98.25
309.341	94.25
309.571	104.25
309.8	104.25
310.03	106.25
310.26	90.25
310.49	92.25
310.72	101.25
310.949	100.25
311.179	99.25
311.409	102.25
311.639	97.25
311.868	99.25
312.098	112.25
312.328	90.25
312.557	99.25
312.787	97.25
313.017	81.25
313.246	97.25
313.476	92.25
313.706	89.25
313.935	104.25
314.165	99.25
314.394	99.25
314.624	102.25
314.853	104.25
315.083	83.25
315.312	101.25
315.542	103.25
315.771	109.25
316.001	91.25
316.23	80.25
316.46	103.25
316.689	98.25
316.919	103.25
317.148	91.25
317.377	92.25
317.607	96.25
317.836	83.25
318.065	94.25
318.295	89.25
318.524	92.25
318.753	99.25
318.983	94.25
319.212	100.25
319.441	99.25
319.67	117.25
319.9	105.25
320.129	89.25
320.358	98.25
320.587	95.25
320.816	99.25
321.046	103.25
321.275	102.25
321.504	107.25
321.733	111.25
321.962	106.25
322.191	100.25
322.42	109.25
322.649	119.25
322.878	108.25
323.108	109.25
323.337	104.25
323.566	129.25
323.795	155.25
324.024	219.25
324.253	393.25
324.482	859.25
324.71	1763.25
324.939	2254.25
325.168	826.25
325.397	255.25
325.626	166.25
325.855	138.25
326.084	135.25
326.313	144.25
326.542	154.25
326.77	241.25
326.999	469.25
327.228	1005.25
327.457	1760.25
327.686	1409.25
327.914	381.25
328.143	196.25
328.372	142.25
328.6	129.25
328.829	113.25
329.058	134.25
329.287	125.25
329.515	108.25
329.744	102.25
329.972	117.25
330.201	95.25
330.43	112.25
330.658	121.25
330.887	130.25
331.115	112.25
331.344	97.25
331.572	116.25
331.801	105.25
332.03	115.25
332.258	99.25
332.486	96.25
332.715	91.25
332.943	90.25
333.172	91.25
333.4	106.25
333.629	104.25
333.857	109.25
334.085	103.25
334.314	96.25
334.542	83.25
334.771	108.25
334.999	94.25
335.227	104.25
335.455	111.25
335.684	96.25
335.912	97.25
336.14	90.25
336.369	102.25
336.597	104.25
336.825	100.25
337.053	92.25
337.281	102.25
337.51	75.25
337.738	94.25
337.966	97.25
338.194	100.25
338.422	92.25
338.65	88.25
338.878	100.25
339.106	87.25
339.334	98.25
339.562	91.25
339.79	80.25
340.018	84.25
340.246	103.25
340.474	94.25
340.702	97.25
340.93	89.25
341.158	91.25
341.386	88.25
341.614	103.25
341.842	95.25
342.07	91.25
342.298	92.25
342.526	95.25
342.754	83.25
342.981	81.25
343.209	89.25
343.437	102.25
343.665	96.25
343.893	104.25
344.12	97.25
344.348	89.25
344.576	95.25
344.804	91.25
345.031	108.25
345.259	104.25
345.487	87.25
345.714	75.25
345.942	104.25
346.17	97.25
346.397	102.25
346.625	82.25
346.853	101.25
347.08	95.25
347.308	103.25
347.535	90.25
347.763	88.25
347.99	99.25
348.218	101.25
348.445	88.25
348.673	93.25
348.9	98.25
349.128	108.25
349.355	100.25
349.583	100.25
349.81	98.25
350.037	95.25
350.265	94.25
350.492	90.25
350.72	103.25
350.947	92.25
351.174	110.25
351.402	114.25
351.629	116.25
351.856	94.25
352.083	100.25
352.311	102.25
352.538	109.25
352.765	115.25
352.992	122.25
353.22	115.25
353.447	123.25
353.674	115.25
353.901	98.25
354.128	107.25
354.355	100.25
354.583	100.25
354.81	96.25
355.037	103.25
355.264	94.25
355.491	79.25
355.718	94.25
355.945	80.25
356.172	103.25
356.399	93.25
356.626	93.25
356.853	108.25
357.08	103.25
357.307	89.25
357.534	91.25
357.761	111.25
357.988	94.25
358.215	94.25
358.441	96.25
358.668	100.25
358.895	94.25
359.122	98.25
359.349	88.25
359.576	103.25
359.802	93.25
360.029	114.25
360.256	113.25
360.483	100.25
360.709	90.25
360.936	96.25
361.163	117.25
361.39	102.25
361.616	95.25
361.843	104.25
362.07	95.25
362.296	80.25
362.523	106.25
362.749	92.25
362.976	91.25
363.203	106.25
363.429	93.25
363.656	86.25
363.882	84.25
364.109	89.25
364.335	96.25
364.562	97.25
364.788	85.25
365.015	95.25
365.241	89.25
365.468	101.25
365.694	107.25
365.92	84.25
366.147	96.25
366.373	103.25
366.599	97.25
366.826	98.25
367.052	86.25
367.278	83.25
367.505	104.25
367.731	96.25
367.957	90.25
368.184	96.25
368.41	101.25
368.636	112.25
368.862	112.25
369.089	99.25
369.315	100.25
369.541	95.25
369.767	92.25
369.993	81.25
370.219	104.25
370.445	90.25
370.672	106.25
370.898	98.25
371.124	99.25
371.35	92.25
371.576	103.25
371.802	80.25
372.028	86.25
372.254	82.25
372.48	99.25
372.706	92.25
372.932	91.25
373.158	94.25
373.384	103.25
373.61	88.25
373.835	99.25
374.061	98.25
374.287	105.25
374.513	95.25
374.739	79.25
374.965	99.25
375.191	90.25
375.416	95.25
375.642	101.25
375.868	92.25
376.094	76.25
376.319	91.25
376.545	88.25
376.771	93.25
376.997	88.25
377.222	104.25
377.448	84.25
377.674	110.25
377.899	85.25
378.125	86.25
378.35	97.25
378.576	87.25
378.802	106.25
379.027	88.25
379.253	96.25
379.478	86.25
379.704	100.25
379.929	98.25
380.155	99.25
380.38	103.25
380.606	92.25
380.831	100.25
381.057	89.25
381.282	114.25
381.507	107.25
381.733	95.25
381.958	103.25
382.184	102.25
382.409	98.25
382.634	97.25
382.86	98.25
383.085	107.25
383.31	109.25
383.535	113.25
383.761	117.25
383.986	113.25
384.211	93.25
384.436	112.25
384.662	102.25
384.887	97.25
385.112	109.25
385.337	106.25
385.562	116.25
385.787	100.25
386.013	125.25
386.238	121.25
386.463	116.25
386.688	123.25
386.913	107.25
387.138	104.25
387.363	108.25
387.588	98.25
387.813	101.25
388.038	114.25
388.263	110.25
388.488	105.25
388.713	100.25
388.938	109.25
389.163	111.25
389.387	97.25
389.612	87.25
389.837	81.25
390.062	81.25
390.287	87.25
390.512	90.25
390.736	98.25
390.961	95.25
391.186	105.25
391.411	83.25
391.636	94.25
391.86	82.25
392.085	116.25
392.31	81.25
392.534	91.25
392.759	83.25
392.984	95.25
393.208	86.25
393.433	92.25
393.658	88.25
393.882	83.25
394.107	90.25
394.331	86.25
394.556	81.25
394.78	91.25
395.005	88.25
395.229	84.25
395.454	90.25
395.678	97.25
395.903	85.25
396.127	89.25
396.352	86.25
396.576	89.25
396.801	83.25
397.025	92.25
397.249	99.25
397.474	93.25
397.698	95.25
397.922	96.25
398.147	98.25
398.371	82.25
398.595	86.25
398.82	98.25
399.044	90.25
399.268	99.25
399.492	85.25
399.717	104.25
399.941	98.25
400.165	105.25
400.389	94.25
400.613	99.25
400.837	85.25
401.062	106.25
401.286	79.25
401.51	95.25
401.734	100.25
401.958	95.25
402.182	108.25
402.406	156.25
402.63	108.25
402.854	97.25
403.078	89.25
403.302	87.25
403.526	102.25
403.75	91.25
403.974	88.25
404.198	97.25
404.422	98.25
404.645	94.25
404.869	83.25
405.093	87.25
405.317	113.25
405.541	104.25
405.765	83.25
405.988	125.25
406.212	161.25
406.436	188.25
406.66	140.25
406.883	90.25
407.107	90.25
407.331	107.25
407.555	100.25
407.778	95.25
408.002	91.25
408.226	96.25
408.449	96.25
408.673	92.25
408.896	91.25
409.12	92.25
409.344	80.25
409.567	88.25
409.791	89.25
410.014	109.25
410.238	101.25
410.461	87.25
410.685	95.25
410.908	99.25
411.132	97.25
411.355	99.25
411.578	90.25
411.802	78.25
412.025	91.25
412.249	78.25
412.472	90.25
412.695	84.25
412.919	103.25
413.142	87.25
413.365	87.25
413.589	90.25
413.812	95.25
414.035	107.25
414.258	94.25
414.482	93.25
414.705	99.25
414.928	84.25
415.151	96.25
415.374	90.25
415.597	92.25
415.821	90.25
416.044	94.25
416.267	109.25
416.49	80.25
416.713	90.25
416.936	77.25
417.159	87.25
417.382	85.25
417.605	94.25
417.828	104.25
418.051	94.25
418.274	87.25
418.497	81.25
418.72	93.25
418.943	98.25
419.166	100.25
419.389	91.25
419.611	79.25
419.834	83.25
420.057	79.25
420.28	86.25
420.503	95.25
420.726	91.25
420.948	102.25
421.171	95.25
421.394	94.25
421.617	82.25
421.839	97.25
422.062	90.25
422.285	110.25
422.507	99.25
422.73	117.25
422.953	83.25
423.175	85.25
423.398	96.25
423.621	79.25
423.843	88.25
424.066	87.25
424.288	91.25
424.511	79.25
424.733	96.25
424.956	101.25
425.178	94.25
425.401	108.25
425.623	84.25
425.846	96.25
426.068	97.25
426.291	92.25
426.513	83.25
426.735	97.25
426.958	107.25
427.18	102.25
427.402	139.25
427.625	146.25
427.847	116.25
428.069	97.25
428.292	100.25
428.514	89.25
428.736	71.25
428.958	103.25
429.181	103.25
429.403	81.25
429.625	106.25
429.847	83.25
430.069	94.25
430.292	92.25
430.514	83.25
430.736	80.25
430.958	89.25
431.18	95.25
431.402	82.25
431.624	82.25
431.846	86.25
432.068	93.25
432.29	95.25
432.512	97.25
432.734	108.25
432.956	88.25
433.178	97.25
433.4	96.25
433.622	79.25
433.844	96.25
434.066	95.25
434.287	110.25
434.509	94.25
434.731	76.25
434.953	94.25
435.175	98.25
435.397	101.25
435.618	87.25
435.84	110.25
436.062	107.25
436.284	125.25
436.505	102.25
436.727	103.25
436.949	100.25
437.17	104.25
437.392	87.25
437.614	97.25
437.835	100.25
438.057	115.25
438.278	99.25
438.5	104.25
438.721	107.25
438.943	92.25
439.165	95.25
439.386	100.25
439.608	93.25
439.829	92.25
440.05	121.25
440.272	142.25
440.493	92.25
440.715	97.25
440.936	89.25
441.158	91.25
441.379	81.25
441.6	88.25
441.822	97.25
442.043	83.25
442.264	94.25
442.486	111.25
442.707	92.25
442.928	103.25
443.149	112.25
443.371	116.25
443.592	100.25
443.813	102.25
444.034	99.25
444.255	95.25
444.476	99.25
444.698	95.25
444.919	88.25
445.14	145.25
445.361	133.25
445.582	128.25
445.803	130.25
446.024	119.25
446.245	119.25
446.466	114.25
446.687	95.25
446.908	92.25
447.129	83.25
447.35	91.25
447.571	79.25
447.792	97.25
448.013	93.25
448.234	103.25
448.455	98.25
448.675	113.25
448.896	139.25
449.117	105.25
449.338	104.25
449.559	116.25
449.779	139.25
450	94.25
450.221	77.25
450.442	91.25
450.662	98.25
450.883	94.25
451.104	102.25
451.324	90.25
451.545	91.25
451.766	92.25
451.986	79.25
452.207	78.25
452.428	92.25
452.648	93.25
452.869	103.25
453.089	104.25
453.31	139.25
453.53	87.25
453.751	98.25
453.971	93.25
454.192	92.25
454.412	92.25
454.633	86.25
454.853	86.25
455.073	80.25
455.294	93.25
455.514	90.25
455.734	82.25
455.955	80.25
456.175	87.25
456.395	87.25
456.616	86.25
456.836	95.25
457.056	104.25
457.276	104.25
457.497	87.25
457.717	95.25
457.937	94.25
458.157	99.25
458.377	94.25
458.598	123.25
458.818	154.25
459.038	140.25
459.258	119.25
459.478	94.25
459.698	90.25
459.918	84.25
460.138	96.25
460.358	82.25
460.578	86.25
460.798	94.25
461.018	94.25
461.238	91.25
461.458	78.25
461.678	74.25
461.898	93.25
462.118	83.25
462.338	91.25
462.558	73.25
462.777	85.25
462.997	87.25
463.217	87.25
463.437	90.25
463.657	80.25
463.876	88.25
464.096	87.25
464.316	87.25
464.536	96.25
464.755	94.25
464.975	104.25
465.195	161.25
465.414	152.25
465.634	96.25
465.854	97.25
466.073	87.25
466.293	80.25
466.512	92.25
466.732	94.25
466.951	75.25
467.171	96.25
467.391	98.25
467.61	101.25
467.829	102.25
468.049	96.25
468.268	99.25
468.488	95.25
468.707	81.25
468.927	89.25
469.146	77.25
469.365	78.25
469.585	90.25
469.804	91.25
470.023	100.25
470.243	85.25
470.462	91.25
470.681	100.25
470.901	98.25
471.12	74.25
471.339	82.25
471.558	91.25
471.777	97.25
471.997	92.25
472.216	96.25
472.435	107.25
472.654	90.25
472.873	87.25
473.092	97.25
473.311	89.25
473.53	82.25
473.749	80.25
473.968	91.25
474.187	97.25
474.406	97.25
474.625	98.25
474.844	92.25
475.063	79.25
475.282	87.25
475.501	94.25
475.72	96.25
475.939	96.25
476.158	86.25
476.377	87.25
476.596	85.25
476.814	72.25
477.033	87.25
477.252	92.25
477.471	89.25
477.69	101.25
477.908	105.25
478.127	97.25
478.346	92.25
478.564	86.25
478.783	90.25
479.002	99.25
479.22	84.25
479.439	101.25
479.658	99.25
479.876	87.25
480.095	104.25
480.313	80.25
480.532	81.25
480.751	98.25
480.969	104.25
481.188	121.25
481.406	97.25
481.624	77.25
481.843	107.25
482.061	82.25
482.28	101.25
482.498	87.25
482.717	91.25
482.935	82.25
483.153	91.25
483.372	106.25
483.59	98.25
483.808	89.25
484.027	99.25
484.245	107.25
484.463	108.25
484.681	89.25
484.9	102.25
485.118	88.25
485.336	97.25
485.554	114.25
485.772	90.25
485.99	102.25
486.209	111.25
486.427	100.25
486.645	111.25
486.863	114.25
487.081	93.25
487.299	108.25
487.517	92.25
487.735	104.25
487.953	91.25
488.171	94.25
488.389	98.25
488.607	112.25
488.825	98.25
489.043	79.25
489.261	79.25
489.479	94.25
489.696	91.25
489.914	100.25
490.132	87.25
490.35	107.25
490.568	82.25
490.786	92.25
491.003	90.25
491.221	104.25
491.439	108.25
491.657	102.25
491.874	89.25
492.092	79.25
492.31	89.25
492.527	91.25
492.745	91.25
492.963	89.25
493.18	91.25
493.398	101.25
493.615	92.25
493.833	99.25
494.05	97.25
494.268	91.25
494.485	85.25
494.703	92.25
494.92	98.25
495.138	90.25
495.355	99.25
495.573	93.25
495.79	99.25
496.008	102.25
496.225	103.25
496.442	99.25
496.66	99.25
496.877	95.25
497.094	100.25
497.312	89.25
497.529	95.25
497.746	85.25
497.963	98.25
498.181	94.25
498.398	107.25
498.615	110.25
498.832	104.25
499.049	88.25
499.267	104.25
499.484	79.25
499.701	92.25
499.918	91.25
500.135	82.25
500.352	100.25
500.569	94.25
500.786	98.25
501.003	91.25
501.22	99.25
501.437	86.25
501.654	84.25
501.871	110.25
502.088	89.25
502.305	91.25
502.522	101.25
502.739	100.25
502.956	83.25
503.172	87.25
503.389	106.25
503.606	113.25
503.823	116.25
504.04	105.25
504.256	98.25
504.473	102.25
504.69	89.25
504.907	104.25
505.123	89.25
505.34	100.25
505.557	95.25
505.773	85.25
505.99	82.25
506.207	85.25
506.423	88.25
506.64	95.25
506.856	95.25
507.073	93.25
507.289	92.25
507.506	83.25
507.722	112.25
507.939	103.25
508.155	90.25
508.372	103.25
508.588	102.25
508.805	107.25
509.021	104.25
509.238	103.25
509.454	98.25
509.67	98.25
509.887	114.25
510.103	127.25
510.319	201.25
510.536	758.25
510.752	2271.25
510.968	642.25
511.184	158.25
511.401	114.25
511.617	99.25
511.833	96.25
512.049	89.25
512.265	102.25
512.481	106.25
512.698	97.25
512.914	93.25
513.13	103.25
513.346	93.25
513.562	88.25
513.778	99.25
513.994	100.25
514.21	105.25
514.426	123.25
514.642	125.25
514.858	105.25
