Data from Uncirc_1999_H10_HRD10591_00053.txt Node
Date: Wed Jan 03 11:22:15 EST 2024
User: Yrep
Spectrometer: HR+D1059
Trigger mode: 1
Integration Time (sec): 1.000000E-1
Scans to average: 1
Electric dark correction enabled: true
Nonlinearity correction enabled: false
Boxcar width: 0
XAxis mode: Wavelengths
Number of Pixels in Spectrum: 2048
>>>>>Begin Spectral Data<<<<<
223.165	-7.94
223.4	-7.94
223.635	-7.94
223.869	-8.94
224.104	-6.94
224.338	-29.94
224.573	-14.94
224.808	-11.94
225.042	-3.94
225.277	-10.94
225.511	-4.94
225.746	2.06
225.98	-5.94
226.215	12.06
226.449	16.06
226.683	18.06
226.918	27.06
227.152	31.06
227.387	46.06
227.621	42.06
227.856	49.06
228.09	51.06
228.324	57.06
228.559	48.06
228.793	61.06
229.027	48.06
229.262	66.06
229.496	77.06
229.73	80.06
229.964	79.06
230.199	84.06
230.433	58.06
230.667	75.06
230.901	66.06
231.136	78.06
231.37	70.06
231.604	81.06
231.838	80.06
232.072	63.06
232.306	79.06
232.541	82.06
232.775	73.06
233.009	77.06
233.243	68.06
233.477	56.06
233.711	84.06
233.945	76.06
234.179	84.06
234.413	84.06
234.647	81.06
234.881	78.06
235.115	80.06
235.349	81.06
235.583	81.06
235.817	75.06
236.051	90.06
236.285	70.06
236.519	84.06
236.753	87.06
236.987	90.06
237.221	80.06
237.455	78.06
237.689	77.06
237.922	77.06
238.156	69.06
238.39	81.06
238.624	61.06
238.858	68.06
239.091	62.06
239.325	70.06
239.559	78.06
239.793	92.06
240.027	76.06
240.26	73.06
240.494	87.06
240.728	72.06
240.961	75.06
241.195	82.06
241.429	76.06
241.662	69.06
241.896	79.06
242.13	72.06
242.363	92.06
242.597	84.06
242.83	82.06
243.064	83.06
243.298	86.06
243.531	73.06
243.765	68.06
243.998	78.06
244.232	78.06
244.465	82.06
244.699	101.06
244.932	80.06
245.166	74.06
245.399	71.06
245.633	79.06
245.866	92.06
246.099	77.06
246.333	73.06
246.566	78.06
246.8	79.06
247.033	86.06
247.266	79.06
247.5	65.06
247.733	82.06
247.966	82.06
248.2	87.06
248.433	80.06
248.666	82.06
248.899	65.06
249.133	75.06
249.366	98.06
249.599	86.06
249.832	78.06
250.066	83.06
250.299	80.06
250.532	93.06
250.765	79.06
250.998	74.06
251.231	81.06
251.465	82.06
251.698	63.06
251.931	78.06
252.164	85.06
252.397	84.06
252.63	68.06
252.863	75.06
253.096	74.06
253.329	70.06
253.562	95.06
253.795	77.06
254.028	86.06
254.261	75.06
254.494	61.06
254.727	81.06
254.96	86.06
255.193	88.06
255.426	84.06
255.659	92.06
255.892	88.06
256.124	79.06
256.357	88.06
256.59	78.06
256.823	89.06
257.056	94.06
257.289	83.06
257.521	88.06
257.754	77.06
257.987	88.06
258.22	81.06
258.452	100.06
258.685	83.06
258.918	92.06
259.151	88.06
259.383	84.06
259.616	82.06
259.849	76.06
260.081	76.06
260.314	85.06
260.547	85.06
260.779	68.06
261.012	72.06
261.244	79.06
261.477	75.06
261.71	90.06
261.942	106.06
262.175	107.06
262.407	85.06
262.64	98.06
262.872	90.06
263.105	63.06
263.337	76.06
263.57	70.06
263.802	64.06
264.035	77.06
264.267	77.06
264.499	83.06
264.732	103.06
264.964	78.06
265.197	87.06
265.429	87.06
265.661	75.06
265.894	88.06
266.126	90.06
266.358	89.06
266.591	84.06
266.823	74.06
267.055	77.06
267.287	79.06
267.52	89.06
267.752	90.06
267.984	71.06
268.216	71.06
268.448	93.06
268.681	80.06
268.913	91.06
269.145	84.06
269.377	94.06
269.609	81.06
269.841	83.06
270.073	85.06
270.306	87.06
270.538	81.06
270.77	77.06
271.002	88.06
271.234	96.06
271.466	91.06
271.698	97.06
271.93	96.06
272.162	74.06
272.394	83.06
272.626	82.06
272.858	89.06
273.09	84.06
273.322	91.06
273.553	76.06
273.785	77.06
274.017	85.06
274.249	80.06
274.481	83.06
274.713	85.06
274.945	92.06
275.176	69.06
275.408	80.06
275.64	92.06
275.872	70.06
276.104	90.06
276.335	71.06
276.567	94.06
276.799	104.06
277.031	97.06
277.262	84.06
277.494	80.06
277.726	76.06
277.957	74.06
278.189	99.06
278.421	89.06
278.652	89.06
278.884	86.06
279.115	81.06
279.347	78.06
279.579	99.06
279.81	88.06
280.042	107.06
280.273	91.06
280.505	97.06
280.736	92.06
280.968	84.06
281.199	82.06
281.431	93.06
281.662	81.06
281.894	79.06
282.125	101.06
282.356	98.06
282.588	127.06
282.819	111.06
283.051	85.06
283.282	78.06
283.513	98.06
283.745	100.06
283.976	98.06
284.207	78.06
284.439	87.06
284.67	96.06
284.901	79.06
285.132	91.06
285.364	86.06
285.595	78.06
285.826	80.06
286.057	88.06
286.288	76.06
286.52	86.06
286.751	91.06
286.982	73.06
287.213	79.06
287.444	93.06
287.675	88.06
287.906	85.06
288.138	92.06
288.369	101.06
288.6	97.06
288.831	98.06
289.062	95.06
289.293	80.06
289.524	87.06
289.755	91.06
289.986	80.06
290.217	94.06
290.448	85.06
290.679	87.06
290.91	100.06
291.141	75.06
291.371	81.06
291.602	87.06
291.833	94.06
292.064	92.06
292.295	82.06
292.526	99.06
292.757	85.06
292.987	82.06
293.218	89.06
293.449	90.06
293.68	88.06
293.91	87.06
294.141	88.06
294.372	87.06
294.603	88.06
294.833	77.06
295.064	95.06
295.295	92.06
295.525	95.06
295.756	101.06
295.987	116.06
296.217	122.06
296.448	111.06
296.679	84.06
296.909	79.06
297.14	84.06
297.37	82.06
297.601	67.06
297.831	96.06
298.062	88.06
298.292	87.06
298.523	84.06
298.753	82.06
298.984	78.06
299.214	65.06
299.445	93.06
299.675	92.06
299.905	94.06
300.136	88.06
300.366	93.06
300.597	82.06
300.827	85.06
301.057	106.06
301.288	107.06
301.518	102.06
301.748	86.06
301.979	90.06
302.209	84.06
302.439	90.06
302.669	86.06
302.9	93.06
303.13	82.06
303.36	82.06
303.59	101.06
303.82	101.06
304.051	94.06
304.281	91.06
304.511	91.06
304.741	98.06
304.971	86.06
305.201	93.06
305.431	90.06
305.661	104.06
305.891	89.06
306.121	80.06
306.352	76.06
306.582	102.06
306.812	78.06
307.042	98.06
307.272	94.06
307.502	77.06
307.731	86.06
307.961	91.06
308.191	88.06
308.421	90.06
308.651	104.06
308.881	86.06
309.111	96.06
309.341	88.06
309.571	87.06
309.8	92.06
310.03	94.06
310.26	93.06
310.49	92.06
310.72	96.06
310.949	97.06
311.179	96.06
311.409	95.06
311.639	92.06
311.868	85.06
312.098	94.06
312.328	97.06
312.557	98.06
312.787	111.06
313.017	99.06
313.246	77.06
313.476	72.06
313.706	97.06
313.935	86.06
314.165	94.06
314.394	100.06
314.624	96.06
314.853	96.06
315.083	92.06
315.312	95.06
315.542	96.06
315.771	101.06
316.001	98.06
316.23	93.06
316.46	108.06
316.689	83.06
316.919	93.06
317.148	90.06
317.377	87.06
317.607	87.06
317.836	92.06
318.065	85.06
318.295	82.06
318.524	95.06
318.753	84.06
318.983	110.06
319.212	92.06
319.441	82.06
319.67	100.06
319.9	92.06
320.129	86.06
320.358	103.06
320.587	107.06
320.816	96.06
321.046	94.06
321.275	99.06
321.504	92.06
321.733	103.06
321.962	89.06
322.191	97.06
322.42	96.06
322.649	123.06
322.878	121.06
323.108	117.06
323.337	116.06
323.566	127.06
323.795	149.06
324.024	207.06
324.253	412.06
324.482	860.06
324.71	1816.06
324.939	2316.06
325.168	821.06
325.397	233.06
325.626	140.06
325.855	124.06
326.084	119.06
326.313	128.06
326.542	158.06
326.77	241.06
326.999	492.06
327.228	1009.06
327.457	1809.06
327.686	1410.06
327.914	378.06
328.143	182.06
328.372	138.06
328.6	118.06
328.829	105.06
329.058	123.06
329.287	124.06
329.515	117.06
329.744	100.06
329.972	105.06
330.201	104.06
330.43	103.06
330.658	120.06
330.887	127.06
331.115	93.06
331.344	93.06
331.572	105.06
331.801	108.06
332.03	87.06
332.258	94.06
332.486	85.06
332.715	84.06
332.943	85.06
333.172	93.06
333.4	101.06
333.629	96.06
333.857	120.06
334.085	92.06
334.314	97.06
334.542	113.06
334.771	120.06
334.999	91.06
335.227	110.06
335.455	100.06
335.684	92.06
335.912	105.06
336.14	92.06
336.369	88.06
336.597	92.06
336.825	96.06
337.053	107.06
337.281	92.06
337.51	88.06
337.738	106.06
337.966	89.06
338.194	85.06
338.422	92.06
338.65	95.06
338.878	94.06
339.106	93.06
339.334	97.06
339.562	97.06
339.79	79.06
340.018	81.06
340.246	88.06
340.474	90.06
340.702	98.06
340.93	88.06
341.158	86.06
341.386	104.06
341.614	84.06
341.842	92.06
342.07	79.06
342.298	93.06
342.526	87.06
342.754	89.06
342.981	82.06
343.209	88.06
343.437	112.06
343.665	103.06
343.893	81.06
344.12	89.06
344.348	95.06
344.576	86.06
344.804	77.06
345.031	96.06
345.259	110.06
345.487	89.06
345.714	91.06
345.942	100.06
346.17	100.06
346.397	86.06
346.625	104.06
346.853	110.06
347.08	93.06
347.308	89.06
347.535	95.06
347.763	113.06
347.99	97.06
348.218	99.06
348.445	98.06
348.673	109.06
348.9	89.06
349.128	93.06
349.355	101.06
349.583	81.06
349.81	87.06
350.037	106.06
350.265	96.06
350.492	102.06
350.72	88.06
350.947	109.06
351.174	97.06
351.402	102.06
351.629	95.06
351.856	97.06
352.083	104.06
352.311	95.06
352.538	105.06
352.765	109.06
352.992	124.06
353.22	108.06
353.447	91.06
353.674	92.06
353.901	95.06
354.128	98.06
354.355	97.06
354.583	103.06
354.81	105.06
355.037	88.06
355.264	96.06
355.491	101.06
355.718	81.06
355.945	104.06
356.172	94.06
356.399	97.06
356.626	97.06
356.853	91.06
357.08	95.06
357.307	98.06
357.534	106.06
357.761	99.06
357.988	94.06
358.215	93.06
358.441	97.06
358.668	115.06
358.895	86.06
359.122	96.06
359.349	81.06
359.576	81.06
359.802	89.06
360.029	89.06
360.256	105.06
360.483	92.06
360.709	85.06
360.936	104.06
361.163	89.06
361.39	96.06
361.616	95.06
361.843	78.06
362.07	83.06
362.296	92.06
362.523	95.06
362.749	90.06
362.976	88.06
363.203	86.06
363.429	82.06
363.656	102.06
363.882	94.06
364.109	91.06
364.335	88.06
364.562	78.06
364.788	94.06
365.015	82.06
365.241	97.06
365.468	119.06
365.694	98.06
365.92	64.06
366.147	92.06
366.373	84.06
366.599	90.06
366.826	88.06
367.052	106.06
367.278	87.06
367.505	80.06
367.731	84.06
367.957	85.06
368.184	91.06
368.41	85.06
368.636	110.06
368.862	102.06
369.089	105.06
369.315	88.06
369.541	81.06
369.767	99.06
369.993	100.06
370.219	86.06
370.445	101.06
370.672	110.06
370.898	94.06
371.124	100.06
371.35	71.06
371.576	86.06
371.802	73.06
372.028	95.06
372.254	92.06
372.48	96.06
372.706	88.06
372.932	81.06
373.158	90.06
373.384	105.06
373.61	92.06
373.835	80.06
374.061	85.06
374.287	103.06
374.513	85.06
374.739	78.06
374.965	101.06
375.191	84.06
375.416	92.06
375.642	82.06
375.868	96.06
376.094	68.06
376.319	73.06
376.545	87.06
376.771	91.06
376.997	78.06
377.222	88.06
377.448	64.06
377.674	79.06
377.899	86.06
378.125	95.06
378.35	88.06
378.576	94.06
378.802	81.06
379.027	84.06
379.253	84.06
379.478	88.06
379.704	74.06
379.929	86.06
380.155	88.06
380.38	100.06
380.606	90.06
380.831	96.06
381.057	90.06
381.282	93.06
381.507	97.06
381.733	104.06
381.958	105.06
382.184	106.06
382.409	118.06
382.634	108.06
382.86	92.06
383.085	100.06
383.31	108.06
383.535	117.06
383.761	93.06
383.986	103.06
384.211	102.06
384.436	92.06
384.662	108.06
384.887	116.06
385.112	97.06
385.337	102.06
385.562	103.06
385.787	104.06
386.013	113.06
386.238	113.06
386.463	104.06
386.688	113.06
386.913	106.06
387.138	112.06
387.363	104.06
387.588	113.06
387.813	103.06
388.038	107.06
388.263	116.06
388.488	109.06
388.713	93.06
388.938	89.06
389.163	102.06
389.387	88.06
389.612	105.06
389.837	96.06
390.062	96.06
390.287	95.06
390.512	94.06
390.736	95.06
390.961	104.06
391.186	96.06
391.411	92.06
391.636	91.06
391.86	106.06
392.085	82.06
392.31	97.06
392.534	86.06
392.759	86.06
392.984	85.06
393.208	94.06
393.433	76.06
393.658	89.06
393.882	96.06
394.107	74.06
394.331	84.06
394.556	81.06
394.78	89.06
395.005	103.06
395.229	78.06
395.454	77.06
395.678	79.06
395.903	90.06
396.127	83.06
396.352	94.06
396.576	81.06
396.801	94.06
397.025	81.06
397.249	88.06
397.474	72.06
397.698	100.06
397.922	90.06
398.147	82.06
398.371	90.06
398.595	84.06
398.82	92.06
399.044	85.06
399.268	77.06
399.492	82.06
399.717	81.06
399.941	84.06
400.165	92.06
400.389	95.06
400.613	90.06
400.837	84.06
401.062	84.06
401.286	92.06
401.51	90.06
401.734	94.06
401.958	88.06
402.182	116.06
402.406	138.06
402.63	104.06
402.854	86.06
403.078	90.06
403.302	84.06
403.526	90.06
403.75	84.06
403.974	88.06
404.198	75.06
404.422	86.06
404.645	81.06
404.869	92.06
405.093	84.06
405.317	88.06
405.541	83.06
405.765	88.06
405.988	117.06
406.212	162.06
406.436	212.06
406.66	135.06
406.883	109.06
407.107	79.06
407.331	104.06
407.555	78.06
407.778	98.06
408.002	85.06
408.226	74.06
408.449	94.06
408.673	110.06
408.896	99.06
409.12	95.06
409.344	97.06
409.567	76.06
409.791	90.06
410.014	94.06
410.238	95.06
410.461	107.06
410.685	96.06
410.908	100.06
411.132	100.06
411.355	96.06
411.578	90.06
411.802	81.06
412.025	94.06
412.249	86.06
412.472	86.06
412.695	92.06
412.919	75.06
413.142	89.06
413.365	86.06
413.589	89.06
413.812	94.06
414.035	98.06
414.258	82.06
414.482	84.06
414.705	78.06
414.928	91.06
415.151	103.06
415.374	98.06
415.597	86.06
415.821	96.06
416.044	88.06
416.267	96.06
416.49	79.06
416.713	82.06
416.936	93.06
417.159	75.06
417.382	98.06
417.605	94.06
417.828	70.06
418.051	92.06
418.274	79.06
418.497	85.06
418.72	85.06
418.943	89.06
419.166	75.06
419.389	82.06
419.611	98.06
419.834	88.06
420.057	88.06
420.28	86.06
420.503	88.06
420.726	77.06
420.948	88.06
421.171	84.06
421.394	93.06
421.617	96.06
421.839	91.06
422.062	92.06
422.285	105.06
422.507	109.06
422.73	108.06
422.953	87.06
423.175	87.06
423.398	91.06
423.621	84.06
423.843	93.06
424.066	80.06
424.288	90.06
424.511	89.06
424.733	92.06
424.956	112.06
425.178	104.06
425.401	95.06
425.623	92.06
425.846	89.06
426.068	94.06
426.291	84.06
426.513	87.06
426.735	96.06
426.958	93.06
427.18	103.06
427.402	141.06
427.625	162.06
427.847	121.06
428.069	110.06
428.292	94.06
428.514	85.06
428.736	89.06
428.958	73.06
429.181	79.06
429.403	70.06
429.625	73.06
429.847	94.06
430.069	96.06
430.292	85.06
430.514	84.06
430.736	85.06
430.958	70.06
431.18	89.06
431.402	105.06
431.624	92.06
431.846	84.06
432.068	76.06
432.29	79.06
432.512	90.06
432.734	88.06
432.956	87.06
433.178	100.06
433.4	101.06
433.622	88.06
433.844	103.06
434.066	90.06
434.287	91.06
434.509	78.06
434.731	76.06
434.953	77.06
435.175	90.06
435.397	92.06
435.618	83.06
435.84	113.06
436.062	119.06
436.284	97.06
436.505	98.06
436.727	98.06
436.949	94.06
437.17	89.06
437.392	103.06
437.614	85.06
437.835	90.06
438.057	110.06
438.278	98.06
438.5	96.06
438.721	121.06
438.943	84.06
439.165	95.06
439.386	76.06
439.608	92.06
439.829	102.06
440.05	117.06
440.272	139.06
440.493	96.06
440.715	77.06
440.936	90.06
441.158	82.06
441.379	84.06
441.6	78.06
441.822	86.06
442.043	84.06
442.264	100.06
442.486	100.06
442.707	95.06
442.928	97.06
443.149	118.06
443.371	105.06
443.592	101.06
443.813	104.06
444.034	105.06
444.255	88.06
444.476	89.06
444.698	92.06
444.919	90.06
445.14	137.06
445.361	126.06
445.582	103.06
445.803	116.06
446.024	137.06
446.245	134.06
446.466	120.06
446.687	92.06
446.908	97.06
447.129	96.06
447.35	90.06
447.571	92.06
447.792	90.06
448.013	95.06
448.234	95.06
448.455	94.06
448.675	114.06
448.896	116.06
449.117	84.06
449.338	112.06
449.559	133.06
449.779	118.06
450	100.06
450.221	108.06
450.442	82.06
450.662	97.06
450.883	97.06
451.104	109.06
451.324	85.06
451.545	97.06
451.766	90.06
451.986	97.06
452.207	78.06
452.428	72.06
452.648	98.06
452.869	109.06
453.089	89.06
453.31	112.06
453.53	96.06
453.751	90.06
453.971	94.06
454.192	118.06
454.412	92.06
454.633	89.06
454.853	95.06
455.073	79.06
455.294	82.06
455.514	112.06
455.734	101.06
455.955	89.06
456.175	87.06
456.395	92.06
456.616	90.06
456.836	74.06
457.056	89.06
457.276	73.06
457.497	80.06
457.717	80.06
457.937	83.06
458.157	87.06
458.377	101.06
458.598	92.06
458.818	127.06
459.038	152.06
459.258	97.06
459.478	88.06
459.698	96.06
459.918	86.06
460.138	90.06
460.358	93.06
460.578	69.06
460.798	95.06
461.018	74.06
461.238	94.06
461.458	91.06
461.678	91.06
461.898	89.06
462.118	88.06
462.338	91.06
462.558	79.06
462.777	89.06
462.997	80.06
463.217	87.06
463.437	93.06
463.657	98.06
463.876	82.06
464.096	70.06
464.316	86.06
464.536	89.06
464.755	89.06
464.975	92.06
465.195	136.06
465.414	138.06
465.634	100.06
465.854	96.06
466.073	78.06
466.293	89.06
466.512	80.06
466.732	71.06
466.951	97.06
467.171	90.06
467.391	109.06
467.61	86.06
467.829	97.06
468.049	89.06
468.268	97.06
468.488	89.06
468.707	85.06
468.927	78.06
469.146	82.06
469.365	99.06
469.585	94.06
469.804	89.06
470.023	91.06
470.243	91.06
470.462	95.06
470.681	103.06
470.901	80.06
471.12	74.06
471.339	76.06
471.558	98.06
471.777	82.06
471.997	98.06
472.216	102.06
472.435	104.06
472.654	96.06
472.873	103.06
473.092	83.06
473.311	86.06
473.53	88.06
473.749	95.06
473.968	85.06
474.187	105.06
474.406	93.06
474.625	87.06
474.844	91.06
475.063	68.06
475.282	98.06
475.501	92.06
475.72	102.06
475.939	92.06
476.158	90.06
476.377	92.06
476.596	94.06
476.814	105.06
477.033	79.06
477.252	83.06
477.471	82.06
477.69	102.06
477.908	99.06
478.127	82.06
478.346	77.06
478.564	90.06
478.783	86.06
479.002	103.06
479.22	79.06
479.439	87.06
479.658	99.06
479.876	92.06
480.095	89.06
480.313	82.06
480.532	73.06
480.751	88.06
480.969	93.06
481.188	109.06
481.406	121.06
481.624	115.06
481.843	78.06
482.061	74.06
482.28	95.06
482.498	92.06
482.717	96.06
482.935	87.06
483.153	78.06
483.372	91.06
483.59	93.06
483.808	99.06
484.027	87.06
484.245	100.06
484.463	93.06
484.681	110.06
484.9	86.06
485.118	103.06
485.336	88.06
485.554	103.06
485.772	98.06
485.99	110.06
486.209	105.06
486.427	85.06
486.645	104.06
486.863	118.06
487.081	110.06
487.299	99.06
487.517	102.06
487.735	92.06
487.953	89.06
488.171	79.06
488.389	107.06
488.607	103.06
488.825	96.06
489.043	97.06
489.261	101.06
489.479	101.06
489.696	91.06
489.914	85.06
490.132	100.06
490.35	104.06
490.568	97.06
490.786	113.06
491.003	97.06
491.221	78.06
491.439	84.06
491.657	106.06
491.874	90.06
492.092	85.06
492.31	78.06
492.527	63.06
492.745	92.06
492.963	94.06
493.18	91.06
493.398	71.06
493.615	94.06
493.833	87.06
494.05	91.06
494.268	89.06
494.485	91.06
494.703	87.06
494.92	95.06
495.138	102.06
495.355	89.06
495.573	84.06
495.79	82.06
496.008	94.06
496.225	99.06
496.442	92.06
496.66	86.06
496.877	99.06
497.094	95.06
497.312	94.06
497.529	90.06
497.746	95.06
497.963	78.06
498.181	69.06
498.398	88.06
498.615	108.06
498.832	100.06
499.049	93.06
499.267	101.06
499.484	87.06
499.701	90.06
499.918	96.06
500.135	82.06
500.352	85.06
500.569	85.06
500.786	96.06
501.003	89.06
501.22	84.06
501.437	86.06
501.654	95.06
501.871	94.06
502.088	102.06
502.305	99.06
502.522	79.06
502.739	99.06
502.956	80.06
503.172	90.06
503.389	102.06
503.606	101.06
503.823	95.06
504.04	102.06
504.256	100.06
504.473	94.06
504.69	84.06
504.907	97.06
505.123	72.06
505.34	98.06
505.557	97.06
505.773	86.06
505.99	82.06
506.207	101.06
506.423	82.06
506.64	87.06
506.856	97.06
507.073	86.06
507.289	90.06
507.506	94.06
507.722	108.06
507.939	101.06
508.155	104.06
508.372	86.06
508.588	93.06
508.805	99.06
509.021	102.06
509.238	90.06
509.454	96.06
509.67	93.06
509.887	113.06
510.103	108.06
510.319	192.06
510.536	735.06
510.752	2164.06
510.968	607.06
511.184	145.06
511.401	116.06
511.617	107.06
511.833	82.06
512.049	94.06
512.265	94.06
512.481	80.06
512.698	96.06
512.914	99.06
513.13	96.06
513.346	97.06
513.562	94.06
513.778	98.06
513.994	96.06
514.21	104.06
514.426	108.06
514.642	118.06
514.858	129.06
515.074	170.06
515.29	382.06
515.506	1217.06
515.721	438.06
515.937	138.06
