Data from Uncirc_1999_H10_HRD10591_00041.txt Node
Date: Wed Jan 03 11:22:13 EST 2024
User: Yrep
Spectrometer: HR+D1059
Trigger mode: 1
Integration Time (sec): 1.000000E-1
Scans to average: 1
Electric dark correction enabled: true
Nonlinearity correction enabled: false
Boxcar width: 0
XAxis mode: Wavelengths
Number of Pixels in Spectrum: 2048
>>>>>Begin Spectral Data<<<<<
223.165	-20.62
223.4	-20.62
223.635	-20.62
223.869	-16.62
224.104	-17.62
224.338	-7.62
224.573	-11.62
224.808	-18.62
225.042	-10.62
225.277	-13.62
225.511	-2.62
225.746	3.38
225.98	12.38
226.215	13.38
226.449	18.38
226.683	15.38
226.918	27.38
227.152	29.38
227.387	25.38
227.621	37.38
227.856	34.38
228.09	50.38
228.324	59.38
228.559	53.38
228.793	55.38
229.027	69.38
229.262	78.38
229.496	72.38
229.73	70.38
229.964	87.38
230.199	83.38
230.433	74.38
230.667	74.38
230.901	76.38
231.136	80.38
231.37	87.38
231.604	79.38
231.838	78.38
232.072	74.38
232.306	79.38
232.541	56.38
232.775	82.38
233.009	89.38
233.243	91.38
233.477	77.38
233.711	74.38
233.945	82.38
234.179	87.38
234.413	81.38
234.647	82.38
234.881	81.38
235.115	73.38
235.349	88.38
235.583	83.38
235.817	81.38
236.051	70.38
236.285	78.38
236.519	84.38
236.753	75.38
236.987	80.38
237.221	89.38
237.455	88.38
237.689	75.38
237.922	82.38
238.156	74.38
238.39	73.38
238.624	63.38
238.858	70.38
239.091	86.38
239.325	89.38
239.559	75.38
239.793	78.38
240.027	89.38
240.26	70.38
240.494	85.38
240.728	90.38
240.961	76.38
241.195	79.38
241.429	75.38
241.662	77.38
241.896	71.38
242.13	64.38
242.363	78.38
242.597	60.38
242.83	81.38
243.064	79.38
243.298	78.38
243.531	78.38
243.765	82.38
243.998	62.38
244.232	83.38
244.465	67.38
244.699	75.38
244.932	65.38
245.166	87.38
245.399	75.38
245.633	86.38
245.866	70.38
246.099	72.38
246.333	84.38
246.566	74.38
246.8	72.38
247.033	80.38
247.266	81.38
247.5	78.38
247.733	77.38
247.966	84.38
248.2	66.38
248.433	65.38
248.666	72.38
248.899	82.38
249.133	81.38
249.366	97.38
249.599	88.38
249.832	77.38
250.066	77.38
250.299	88.38
250.532	87.38
250.765	84.38
250.998	70.38
251.231	77.38
251.465	87.38
251.698	85.38
251.931	78.38
252.164	81.38
252.397	72.38
252.63	81.38
252.863	82.38
253.096	89.38
253.329	76.38
253.562	82.38
253.795	98.38
254.028	80.38
254.261	75.38
254.494	94.38
254.727	93.38
254.96	77.38
255.193	89.38
255.426	81.38
255.659	75.38
255.892	81.38
256.124	80.38
256.357	88.38
256.59	83.38
256.823	72.38
257.056	85.38
257.289	84.38
257.521	87.38
257.754	79.38
257.987	78.38
258.22	74.38
258.452	94.38
258.685	86.38
258.918	81.38
259.151	93.38
259.383	86.38
259.616	81.38
259.849	86.38
260.081	90.38
260.314	96.38
260.547	88.38
260.779	77.38
261.012	72.38
261.244	69.38
261.477	79.38
261.71	102.38
261.942	112.38
262.175	104.38
262.407	87.38
262.64	81.38
262.872	71.38
263.105	93.38
263.337	71.38
263.57	92.38
263.802	90.38
264.035	89.38
264.267	88.38
264.499	95.38
264.732	81.38
264.964	63.38
265.197	76.38
265.429	79.38
265.661	80.38
265.894	83.38
266.126	77.38
266.358	79.38
266.591	86.38
266.823	89.38
267.055	75.38
267.287	86.38
267.52	82.38
267.752	78.38
267.984	80.38
268.216	91.38
268.448	79.38
268.681	75.38
268.913	90.38
269.145	92.38
269.377	90.38
269.609	95.38
269.841	87.38
270.073	88.38
270.306	81.38
270.538	92.38
270.77	83.38
271.002	81.38
271.234	79.38
271.466	74.38
271.698	87.38
271.93	81.38
272.162	82.38
272.394	96.38
272.626	80.38
272.858	86.38
273.09	91.38
273.322	91.38
273.553	90.38
273.785	92.38
274.017	90.38
274.249	74.38
274.481	83.38
274.713	94.38
274.945	62.38
275.176	74.38
275.408	98.38
275.64	87.38
275.872	94.38
276.104	95.38
276.335	95.38
276.567	90.38
276.799	111.38
277.031	99.38
277.262	87.38
277.494	103.38
277.726	79.38
277.957	89.38
278.189	85.38
278.421	82.38
278.652	87.38
278.884	75.38
279.115	81.38
279.347	87.38
279.579	71.38
279.81	90.38
280.042	87.38
280.273	80.38
280.505	85.38
280.736	78.38
280.968	77.38
281.199	86.38
281.431	93.38
281.662	84.38
281.894	84.38
282.125	101.38
282.356	120.38
282.588	140.38
282.819	103.38
283.051	89.38
283.282	91.38
283.513	78.38
283.745	99.38
283.976	94.38
284.207	88.38
284.439	89.38
284.67	92.38
284.901	95.38
285.132	100.38
285.364	78.38
285.595	82.38
285.826	95.38
286.057	96.38
286.288	85.38
286.52	91.38
286.751	104.38
286.982	81.38
287.213	94.38
287.444	86.38
287.675	88.38
287.906	83.38
288.138	79.38
288.369	98.38
288.6	100.38
288.831	93.38
289.062	86.38
289.293	93.38
289.524	78.38
289.755	79.38
289.986	87.38
290.217	92.38
290.448	81.38
290.679	85.38
290.91	94.38
291.141	86.38
291.371	102.38
291.602	102.38
291.833	74.38
292.064	65.38
292.295	96.38
292.526	91.38
292.757	89.38
292.987	79.38
293.218	86.38
293.449	83.38
293.68	83.38
293.91	88.38
294.141	97.38
294.372	85.38
294.603	88.38
294.833	99.38
295.064	95.38
295.295	70.38
295.525	106.38
295.756	109.38
295.987	106.38
296.217	139.38
296.448	114.38
296.679	92.38
296.909	82.38
297.14	79.38
297.37	86.38
297.601	89.38
297.831	77.38
298.062	86.38
298.292	94.38
298.523	101.38
298.753	102.38
298.984	91.38
299.214	94.38
299.445	90.38
299.675	97.38
299.905	98.38
300.136	88.38
300.366	89.38
300.597	100.38
300.827	99.38
301.057	91.38
301.288	87.38
301.518	88.38
301.748	90.38
301.979	101.38
302.209	95.38
302.439	107.38
302.669	94.38
302.9	100.38
303.13	92.38
303.36	90.38
303.59	102.38
303.82	104.38
304.051	90.38
304.281	88.38
304.511	88.38
304.741	77.38
304.971	87.38
305.201	82.38
305.431	85.38
305.661	88.38
305.891	84.38
306.121	97.38
306.352	104.38
306.582	115.38
306.812	96.38
307.042	85.38
307.272	75.38
307.502	88.38
307.731	93.38
307.961	86.38
308.191	103.38
308.421	93.38
308.651	85.38
308.881	107.38
309.111	101.38
309.341	82.38
309.571	91.38
309.8	89.38
310.03	91.38
310.26	102.38
310.49	105.38
310.72	100.38
310.949	93.38
311.179	94.38
311.409	81.38
311.639	108.38
311.868	94.38
312.098	105.38
312.328	93.38
312.557	93.38
312.787	93.38
313.017	95.38
313.246	86.38
313.476	98.38
313.706	86.38
313.935	91.38
314.165	87.38
314.394	93.38
314.624	93.38
314.853	102.38
315.083	95.38
315.312	93.38
315.542	99.38
315.771	102.38
316.001	89.38
316.23	94.38
316.46	94.38
316.689	91.38
316.919	95.38
317.148	99.38
317.377	91.38
317.607	90.38
317.836	91.38
318.065	93.38
318.295	89.38
318.524	94.38
318.753	108.38
318.983	101.38
319.212	105.38
319.441	107.38
319.67	114.38
319.9	108.38
320.129	102.38
320.358	115.38
320.587	93.38
320.816	96.38
321.046	119.38
321.275	89.38
321.504	83.38
321.733	101.38
321.962	93.38
322.191	110.38
322.42	98.38
322.649	114.38
322.878	101.38
323.108	93.38
323.337	122.38
323.566	122.38
323.795	161.38
324.024	197.38
324.253	415.38
324.482	851.38
324.71	1762.38
324.939	2355.38
325.168	859.38
325.397	237.38
325.626	158.38
325.855	121.38
326.084	111.38
326.313	145.38
326.542	167.38
326.77	239.38
326.999	484.38
327.228	978.38
327.457	1832.38
327.686	1417.38
327.914	382.38
328.143	187.38
328.372	135.38
328.6	116.38
328.829	111.38
329.058	111.38
329.287	119.38
329.515	91.38
329.744	110.38
329.972	113.38
330.201	98.38
330.43	126.38
330.658	112.38
330.887	123.38
331.115	102.38
331.344	94.38
331.572	87.38
331.801	99.38
332.03	92.38
332.258	98.38
332.486	93.38
332.715	87.38
332.943	95.38
333.172	97.38
333.4	89.38
333.629	99.38
333.857	101.38
334.085	118.38
334.314	105.38
334.542	107.38
334.771	114.38
334.999	103.38
335.227	92.38
335.455	85.38
335.684	94.38
335.912	92.38
336.14	102.38
336.369	101.38
336.597	105.38
336.825	110.38
337.053	82.38
337.281	95.38
337.51	90.38
337.738	103.38
337.966	85.38
338.194	93.38
338.422	82.38
338.65	104.38
338.878	88.38
339.106	106.38
339.334	80.38
339.562	91.38
339.79	86.38
340.018	104.38
340.246	97.38
340.474	78.38
340.702	69.38
340.93	86.38
341.158	104.38
341.386	77.38
341.614	103.38
341.842	98.38
342.07	90.38
342.298	97.38
342.526	83.38
342.754	81.38
342.981	85.38
343.209	104.38
343.437	102.38
343.665	103.38
343.893	81.38
344.12	87.38
344.348	94.38
344.576	85.38
344.804	73.38
345.031	99.38
345.259	91.38
345.487	96.38
345.714	88.38
345.942	91.38
346.17	92.38
346.397	87.38
346.625	94.38
346.853	93.38
347.08	83.38
347.308	98.38
347.535	78.38
347.763	93.38
347.99	98.38
348.218	93.38
348.445	104.38
348.673	85.38
348.9	88.38
349.128	99.38
349.355	91.38
349.583	102.38
349.81	90.38
350.037	100.38
350.265	103.38
350.492	90.38
350.72	98.38
350.947	102.38
351.174	96.38
351.402	109.38
351.629	102.38
351.856	106.38
352.083	112.38
352.311	103.38
352.538	105.38
352.765	103.38
352.992	118.38
353.22	105.38
353.447	89.38
353.674	110.38
353.901	97.38
354.128	95.38
354.355	107.38
354.583	96.38
354.81	101.38
355.037	95.38
355.264	99.38
355.491	96.38
355.718	97.38
355.945	95.38
356.172	82.38
356.399	110.38
356.626	97.38
356.853	96.38
357.08	99.38
357.307	94.38
357.534	98.38
357.761	103.38
357.988	94.38
358.215	114.38
358.441	108.38
358.668	85.38
358.895	101.38
359.122	83.38
359.349	79.38
359.576	80.38
359.802	92.38
360.029	117.38
360.256	103.38
360.483	104.38
360.709	91.38
360.936	92.38
361.163	96.38
361.39	98.38
361.616	84.38
361.843	91.38
362.07	87.38
362.296	113.38
362.523	101.38
362.749	79.38
362.976	84.38
363.203	90.38
363.429	93.38
363.656	79.38
363.882	89.38
364.109	89.38
364.335	88.38
364.562	103.38
364.788	91.38
365.015	82.38
365.241	86.38
365.468	97.38
365.694	88.38
365.92	97.38
366.147	85.38
366.373	87.38
366.599	95.38
366.826	105.38
367.052	77.38
367.278	85.38
367.505	96.38
367.731	89.38
367.957	104.38
368.184	99.38
368.41	84.38
368.636	105.38
368.862	123.38
369.089	103.38
369.315	98.38
369.541	98.38
369.767	86.38
369.993	90.38
370.219	94.38
370.445	70.38
370.672	96.38
370.898	101.38
371.124	78.38
371.35	87.38
371.576	89.38
371.802	83.38
372.028	94.38
372.254	85.38
372.48	89.38
372.706	85.38
372.932	93.38
373.158	81.38
373.384	96.38
373.61	98.38
373.835	93.38
374.061	81.38
374.287	93.38
374.513	90.38
374.739	86.38
374.965	86.38
375.191	75.38
375.416	85.38
375.642	89.38
375.868	101.38
376.094	85.38
376.319	81.38
376.545	95.38
376.771	75.38
376.997	93.38
377.222	96.38
377.448	92.38
377.674	94.38
377.899	89.38
378.125	81.38
378.35	99.38
378.576	84.38
378.802	86.38
379.027	79.38
379.253	97.38
379.478	92.38
379.704	90.38
379.929	91.38
380.155	90.38
380.38	97.38
380.606	99.38
380.831	78.38
381.057	105.38
381.282	95.38
381.507	98.38
381.733	92.38
381.958	108.38
382.184	95.38
382.409	80.38
382.634	120.38
382.86	107.38
383.085	117.38
383.31	104.38
383.535	99.38
383.761	94.38
383.986	102.38
384.211	109.38
384.436	98.38
384.662	110.38
384.887	106.38
385.112	120.38
385.337	101.38
385.562	112.38
385.787	110.38
386.013	118.38
386.238	100.38
386.463	96.38
386.688	120.38
386.913	115.38
387.138	111.38
387.363	97.38
387.588	93.38
387.813	99.38
388.038	110.38
388.263	113.38
388.488	103.38
388.713	98.38
388.938	95.38
389.163	106.38
389.387	93.38
389.612	97.38
389.837	102.38
390.062	95.38
390.287	94.38
390.512	97.38
390.736	96.38
390.961	99.38
391.186	94.38
391.411	113.38
391.636	109.38
391.86	81.38
392.085	91.38
392.31	92.38
392.534	81.38
392.759	84.38
392.984	87.38
393.208	81.38
393.433	88.38
393.658	87.38
393.882	93.38
394.107	90.38
394.331	95.38
394.556	91.38
394.78	93.38
395.005	89.38
395.229	73.38
395.454	76.38
395.678	94.38
395.903	93.38
396.127	89.38
396.352	91.38
396.576	83.38
396.801	94.38
397.025	81.38
397.249	87.38
397.474	78.38
397.698	85.38
397.922	82.38
398.147	90.38
398.371	90.38
398.595	77.38
398.82	83.38
399.044	74.38
399.268	90.38
399.492	90.38
399.717	97.38
399.941	87.38
400.165	87.38
400.389	89.38
400.613	79.38
400.837	80.38
401.062	82.38
401.286	99.38
401.51	76.38
401.734	95.38
401.958	91.38
402.182	114.38
402.406	150.38
402.63	109.38
402.854	97.38
403.078	101.38
403.302	91.38
403.526	82.38
403.75	92.38
403.974	88.38
404.198	79.38
404.422	87.38
404.645	97.38
404.869	89.38
405.093	94.38
405.317	95.38
405.541	85.38
405.765	99.38
405.988	112.38
406.212	172.38
406.436	216.38
406.66	147.38
406.883	89.38
407.107	97.38
407.331	110.38
407.555	99.38
407.778	90.38
408.002	93.38
408.226	86.38
408.449	98.38
408.673	88.38
408.896	95.38
409.12	97.38
409.344	93.38
409.567	101.38
409.791	89.38
410.014	109.38
410.238	93.38
410.461	90.38
410.685	90.38
410.908	84.38
411.132	119.38
411.355	112.38
411.578	82.38
411.802	85.38
412.025	89.38
412.249	83.38
412.472	83.38
412.695	85.38
412.919	97.38
413.142	76.38
413.365	81.38
413.589	79.38
413.812	83.38
414.035	84.38
414.258	93.38
414.482	93.38
414.705	92.38
414.928	97.38
415.151	98.38
415.374	80.38
415.597	93.38
415.821	100.38
416.044	97.38
416.267	105.38
416.49	93.38
416.713	75.38
416.936	94.38
417.159	111.38
417.382	82.38
417.605	90.38
417.828	77.38
418.051	75.38
418.274	93.38
418.497	89.38
418.72	87.38
418.943	89.38
419.166	89.38
419.389	103.38
419.611	91.38
419.834	96.38
420.057	95.38
420.28	86.38
420.503	99.38
420.726	88.38
420.948	87.38
421.171	93.38
421.394	96.38
421.617	81.38
421.839	93.38
422.062	97.38
422.285	99.38
422.507	93.38
422.73	102.38
422.953	91.38
423.175	78.38
423.398	82.38
423.621	79.38
423.843	98.38
424.066	79.38
424.288	82.38
424.511	94.38
424.733	100.38
424.956	85.38
425.178	92.38
425.401	85.38
425.623	91.38
425.846	76.38
426.068	95.38
426.291	101.38
426.513	103.38
426.735	97.38
426.958	94.38
427.18	99.38
427.402	133.38
427.625	165.38
427.847	116.38
428.069	94.38
428.292	88.38
428.514	94.38
428.736	78.38
428.958	92.38
429.181	87.38
429.403	85.38
429.625	90.38
429.847	90.38
430.069	99.38
430.292	93.38
430.514	113.38
430.736	95.38
430.958	83.38
431.18	85.38
431.402	90.38
431.624	81.38
431.846	88.38
432.068	96.38
432.29	99.38
432.512	82.38
432.734	91.38
432.956	109.38
433.178	109.38
433.4	97.38
433.622	97.38
433.844	83.38
434.066	79.38
434.287	103.38
434.509	98.38
434.731	102.38
434.953	108.38
435.175	89.38
435.397	83.38
435.618	81.38
435.84	101.38
436.062	112.38
436.284	116.38
436.505	107.38
436.727	112.38
436.949	94.38
437.17	95.38
437.392	99.38
437.614	88.38
437.835	95.38
438.057	119.38
438.278	112.38
438.5	92.38
438.721	109.38
438.943	97.38
439.165	82.38
439.386	82.38
439.608	82.38
439.829	106.38
440.05	94.38
440.272	136.38
440.493	94.38
440.715	83.38
440.936	93.38
441.158	97.38
441.379	90.38
441.6	96.38
441.822	103.38
442.043	99.38
442.264	101.38
442.486	108.38
442.707	98.38
442.928	97.38
443.149	125.38
443.371	106.38
443.592	102.38
443.813	103.38
444.034	91.38
444.255	103.38
444.476	94.38
444.698	85.38
444.919	82.38
445.14	126.38
445.361	135.38
445.582	109.38
445.803	123.38
446.024	111.38
446.245	125.38
446.466	98.38
446.687	85.38
446.908	80.38
447.129	104.38
447.35	95.38
447.571	100.38
447.792	99.38
448.013	104.38
448.234	96.38
448.455	97.38
448.675	118.38
448.896	105.38
449.117	99.38
449.338	92.38
449.559	136.38
449.779	138.38
450	87.38
450.221	87.38
450.442	74.38
450.662	88.38
450.883	99.38
451.104	120.38
451.324	113.38
451.545	103.38
451.766	81.38
451.986	88.38
452.207	106.38
452.428	95.38
452.648	108.38
452.869	98.38
453.089	119.38
453.31	105.38
453.53	94.38
453.751	85.38
453.971	114.38
454.192	101.38
454.412	88.38
454.633	81.38
454.853	97.38
455.073	89.38
455.294	82.38
455.514	92.38
455.734	93.38
455.955	98.38
456.175	81.38
456.395	78.38
456.616	86.38
456.836	75.38
457.056	92.38
457.276	91.38
457.497	82.38
457.717	106.38
457.937	92.38
458.157	79.38
458.377	94.38
458.598	98.38
458.818	136.38
459.038	135.38
459.258	110.38
459.478	91.38
459.698	98.38
459.918	77.38
460.138	86.38
460.358	84.38
460.578	95.38
460.798	93.38
461.018	89.38
461.238	94.38
461.458	78.38
461.678	75.38
461.898	90.38
462.118	80.38
462.338	81.38
462.558	86.38
462.777	91.38
462.997	95.38
463.217	70.38
463.437	88.38
463.657	78.38
463.876	86.38
464.096	87.38
464.316	91.38
464.536	92.38
464.755	99.38
464.975	100.38
465.195	153.38
465.414	162.38
465.634	94.38
465.854	94.38
466.073	92.38
466.293	88.38
466.512	95.38
466.732	89.38
466.951	91.38
467.171	93.38
467.391	96.38
467.61	98.38
467.829	99.38
468.049	100.38
468.268	90.38
468.488	75.38
468.707	103.38
468.927	91.38
469.146	79.38
469.365	83.38
469.585	99.38
469.804	97.38
470.023	94.38
470.243	94.38
470.462	98.38
470.681	103.38
470.901	86.38
471.12	99.38
471.339	99.38
471.558	93.38
471.777	94.38
471.997	72.38
472.216	101.38
472.435	100.38
472.654	91.38
472.873	86.38
473.092	81.38
473.311	81.38
473.53	78.38
473.749	79.38
473.968	86.38
474.187	99.38
474.406	98.38
474.625	99.38
474.844	102.38
475.063	87.38
475.282	94.38
475.501	81.38
475.72	84.38
475.939	89.38
476.158	86.38
476.377	105.38
476.596	92.38
476.814	89.38
477.033	98.38
477.252	92.38
477.471	99.38
477.69	92.38
477.908	82.38
478.127	97.38
478.346	91.38
478.564	103.38
478.783	94.38
479.002	90.38
479.22	90.38
479.439	106.38
479.658	86.38
479.876	99.38
480.095	82.38
480.313	76.38
480.532	81.38
480.751	91.38
480.969	103.38
481.188	112.38
481.406	97.38
481.624	94.38
481.843	102.38
482.061	85.38
482.28	107.38
482.498	86.38
482.717	97.38
482.935	103.38
483.153	96.38
483.372	91.38
483.59	99.38
483.808	89.38
484.027	94.38
484.245	98.38
484.463	106.38
484.681	110.38
484.9	85.38
485.118	74.38
485.336	105.38
485.554	91.38
485.772	95.38
485.99	107.38
486.209	112.38
486.427	83.38
486.645	121.38
486.863	112.38
487.081	106.38
487.299	94.38
487.517	85.38
487.735	89.38
487.953	105.38
488.171	97.38
488.389	95.38
488.607	102.38
488.825	107.38
489.043	81.38
489.261	96.38
489.479	93.38
489.696	91.38
489.914	96.38
490.132	115.38
490.35	92.38
490.568	97.38
490.786	88.38
491.003	79.38
491.221	102.38
491.439	95.38
491.657	88.38
491.874	98.38
492.092	95.38
492.31	94.38
492.527	98.38
492.745	89.38
492.963	96.38
493.18	81.38
493.398	96.38
493.615	95.38
493.833	96.38
494.05	93.38
494.268	76.38
494.485	91.38
494.703	95.38
494.92	93.38
495.138	80.38
495.355	92.38
495.573	103.38
495.79	91.38
496.008	101.38
496.225	90.38
496.442	96.38
496.66	92.38
496.877	92.38
497.094	79.38
497.312	97.38
497.529	94.38
497.746	81.38
497.963	82.38
498.181	86.38
498.398	98.38
498.615	102.38
498.832	104.38
499.049	93.38
499.267	97.38
499.484	95.38
499.701	95.38
499.918	98.38
500.135	91.38
500.352	104.38
500.569	95.38
500.786	79.38
501.003	98.38
501.22	88.38
501.437	93.38
501.654	82.38
501.871	107.38
502.088	90.38
502.305	91.38
502.522	80.38
502.739	96.38
502.956	97.38
503.172	84.38
503.389	93.38
503.606	97.38
503.823	108.38
504.04	86.38
504.256	96.38
504.473	89.38
504.69	87.38
504.907	89.38
505.123	89.38
505.34	92.38
505.557	106.38
505.773	87.38
505.99	97.38
506.207	94.38
506.423	102.38
506.64	88.38
506.856	98.38
507.073	102.38
507.289	102.38
507.506	100.38
507.722	117.38
507.939	121.38
508.155	83.38
508.372	87.38
508.588	94.38
508.805	94.38
509.021	86.38
509.238	106.38
509.454	87.38
509.67	116.38
509.887	113.38
510.103	108.38
510.319	219.38
510.536	748.38
510.752	2256.38
510.968	611.38
511.184	167.38
511.401	115.38
511.617	87.38
511.833	109.38
512.049	98.38
512.265	103.38
512.481	92.38
512.698	94.38
512.914	91.38
513.13	95.38
513.346	95.38
513.562	90.38
513.778	99.38
513.994	98.38
514.21	119.38
514.426	116.38
514.642	124.38
514.858	122.38
515.074	168.38
515.29	431.38
515.506	1359.38
515.721	502.38
