Data from Uncirc_1999_H10_HRD10591_00063.txt Node
Date: Wed Jan 03 11:22:17 EST 2024
User: Yrep
Spectrometer: HR+D1059
Trigger mode: 1
Integration Time (sec): 1.000000E-1
Scans to average: 1
Electric dark correction enabled: true
Nonlinearity correction enabled: false
Boxcar width: 0
XAxis mode: Wavelengths
Number of Pixels in Spectrum: 2048
>>>>>Begin Spectral Data<<<<<
223.165	-22.19
223.4	-22.19
223.635	-22.19
223.869	-12.19
224.104	-28.19
224.338	-13.19
224.573	-29.19
224.808	-16.19
225.042	-14.19
225.277	-16.19
225.511	4.81
225.746	13.81
225.98	10.81
226.215	12.81
226.449	25.81
226.683	31.81
226.918	19.81
227.152	31.81
227.387	31.81
227.621	51.81
227.856	47.81
228.09	45.81
228.324	50.81
228.559	49.81
228.793	64.81
229.027	44.81
229.262	55.81
229.496	69.81
229.73	79.81
229.964	95.81
230.199	68.81
230.433	68.81
230.667	88.81
230.901	81.81
231.136	73.81
231.37	79.81
231.604	76.81
231.838	90.81
232.072	71.81
232.306	88.81
232.541	80.81
232.775	73.81
233.009	96.81
233.243	83.81
233.477	79.81
233.711	92.81
233.945	93.81
234.179	95.81
234.413	88.81
234.647	83.81
234.881	81.81
235.115	80.81
235.349	88.81
235.583	77.81
235.817	88.81
236.051	64.81
236.285	85.81
236.519	75.81
236.753	71.81
236.987	66.81
237.221	89.81
237.455	83.81
237.689	76.81
237.922	76.81
238.156	81.81
238.39	71.81
238.624	89.81
238.858	84.81
239.091	72.81
239.325	72.81
239.559	92.81
239.793	76.81
240.027	83.81
240.26	77.81
240.494	81.81
240.728	74.81
240.961	86.81
241.195	92.81
241.429	71.81
241.662	69.81
241.896	81.81
242.13	91.81
242.363	69.81
242.597	74.81
242.83	71.81
243.064	67.81
243.298	66.81
243.531	69.81
243.765	84.81
243.998	91.81
244.232	88.81
244.465	69.81
244.699	79.81
244.932	81.81
245.166	79.81
245.399	81.81
245.633	75.81
245.866	77.81
246.099	66.81
246.333	95.81
246.566	80.81
246.8	80.81
247.033	72.81
247.266	88.81
247.5	61.81
247.733	74.81
247.966	84.81
248.2	73.81
248.433	85.81
248.666	68.81
248.899	83.81
249.133	91.81
249.366	93.81
249.599	96.81
249.832	76.81
250.066	75.81
250.299	85.81
250.532	85.81
250.765	90.81
250.998	80.81
251.231	74.81
251.465	83.81
251.698	77.81
251.931	83.81
252.164	91.81
252.397	75.81
252.63	94.81
252.863	79.81
253.096	71.81
253.329	75.81
253.562	101.81
253.795	103.81
254.028	85.81
254.261	86.81
254.494	87.81
254.727	101.81
254.96	99.81
255.193	83.81
255.426	100.81
255.659	69.81
255.892	78.81
256.124	77.81
256.357	99.81
256.59	94.81
256.823	77.81
257.056	90.81
257.289	85.81
257.521	75.81
257.754	102.81
257.987	82.81
258.22	95.81
258.452	79.81
258.685	91.81
258.918	85.81
259.151	82.81
259.383	84.81
259.616	73.81
259.849	77.81
260.081	79.81
260.314	83.81
260.547	77.81
260.779	98.81
261.012	83.81
261.244	79.81
261.477	90.81
261.71	95.81
261.942	112.81
262.175	112.81
262.407	99.81
262.64	92.81
262.872	73.81
263.105	92.81
263.337	101.81
263.57	76.81
263.802	98.81
264.035	95.81
264.267	81.81
264.499	91.81
264.732	99.81
264.964	74.81
265.197	75.81
265.429	79.81
265.661	79.81
265.894	93.81
266.126	90.81
266.358	84.81
266.591	100.81
266.823	85.81
267.055	74.81
267.287	89.81
267.52	90.81
267.752	90.81
267.984	90.81
268.216	88.81
268.448	80.81
268.681	86.81
268.913	92.81
269.145	84.81
269.377	75.81
269.609	87.81
269.841	88.81
270.073	81.81
270.306	69.81
270.538	72.81
270.77	84.81
271.002	73.81
271.234	90.81
271.466	71.81
271.698	82.81
271.93	89.81
272.162	104.81
272.394	92.81
272.626	90.81
272.858	93.81
273.09	86.81
273.322	91.81
273.553	81.81
273.785	87.81
274.017	83.81
274.249	97.81
274.481	74.81
274.713	83.81
274.945	95.81
275.176	76.81
275.408	90.81
275.64	85.81
275.872	96.81
276.104	88.81
276.335	92.81
276.567	92.81
276.799	104.81
277.031	103.81
277.262	83.81
277.494	85.81
277.726	79.81
277.957	91.81
278.189	88.81
278.421	69.81
278.652	82.81
278.884	99.81
279.115	73.81
279.347	86.81
279.579	87.81
279.81	84.81
280.042	89.81
280.273	87.81
280.505	98.81
280.736	96.81
280.968	84.81
281.199	82.81
281.431	95.81
281.662	95.81
281.894	97.81
282.125	101.81
282.356	124.81
282.588	152.81
282.819	105.81
283.051	96.81
283.282	76.81
283.513	78.81
283.745	87.81
283.976	81.81
284.207	83.81
284.439	101.81
284.67	82.81
284.901	79.81
285.132	91.81
285.364	91.81
285.595	85.81
285.826	92.81
286.057	89.81
286.288	91.81
286.52	94.81
286.751	81.81
286.982	92.81
287.213	96.81
287.444	91.81
287.675	101.81
287.906	92.81
288.138	98.81
288.369	102.81
288.6	90.81
288.831	94.81
289.062	84.81
289.293	83.81
289.524	96.81
289.755	87.81
289.986	85.81
290.217	82.81
290.448	88.81
290.679	82.81
290.91	97.81
291.141	99.81
291.371	85.81
291.602	79.81
291.833	84.81
292.064	92.81
292.295	90.81
292.526	87.81
292.757	90.81
292.987	90.81
293.218	88.81
293.449	93.81
293.68	95.81
293.91	87.81
294.141	92.81
294.372	87.81
294.603	88.81
294.833	94.81
295.064	103.81
295.295	79.81
295.525	95.81
295.756	95.81
295.987	128.81
296.217	124.81
296.448	118.81
296.679	101.81
296.909	91.81
297.14	79.81
297.37	79.81
297.601	82.81
297.831	96.81
298.062	97.81
298.292	96.81
298.523	92.81
298.753	99.81
298.984	84.81
299.214	87.81
299.445	93.81
299.675	80.81
299.905	108.81
300.136	85.81
300.366	93.81
300.597	90.81
300.827	103.81
301.057	103.81
301.288	111.81
301.518	98.81
301.748	88.81
301.979	98.81
302.209	84.81
302.439	78.81
302.669	89.81
302.9	96.81
303.13	111.81
303.36	89.81
303.59	91.81
303.82	92.81
304.051	91.81
304.281	79.81
304.511	95.81
304.741	101.81
304.971	92.81
305.201	100.81
305.431	79.81
305.661	91.81
305.891	91.81
306.121	91.81
306.352	94.81
306.582	100.81
306.812	99.81
307.042	88.81
307.272	92.81
307.502	98.81
307.731	105.81
307.961	97.81
308.191	81.81
308.421	97.81
308.651	96.81
308.881	95.81
309.111	101.81
309.341	112.81
309.571	107.81
309.8	97.81
310.03	101.81
310.26	87.81
310.49	95.81
310.72	83.81
310.949	99.81
311.179	106.81
311.409	104.81
311.639	92.81
311.868	83.81
312.098	99.81
312.328	86.81
312.557	99.81
312.787	103.81
313.017	103.81
313.246	92.81
313.476	98.81
313.706	81.81
313.935	85.81
314.165	109.81
314.394	104.81
314.624	92.81
314.853	103.81
315.083	91.81
315.312	88.81
315.542	91.81
315.771	103.81
316.001	99.81
316.23	98.81
316.46	98.81
316.689	91.81
316.919	104.81
317.148	100.81
317.377	97.81
317.607	93.81
317.836	92.81
318.065	94.81
318.295	96.81
318.524	93.81
318.753	98.81
318.983	87.81
319.212	119.81
319.441	102.81
319.67	121.81
319.9	104.81
320.129	89.81
320.358	88.81
320.587	96.81
320.816	106.81
321.046	124.81
321.275	102.81
321.504	125.81
321.733	104.81
321.962	101.81
322.191	87.81
322.42	106.81
322.649	116.81
322.878	104.81
323.108	123.81
323.337	115.81
323.566	137.81
323.795	158.81
324.024	192.81
324.253	419.81
324.482	861.81
324.71	1819.81
324.939	2354.81
325.168	868.81
325.397	242.81
325.626	141.81
325.855	139.81
326.084	135.81
326.313	142.81
326.542	164.81
326.77	245.81
326.999	499.81
327.228	1041.81
327.457	1836.81
327.686	1449.81
327.914	380.81
328.143	178.81
328.372	132.81
328.6	129.81
328.829	120.81
329.058	124.81
329.287	128.81
329.515	111.81
329.744	101.81
329.972	104.81
330.201	100.81
330.43	132.81
330.658	130.81
330.887	135.81
331.115	113.81
331.344	95.81
331.572	93.81
331.801	98.81
332.03	105.81
332.258	84.81
332.486	88.81
332.715	97.81
332.943	106.81
333.172	85.81
333.4	95.81
333.629	101.81
333.857	100.81
334.085	106.81
334.314	84.81
334.542	103.81
334.771	108.81
334.999	93.81
335.227	93.81
335.455	95.81
335.684	87.81
335.912	84.81
336.14	112.81
336.369	101.81
336.597	98.81
336.825	99.81
337.053	105.81
337.281	98.81
337.51	98.81
337.738	101.81
337.966	104.81
338.194	91.81
338.422	89.81
338.65	94.81
338.878	92.81
339.106	97.81
339.334	97.81
339.562	94.81
339.79	93.81
340.018	88.81
340.246	89.81
340.474	120.81
340.702	91.81
340.93	87.81
341.158	98.81
341.386	100.81
341.614	89.81
341.842	105.81
342.07	89.81
342.298	104.81
342.526	93.81
342.754	89.81
342.981	100.81
343.209	90.81
343.437	113.81
343.665	108.81
343.893	95.81
344.12	96.81
344.348	94.81
344.576	92.81
344.804	91.81
345.031	104.81
345.259	99.81
345.487	101.81
345.714	101.81
345.942	91.81
346.17	89.81
346.397	91.81
346.625	92.81
346.853	95.81
347.08	98.81
347.308	89.81
347.535	97.81
347.763	105.81
347.99	111.81
348.218	105.81
348.445	99.81
348.673	100.81
348.9	99.81
349.128	96.81
349.355	99.81
349.583	90.81
349.81	103.81
350.037	97.81
350.265	87.81
350.492	111.81
350.72	107.81
350.947	111.81
351.174	106.81
351.402	123.81
351.629	99.81
351.856	100.81
352.083	104.81
352.311	108.81
352.538	96.81
352.765	116.81
352.992	109.81
353.22	113.81
353.447	101.81
353.674	98.81
353.901	100.81
354.128	105.81
354.355	113.81
354.583	98.81
354.81	109.81
355.037	105.81
355.264	111.81
355.491	85.81
355.718	96.81
355.945	100.81
356.172	92.81
356.399	101.81
356.626	100.81
356.853	95.81
357.08	96.81
357.307	105.81
357.534	90.81
357.761	104.81
357.988	114.81
358.215	109.81
358.441	95.81
358.668	106.81
358.895	107.81
359.122	85.81
359.349	96.81
359.576	96.81
359.802	99.81
360.029	111.81
360.256	96.81
360.483	91.81
360.709	89.81
360.936	84.81
361.163	102.81
361.39	110.81
361.616	97.81
361.843	81.81
362.07	92.81
362.296	101.81
362.523	101.81
362.749	107.81
362.976	91.81
363.203	96.81
363.429	84.81
363.656	99.81
363.882	89.81
364.109	87.81
364.335	95.81
364.562	87.81
364.788	81.81
365.015	95.81
365.241	95.81
365.468	109.81
365.694	100.81
365.92	91.81
366.147	89.81
366.373	92.81
366.599	85.81
366.826	86.81
367.052	84.81
367.278	82.81
367.505	90.81
367.731	95.81
367.957	88.81
368.184	108.81
368.41	107.81
368.636	105.81
368.862	105.81
369.089	112.81
369.315	87.81
369.541	95.81
369.767	100.81
369.993	99.81
370.219	89.81
370.445	79.81
370.672	99.81
370.898	94.81
371.124	86.81
371.35	80.81
371.576	92.81
371.802	97.81
372.028	110.81
372.254	89.81
372.48	96.81
372.706	91.81
372.932	96.81
373.158	95.81
373.384	100.81
373.61	95.81
373.835	92.81
374.061	93.81
374.287	96.81
374.513	102.81
374.739	100.81
374.965	90.81
375.191	86.81
375.416	98.81
375.642	88.81
375.868	107.81
376.094	93.81
376.319	110.81
376.545	101.81
376.771	106.81
376.997	82.81
377.222	103.81
377.448	99.81
377.674	97.81
377.899	98.81
378.125	90.81
378.35	88.81
378.576	95.81
378.802	90.81
379.027	91.81
379.253	97.81
379.478	101.81
379.704	93.81
379.929	89.81
380.155	101.81
380.38	99.81
380.606	104.81
380.831	96.81
381.057	88.81
381.282	100.81
381.507	77.81
381.733	92.81
381.958	114.81
382.184	99.81
382.409	112.81
382.634	120.81
382.86	106.81
383.085	99.81
383.31	109.81
383.535	108.81
383.761	87.81
383.986	107.81
384.211	95.81
384.436	100.81
384.662	106.81
384.887	100.81
385.112	103.81
385.337	109.81
385.562	104.81
385.787	121.81
386.013	125.81
386.238	112.81
386.463	105.81
386.688	113.81
386.913	100.81
387.138	96.81
387.363	105.81
387.588	107.81
387.813	110.81
388.038	97.81
388.263	119.81
388.488	110.81
388.713	103.81
388.938	101.81
389.163	97.81
389.387	97.81
389.612	109.81
389.837	106.81
390.062	105.81
390.287	101.81
390.512	114.81
390.736	105.81
390.961	116.81
391.186	103.81
391.411	100.81
391.636	88.81
391.86	99.81
392.085	91.81
392.31	104.81
392.534	93.81
392.759	103.81
392.984	95.81
393.208	95.81
393.433	103.81
393.658	101.81
393.882	95.81
394.107	94.81
394.331	88.81
394.556	86.81
394.78	86.81
395.005	81.81
395.229	92.81
395.454	93.81
395.678	95.81
395.903	88.81
396.127	80.81
396.352	92.81
396.576	87.81
396.801	86.81
397.025	94.81
397.249	98.81
397.474	89.81
397.698	96.81
397.922	88.81
398.147	95.81
398.371	95.81
398.595	83.81
398.82	90.81
399.044	88.81
399.268	87.81
399.492	88.81
399.717	87.81
399.941	87.81
400.165	92.81
400.389	103.81
400.613	109.81
400.837	89.81
401.062	106.81
401.286	83.81
401.51	89.81
401.734	96.81
401.958	107.81
402.182	109.81
402.406	141.81
402.63	109.81
402.854	101.81
403.078	85.81
403.302	89.81
403.526	94.81
403.75	87.81
403.974	95.81
404.198	95.81
404.422	99.81
404.645	77.81
404.869	94.81
405.093	97.81
405.317	100.81
405.541	90.81
405.765	106.81
405.988	108.81
406.212	162.81
406.436	205.81
406.66	123.81
406.883	91.81
407.107	96.81
407.331	105.81
407.555	98.81
407.778	103.81
408.002	95.81
408.226	99.81
408.449	94.81
408.673	78.81
408.896	90.81
409.12	87.81
409.344	91.81
409.567	117.81
409.791	90.81
410.014	123.81
410.238	101.81
410.461	104.81
410.685	97.81
410.908	97.81
411.132	102.81
411.355	112.81
411.578	102.81
411.802	78.81
412.025	81.81
412.249	78.81
412.472	92.81
412.695	106.81
412.919	93.81
413.142	86.81
413.365	89.81
413.589	100.81
413.812	89.81
414.035	98.81
414.258	94.81
414.482	88.81
414.705	89.81
414.928	105.81
415.151	95.81
415.374	92.81
415.597	100.81
415.821	82.81
416.044	83.81
416.267	111.81
416.49	89.81
416.713	90.81
416.936	89.81
417.159	87.81
417.382	90.81
417.605	104.81
417.828	77.81
418.051	89.81
418.274	105.81
418.497	85.81
418.72	96.81
418.943	91.81
419.166	81.81
419.389	85.81
419.611	100.81
419.834	99.81
420.057	102.81
420.28	89.81
420.503	107.81
420.726	91.81
420.948	82.81
421.171	94.81
421.394	111.81
421.617	112.81
421.839	101.81
422.062	104.81
422.285	90.81
422.507	102.81
422.73	92.81
422.953	107.81
423.175	87.81
423.398	89.81
423.621	92.81
423.843	85.81
424.066	79.81
424.288	97.81
424.511	86.81
424.733	96.81
424.956	111.81
425.178	102.81
425.401	93.81
425.623	94.81
425.846	88.81
426.068	85.81
426.291	91.81
426.513	103.81
426.735	80.81
426.958	101.81
427.18	123.81
427.402	147.81
427.625	154.81
427.847	119.81
428.069	117.81
428.292	101.81
428.514	101.81
428.736	90.81
428.958	81.81
429.181	105.81
429.403	80.81
429.625	92.81
429.847	90.81
430.069	110.81
430.292	91.81
430.514	95.81
430.736	91.81
430.958	75.81
431.18	102.81
431.402	99.81
431.624	93.81
431.846	95.81
432.068	76.81
432.29	83.81
432.512	86.81
432.734	108.81
432.956	93.81
433.178	100.81
433.4	98.81
433.622	91.81
433.844	98.81
434.066	93.81
434.287	101.81
434.509	90.81
434.731	93.81
434.953	89.81
435.175	96.81
435.397	104.81
435.618	95.81
435.84	107.81
436.062	106.81
436.284	125.81
436.505	94.81
436.727	104.81
436.949	95.81
437.17	101.81
437.392	92.81
437.614	102.81
437.835	95.81
438.057	101.81
438.278	107.81
438.5	98.81
438.721	124.81
438.943	97.81
439.165	90.81
439.386	92.81
439.608	99.81
439.829	104.81
440.05	105.81
440.272	131.81
440.493	104.81
440.715	93.81
440.936	93.81
441.158	98.81
441.379	93.81
441.6	97.81
441.822	97.81
442.043	99.81
442.264	112.81
442.486	93.81
442.707	93.81
442.928	104.81
443.149	124.81
443.371	106.81
443.592	112.81
443.813	99.81
444.034	98.81
444.255	93.81
444.476	86.81
444.698	98.81
444.919	92.81
445.14	121.81
445.361	115.81
445.582	104.81
445.803	134.81
446.024	111.81
446.245	127.81
446.466	105.81
446.687	94.81
446.908	101.81
447.129	105.81
447.35	87.81
447.571	96.81
447.792	96.81
448.013	104.81
448.234	105.81
448.455	108.81
448.675	127.81
448.896	109.81
449.117	106.81
449.338	112.81
449.559	140.81
449.779	135.81
450	100.81
450.221	95.81
450.442	106.81
450.662	93.81
450.883	93.81
451.104	103.81
451.324	101.81
451.545	105.81
451.766	79.81
451.986	82.81
452.207	103.81
452.428	84.81
452.648	103.81
452.869	109.81
453.089	100.81
453.31	107.81
453.53	90.81
453.751	105.81
453.971	104.81
454.192	94.81
454.412	97.81
454.633	101.81
454.853	95.81
455.073	100.81
455.294	94.81
455.514	105.81
455.734	98.81
455.955	95.81
456.175	68.81
456.395	89.81
456.616	92.81
456.836	94.81
457.056	82.81
457.276	86.81
457.497	84.81
457.717	87.81
457.937	98.81
458.157	97.81
458.377	93.81
458.598	119.81
458.818	142.81
459.038	130.81
459.258	109.81
459.478	73.81
459.698	83.81
459.918	76.81
460.138	89.81
460.358	99.81
460.578	99.81
460.798	68.81
461.018	94.81
461.238	77.81
461.458	91.81
461.678	83.81
461.898	99.81
462.118	83.81
462.338	98.81
462.558	92.81
462.777	99.81
462.997	75.81
463.217	76.81
463.437	91.81
463.657	95.81
463.876	92.81
464.096	98.81
464.316	100.81
464.536	106.81
464.755	103.81
464.975	109.81
465.195	154.81
465.414	150.81
465.634	91.81
465.854	87.81
466.073	89.81
466.293	79.81
466.512	94.81
466.732	79.81
466.951	73.81
467.171	100.81
467.391	100.81
467.61	106.81
467.829	105.81
468.049	97.81
468.268	86.81
468.488	94.81
468.707	98.81
468.927	100.81
469.146	89.81
469.365	92.81
469.585	69.81
469.804	79.81
470.023	99.81
470.243	87.81
470.462	92.81
470.681	110.81
470.901	90.81
471.12	82.81
471.339	85.81
471.558	85.81
471.777	94.81
471.997	85.81
472.216	113.81
472.435	92.81
472.654	99.81
472.873	100.81
473.092	92.81
473.311	98.81
473.53	85.81
473.749	103.81
473.968	88.81
474.187	95.81
474.406	107.81
474.625	87.81
474.844	85.81
475.063	84.81
475.282	96.81
475.501	83.81
475.72	92.81
475.939	74.81
476.158	92.81
476.377	97.81
476.596	77.81
476.814	95.81
477.033	99.81
477.252	83.81
477.471	83.81
477.69	89.81
477.908	93.81
478.127	92.81
478.346	93.81
478.564	77.81
478.783	99.81
479.002	100.81
479.22	97.81
479.439	110.81
479.658	103.81
479.876	78.81
480.095	93.81
480.313	98.81
480.532	106.81
480.751	90.81
480.969	91.81
481.188	121.81
481.406	113.81
481.624	104.81
481.843	87.81
482.061	95.81
482.28	78.81
482.498	95.81
482.717	93.81
482.935	98.81
483.153	105.81
483.372	80.81
483.59	89.81
483.808	91.81
484.027	93.81
484.245	100.81
484.463	96.81
484.681	85.81
484.9	100.81
485.118	103.81
485.336	101.81
485.554	108.81
485.772	84.81
485.99	108.81
486.209	116.81
486.427	100.81
486.645	114.81
486.863	111.81
487.081	105.81
487.299	105.81
487.517	93.81
487.735	81.81
487.953	104.81
488.171	95.81
488.389	113.81
488.607	95.81
488.825	86.81
489.043	93.81
489.261	89.81
489.479	91.81
489.696	96.81
489.914	100.81
490.132	85.81
490.35	91.81
490.568	87.81
490.786	105.81
491.003	86.81
491.221	98.81
491.439	98.81
491.657	92.81
491.874	87.81
492.092	84.81
492.31	88.81
492.527	93.81
492.745	106.81
492.963	99.81
493.18	92.81
493.398	86.81
493.615	104.81
493.833	100.81
494.05	91.81
494.268	105.81
494.485	88.81
494.703	95.81
494.92	96.81
495.138	96.81
495.355	94.81
495.573	82.81
495.79	82.81
496.008	85.81
496.225	106.81
496.442	99.81
496.66	111.81
496.877	89.81
497.094	90.81
497.312	86.81
497.529	92.81
497.746	87.81
497.963	94.81
498.181	92.81
498.398	95.81
498.615	100.81
498.832	113.81
499.049	91.81
499.267	98.81
499.484	95.81
499.701	97.81
499.918	95.81
500.135	94.81
500.352	84.81
500.569	90.81
500.786	100.81
501.003	96.81
501.22	95.81
501.437	80.81
501.654	96.81
501.871	116.81
502.088	104.81
502.305	91.81
502.522	92.81
502.739	80.81
502.956	86.81
503.172	83.81
503.389	98.81
503.606	93.81
503.823	92.81
504.04	95.81
504.256	97.81
504.473	90.81
504.69	91.81
504.907	104.81
505.123	94.81
505.34	97.81
505.557	91.81
505.773	87.81
505.99	80.81
506.207	89.81
506.423	80.81
506.64	85.81
506.856	85.81
507.073	82.81
507.289	85.81
507.506	95.81
507.722	107.81
507.939	109.81
508.155	91.81
508.372	87.81
508.588	84.81
508.805	83.81
509.021	85.81
509.238	106.81
509.454	99.81
509.67	108.81
509.887	117.81
510.103	121.81
510.319	215.81
510.536	744.81
510.752	2247.81
510.968	632.81
511.184	153.81
511.401	125.81
511.617	105.81
511.833	104.81
512.049	82.81
512.265	93.81
512.481	93.81
512.698	92.81
512.914	89.81
513.13	93.81
513.346	116.81
513.562	103.81
513.778	84.81
513.994	94.81
514.21	92.81
514.426	111.81
