Data from Uncirc_1999_H10_HRD10591_00022.txt Node
Date: Wed Jan 03 11:22:09 EST 2024
User: Yrep
Spectrometer: HR+D1059
Trigger mode: 1
Integration Time (sec): 1.000000E-1
Scans to average: 1
Electric dark correction enabled: true
Nonlinearity correction enabled: false
Boxcar width: 0
XAxis mode: Wavelengths
Number of Pixels in Spectrum: 2048
>>>>>Begin Spectral Data<<<<<
223.165	-33.12
223.4	-33.12
223.635	-33.12
223.869	-25.12
224.104	-21.12
224.338	-17.12
224.573	-20.12
224.808	-7.12
225.042	-12.12
225.277	-7.12
225.511	3.88
225.746	5.88
225.98	15.88
226.215	23.88
226.449	13.88
226.683	29.88
226.918	13.88
227.152	35.88
227.387	12.88
227.621	38.88
227.856	34.88
228.09	52.88
228.324	53.88
228.559	49.88
228.793	55.88
229.027	78.88
229.262	73.88
229.496	75.88
229.73	94.88
229.964	90.88
230.199	67.88
230.433	81.88
230.667	81.88
230.901	72.88
231.136	87.88
231.37	93.88
231.604	64.88
231.838	82.88
232.072	79.88
232.306	96.88
232.541	81.88
232.775	89.88
233.009	90.88
233.243	91.88
233.477	81.88
233.711	96.88
233.945	83.88
234.179	87.88
234.413	93.88
234.647	83.88
234.881	81.88
235.115	94.88
235.349	89.88
235.583	71.88
235.817	75.88
236.051	79.88
236.285	87.88
236.519	68.88
236.753	87.88
236.987	93.88
237.221	82.88
237.455	71.88
237.689	69.88
237.922	74.88
238.156	91.88
238.39	85.88
238.624	70.88
238.858	79.88
239.091	68.88
239.325	72.88
239.559	84.88
239.793	74.88
240.027	80.88
240.26	80.88
240.494	83.88
240.728	92.88
240.961	79.88
241.195	81.88
241.429	88.88
241.662	78.88
241.896	90.88
242.13	81.88
242.363	77.88
242.597	79.88
242.83	79.88
243.064	84.88
243.298	85.88
243.531	86.88
243.765	73.88
243.998	95.88
244.232	82.88
244.465	82.88
244.699	81.88
244.932	88.88
245.166	86.88
245.399	77.88
245.633	62.88
245.866	75.88
246.099	67.88
246.333	85.88
246.566	84.88
246.8	83.88
247.033	85.88
247.266	90.88
247.5	92.88
247.733	79.88
247.966	79.88
248.2	74.88
248.433	72.88
248.666	82.88
248.899	83.88
249.133	90.88
249.366	98.88
249.599	104.88
249.832	88.88
250.066	93.88
250.299	65.88
250.532	86.88
250.765	76.88
250.998	78.88
251.231	86.88
251.465	68.88
251.698	79.88
251.931	79.88
252.164	92.88
252.397	80.88
252.63	83.88
252.863	81.88
253.096	76.88
253.329	80.88
253.562	82.88
253.795	69.88
254.028	89.88
254.261	81.88
254.494	71.88
254.727	88.88
254.96	85.88
255.193	78.88
255.426	94.88
255.659	80.88
255.892	95.88
256.124	95.88
256.357	74.88
256.59	69.88
256.823	83.88
257.056	73.88
257.289	84.88
257.521	86.88
257.754	89.88
257.987	79.88
258.22	82.88
258.452	75.88
258.685	72.88
258.918	86.88
259.151	90.88
259.383	98.88
259.616	74.88
259.849	81.88
260.081	85.88
260.314	83.88
260.547	90.88
260.779	87.88
261.012	78.88
261.244	88.88
261.477	94.88
261.71	94.88
261.942	111.88
262.175	101.88
262.407	93.88
262.64	79.88
262.872	96.88
263.105	76.88
263.337	83.88
263.57	83.88
263.802	94.88
264.035	71.88
264.267	68.88
264.499	92.88
264.732	93.88
264.964	94.88
265.197	77.88
265.429	92.88
265.661	91.88
265.894	86.88
266.126	83.88
266.358	89.88
266.591	83.88
266.823	76.88
267.055	74.88
267.287	74.88
267.52	88.88
267.752	92.88
267.984	89.88
268.216	79.88
268.448	84.88
268.681	90.88
268.913	78.88
269.145	88.88
269.377	88.88
269.609	81.88
269.841	83.88
270.073	80.88
270.306	90.88
270.538	79.88
270.77	87.88
271.002	87.88
271.234	81.88
271.466	69.88
271.698	86.88
271.93	80.88
272.162	90.88
272.394	91.88
272.626	82.88
272.858	90.88
273.09	93.88
273.322	94.88
273.553	91.88
273.785	65.88
274.017	97.88
274.249	61.88
274.481	90.88
274.713	85.88
274.945	79.88
275.176	80.88
275.408	94.88
275.64	89.88
275.872	81.88
276.104	96.88
276.335	80.88
276.567	104.88
276.799	104.88
277.031	98.88
277.262	91.88
277.494	94.88
277.726	99.88
277.957	91.88
278.189	88.88
278.421	93.88
278.652	97.88
278.884	85.88
279.115	82.88
279.347	85.88
279.579	95.88
279.81	89.88
280.042	97.88
280.273	78.88
280.505	90.88
280.736	71.88
280.968	99.88
281.199	87.88
281.431	82.88
281.662	90.88
281.894	95.88
282.125	104.88
282.356	119.88
282.588	130.88
282.819	108.88
283.051	85.88
283.282	95.88
283.513	88.88
283.745	88.88
283.976	88.88
284.207	93.88
284.439	76.88
284.67	82.88
284.901	94.88
285.132	90.88
285.364	80.88
285.595	93.88
285.826	93.88
286.057	98.88
286.288	94.88
286.52	97.88
286.751	86.88
286.982	96.88
287.213	105.88
287.444	91.88
287.675	101.88
287.906	94.88
288.138	85.88
288.369	89.88
288.6	94.88
288.831	82.88
289.062	94.88
289.293	81.88
289.524	85.88
289.755	82.88
289.986	93.88
290.217	87.88
290.448	84.88
290.679	94.88
290.91	96.88
291.141	89.88
291.371	75.88
291.602	85.88
291.833	91.88
292.064	96.88
292.295	88.88
292.526	79.88
292.757	93.88
292.987	90.88
293.218	99.88
293.449	89.88
293.68	88.88
293.91	92.88
294.141	89.88
294.372	95.88
294.603	86.88
294.833	87.88
295.064	91.88
295.295	90.88
295.525	94.88
295.756	99.88
295.987	100.88
296.217	138.88
296.448	125.88
296.679	80.88
296.909	91.88
297.14	85.88
297.37	96.88
297.601	79.88
297.831	89.88
298.062	80.88
298.292	87.88
298.523	87.88
298.753	77.88
298.984	84.88
299.214	91.88
299.445	87.88
299.675	90.88
299.905	98.88
300.136	105.88
300.366	88.88
300.597	105.88
300.827	104.88
301.057	99.88
301.288	104.88
301.518	91.88
301.748	110.88
301.979	113.88
302.209	91.88
302.439	79.88
302.669	87.88
302.9	87.88
303.13	95.88
303.36	98.88
303.59	95.88
303.82	95.88
304.051	92.88
304.281	100.88
304.511	100.88
304.741	93.88
304.971	87.88
305.201	87.88
305.431	79.88
305.661	98.88
305.891	104.88
306.121	104.88
306.352	99.88
306.582	107.88
306.812	92.88
307.042	97.88
307.272	92.88
307.502	96.88
307.731	95.88
307.961	105.88
308.191	82.88
308.421	105.88
308.651	96.88
308.881	94.88
309.111	92.88
309.341	92.88
309.571	85.88
309.8	112.88
310.03	91.88
310.26	93.88
310.49	99.88
310.72	98.88
310.949	102.88
311.179	95.88
311.409	96.88
311.639	97.88
311.868	88.88
312.098	86.88
312.328	108.88
312.557	111.88
312.787	90.88
313.017	100.88
313.246	86.88
313.476	95.88
313.706	87.88
313.935	83.88
314.165	111.88
314.394	106.88
314.624	106.88
314.853	82.88
315.083	92.88
315.312	98.88
315.542	116.88
315.771	97.88
316.001	88.88
316.23	81.88
316.46	88.88
316.689	102.88
316.919	90.88
317.148	96.88
317.377	99.88
317.607	86.88
317.836	89.88
318.065	92.88
318.295	85.88
318.524	78.88
318.753	93.88
318.983	102.88
319.212	90.88
319.441	90.88
319.67	95.88
319.9	81.88
320.129	100.88
320.358	89.88
320.587	88.88
320.816	106.88
321.046	104.88
321.275	107.88
321.504	104.88
321.733	101.88
321.962	80.88
322.191	93.88
322.42	95.88
322.649	103.88
322.878	125.88
323.108	125.88
323.337	119.88
323.566	129.88
323.795	147.88
324.024	229.88
324.253	417.88
324.482	905.88
324.71	1890.88
324.939	2507.88
325.168	937.88
325.397	270.88
325.626	157.88
325.855	141.88
326.084	127.88
326.313	151.88
326.542	154.88
326.77	246.88
326.999	493.88
327.228	1051.88
327.457	1941.88
327.686	1508.88
327.914	393.88
328.143	199.88
328.372	149.88
328.6	124.88
328.829	93.88
329.058	124.88
329.287	109.88
329.515	100.88
329.744	101.88
329.972	103.88
330.201	102.88
330.43	109.88
330.658	127.88
330.887	123.88
331.115	114.88
331.344	108.88
331.572	96.88
331.801	99.88
332.03	110.88
332.258	107.88
332.486	74.88
332.715	83.88
332.943	93.88
333.172	98.88
333.4	99.88
333.629	98.88
333.857	120.88
334.085	105.88
334.314	98.88
334.542	101.88
334.771	98.88
334.999	89.88
335.227	101.88
335.455	95.88
335.684	110.88
335.912	95.88
336.14	99.88
336.369	105.88
336.597	86.88
336.825	95.88
337.053	98.88
337.281	88.88
337.51	89.88
337.738	87.88
337.966	89.88
338.194	94.88
338.422	87.88
338.65	96.88
338.878	88.88
339.106	81.88
339.334	106.88
339.562	90.88
339.79	90.88
340.018	89.88
340.246	92.88
340.474	97.88
340.702	109.88
340.93	84.88
341.158	94.88
341.386	89.88
341.614	102.88
341.842	97.88
342.07	93.88
342.298	86.88
342.526	98.88
342.754	69.88
342.981	89.88
343.209	87.88
343.437	84.88
343.665	95.88
343.893	90.88
344.12	106.88
344.348	92.88
344.576	91.88
344.804	90.88
345.031	91.88
345.259	103.88
345.487	106.88
345.714	101.88
345.942	91.88
346.17	87.88
346.397	93.88
346.625	103.88
346.853	103.88
347.08	88.88
347.308	99.88
347.535	108.88
347.763	94.88
347.99	104.88
348.218	96.88
348.445	97.88
348.673	93.88
348.9	91.88
349.128	107.88
349.355	105.88
349.583	93.88
349.81	85.88
350.037	118.88
350.265	95.88
350.492	100.88
350.72	90.88
350.947	107.88
351.174	103.88
351.402	107.88
351.629	113.88
351.856	97.88
352.083	103.88
352.311	94.88
352.538	95.88
352.765	104.88
352.992	105.88
353.22	103.88
353.447	104.88
353.674	99.88
353.901	105.88
354.128	101.88
354.355	96.88
354.583	89.88
354.81	90.88
355.037	107.88
355.264	89.88
355.491	83.88
355.718	95.88
355.945	122.88
356.172	94.88
356.399	95.88
356.626	89.88
356.853	95.88
357.08	102.88
357.307	94.88
357.534	85.88
357.761	92.88
357.988	96.88
358.215	97.88
358.441	94.88
358.668	102.88
358.895	93.88
359.122	89.88
359.349	100.88
359.576	77.88
359.802	96.88
360.029	89.88
360.256	98.88
360.483	113.88
360.709	88.88
360.936	90.88
361.163	99.88
361.39	82.88
361.616	97.88
361.843	91.88
362.07	76.88
362.296	96.88
362.523	95.88
362.749	102.88
362.976	90.88
363.203	91.88
363.429	94.88
363.656	98.88
363.882	92.88
364.109	99.88
364.335	102.88
364.562	89.88
364.788	88.88
365.015	85.88
365.241	86.88
365.468	109.88
365.694	101.88
365.92	84.88
366.147	84.88
366.373	82.88
366.599	94.88
366.826	71.88
367.052	86.88
367.278	98.88
367.505	98.88
367.731	90.88
367.957	86.88
368.184	91.88
368.41	80.88
368.636	109.88
368.862	122.88
369.089	115.88
369.315	94.88
369.541	91.88
369.767	94.88
369.993	86.88
370.219	87.88
370.445	95.88
370.672	89.88
370.898	83.88
371.124	98.88
371.35	87.88
371.576	94.88
371.802	83.88
372.028	74.88
372.254	88.88
372.48	99.88
372.706	110.88
372.932	92.88
373.158	87.88
373.384	97.88
373.61	105.88
373.835	92.88
374.061	92.88
374.287	97.88
374.513	97.88
374.739	87.88
374.965	92.88
375.191	105.88
375.416	90.88
375.642	93.88
375.868	98.88
376.094	86.88
376.319	85.88
376.545	92.88
376.771	89.88
376.997	89.88
377.222	86.88
377.448	105.88
377.674	96.88
377.899	95.88
378.125	94.88
378.35	92.88
378.576	99.88
378.802	88.88
379.027	90.88
379.253	106.88
379.478	99.88
379.704	100.88
379.929	106.88
380.155	69.88
380.38	101.88
380.606	99.88
380.831	94.88
381.057	97.88
381.282	95.88
381.507	97.88
381.733	108.88
381.958	104.88
382.184	102.88
382.409	110.88
382.634	114.88
382.86	115.88
383.085	95.88
383.31	115.88
383.535	112.88
383.761	115.88
383.986	105.88
384.211	92.88
384.436	109.88
384.662	107.88
384.887	124.88
385.112	110.88
385.337	112.88
385.562	133.88
385.787	125.88
386.013	135.88
386.238	124.88
386.463	129.88
386.688	119.88
386.913	113.88
387.138	113.88
387.363	111.88
387.588	110.88
387.813	104.88
388.038	131.88
388.263	128.88
388.488	127.88
388.713	93.88
388.938	104.88
389.163	98.88
389.387	92.88
389.612	99.88
389.837	81.88
390.062	95.88
390.287	99.88
390.512	103.88
390.736	105.88
390.961	93.88
391.186	91.88
391.411	93.88
391.636	89.88
391.86	91.88
392.085	90.88
392.31	91.88
392.534	77.88
392.759	87.88
392.984	102.88
393.208	80.88
393.433	106.88
393.658	83.88
393.882	75.88
394.107	71.88
394.331	87.88
394.556	94.88
394.78	89.88
395.005	91.88
395.229	76.88
395.454	78.88
395.678	93.88
395.903	101.88
396.127	78.88
396.352	99.88
396.576	87.88
396.801	80.88
397.025	89.88
397.249	85.88
397.474	101.88
397.698	97.88
397.922	91.88
398.147	94.88
398.371	95.88
398.595	69.88
398.82	98.88
399.044	89.88
399.268	92.88
399.492	85.88
399.717	102.88
399.941	84.88
400.165	90.88
400.389	88.88
400.613	92.88
400.837	79.88
401.062	103.88
401.286	83.88
401.51	89.88
401.734	93.88
401.958	100.88
402.182	134.88
402.406	154.88
402.63	114.88
402.854	95.88
403.078	94.88
403.302	86.88
403.526	74.88
403.75	81.88
403.974	88.88
404.198	96.88
404.422	95.88
404.645	97.88
404.869	93.88
405.093	98.88
405.317	104.88
405.541	98.88
405.765	101.88
405.988	121.88
406.212	150.88
406.436	186.88
406.66	138.88
406.883	99.88
407.107	93.88
407.331	94.88
407.555	105.88
407.778	98.88
408.002	97.88
408.226	69.88
408.449	94.88
408.673	97.88
408.896	101.88
409.12	97.88
409.344	106.88
409.567	101.88
409.791	84.88
410.014	97.88
410.238	99.88
410.461	104.88
410.685	93.88
410.908	102.88
411.132	97.88
411.355	105.88
411.578	81.88
411.802	90.88
412.025	105.88
412.249	89.88
412.472	99.88
412.695	95.88
412.919	96.88
413.142	89.88
413.365	95.88
413.589	84.88
413.812	82.88
414.035	96.88
414.258	85.88
414.482	102.88
414.705	85.88
414.928	88.88
415.151	99.88
415.374	105.88
415.597	95.88
415.821	87.88
416.044	90.88
416.267	92.88
416.49	87.88
416.713	88.88
416.936	89.88
417.159	90.88
417.382	97.88
417.605	94.88
417.828	85.88
418.051	91.88
418.274	87.88
418.497	88.88
418.72	90.88
418.943	78.88
419.166	90.88
419.389	77.88
419.611	84.88
419.834	95.88
420.057	110.88
420.28	96.88
420.503	91.88
420.726	106.88
420.948	95.88
421.171	86.88
421.394	95.88
421.617	86.88
421.839	79.88
422.062	97.88
422.285	102.88
422.507	104.88
422.73	99.88
422.953	111.88
423.175	83.88
423.398	87.88
423.621	99.88
423.843	90.88
424.066	89.88
424.288	87.88
424.511	93.88
424.733	93.88
424.956	110.88
425.178	77.88
425.401	102.88
425.623	98.88
425.846	87.88
426.068	102.88
426.291	90.88
426.513	90.88
426.735	100.88
426.958	97.88
427.18	111.88
427.402	131.88
427.625	144.88
427.847	130.88
428.069	120.88
428.292	84.88
428.514	91.88
428.736	80.88
428.958	83.88
429.181	84.88
429.403	81.88
429.625	99.88
429.847	99.88
430.069	90.88
430.292	101.88
430.514	100.88
430.736	90.88
430.958	80.88
431.18	78.88
431.402	75.88
431.624	88.88
431.846	107.88
432.068	94.88
432.29	93.88
432.512	86.88
432.734	88.88
432.956	91.88
433.178	96.88
433.4	99.88
433.622	95.88
433.844	101.88
434.066	94.88
434.287	91.88
434.509	88.88
434.731	90.88
434.953	91.88
435.175	88.88
435.397	86.88
435.618	98.88
435.84	114.88
436.062	105.88
436.284	101.88
436.505	110.88
436.727	100.88
436.949	98.88
437.17	85.88
437.392	82.88
437.614	97.88
437.835	99.88
438.057	108.88
438.278	102.88
438.5	104.88
438.721	114.88
438.943	103.88
439.165	106.88
439.386	87.88
439.608	93.88
439.829	98.88
440.05	112.88
440.272	143.88
440.493	96.88
440.715	92.88
440.936	86.88
441.158	88.88
441.379	80.88
441.6	89.88
441.822	90.88
442.043	99.88
442.264	104.88
442.486	88.88
442.707	89.88
442.928	106.88
443.149	121.88
443.371	134.88
443.592	112.88
443.813	122.88
444.034	110.88
444.255	80.88
444.476	99.88
444.698	91.88
444.919	91.88
445.14	128.88
445.361	120.88
445.582	128.88
445.803	148.88
446.024	149.88
446.245	145.88
446.466	114.88
446.687	82.88
446.908	86.88
447.129	100.88
447.35	90.88
447.571	89.88
447.792	82.88
448.013	93.88
448.234	100.88
448.455	101.88
448.675	107.88
448.896	118.88
449.117	103.88
449.338	94.88
449.559	141.88
449.779	141.88
450	116.88
450.221	96.88
450.442	93.88
450.662	93.88
450.883	100.88
451.104	99.88
451.324	92.88
451.545	85.88
451.766	80.88
451.986	79.88
452.207	86.88
452.428	80.88
452.648	91.88
452.869	105.88
453.089	105.88
453.31	107.88
453.53	80.88
453.751	84.88
453.971	95.88
454.192	105.88
454.412	96.88
454.633	82.88
454.853	94.88
455.073	84.88
455.294	85.88
455.514	103.88
455.734	92.88
455.955	101.88
456.175	94.88
456.395	86.88
456.616	85.88
456.836	89.88
457.056	84.88
457.276	96.88
457.497	77.88
457.717	72.88
457.937	83.88
458.157	90.88
458.377	91.88
458.598	110.88
458.818	151.88
459.038	148.88
459.258	105.88
459.478	99.88
459.698	93.88
459.918	75.88
460.138	85.88
460.358	83.88
460.578	96.88
460.798	91.88
461.018	81.88
461.238	89.88
461.458	81.88
461.678	81.88
461.898	70.88
462.118	82.88
462.338	93.88
462.558	84.88
462.777	73.88
462.997	85.88
463.217	89.88
463.437	88.88
463.657	80.88
463.876	79.88
464.096	74.88
464.316	86.88
464.536	96.88
464.755	97.88
464.975	115.88
465.195	151.88
465.414	137.88
465.634	89.88
465.854	94.88
466.073	99.88
466.293	94.88
466.512	86.88
466.732	91.88
466.951	96.88
467.171	101.88
467.391	90.88
467.61	106.88
467.829	108.88
468.049	108.88
468.268	84.88
468.488	86.88
468.707	86.88
468.927	94.88
469.146	74.88
469.365	85.88
469.585	95.88
469.804	80.88
470.023	97.88
470.243	96.88
470.462	91.88
470.681	113.88
470.901	86.88
471.12	88.88
471.339	84.88
471.558	79.88
471.777	90.88
471.997	92.88
472.216	96.88
472.435	118.88
472.654	92.88
472.873	91.88
473.092	83.88
473.311	90.88
473.53	91.88
473.749	85.88
473.968	86.88
474.187	99.88
474.406	101.88
474.625	80.88
474.844	88.88
475.063	99.88
475.282	83.88
475.501	84.88
475.72	82.88
475.939	88.88
476.158	94.88
476.377	94.88
476.596	95.88
476.814	74.88
477.033	91.88
477.252	81.88
477.471	92.88
477.69	92.88
477.908	93.88
478.127	96.88
478.346	93.88
478.564	95.88
478.783	94.88
479.002	88.88
479.22	85.88
479.439	106.88
479.658	109.88
479.876	104.88
480.095	102.88
480.313	85.88
480.532	91.88
480.751	85.88
480.969	103.88
481.188	124.88
481.406	105.88
481.624	87.88
481.843	98.88
482.061	95.88
482.28	111.88
482.498	91.88
482.717	79.88
482.935	87.88
483.153	87.88
483.372	91.88
483.59	86.88
483.808	87.88
484.027	105.88
484.245	92.88
484.463	96.88
484.681	85.88
484.9	89.88
485.118	107.88
485.336	90.88
485.554	106.88
485.772	106.88
485.99	110.88
486.209	105.88
486.427	106.88
486.645	119.88
486.863	115.88
487.081	87.88
487.299	98.88
487.517	105.88
487.735	95.88
487.953	108.88
488.171	83.88
488.389	107.88
488.607	94.88
488.825	91.88
489.043	87.88
489.261	94.88
489.479	81.88
489.696	94.88
489.914	92.88
490.132	89.88
490.35	79.88
490.568	99.88
490.786	80.88
491.003	98.88
491.221	97.88
491.439	98.88
491.657	88.88
491.874	83.88
492.092	93.88
492.31	73.88
492.527	90.88
492.745	101.88
492.963	94.88
493.18	99.88
493.398	95.88
493.615	93.88
493.833	109.88
494.05	82.88
494.268	97.88
494.485	95.88
494.703	73.88
494.92	90.88
495.138	95.88
495.355	97.88
495.573	85.88
495.79	102.88
496.008	103.88
496.225	97.88
496.442	95.88
496.66	110.88
496.877	105.88
497.094	90.88
497.312	103.88
497.529	91.88
497.746	96.88
497.963	101.88
498.181	95.88
498.398	95.88
498.615	115.88
498.832	107.88
499.049	90.88
499.267	96.88
499.484	98.88
499.701	95.88
499.918	85.88
500.135	102.88
500.352	94.88
500.569	97.88
500.786	74.88
501.003	102.88
501.22	100.88
501.437	87.88
501.654	88.88
501.871	103.88
502.088	87.88
502.305	91.88
502.522	91.88
502.739	84.88
502.956	80.88
503.172	90.88
503.389	102.88
503.606	99.88
503.823	102.88
504.04	97.88
504.256	92.88
504.473	96.88
504.69	90.88
504.907	99.88
505.123	100.88
505.34	91.88
505.557	105.88
505.773	91.88
505.99	98.88
506.207	81.88
506.423	98.88
506.64	89.88
506.856	86.88
507.073	103.88
507.289	102.88
507.506	98.88
507.722	93.88
507.939	103.88
508.155	101.88
508.372	89.88
508.588	99.88
508.805	95.88
509.021	92.88
509.238	102.88
509.454	89.88
509.67	112.88
509.887	115.88
510.103	118.88
510.319	200.88
510.536	725.88
510.752	2203.88
510.968	609.88
511.184	146.88
511.401	102.88
511.617	104.88
511.833	97.88
512.049	85.88
512.265	91.88
512.481	91.88
512.698	103.88
512.914	99.88
513.13	96.88
513.346	89.88
513.562	98.88
513.778	106.88
513.994	112.88
514.21	105.88
514.426	119.88
514.642	137.88
514.858	120.88
515.074	163.88
515.29	407.88
