Data from Uncirc_1999_H10_HRD10591_00098.txt Node
Date: Wed Jan 03 11:22:24 EST 2024
User: Yrep
Spectrometer: HR+D1059
Trigger mode: 1
Integration Time (sec): 1.000000E-1
Scans to average: 1
Electric dark correction enabled: true
Nonlinearity correction enabled: false
Boxcar width: 0
XAxis mode: Wavelengths
Number of Pixels in Spectrum: 2048
>>>>>Begin Spectral Data<<<<<
223.165	-11.94
223.4	-11.94
223.635	-11.94
223.869	-2.94
224.104	-9.94
224.338	-28.94
224.573	-17.94
224.808	-12.94
225.042	-12.94
225.277	2.06
225.511	-18.94
225.746	-11.94
225.98	1.06
226.215	27.06
226.449	19.06
226.683	11.06
226.918	27.06
227.152	41.06
227.387	33.06
227.621	45.06
227.856	58.06
228.09	51.06
228.324	63.06
228.559	68.06
228.793	175.06
229.027	475.06
229.262	524.06
229.496	637.06
229.73	835.06
229.964	811.06
230.199	556.06
230.433	474.06
230.667	493.06
230.901	461.06
231.136	431.06
231.37	469.06
231.604	452.06
231.838	447.06
232.072	472.06
232.306	472.06
232.541	472.06
232.775	497.06
233.009	477.06
233.243	499.06
233.477	490.06
233.711	493.06
233.945	535.06
234.179	527.06
234.413	516.06
234.647	526.06
234.881	527.06
235.115	537.06
235.349	559.06
235.583	575.06
235.817	603.06
236.051	643.06
236.285	609.06
236.519	623.06
236.753	745.06
236.987	946.06
237.221	1440.06
237.455	1571.06
237.689	916.06
237.922	755.06
238.156	741.06
238.39	685.06
238.624	680.06
238.858	655.06
239.091	670.06
239.325	693.06
239.559	692.06
239.793	719.06
240.027	789.06
240.26	930.06
240.494	1013.06
240.728	1020.06
240.961	931.06
241.195	834.06
241.429	823.06
241.662	787.06
241.896	770.06
242.13	765.06
242.363	788.06
242.597	793.06
242.83	895.06
243.064	833.06
243.298	848.06
243.531	828.06
243.765	858.06
243.998	859.06
244.232	887.06
244.465	899.06
244.699	915.06
244.932	894.06
245.166	935.06
245.399	939.06
245.633	924.06
245.866	929.06
246.099	945.06
246.333	966.06
246.566	991.06
246.8	980.06
247.033	1025.06
247.266	1049.06
247.5	1137.06
247.733	1166.06
247.966	1175.06
248.2	1179.06
248.433	1204.06
248.666	1266.06
248.899	1422.06
249.133	1459.06
249.366	1475.06
249.599	1358.06
249.832	1243.06
250.066	1263.06
250.299	1276.06
250.532	1354.06
250.765	1528.06
250.998	1781.06
251.231	1691.06
251.465	1535.06
251.698	1440.06
251.931	1466.06
252.164	1387.06
252.397	1439.06
252.63	1552.06
252.863	1611.06
253.096	1699.06
253.329	1785.06
253.562	1693.06
253.795	1609.06
254.028	1613.06
254.261	1658.06
254.494	1869.06
254.727	2221.06
254.96	2330.06
255.193	2083.06
255.426	1795.06
255.659	1693.06
255.892	1638.06
256.124	1620.06
256.357	1566.06
256.59	1586.06
256.823	1559.06
257.056	1562.06
257.289	1551.06
257.521	1611.06
257.754	1574.06
257.987	1583.06
258.22	1559.06
258.452	1587.06
258.685	1589.06
258.918	1631.06
259.151	1671.06
259.383	1757.06
259.616	1776.06
259.849	1834.06
260.081	2018.06
260.314	2181.06
260.547	2128.06
260.779	1935.06
261.012	1841.06
261.244	1770.06
261.477	1754.06
261.71	1720.06
261.942	1779.06
262.175	1784.06
262.407	1764.06
262.64	1686.06
262.872	1711.06
263.105	1698.06
263.337	1685.06
263.57	1656.06
263.802	1715.06
264.035	1740.06
264.267	1719.06
264.499	1779.06
264.732	1755.06
264.964	1769.06
265.197	1761.06
265.429	1759.06
265.661	1786.06
265.894	1813.06
266.126	1796.06
266.358	1787.06
266.591	1810.06
266.823	1909.06
267.055	1962.06
267.287	1928.06
267.52	1894.06
267.752	1840.06
267.984	1924.06
268.216	1969.06
268.448	2035.06
268.681	2052.06
268.913	2265.06
269.145	2435.06
269.377	2464.06
269.609	2395.06
269.841	2331.06
270.073	2480.06
270.306	2779.06
270.538	2953.06
270.77	2819.06
271.002	2587.06
271.234	2549.06
271.466	2707.06
271.698	2824.06
271.93	2791.06
272.162	2844.06
272.394	2773.06
272.626	2597.06
272.858	2473.06
273.09	2399.06
273.322	2355.06
273.553	2320.06
273.785	2309.06
274.017	2339.06
274.249	2315.06
274.481	2304.06
274.713	2304.06
274.945	2409.06
275.176	2410.06
275.408	2359.06
275.64	2311.06
275.872	2346.06
276.104	2373.06
276.335	2408.06
276.567	2509.06
276.799	2601.06
277.031	2813.06
277.262	3006.06
277.494	2884.06
277.726	2687.06
277.957	2605.06
278.189	2547.06
278.421	2447.06
278.652	2466.06
278.884	2457.06
279.115	2418.06
279.347	2418.06
279.579	2463.06
279.81	2434.06
280.042	2524.06
280.273	2495.06
280.505	2476.06
280.736	2448.06
280.968	2516.06
281.199	2521.06
281.431	2569.06
281.662	2545.06
281.894	2583.06
282.125	2569.06
282.356	2797.06
282.588	2896.06
282.819	2765.06
283.051	2656.06
283.282	2620.06
283.513	2655.06
283.745	2689.06
283.976	2731.06
284.207	2754.06
284.439	2721.06
284.67	2699.06
284.901	2778.06
285.132	2717.06
285.364	2732.06
285.595	2769.06
285.826	2746.06
286.057	2775.06
286.288	2733.06
286.52	2790.06
286.751	2821.06
286.982	2891.06
287.213	2859.06
287.444	2849.06
287.675	2923.06
287.906	2975.06
288.138	3065.06
288.369	3035.06
288.6	3009.06
288.831	3007.06
289.062	2960.06
289.293	2953.06
289.524	2952.06
289.755	2975.06
289.986	2898.06
290.217	2903.06
290.448	2926.06
290.679	2924.06
290.91	2899.06
291.141	2893.06
291.371	2898.06
291.602	2919.06
291.833	2887.06
292.064	2952.06
292.295	2934.06
292.526	2924.06
292.757	2940.06
292.987	2920.06
293.218	2957.06
293.449	2983.06
293.68	2928.06
293.91	2956.06
294.141	3004.06
294.372	2984.06
294.603	2968.06
294.833	3007.06
295.064	3027.06
295.295	3011.06
295.525	3066.06
295.756	3083.06
295.987	3147.06
296.217	3301.06
296.448	3236.06
296.679	3063.06
296.909	3101.06
297.14	3134.06
297.37	3129.06
297.601	3168.06
297.831	3201.06
298.062	3155.06
298.292	3271.06
298.523	3269.06
298.753	3273.06
298.984	3164.06
299.214	3213.06
299.445	3183.06
299.675	3239.06
299.905	3348.06
300.136	3301.06
300.366	3260.06
300.597	3296.06
300.827	3426.06
301.057	3500.06
301.288	3552.06
301.518	3527.06
301.748	3463.06
301.979	3618.06
302.209	3559.06
302.439	3491.06
302.669	3580.06
302.9	3461.06
303.13	3405.06
303.36	3515.06
303.59	3506.06
303.82	3578.06
304.051	3497.06
304.281	3504.06
304.511	3394.06
304.741	3445.06
304.971	3440.06
305.201	3399.06
305.431	3390.06
305.661	3454.06
305.891	3427.06
306.121	3454.06
306.352	3502.06
306.582	3441.06
306.812	3342.06
307.042	3441.06
307.272	3466.06
307.502	3371.06
307.731	3423.06
307.961	3452.06
308.191	3411.06
308.421	3454.06
308.651	3503.06
308.881	3431.06
309.111	3513.06
309.341	3513.06
309.571	3617.06
309.8	3683.06
310.03	3729.06
310.26	3797.06
310.49	3759.06
310.72	3829.06
310.949	3925.06
311.179	3959.06
311.409	3773.06
311.639	3812.06
311.868	3823.06
312.098	3872.06
312.328	3918.06
312.557	4057.06
312.787	4167.06
313.017	4061.06
313.246	3965.06
313.476	3846.06
313.706	3919.06
313.935	4064.06
314.165	4147.06
314.394	4187.06
314.624	4126.06
314.853	4022.06
315.083	3946.06
315.312	3957.06
315.542	3901.06
315.771	3832.06
316.001	3900.06
316.23	3878.06
316.46	3842.06
316.689	3926.06
316.919	3945.06
317.148	3987.06
317.377	3945.06
317.607	3896.06
317.836	3928.06
318.065	3826.06
318.295	3871.06
318.524	3876.06
318.753	3885.06
318.983	3870.06
319.212	3864.06
319.441	3860.06
319.67	3906.06
319.9	3856.06
320.129	3879.06
320.358	3937.06
320.587	3906.06
320.816	3998.06
321.046	3970.06
321.275	3978.06
321.504	3999.06
321.733	4082.06
321.962	4070.06
322.191	4269.06
322.42	4247.06
322.649	4379.06
322.878	4404.06
323.108	4493.06
323.337	4686.06
323.566	4874.06
323.795	5194.06
324.024	5730.06
324.253	7583.06
324.482	11293.06
324.71	15458.06
324.939	15621.06
325.168	13373.06
325.397	6887.06
325.626	5427.06
325.855	5001.06
326.084	4960.06
326.313	4924.06
326.542	5207.06
326.77	5795.06
326.999	7295.06
327.228	10624.06
327.457	14606.06
327.686	13837.06
327.914	7550.06
328.143	5973.06
328.372	5674.06
328.6	5380.06
328.829	5469.06
329.058	5555.06
329.287	5514.06
329.515	5200.06
329.744	4993.06
329.972	4999.06
330.201	5063.06
330.43	5329.06
330.658	5600.06
330.887	5871.06
331.115	5591.06
331.344	5193.06
331.572	5073.06
331.801	5214.06
332.03	5157.06
332.258	5124.06
332.486	5160.06
332.715	5329.06
332.943	5440.06
333.172	5588.06
333.4	5695.06
333.629	5853.06
333.857	5904.06
334.085	5902.06
334.314	5805.06
334.542	5778.06
334.771	5673.06
334.999	5581.06
335.227	5460.06
335.455	5343.06
335.684	5253.06
335.912	5236.06
336.14	5218.06
336.369	5183.06
336.597	5260.06
336.825	5169.06
337.053	5079.06
337.281	4996.06
337.51	4982.06
337.738	5018.06
337.966	4957.06
338.194	4936.06
338.422	4844.06
338.65	4738.06
338.878	4798.06
339.106	4745.06
339.334	4689.06
339.562	4703.06
339.79	4603.06
340.018	4623.06
340.246	4569.06
340.474	4606.06
340.702	4665.06
340.93	4630.06
341.158	4629.06
341.386	4652.06
341.614	4671.06
341.842	4598.06
342.07	4521.06
342.298	4481.06
342.526	4551.06
342.754	4487.06
342.981	4578.06
343.209	4641.06
343.437	4841.06
343.665	5266.06
343.893	5441.06
344.12	5531.06
344.348	5180.06
344.576	5035.06
344.804	4919.06
345.031	4810.06
345.259	4813.06
345.487	4628.06
345.714	4522.06
345.942	4477.06
346.17	4455.06
346.397	4424.06
346.625	4439.06
346.853	4451.06
347.08	4391.06
347.308	4440.06
347.535	4482.06
347.763	4531.06
347.99	4480.06
348.218	4515.06
348.445	4509.06
348.673	4433.06
348.9	4382.06
349.128	4376.06
349.355	4259.06
349.583	4261.06
349.81	4184.06
350.037	4282.06
350.265	4291.06
350.492	4236.06
350.72	4271.06
350.947	4324.06
351.174	4384.06
351.402	4398.06
351.629	4416.06
351.856	4362.06
352.083	4450.06
352.311	4450.06
352.538	4421.06
352.765	4363.06
352.992	4301.06
353.22	4302.06
353.447	4290.06
353.674	4181.06
353.901	4208.06
354.128	4203.06
354.355	4142.06
354.583	4168.06
354.81	4141.06
355.037	4257.06
355.264	4145.06
355.491	4139.06
355.718	4168.06
355.945	4122.06
356.172	4176.06
356.399	4159.06
356.626	4181.06
356.853	4159.06
357.08	4138.06
357.307	4091.06
357.534	4117.06
357.761	4147.06
357.988	4190.06
358.215	4187.06
358.441	4200.06
358.668	4227.06
358.895	4232.06
359.122	4340.06
359.349	4358.06
359.576	4453.06
359.802	4617.06
360.029	4791.06
360.256	4737.06
360.483	4578.06
360.709	4442.06
360.936	4341.06
361.163	4405.06
361.39	4441.06
361.616	4387.06
361.843	4387.06
362.07	4381.06
362.296	4412.06
362.523	4355.06
362.749	4405.06
362.976	4344.06
363.203	4279.06
363.429	4256.06
363.656	4314.06
363.882	4249.06
364.109	4303.06
364.335	4183.06
364.562	4200.06
364.788	4246.06
365.015	4278.06
365.241	4317.06
365.468	4341.06
365.694	4344.06
365.92	4315.06
366.147	4273.06
366.373	4215.06
366.599	4292.06
366.826	4219.06
367.052	4206.06
367.278	4300.06
367.505	4291.06
367.731	4300.06
367.957	4263.06
368.184	4262.06
368.41	4416.06
368.636	4503.06
368.862	4482.06
369.089	4423.06
369.315	4337.06
369.541	4394.06
369.767	4361.06
369.993	4323.06
370.219	4421.06
370.445	4412.06
370.672	4424.06
370.898	4419.06
371.124	4484.06
371.35	4571.06
371.576	4503.06
371.802	4482.06
372.028	4503.06
372.254	4549.06
372.48	4619.06
372.706	4616.06
372.932	4708.06
373.158	4719.06
373.384	4545.06
373.61	4629.06
373.835	4523.06
374.061	4606.06
374.287	4722.06
374.513	4771.06
374.739	4835.06
374.965	4966.06
375.191	5021.06
375.416	4830.06
375.642	4763.06
375.868	4745.06
376.094	4633.06
376.319	4581.06
376.545	4567.06
376.771	4610.06
376.997	4597.06
377.222	4594.06
377.448	4584.06
377.674	4523.06
377.899	4463.06
378.125	4543.06
378.35	4499.06
378.576	4478.06
378.802	4474.06
379.027	4504.06
379.253	4495.06
379.478	4457.06
379.704	4455.06
379.929	4480.06
380.155	4537.06
380.38	4524.06
380.606	4559.06
380.831	4511.06
381.057	4571.06
381.282	4569.06
381.507	4608.06
381.733	4578.06
381.958	4672.06
382.184	4703.06
382.409	4732.06
382.634	4766.06
382.86	4767.06
383.085	4779.06
383.31	4941.06
383.535	5055.06
383.761	5034.06
383.986	5144.06
384.211	5168.06
384.436	5346.06
384.662	5441.06
384.887	5422.06
385.112	5423.06
385.337	5500.06
385.562	5501.06
385.787	5540.06
386.013	5551.06
386.238	5590.06
386.463	5551.06
386.688	5634.06
386.913	5394.06
387.138	5451.06
387.363	5465.06
387.588	5362.06
387.813	5433.06
388.038	5483.06
388.263	5483.06
388.488	5453.06
388.713	5398.06
388.938	5422.06
389.163	5413.06
389.387	5432.06
389.612	5357.06
389.837	5380.06
390.062	5341.06
390.287	5395.06
390.512	5422.06
390.736	5427.06
390.961	5595.06
391.186	5577.06
391.411	5776.06
391.636	5913.06
391.86	6073.06
392.085	6120.06
392.31	5987.06
392.534	5847.06
392.759	5769.06
392.984	5706.06
393.208	5656.06
393.433	5629.06
393.658	5687.06
393.882	5697.06
394.107	5703.06
394.331	5761.06
394.556	5770.06
394.78	5772.06
395.005	5819.06
395.229	5829.06
395.454	6066.06
395.678	6112.06
395.903	6223.06
396.127	6168.06
396.352	5962.06
396.576	5818.06
396.801	5762.06
397.025	5907.06
397.249	5962.06
397.474	6086.06
397.698	6086.06
397.922	6251.06
398.147	6356.06
398.371	6536.06
398.595	6619.06
398.82	6989.06
399.044	7643.06
399.268	8432.06
399.492	9604.06
399.717	10215.06
399.941	9902.06
400.165	9277.06
400.389	8499.06
400.613	7680.06
400.837	7181.06
401.062	7038.06
401.286	6943.06
401.51	6856.06
401.734	6839.06
401.958	6997.06
402.182	7071.06
402.406	7227.06
402.63	7278.06
402.854	7410.06
403.078	7460.06
403.302	7663.06
403.526	7824.06
403.75	7799.06
403.974	7915.06
404.198	7827.06
404.422	7887.06
404.645	7841.06
404.869	7733.06
405.093	7875.06
405.317	8049.06
405.541	8007.06
405.765	7708.06
405.988	7676.06
406.212	7772.06
406.436	7952.06
406.66	8143.06
406.883	8145.06
407.107	8769.06
407.331	9389.06
407.555	9802.06
407.778	9474.06
408.002	8682.06
408.226	8368.06
408.449	8138.06
408.673	8021.06
408.896	8201.06
409.12	8401.06
409.344	7948.06
409.567	7573.06
409.791	7616.06
410.014	7450.06
410.238	7363.06
410.461	7404.06
410.685	7433.06
410.908	7580.06
411.132	7746.06
411.355	7782.06
411.578	7389.06
411.802	7178.06
412.025	7094.06
412.249	7296.06
412.472	7308.06
412.695	7171.06
412.919	6902.06
413.142	6859.06
413.365	6779.06
413.589	6831.06
413.812	6719.06
414.035	6617.06
414.258	6663.06
414.482	6835.06
414.705	6861.06
414.928	6799.06
415.151	6835.06
415.374	6714.06
415.597	6674.06
415.821	6606.06
416.044	6644.06
416.267	6611.06
416.49	6582.06
416.713	6617.06
416.936	6693.06
417.159	6649.06
417.382	6749.06
417.605	6731.06
417.828	6776.06
418.051	7031.06
418.274	6908.06
418.497	6793.06
418.72	6970.06
418.943	6816.06
419.166	7270.06
419.389	7587.06
419.611	7527.06
419.834	7235.06
420.057	7154.06
420.28	7019.06
420.503	6770.06
420.726	6861.06
420.948	7031.06
421.171	7448.06
421.394	7399.06
421.617	6880.06
421.839	6912.06
422.062	6984.06
422.285	7149.06
422.507	7904.06
422.73	8402.06
422.953	7785.06
423.175	7439.06
423.398	7489.06
423.621	7465.06
423.843	7670.06
424.066	7725.06
424.288	7586.06
424.511	7767.06
424.733	8240.06
424.956	8728.06
425.178	8206.06
425.401	8347.06
425.623	8220.06
425.846	7180.06
426.068	7015.06
426.291	6879.06
426.513	6935.06
426.735	7025.06
426.958	7514.06
427.18	8348.06
427.402	9495.06
427.625	9525.06
427.847	7960.06
428.069	7057.06
428.292	6782.06
428.514	6443.06
428.736	6303.06
428.958	6304.06
429.181	6128.06
429.403	6178.06
429.625	6393.06
429.847	6593.06
430.069	7240.06
430.292	6689.06
430.514	6164.06
430.736	6149.06
430.958	6029.06
431.18	5944.06
431.402	6032.06
431.624	5967.06
431.846	6097.06
432.068	6059.06
432.29	6230.06
432.512	6095.06
432.734	6168.06
432.956	6141.06
433.178	6171.06
433.4	6144.06
433.622	6072.06
433.844	6112.06
434.066	6142.06
434.287	6315.06
434.509	6466.06
434.731	6743.06
434.953	6890.06
435.175	7035.06
435.397	7108.06
435.618	7013.06
435.84	7409.06
436.062	8263.06
436.284	8233.06
436.505	6932.06
436.727	6583.06
436.949	6340.06
437.17	6227.06
437.392	6200.06
437.614	6270.06
437.835	6725.06
438.057	7703.06
438.278	8466.06
438.5	8387.06
438.721	9248.06
438.943	8011.06
439.165	6745.06
439.386	6605.06
439.608	6658.06
439.829	6754.06
440.05	7121.06
440.272	7474.06
440.493	6890.06
440.715	6555.06
440.936	6417.06
441.158	6496.06
441.379	6547.06
441.6	6986.06
441.822	7273.06
442.043	7675.06
442.264	8507.06
442.486	8272.06
442.707	7376.06
442.928	7188.06
443.149	7252.06
443.371	7551.06
443.592	8210.06
443.813	9232.06
444.034	9117.06
444.255	7949.06
444.476	7721.06
444.698	7992.06
444.919	8155.06
445.14	7818.06
445.361	7661.06
445.582	7889.06
445.803	8479.06
446.024	9092.06
446.245	8667.06
446.466	7851.06
446.687	6857.06
446.908	6516.06
447.129	6200.06
447.35	5989.06
447.571	5992.06
447.792	5855.06
448.013	6008.06
448.234	6164.06
448.455	6951.06
448.675	8199.06
448.896	8676.06
449.117	7175.06
449.338	7335.06
449.559	8802.06
449.779	8884.06
450	6868.06
450.221	6130.06
450.442	5841.06
450.662	5800.06
450.883	5839.06
451.104	5867.06
451.324	5789.06
451.545	5639.06
451.766	5501.06
451.986	5347.06
452.207	5358.06
452.428	5346.06
452.648	5338.06
452.869	5387.06
453.089	5433.06
453.31	5563.06
453.53	5354.06
453.751	5335.06
453.971	5347.06
454.192	5413.06
454.412	5165.06
454.633	5181.06
454.853	5156.06
455.073	5228.06
455.294	5729.06
455.514	6224.06
455.734	5652.06
455.955	5086.06
456.175	5021.06
456.395	4883.06
456.616	4906.06
456.836	4917.06
457.056	4930.06
457.276	4747.06
457.497	5006.06
457.717	4955.06
457.937	5031.06
458.157	5123.06
458.377	5204.06
458.598	5558.06
458.818	6275.06
459.038	6984.06
459.258	7057.06
459.478	6328.06
459.698	6243.06
459.918	6189.06
460.138	6372.06
460.358	6696.06
460.578	6625.06
460.798	6752.06
461.018	6705.06
461.238	6633.06
461.458	6594.06
461.678	6544.06
461.898	6680.06
462.118	6760.06
462.338	7188.06
462.558	7331.06
462.777	7525.06
462.997	8201.06
463.217	8599.06
463.437	8281.06
463.657	7744.06
463.876	7525.06
464.096	7675.06
464.316	7566.06
464.536	7575.06
464.755	7354.06
464.975	7310.06
465.195	7368.06
465.414	7308.06
465.634	6532.06
465.854	6241.06
466.073	5965.06
466.293	5746.06
466.512	5616.06
466.732	5483.06
466.951	5493.06
467.171	5562.06
467.391	5596.06
467.61	5664.06
467.829	5531.06
468.049	5474.06
468.268	5248.06
468.488	5256.06
468.707	5212.06
468.927	5266.06
469.146	5191.06
469.365	5397.06
469.585	5321.06
469.804	5552.06
470.023	5691.06
470.243	5701.06
470.462	5815.06
470.681	5931.06
470.901	5851.06
471.12	5734.06
471.339	5663.06
471.558	5572.06
471.777	5484.06
471.997	5386.06
472.216	5288.06
472.435	5347.06
472.654	5228.06
472.873	5178.06
473.092	5157.06
473.311	5191.06
473.53	5277.06
473.749	5417.06
473.968	6041.06
474.187	6959.06
474.406	6572.06
474.625	5600.06
474.844	5298.06
475.063	5240.06
475.282	5289.06
475.501	5381.06
475.72	5323.06
475.939	5387.06
476.158	5421.06
476.377	5425.06
476.596	5483.06
476.814	5664.06
477.033	5667.06
477.252	5751.06
477.471	5871.06
477.69	5948.06
477.908	6095.06
478.127	6253.06
478.346	6299.06
478.564	6400.06
478.783	6544.06
479.002	6674.06
479.22	6706.06
479.439	6642.06
479.658	6879.06
479.876	7007.06
480.095	7097.06
480.313	7593.06
480.532	7505.06
480.751	7297.06
480.969	7129.06
481.188	7074.06
481.406	6865.06
481.624	6607.06
481.843	6404.06
482.061	6383.06
482.28	6339.06
482.498	6216.06
482.717	6197.06
482.935	6147.06
483.153	6119.06
483.372	6185.06
483.59	6144.06
483.808	6175.06
484.027	6157.06
484.245	6182.06
484.463	6226.06
484.681	6387.06
484.9	6421.06
485.118	6439.06
485.336	6536.06
485.554	6562.06
485.772	6611.06
485.99	6642.06
486.209	6600.06
486.427	6646.06
486.645	6693.06
486.863	6817.06
487.081	6665.06
487.299	6721.06
487.517	6644.06
487.735	6565.06
