Data from Uncirc_1999_H10_HRD10591_00008.txt Node
Date: Wed Jan 03 11:22:06 EST 2024
User: Yrep
Spectrometer: HR+D1059
Trigger mode: 1
Integration Time (sec): 1.000000E-1
Scans to average: 1
Electric dark correction enabled: true
Nonlinearity correction enabled: false
Boxcar width: 0
XAxis mode: Wavelengths
Number of Pixels in Spectrum: 2048
>>>>>Begin Spectral Data<<<<<
223.165	-0.75
223.4	-0.75
223.635	-0.75
223.869	-23.75
224.104	-24.75
224.338	-10.75
224.573	-20.75
224.808	1.25
225.042	-6.75
225.277	-13.75
225.511	6.25
225.746	-11.75
225.98	-1.75
226.215	10.25
226.449	12.25
226.683	26.25
226.918	27.25
227.152	31.25
227.387	24.25
227.621	39.25
227.856	38.25
228.09	51.25
228.324	46.25
228.559	78.25
228.793	56.25
229.027	80.25
229.262	78.25
229.496	84.25
229.73	63.25
229.964	70.25
230.199	76.25
230.433	85.25
230.667	65.25
230.901	73.25
231.136	78.25
231.37	72.25
231.604	76.25
231.838	72.25
232.072	82.25
232.306	80.25
232.541	80.25
232.775	80.25
233.009	76.25
233.243	77.25
233.477	79.25
233.711	88.25
233.945	64.25
234.179	76.25
234.413	69.25
234.647	65.25
234.881	77.25
235.115	68.25
235.349	66.25
235.583	65.25
235.817	81.25
236.051	85.25
236.285	68.25
236.519	79.25
236.753	67.25
236.987	55.25
237.221	61.25
237.455	73.25
237.689	64.25
237.922	72.25
238.156	61.25
238.39	72.25
238.624	72.25
238.858	79.25
239.091	80.25
239.325	78.25
239.559	85.25
239.793	76.25
240.027	90.25
240.26	70.25
240.494	68.25
240.728	58.25
240.961	81.25
241.195	68.25
241.429	59.25
241.662	80.25
241.896	70.25
242.13	71.25
242.363	77.25
242.597	52.25
242.83	64.25
243.064	76.25
243.298	83.25
243.531	80.25
243.765	78.25
243.998	86.25
244.232	65.25
244.465	74.25
244.699	72.25
244.932	81.25
245.166	80.25
245.399	76.25
245.633	82.25
245.866	84.25
246.099	69.25
246.333	86.25
246.566	79.25
246.8	79.25
247.033	83.25
247.266	80.25
247.5	76.25
247.733	81.25
247.966	90.25
248.2	81.25
248.433	74.25
248.666	78.25
248.899	87.25
249.133	79.25
249.366	101.25
249.599	88.25
249.832	93.25
250.066	68.25
250.299	81.25
250.532	51.25
250.765	87.25
250.998	66.25
251.231	80.25
251.465	92.25
251.698	92.25
251.931	92.25
252.164	81.25
252.397	74.25
252.63	78.25
252.863	82.25
253.096	72.25
253.329	85.25
253.562	72.25
253.795	72.25
254.028	77.25
254.261	75.25
254.494	70.25
254.727	77.25
254.96	76.25
255.193	82.25
255.426	94.25
255.659	80.25
255.892	75.25
256.124	68.25
256.357	88.25
256.59	82.25
256.823	80.25
257.056	81.25
257.289	77.25
257.521	92.25
257.754	76.25
257.987	80.25
258.22	84.25
258.452	81.25
258.685	77.25
258.918	78.25
259.151	84.25
259.383	81.25
259.616	79.25
259.849	88.25
260.081	84.25
260.314	77.25
260.547	93.25
260.779	81.25
261.012	83.25
261.244	84.25
261.477	93.25
261.71	82.25
261.942	104.25
262.175	95.25
262.407	68.25
262.64	68.25
262.872	76.25
263.105	85.25
263.337	91.25
263.57	91.25
263.802	83.25
264.035	77.25
264.267	73.25
264.499	61.25
264.732	80.25
264.964	87.25
265.197	90.25
265.429	79.25
265.661	84.25
265.894	76.25
266.126	85.25
266.358	74.25
266.591	80.25
266.823	76.25
267.055	86.25
267.287	76.25
267.52	90.25
267.752	76.25
267.984	78.25
268.216	80.25
268.448	77.25
268.681	78.25
268.913	83.25
269.145	80.25
269.377	81.25
269.609	77.25
269.841	93.25
270.073	69.25
270.306	76.25
270.538	84.25
270.77	84.25
271.002	75.25
271.234	97.25
271.466	75.25
271.698	82.25
271.93	93.25
272.162	75.25
272.394	85.25
272.626	89.25
272.858	97.25
273.09	94.25
273.322	84.25
273.553	91.25
273.785	72.25
274.017	83.25
274.249	84.25
274.481	74.25
274.713	98.25
274.945	81.25
275.176	81.25
275.408	97.25
275.64	90.25
275.872	86.25
276.104	87.25
276.335	90.25
276.567	83.25
276.799	94.25
277.031	73.25
277.262	69.25
277.494	88.25
277.726	94.25
277.957	94.25
278.189	79.25
278.421	95.25
278.652	84.25
278.884	94.25
279.115	81.25
279.347	80.25
279.579	92.25
279.81	81.25
280.042	91.25
280.273	85.25
280.505	104.25
280.736	97.25
280.968	94.25
281.199	84.25
281.431	80.25
281.662	82.25
281.894	85.25
282.125	92.25
282.356	103.25
282.588	100.25
282.819	102.25
283.051	86.25
283.282	90.25
283.513	89.25
283.745	86.25
283.976	94.25
284.207	88.25
284.439	90.25
284.67	83.25
284.901	92.25
285.132	87.25
285.364	90.25
285.595	94.25
285.826	89.25
286.057	89.25
286.288	95.25
286.52	88.25
286.751	91.25
286.982	92.25
287.213	81.25
287.444	92.25
287.675	81.25
287.906	70.25
288.138	82.25
288.369	92.25
288.6	81.25
288.831	86.25
289.062	88.25
289.293	75.25
289.524	83.25
289.755	81.25
289.986	85.25
290.217	76.25
290.448	87.25
290.679	86.25
290.91	88.25
291.141	87.25
291.371	68.25
291.602	81.25
291.833	97.25
292.064	78.25
292.295	89.25
292.526	79.25
292.757	97.25
292.987	85.25
293.218	86.25
293.449	91.25
293.68	88.25
293.91	96.25
294.141	97.25
294.372	98.25
294.603	85.25
294.833	94.25
295.064	72.25
295.295	85.25
295.525	96.25
295.756	123.25
295.987	109.25
296.217	111.25
296.448	109.25
296.679	95.25
296.909	96.25
297.14	81.25
297.37	96.25
297.601	79.25
297.831	81.25
298.062	86.25
298.292	97.25
298.523	94.25
298.753	85.25
298.984	73.25
299.214	95.25
299.445	90.25
299.675	91.25
299.905	92.25
300.136	107.25
300.366	93.25
300.597	81.25
300.827	98.25
301.057	96.25
301.288	101.25
301.518	92.25
301.748	88.25
301.979	100.25
302.209	100.25
302.439	107.25
302.669	98.25
302.9	95.25
303.13	75.25
303.36	91.25
303.59	107.25
303.82	92.25
304.051	94.25
304.281	98.25
304.511	95.25
304.741	92.25
304.971	78.25
305.201	84.25
305.431	88.25
305.661	86.25
305.891	58.25
306.121	82.25
306.352	87.25
306.582	80.25
306.812	88.25
307.042	94.25
307.272	99.25
307.502	88.25
307.731	88.25
307.961	86.25
308.191	83.25
308.421	86.25
308.651	89.25
308.881	86.25
309.111	84.25
309.341	89.25
309.571	93.25
309.8	90.25
310.03	86.25
310.26	80.25
310.49	88.25
310.72	98.25
310.949	93.25
311.179	111.25
311.409	94.25
311.639	90.25
311.868	89.25
312.098	82.25
312.328	92.25
312.557	92.25
312.787	97.25
313.017	91.25
313.246	103.25
313.476	87.25
313.706	90.25
313.935	85.25
314.165	98.25
314.394	82.25
314.624	89.25
314.853	98.25
315.083	94.25
315.312	92.25
315.542	106.25
315.771	76.25
316.001	80.25
316.23	95.25
316.46	83.25
316.689	78.25
316.919	99.25
317.148	94.25
317.377	84.25
317.607	90.25
317.836	105.25
318.065	89.25
318.295	95.25
318.524	91.25
318.753	93.25
318.983	82.25
319.212	91.25
319.441	104.25
319.67	112.25
319.9	92.25
320.129	95.25
320.358	104.25
320.587	96.25
320.816	94.25
321.046	101.25
321.275	70.25
321.504	74.25
321.733	90.25
321.962	92.25
322.191	100.25
322.42	98.25
322.649	90.25
322.878	95.25
323.108	116.25
323.337	103.25
323.566	113.25
323.795	150.25
324.024	198.25
324.253	347.25
324.482	724.25
324.71	1490.25
324.939	1984.25
325.168	725.25
325.397	220.25
325.626	135.25
325.855	123.25
326.084	127.25
326.313	146.25
326.542	132.25
326.77	212.25
326.999	406.25
327.228	870.25
327.457	1526.25
327.686	1201.25
327.914	314.25
328.143	180.25
328.372	135.25
328.6	115.25
328.829	112.25
329.058	108.25
329.287	110.25
329.515	112.25
329.744	108.25
329.972	94.25
330.201	107.25
330.43	109.25
330.658	107.25
330.887	114.25
331.115	106.25
331.344	112.25
331.572	100.25
331.801	93.25
332.03	98.25
332.258	80.25
332.486	91.25
332.715	73.25
332.943	97.25
333.172	86.25
333.4	87.25
333.629	104.25
333.857	109.25
334.085	108.25
334.314	113.25
334.542	100.25
334.771	111.25
334.999	109.25
335.227	110.25
335.455	98.25
335.684	85.25
335.912	96.25
336.14	86.25
336.369	90.25
336.597	101.25
336.825	87.25
337.053	86.25
337.281	83.25
337.51	96.25
337.738	93.25
337.966	84.25
338.194	106.25
338.422	86.25
338.65	94.25
338.878	104.25
339.106	82.25
339.334	104.25
339.562	92.25
339.79	78.25
340.018	89.25
340.246	94.25
340.474	96.25
340.702	93.25
340.93	95.25
341.158	96.25
341.386	94.25
341.614	94.25
341.842	77.25
342.07	94.25
342.298	83.25
342.526	88.25
342.754	101.25
342.981	89.25
343.209	86.25
343.437	109.25
343.665	97.25
343.893	101.25
344.12	91.25
344.348	81.25
344.576	86.25
344.804	91.25
345.031	92.25
345.259	81.25
345.487	94.25
345.714	89.25
345.942	98.25
346.17	106.25
346.397	77.25
346.625	105.25
346.853	97.25
347.08	73.25
347.308	90.25
347.535	81.25
347.763	99.25
347.99	92.25
348.218	104.25
348.445	98.25
348.673	103.25
348.9	86.25
349.128	105.25
349.355	96.25
349.583	102.25
349.81	107.25
350.037	101.25
350.265	103.25
350.492	78.25
350.72	74.25
350.947	97.25
351.174	107.25
351.402	108.25
351.629	98.25
351.856	108.25
352.083	95.25
352.311	88.25
352.538	112.25
352.765	108.25
352.992	123.25
353.22	105.25
353.447	115.25
353.674	100.25
353.901	98.25
354.128	105.25
354.355	88.25
354.583	107.25
354.81	97.25
355.037	89.25
355.264	104.25
355.491	97.25
355.718	102.25
355.945	109.25
356.172	105.25
356.399	118.25
356.626	103.25
356.853	84.25
357.08	105.25
357.307	87.25
357.534	100.25
357.761	89.25
357.988	105.25
358.215	96.25
358.441	114.25
358.668	109.25
358.895	98.25
359.122	87.25
359.349	101.25
359.576	108.25
359.802	95.25
360.029	108.25
360.256	97.25
360.483	89.25
360.709	92.25
360.936	92.25
361.163	87.25
361.39	93.25
361.616	94.25
361.843	95.25
362.07	86.25
362.296	92.25
362.523	95.25
362.749	103.25
362.976	97.25
363.203	88.25
363.429	93.25
363.656	94.25
363.882	103.25
364.109	103.25
364.335	87.25
364.562	76.25
364.788	86.25
365.015	90.25
365.241	78.25
365.468	98.25
365.694	93.25
365.92	92.25
366.147	87.25
366.373	95.25
366.599	84.25
366.826	91.25
367.052	77.25
367.278	88.25
367.505	80.25
367.731	102.25
367.957	99.25
368.184	112.25
368.41	98.25
368.636	95.25
368.862	113.25
369.089	103.25
369.315	90.25
369.541	84.25
369.767	96.25
369.993	96.25
370.219	93.25
370.445	105.25
370.672	84.25
370.898	78.25
371.124	84.25
371.35	93.25
371.576	99.25
371.802	92.25
372.028	95.25
372.254	102.25
372.48	92.25
372.706	97.25
372.932	83.25
373.158	78.25
373.384	88.25
373.61	93.25
373.835	97.25
374.061	95.25
374.287	87.25
374.513	89.25
374.739	102.25
374.965	91.25
375.191	94.25
375.416	87.25
375.642	85.25
375.868	86.25
376.094	106.25
376.319	93.25
376.545	90.25
376.771	97.25
376.997	95.25
377.222	91.25
377.448	95.25
377.674	99.25
377.899	101.25
378.125	95.25
378.35	96.25
378.576	91.25
378.802	88.25
379.027	105.25
379.253	109.25
379.478	104.25
379.704	100.25
379.929	94.25
380.155	118.25
380.38	98.25
380.606	98.25
380.831	119.25
381.057	120.25
381.282	113.25
381.507	99.25
381.733	113.25
381.958	109.25
382.184	122.25
382.409	118.25
382.634	123.25
382.86	109.25
383.085	111.25
383.31	128.25
383.535	152.25
383.761	132.25
383.986	119.25
384.211	122.25
384.436	116.25
384.662	124.25
384.887	125.25
385.112	144.25
385.337	140.25
385.562	141.25
385.787	139.25
386.013	136.25
386.238	154.25
386.463	143.25
386.688	144.25
386.913	126.25
387.138	147.25
387.363	149.25
387.588	108.25
387.813	121.25
388.038	138.25
388.263	154.25
388.488	145.25
388.713	109.25
388.938	90.25
389.163	92.25
389.387	103.25
389.612	94.25
389.837	103.25
390.062	81.25
390.287	86.25
390.512	91.25
390.736	80.25
390.961	113.25
391.186	101.25
391.411	109.25
391.636	109.25
391.86	97.25
392.085	87.25
392.31	81.25
392.534	87.25
392.759	96.25
392.984	95.25
393.208	96.25
393.433	88.25
393.658	78.25
393.882	92.25
394.107	98.25
394.331	97.25
394.556	93.25
394.78	86.25
395.005	94.25
395.229	97.25
395.454	81.25
395.678	81.25
395.903	82.25
396.127	80.25
396.352	87.25
396.576	86.25
396.801	77.25
397.025	72.25
397.249	97.25
397.474	94.25
397.698	96.25
397.922	89.25
398.147	88.25
398.371	79.25
398.595	84.25
398.82	81.25
399.044	87.25
399.268	85.25
399.492	82.25
399.717	88.25
399.941	90.25
400.165	93.25
400.389	100.25
400.613	90.25
400.837	85.25
401.062	95.25
401.286	77.25
401.51	73.25
401.734	104.25
401.958	88.25
402.182	113.25
402.406	146.25
402.63	103.25
402.854	97.25
403.078	82.25
403.302	89.25
403.526	80.25
403.75	91.25
403.974	87.25
404.198	99.25
404.422	81.25
404.645	95.25
404.869	76.25
405.093	101.25
405.317	100.25
405.541	96.25
405.765	88.25
405.988	98.25
406.212	150.25
406.436	154.25
406.66	122.25
406.883	113.25
407.107	85.25
407.331	89.25
407.555	100.25
407.778	98.25
408.002	95.25
408.226	99.25
408.449	88.25
408.673	88.25
408.896	93.25
409.12	98.25
409.344	85.25
409.567	81.25
409.791	80.25
410.014	86.25
410.238	83.25
410.461	102.25
410.685	105.25
410.908	92.25
411.132	95.25
411.355	106.25
411.578	93.25
411.802	92.25
412.025	91.25
412.249	96.25
412.472	92.25
412.695	89.25
412.919	84.25
413.142	100.25
413.365	94.25
413.589	89.25
413.812	84.25
414.035	97.25
414.258	97.25
414.482	104.25
414.705	88.25
414.928	82.25
415.151	103.25
415.374	112.25
415.597	84.25
415.821	81.25
416.044	85.25
416.267	101.25
416.49	85.25
416.713	79.25
416.936	97.25
417.159	94.25
417.382	92.25
417.605	87.25
417.828	102.25
418.051	94.25
418.274	91.25
418.497	92.25
418.72	89.25
418.943	103.25
419.166	92.25
419.389	90.25
419.611	105.25
419.834	91.25
420.057	103.25
420.28	85.25
420.503	94.25
420.726	86.25
420.948	92.25
421.171	98.25
421.394	91.25
421.617	97.25
421.839	82.25
422.062	88.25
422.285	84.25
422.507	98.25
422.73	90.25
422.953	102.25
423.175	91.25
423.398	71.25
423.621	87.25
423.843	94.25
424.066	92.25
424.288	88.25
424.511	95.25
424.733	82.25
424.956	106.25
425.178	91.25
425.401	81.25
425.623	88.25
425.846	76.25
426.068	87.25
426.291	96.25
426.513	104.25
426.735	105.25
426.958	97.25
427.18	77.25
427.402	114.25
427.625	137.25
427.847	107.25
428.069	92.25
428.292	97.25
428.514	98.25
428.736	67.25
428.958	95.25
429.181	88.25
429.403	94.25
429.625	90.25
429.847	77.25
430.069	88.25
430.292	88.25
430.514	85.25
430.736	84.25
430.958	86.25
431.18	81.25
431.402	80.25
431.624	93.25
431.846	96.25
432.068	68.25
432.29	108.25
432.512	90.25
432.734	97.25
432.956	80.25
433.178	107.25
433.4	99.25
433.622	105.25
433.844	88.25
434.066	100.25
434.287	79.25
434.509	94.25
434.731	95.25
434.953	84.25
435.175	94.25
435.397	92.25
435.618	86.25
435.84	103.25
436.062	110.25
436.284	107.25
436.505	98.25
436.727	97.25
436.949	89.25
437.17	102.25
437.392	98.25
437.614	94.25
437.835	89.25
438.057	104.25
438.278	95.25
438.5	101.25
438.721	101.25
438.943	105.25
439.165	94.25
439.386	80.25
439.608	87.25
439.829	100.25
440.05	100.25
440.272	106.25
440.493	84.25
440.715	84.25
440.936	80.25
441.158	84.25
441.379	101.25
441.6	96.25
441.822	84.25
442.043	98.25
442.264	81.25
442.486	100.25
442.707	85.25
442.928	98.25
443.149	106.25
443.371	97.25
443.592	97.25
443.813	105.25
444.034	94.25
444.255	100.25
444.476	100.25
444.698	90.25
444.919	94.25
445.14	124.25
445.361	119.25
445.582	98.25
445.803	104.25
446.024	113.25
446.245	124.25
446.466	102.25
446.687	75.25
446.908	86.25
447.129	98.25
447.35	86.25
447.571	82.25
447.792	81.25
448.013	84.25
448.234	93.25
448.455	81.25
448.675	97.25
448.896	113.25
449.117	90.25
449.338	108.25
449.559	118.25
449.779	123.25
450	92.25
450.221	90.25
450.442	77.25
450.662	92.25
450.883	104.25
451.104	105.25
451.324	90.25
451.545	77.25
451.766	100.25
451.986	79.25
452.207	85.25
452.428	84.25
452.648	88.25
452.869	90.25
453.089	92.25
453.31	105.25
453.53	92.25
453.751	92.25
453.971	96.25
454.192	87.25
454.412	90.25
454.633	91.25
454.853	85.25
455.073	92.25
455.294	70.25
455.514	88.25
455.734	84.25
455.955	83.25
456.175	76.25
456.395	86.25
456.616	83.25
456.836	76.25
457.056	79.25
457.276	78.25
457.497	89.25
457.717	92.25
457.937	68.25
458.157	76.25
458.377	85.25
458.598	89.25
458.818	128.25
459.038	133.25
459.258	99.25
459.478	103.25
459.698	92.25
459.918	84.25
460.138	79.25
460.358	76.25
460.578	85.25
460.798	99.25
461.018	72.25
461.238	74.25
461.458	73.25
461.678	88.25
461.898	73.25
462.118	95.25
462.338	79.25
462.558	79.25
462.777	93.25
462.997	88.25
463.217	88.25
463.437	86.25
463.657	91.25
463.876	70.25
464.096	88.25
464.316	81.25
464.536	107.25
464.755	91.25
464.975	105.25
465.195	124.25
465.414	119.25
465.634	99.25
465.854	72.25
466.073	90.25
466.293	103.25
466.512	79.25
466.732	84.25
466.951	90.25
467.171	106.25
467.391	95.25
467.61	92.25
467.829	80.25
468.049	89.25
468.268	81.25
468.488	94.25
468.707	88.25
468.927	92.25
469.146	68.25
469.365	83.25
469.585	86.25
469.804	92.25
470.023	89.25
470.243	86.25
470.462	89.25
470.681	96.25
470.901	86.25
471.12	94.25
471.339	89.25
471.558	88.25
471.777	91.25
471.997	101.25
472.216	104.25
472.435	108.25
472.654	95.25
472.873	89.25
473.092	88.25
473.311	82.25
473.53	88.25
473.749	99.25
473.968	94.25
474.187	102.25
474.406	95.25
474.625	80.25
474.844	85.25
475.063	86.25
475.282	85.25
475.501	82.25
475.72	86.25
475.939	94.25
476.158	100.25
476.377	88.25
476.596	88.25
476.814	78.25
477.033	93.25
477.252	90.25
477.471	92.25
477.69	103.25
477.908	89.25
478.127	97.25
478.346	81.25
478.564	87.25
478.783	87.25
479.002	87.25
479.22	97.25
479.439	101.25
479.658	95.25
479.876	90.25
480.095	86.25
480.313	81.25
480.532	85.25
480.751	97.25
480.969	104.25
481.188	115.25
481.406	114.25
481.624	98.25
481.843	81.25
482.061	93.25
482.28	90.25
482.498	76.25
482.717	95.25
482.935	90.25
483.153	93.25
483.372	96.25
483.59	81.25
483.808	74.25
484.027	86.25
484.245	94.25
484.463	101.25
484.681	101.25
484.9	87.25
485.118	102.25
485.336	97.25
485.554	108.25
485.772	98.25
485.99	104.25
486.209	87.25
486.427	110.25
486.645	111.25
486.863	107.25
487.081	106.25
487.299	105.25
487.517	113.25
487.735	89.25
487.953	100.25
488.171	93.25
488.389	87.25
488.607	96.25
488.825	95.25
489.043	84.25
489.261	84.25
489.479	93.25
489.696	81.25
489.914	85.25
490.132	86.25
490.35	86.25
490.568	86.25
490.786	97.25
491.003	86.25
491.221	91.25
491.439	96.25
491.657	97.25
491.874	98.25
492.092	80.25
492.31	96.25
492.527	78.25
492.745	97.25
492.963	94.25
493.18	84.25
493.398	103.25
493.615	110.25
493.833	95.25
494.05	97.25
494.268	83.25
494.485	55.25
494.703	92.25
494.92	82.25
495.138	99.25
495.355	98.25
495.573	98.25
495.79	84.25
496.008	97.25
496.225	93.25
496.442	79.25
496.66	74.25
496.877	84.25
497.094	91.25
497.312	84.25
497.529	90.25
497.746	93.25
497.963	98.25
498.181	86.25
498.398	88.25
498.615	98.25
498.832	91.25
499.049	96.25
499.267	93.25
499.484	93.25
499.701	91.25
499.918	89.25
500.135	80.25
500.352	75.25
500.569	88.25
500.786	104.25
501.003	86.25
501.22	85.25
501.437	78.25
501.654	96.25
501.871	104.25
502.088	104.25
502.305	104.25
502.522	94.25
502.739	99.25
502.956	88.25
503.172	104.25
503.389	103.25
503.606	90.25
503.823	97.25
504.04	90.25
504.256	93.25
504.473	84.25
504.69	86.25
504.907	86.25
505.123	85.25
505.34	93.25
505.557	101.25
505.773	97.25
505.99	77.25
506.207	91.25
506.423	93.25
506.64	91.25
506.856	96.25
507.073	85.25
507.289	80.25
507.506	94.25
507.722	102.25
507.939	117.25
508.155	85.25
508.372	102.25
508.588	100.25
508.805	90.25
509.021	104.25
509.238	101.25
509.454	97.25
509.67	93.25
509.887	100.25
510.103	118.25
510.319	180.25
510.536	573.25
510.752	1634.25
510.968	482.25
511.184	138.25
511.401	98.25
511.617	89.25
511.833	89.25
512.049	70.25
512.265	95.25
512.481	98.25
512.698	84.25
512.914	88.25
513.13	91.25
513.346	103.25
513.562	84.25
513.778	84.25
513.994	100.25
514.21	79.25
514.426	96.25
514.642	120.25
514.858	125.25
515.074	136.25
515.29	319.25
515.506	980.25
515.721	375.25
515.937	127.25
