Data from Uncirc_1999_H10_HRD10591_00015.txt Node
Date: Wed Jan 03 11:22:08 EST 2024
User: Yrep
Spectrometer: HR+D1059
Trigger mode: 1
Integration Time (sec): 1.000000E-1
Scans to average: 1
Electric dark correction enabled: true
Nonlinearity correction enabled: false
Boxcar width: 0
XAxis mode: Wavelengths
Number of Pixels in Spectrum: 2048
>>>>>Begin Spectral Data<<<<<
223.165	-13.69
223.4	-13.69
223.635	-13.69
223.869	-23.69
224.104	-22.69
224.338	4.31
224.573	-20.69
224.808	-23.69
225.042	-7.69
225.277	-14.69
225.511	-2.69
225.746	0.31
225.98	25.31
226.215	7.31
226.449	19.31
226.683	12.31
226.918	20.31
227.152	40.31
227.387	37.31
227.621	34.31
227.856	40.31
228.09	46.31
228.324	51.31
228.559	51.31
228.793	56.31
229.027	53.31
229.262	55.31
229.496	60.31
229.73	74.31
229.964	79.31
230.199	83.31
230.433	71.31
230.667	77.31
230.901	69.31
231.136	61.31
231.37	94.31
231.604	71.31
231.838	75.31
232.072	84.31
232.306	81.31
232.541	69.31
232.775	76.31
233.009	82.31
233.243	78.31
233.477	79.31
233.711	74.31
233.945	83.31
234.179	81.31
234.413	84.31
234.647	79.31
234.881	75.31
235.115	81.31
235.349	79.31
235.583	68.31
235.817	84.31
236.051	94.31
236.285	72.31
236.519	70.31
236.753	71.31
236.987	83.31
237.221	88.31
237.455	78.31
237.689	74.31
237.922	72.31
238.156	69.31
238.39	67.31
238.624	66.31
238.858	80.31
239.091	71.31
239.325	80.31
239.559	79.31
239.793	69.31
240.027	75.31
240.26	72.31
240.494	79.31
240.728	79.31
240.961	85.31
241.195	65.31
241.429	69.31
241.662	71.31
241.896	74.31
242.13	78.31
242.363	76.31
242.597	57.31
242.83	68.31
243.064	83.31
243.298	68.31
243.531	73.31
243.765	70.31
243.998	59.31
244.232	79.31
244.465	72.31
244.699	74.31
244.932	67.31
245.166	83.31
245.399	69.31
245.633	78.31
245.866	64.31
246.099	85.31
246.333	91.31
246.566	89.31
246.8	86.31
247.033	86.31
247.266	79.31
247.5	79.31
247.733	69.31
247.966	76.31
248.2	68.31
248.433	72.31
248.666	78.31
248.899	69.31
249.133	95.31
249.366	95.31
249.599	88.31
249.832	84.31
250.066	75.31
250.299	80.31
250.532	77.31
250.765	80.31
250.998	76.31
251.231	63.31
251.465	80.31
251.698	81.31
251.931	92.31
252.164	86.31
252.397	86.31
252.63	81.31
252.863	71.31
253.096	73.31
253.329	87.31
253.562	85.31
253.795	85.31
254.028	91.31
254.261	83.31
254.494	84.31
254.727	90.31
254.96	86.31
255.193	83.31
255.426	68.31
255.659	71.31
255.892	76.31
256.124	89.31
256.357	81.31
256.59	73.31
256.823	76.31
257.056	74.31
257.289	74.31
257.521	78.31
257.754	59.31
257.987	79.31
258.22	84.31
258.452	71.31
258.685	73.31
258.918	85.31
259.151	80.31
259.383	77.31
259.616	69.31
259.849	72.31
260.081	84.31
260.314	91.31
260.547	82.31
260.779	92.31
261.012	75.31
261.244	71.31
261.477	88.31
261.71	93.31
261.942	104.31
262.175	105.31
262.407	82.31
262.64	81.31
262.872	76.31
263.105	89.31
263.337	93.31
263.57	90.31
263.802	92.31
264.035	62.31
264.267	88.31
264.499	79.31
264.732	91.31
264.964	82.31
265.197	72.31
265.429	88.31
265.661	83.31
265.894	76.31
266.126	76.31
266.358	96.31
266.591	84.31
266.823	79.31
267.055	81.31
267.287	77.31
267.52	86.31
267.752	91.31
267.984	83.31
268.216	79.31
268.448	101.31
268.681	84.31
268.913	89.31
269.145	76.31
269.377	80.31
269.609	68.31
269.841	90.31
270.073	70.31
270.306	85.31
270.538	90.31
270.77	81.31
271.002	76.31
271.234	81.31
271.466	97.31
271.698	84.31
271.93	73.31
272.162	75.31
272.394	81.31
272.626	79.31
272.858	85.31
273.09	91.31
273.322	79.31
273.553	94.31
273.785	74.31
274.017	91.31
274.249	77.31
274.481	80.31
274.713	80.31
274.945	87.31
275.176	85.31
275.408	92.31
275.64	85.31
275.872	79.31
276.104	86.31
276.335	89.31
276.567	101.31
276.799	109.31
277.031	100.31
277.262	96.31
277.494	87.31
277.726	74.31
277.957	96.31
278.189	97.31
278.421	88.31
278.652	80.31
278.884	104.31
279.115	80.31
279.347	80.31
279.579	83.31
279.81	89.31
280.042	70.31
280.273	90.31
280.505	91.31
280.736	90.31
280.968	83.31
281.199	87.31
281.431	84.31
281.662	84.31
281.894	102.31
282.125	95.31
282.356	101.31
282.588	118.31
282.819	108.31
283.051	88.31
283.282	85.31
283.513	86.31
283.745	86.31
283.976	71.31
284.207	94.31
284.439	80.31
284.67	96.31
284.901	77.31
285.132	75.31
285.364	90.31
285.595	86.31
285.826	83.31
286.057	96.31
286.288	79.31
286.52	70.31
286.751	97.31
286.982	91.31
287.213	71.31
287.444	87.31
287.675	79.31
287.906	94.31
288.138	84.31
288.369	79.31
288.6	78.31
288.831	88.31
289.062	83.31
289.293	96.31
289.524	84.31
289.755	82.31
289.986	71.31
290.217	79.31
290.448	96.31
290.679	89.31
290.91	84.31
291.141	90.31
291.371	77.31
291.602	76.31
291.833	94.31
292.064	72.31
292.295	83.31
292.526	88.31
292.757	80.31
292.987	94.31
293.218	78.31
293.449	83.31
293.68	88.31
293.91	91.31
294.141	90.31
294.372	90.31
294.603	86.31
294.833	80.31
295.064	93.31
295.295	87.31
295.525	96.31
295.756	95.31
295.987	113.31
296.217	125.31
296.448	108.31
296.679	91.31
296.909	84.31
297.14	80.31
297.37	86.31
297.601	87.31
297.831	89.31
298.062	92.31
298.292	87.31
298.523	92.31
298.753	80.31
298.984	72.31
299.214	85.31
299.445	97.31
299.675	96.31
299.905	102.31
300.136	88.31
300.366	87.31
300.597	92.31
300.827	96.31
301.057	103.31
301.288	104.31
301.518	79.31
301.748	87.31
301.979	93.31
302.209	89.31
302.439	95.31
302.669	88.31
302.9	85.31
303.13	90.31
303.36	91.31
303.59	76.31
303.82	93.31
304.051	91.31
304.281	86.31
304.511	103.31
304.741	83.31
304.971	88.31
305.201	98.31
305.431	91.31
305.661	80.31
305.891	94.31
306.121	88.31
306.352	102.31
306.582	100.31
306.812	75.31
307.042	96.31
307.272	87.31
307.502	98.31
307.731	104.31
307.961	83.31
308.191	78.31
308.421	88.31
308.651	94.31
308.881	97.31
309.111	108.31
309.341	89.31
309.571	90.31
309.8	83.31
310.03	79.31
310.26	79.31
310.49	76.31
310.72	97.31
310.949	101.31
311.179	100.31
311.409	95.31
311.639	86.31
311.868	104.31
312.098	86.31
312.328	100.31
312.557	96.31
312.787	99.31
313.017	81.31
313.246	87.31
313.476	95.31
313.706	90.31
313.935	83.31
314.165	89.31
314.394	107.31
314.624	92.31
314.853	104.31
315.083	108.31
315.312	96.31
315.542	99.31
315.771	85.31
316.001	86.31
316.23	85.31
316.46	75.31
316.689	77.31
316.919	103.31
317.148	91.31
317.377	89.31
317.607	95.31
317.836	101.31
318.065	88.31
318.295	93.31
318.524	75.31
318.753	87.31
318.983	96.31
319.212	95.31
319.441	109.31
319.67	105.31
319.9	97.31
320.129	96.31
320.358	87.31
320.587	88.31
320.816	100.31
321.046	93.31
321.275	111.31
321.504	99.31
321.733	92.31
321.962	108.31
322.191	90.31
322.42	108.31
322.649	113.31
322.878	97.31
323.108	102.31
323.337	118.31
323.566	121.31
323.795	127.31
324.024	197.31
324.253	377.31
324.482	795.31
324.71	1596.31
324.939	2079.31
325.168	762.31
325.397	235.31
325.626	151.31
325.855	131.31
326.084	125.31
326.313	131.31
326.542	149.31
326.77	224.31
326.999	452.31
327.228	909.31
327.457	1599.31
327.686	1287.31
327.914	356.31
328.143	177.31
328.372	120.31
328.6	112.31
328.829	107.31
329.058	115.31
329.287	120.31
329.515	109.31
329.744	104.31
329.972	93.31
330.201	92.31
330.43	103.31
330.658	107.31
330.887	131.31
331.115	108.31
331.344	96.31
331.572	117.31
331.801	105.31
332.03	100.31
332.258	93.31
332.486	100.31
332.715	96.31
332.943	88.31
333.172	90.31
333.4	97.31
333.629	105.31
333.857	103.31
334.085	98.31
334.314	113.31
334.542	99.31
334.771	124.31
334.999	100.31
335.227	97.31
335.455	96.31
335.684	92.31
335.912	85.31
336.14	94.31
336.369	104.31
336.597	96.31
336.825	92.31
337.053	92.31
337.281	83.31
337.51	88.31
337.738	86.31
337.966	93.31
338.194	94.31
338.422	101.31
338.65	109.31
338.878	88.31
339.106	86.31
339.334	100.31
339.562	89.31
339.79	94.31
340.018	98.31
340.246	94.31
340.474	78.31
340.702	87.31
340.93	93.31
341.158	102.31
341.386	95.31
341.614	100.31
341.842	83.31
342.07	82.31
342.298	97.31
342.526	94.31
342.754	95.31
342.981	95.31
343.209	90.31
343.437	109.31
343.665	64.31
343.893	75.31
344.12	101.31
344.348	81.31
344.576	91.31
344.804	100.31
345.031	92.31
345.259	77.31
345.487	90.31
345.714	94.31
345.942	87.31
346.17	89.31
346.397	92.31
346.625	83.31
346.853	105.31
347.08	96.31
347.308	100.31
347.535	105.31
347.763	97.31
347.99	91.31
348.218	99.31
348.445	103.31
348.673	97.31
348.9	103.31
349.128	86.31
349.355	97.31
349.583	99.31
349.81	84.31
350.037	81.31
350.265	96.31
350.492	94.31
350.72	89.31
350.947	89.31
351.174	103.31
351.402	103.31
351.629	98.31
351.856	118.31
352.083	97.31
352.311	103.31
352.538	101.31
352.765	111.31
352.992	119.31
353.22	105.31
353.447	106.31
353.674	96.31
353.901	112.31
354.128	97.31
354.355	100.31
354.583	84.31
354.81	105.31
355.037	98.31
355.264	92.31
355.491	104.31
355.718	92.31
355.945	100.31
356.172	98.31
356.399	102.31
356.626	110.31
356.853	96.31
357.08	96.31
357.307	101.31
357.534	97.31
357.761	88.31
357.988	100.31
358.215	93.31
358.441	89.31
358.668	103.31
358.895	91.31
359.122	87.31
359.349	88.31
359.576	89.31
359.802	100.31
360.029	102.31
360.256	106.31
360.483	85.31
360.709	93.31
360.936	111.31
361.163	96.31
361.39	84.31
361.616	86.31
361.843	83.31
362.07	89.31
362.296	92.31
362.523	98.31
362.749	72.31
362.976	88.31
363.203	94.31
363.429	86.31
363.656	86.31
363.882	92.31
364.109	85.31
364.335	86.31
364.562	95.31
364.788	91.31
365.015	102.31
365.241	87.31
365.468	97.31
365.694	90.31
365.92	79.31
366.147	77.31
366.373	80.31
366.599	91.31
366.826	83.31
367.052	93.31
367.278	100.31
367.505	81.31
367.731	91.31
367.957	87.31
368.184	90.31
368.41	92.31
368.636	96.31
368.862	109.31
369.089	99.31
369.315	93.31
369.541	86.31
369.767	94.31
369.993	93.31
370.219	86.31
370.445	84.31
370.672	83.31
370.898	89.31
371.124	76.31
371.35	78.31
371.576	89.31
371.802	80.31
372.028	84.31
372.254	87.31
372.48	87.31
372.706	87.31
372.932	91.31
373.158	96.31
373.384	96.31
373.61	88.31
373.835	87.31
374.061	80.31
374.287	95.31
374.513	102.31
374.739	93.31
374.965	95.31
375.191	91.31
375.416	95.31
375.642	99.31
375.868	81.31
376.094	89.31
376.319	84.31
376.545	97.31
376.771	83.31
376.997	80.31
377.222	88.31
377.448	101.31
377.674	91.31
377.899	94.31
378.125	87.31
378.35	96.31
378.576	86.31
378.802	94.31
379.027	94.31
379.253	89.31
379.478	86.31
379.704	85.31
379.929	97.31
380.155	94.31
380.38	108.31
380.606	100.31
380.831	104.31
381.057	109.31
381.282	97.31
381.507	100.31
381.733	95.31
381.958	108.31
382.184	107.31
382.409	117.31
382.634	105.31
382.86	108.31
383.085	101.31
383.31	114.31
383.535	112.31
383.761	102.31
383.986	123.31
384.211	110.31
384.436	101.31
384.662	111.31
384.887	142.31
385.112	123.31
385.337	131.31
385.562	121.31
385.787	127.31
386.013	131.31
386.238	140.31
386.463	131.31
386.688	135.31
386.913	113.31
387.138	131.31
387.363	125.31
387.588	106.31
387.813	113.31
388.038	118.31
388.263	135.31
388.488	128.31
388.713	115.31
388.938	99.31
389.163	100.31
389.387	94.31
389.612	101.31
389.837	92.31
390.062	103.31
390.287	89.31
390.512	92.31
390.736	88.31
390.961	102.31
391.186	93.31
391.411	101.31
391.636	90.31
391.86	81.31
392.085	88.31
392.31	85.31
392.534	88.31
392.759	87.31
392.984	78.31
393.208	89.31
393.433	96.31
393.658	92.31
393.882	94.31
394.107	89.31
394.331	80.31
394.556	102.31
394.78	89.31
395.005	85.31
395.229	92.31
395.454	87.31
395.678	71.31
395.903	96.31
396.127	94.31
396.352	89.31
396.576	86.31
396.801	103.31
397.025	85.31
397.249	91.31
397.474	87.31
397.698	103.31
397.922	73.31
398.147	92.31
398.371	86.31
398.595	92.31
398.82	86.31
399.044	87.31
399.268	85.31
399.492	88.31
399.717	84.31
399.941	88.31
400.165	91.31
400.389	85.31
400.613	85.31
400.837	83.31
401.062	86.31
401.286	88.31
401.51	86.31
401.734	101.31
401.958	111.31
402.182	117.31
402.406	145.31
402.63	109.31
402.854	87.31
403.078	87.31
403.302	83.31
403.526	88.31
403.75	92.31
403.974	92.31
404.198	90.31
404.422	85.31
404.645	93.31
404.869	107.31
405.093	93.31
405.317	99.31
405.541	90.31
405.765	111.31
405.988	110.31
406.212	166.31
406.436	177.31
406.66	124.31
406.883	79.31
407.107	91.31
407.331	92.31
407.555	79.31
407.778	97.31
408.002	84.31
408.226	100.31
408.449	99.31
408.673	63.31
408.896	94.31
409.12	94.31
409.344	97.31
409.567	85.31
409.791	85.31
410.014	95.31
410.238	88.31
410.461	93.31
410.685	100.31
410.908	112.31
411.132	106.31
411.355	92.31
411.578	84.31
411.802	89.31
412.025	88.31
412.249	101.31
412.472	81.31
412.695	87.31
412.919	92.31
413.142	96.31
413.365	96.31
413.589	93.31
413.812	102.31
414.035	101.31
414.258	89.31
414.482	90.31
414.705	85.31
414.928	100.31
415.151	94.31
415.374	97.31
415.597	103.31
415.821	89.31
416.044	81.31
416.267	86.31
416.49	89.31
416.713	79.31
416.936	89.31
417.159	81.31
417.382	78.31
417.605	85.31
417.828	86.31
418.051	82.31
418.274	79.31
418.497	88.31
418.72	85.31
418.943	87.31
419.166	86.31
419.389	76.31
419.611	91.31
419.834	101.31
420.057	93.31
420.28	88.31
420.503	67.31
420.726	76.31
420.948	88.31
421.171	95.31
421.394	95.31
421.617	75.31
421.839	92.31
422.062	91.31
422.285	90.31
422.507	91.31
422.73	89.31
422.953	92.31
423.175	95.31
423.398	83.31
423.621	67.31
423.843	82.31
424.066	80.31
424.288	83.31
424.511	92.31
424.733	88.31
424.956	101.31
425.178	93.31
425.401	94.31
425.623	119.31
425.846	88.31
426.068	89.31
426.291	88.31
426.513	90.31
426.735	92.31
426.958	102.31
427.18	103.31
427.402	108.31
427.625	151.31
427.847	113.31
428.069	112.31
428.292	89.31
428.514	87.31
428.736	88.31
428.958	87.31
429.181	98.31
429.403	74.31
429.625	75.31
429.847	85.31
430.069	110.31
430.292	81.31
430.514	77.31
430.736	85.31
430.958	94.31
431.18	81.31
431.402	86.31
431.624	84.31
431.846	86.31
432.068	93.31
432.29	87.31
432.512	85.31
432.734	94.31
432.956	91.31
433.178	87.31
433.4	101.31
433.622	87.31
433.844	95.31
434.066	88.31
434.287	87.31
434.509	90.31
434.731	89.31
434.953	82.31
435.175	83.31
435.397	92.31
435.618	91.31
435.84	94.31
436.062	103.31
436.284	92.31
436.505	109.31
436.727	92.31
436.949	84.31
437.17	77.31
437.392	74.31
437.614	88.31
437.835	108.31
438.057	104.31
438.278	112.31
438.5	95.31
438.721	125.31
438.943	98.31
439.165	72.31
439.386	85.31
439.608	93.31
439.829	92.31
440.05	112.31
440.272	138.31
440.493	95.31
440.715	95.31
440.936	97.31
441.158	87.31
441.379	91.31
441.6	82.31
441.822	86.31
442.043	107.31
442.264	91.31
442.486	103.31
442.707	91.31
442.928	95.31
443.149	103.31
443.371	119.31
443.592	91.31
443.813	97.31
444.034	95.31
444.255	86.31
444.476	79.31
444.698	96.31
444.919	78.31
445.14	118.31
445.361	119.31
445.582	108.31
445.803	124.31
446.024	125.31
446.245	111.31
446.466	114.31
446.687	97.31
446.908	81.31
447.129	95.31
447.35	85.31
447.571	88.31
447.792	75.31
448.013	86.31
448.234	86.31
448.455	93.31
448.675	112.31
448.896	132.31
449.117	101.31
449.338	87.31
449.559	110.31
449.779	109.31
450	96.31
450.221	87.31
450.442	90.31
450.662	78.31
450.883	99.31
451.104	103.31
451.324	92.31
451.545	95.31
451.766	81.31
451.986	79.31
452.207	92.31
452.428	92.31
452.648	104.31
452.869	121.31
453.089	94.31
453.31	109.31
453.53	102.31
453.751	88.31
453.971	98.31
454.192	92.31
454.412	99.31
454.633	84.31
454.853	88.31
455.073	83.31
455.294	89.31
455.514	95.31
455.734	83.31
455.955	70.31
456.175	95.31
456.395	90.31
456.616	84.31
456.836	97.31
457.056	86.31
457.276	92.31
457.497	83.31
457.717	71.31
457.937	81.31
458.157	89.31
458.377	86.31
458.598	96.31
458.818	125.31
459.038	122.31
459.258	97.31
459.478	81.31
459.698	92.31
459.918	90.31
460.138	88.31
460.358	80.31
460.578	92.31
460.798	85.31
461.018	96.31
461.238	65.31
461.458	75.31
461.678	84.31
461.898	99.31
462.118	87.31
462.338	92.31
462.558	94.31
462.777	80.31
462.997	80.31
463.217	90.31
463.437	93.31
463.657	88.31
463.876	85.31
464.096	99.31
464.316	87.31
464.536	81.31
464.755	76.31
464.975	109.31
465.195	149.31
465.414	141.31
465.634	79.31
465.854	89.31
466.073	88.31
466.293	91.31
466.512	79.31
466.732	73.31
466.951	85.31
467.171	89.31
467.391	98.31
467.61	87.31
467.829	88.31
468.049	93.31
468.268	88.31
468.488	86.31
468.707	82.31
468.927	76.31
469.146	75.31
469.365	102.31
469.585	83.31
469.804	81.31
470.023	88.31
470.243	93.31
470.462	91.31
470.681	97.31
470.901	77.31
471.12	85.31
471.339	83.31
471.558	78.31
471.777	80.31
471.997	84.31
472.216	76.31
472.435	111.31
472.654	96.31
472.873	89.31
473.092	88.31
473.311	72.31
473.53	74.31
473.749	90.31
473.968	90.31
474.187	101.31
474.406	93.31
474.625	86.31
474.844	91.31
475.063	71.31
475.282	100.31
475.501	94.31
475.72	83.31
475.939	92.31
476.158	81.31
476.377	74.31
476.596	75.31
476.814	103.31
477.033	92.31
477.252	83.31
477.471	67.31
477.69	92.31
477.908	97.31
478.127	84.31
478.346	76.31
478.564	80.31
478.783	91.31
479.002	92.31
479.22	96.31
479.439	103.31
479.658	109.31
479.876	107.31
480.095	98.31
480.313	88.31
480.532	74.31
480.751	77.31
480.969	98.31
481.188	129.31
481.406	117.31
481.624	93.31
481.843	86.31
482.061	88.31
482.28	87.31
482.498	92.31
482.717	93.31
482.935	101.31
483.153	89.31
483.372	78.31
483.59	84.31
483.808	93.31
484.027	86.31
484.245	89.31
484.463	95.31
484.681	96.31
484.9	103.31
485.118	91.31
485.336	85.31
485.554	95.31
485.772	111.31
485.99	108.31
486.209	102.31
486.427	113.31
486.645	113.31
486.863	118.31
487.081	101.31
487.299	93.31
487.517	103.31
487.735	93.31
487.953	90.31
488.171	88.31
488.389	92.31
488.607	92.31
488.825	96.31
489.043	92.31
489.261	93.31
489.479	96.31
489.696	96.31
489.914	89.31
490.132	77.31
490.35	89.31
490.568	86.31
490.786	81.31
491.003	79.31
491.221	93.31
491.439	93.31
491.657	88.31
491.874	88.31
492.092	86.31
492.31	101.31
492.527	95.31
492.745	92.31
492.963	87.31
493.18	71.31
493.398	78.31
493.615	101.31
493.833	105.31
494.05	85.31
494.268	80.31
494.485	86.31
494.703	87.31
494.92	99.31
495.138	86.31
495.355	89.31
495.573	89.31
495.79	90.31
496.008	85.31
496.225	72.31
496.442	97.31
496.66	106.31
496.877	101.31
497.094	87.31
497.312	86.31
497.529	88.31
497.746	106.31
497.963	90.31
498.181	96.31
498.398	99.31
498.615	79.31
498.832	106.31
499.049	89.31
499.267	89.31
499.484	96.31
499.701	97.31
499.918	94.31
500.135	81.31
500.352	97.31
500.569	89.31
500.786	101.31
501.003	80.31
501.22	96.31
501.437	88.31
501.654	68.31
501.871	108.31
502.088	102.31
502.305	91.31
502.522	74.31
502.739	94.31
502.956	82.31
503.172	106.31
503.389	92.31
503.606	95.31
503.823	94.31
504.04	92.31
504.256	97.31
504.473	94.31
504.69	97.31
504.907	89.31
505.123	78.31
505.34	84.31
505.557	90.31
505.773	80.31
505.99	91.31
506.207	83.31
506.423	89.31
506.64	90.31
506.856	83.31
507.073	92.31
507.289	83.31
507.506	101.31
507.722	104.31
507.939	104.31
508.155	87.31
508.372	79.31
508.588	90.31
508.805	92.31
509.021	86.31
509.238	84.31
509.454	100.31
509.67	108.31
509.887	115.31
510.103	117.31
510.319	201.31
510.536	652.31
510.752	2113.31
510.968	573.31
511.184	132.31
511.401	90.31
511.617	91.31
511.833	97.31
512.049	99.31
512.265	108.31
512.481	87.31
512.698	89.31
512.914	89.31
513.13	87.31
513.346	103.31
513.562	84.31
513.778	93.31
513.994	98.31
514.21	102.31
514.426	101.31
514.642	111.31
514.858	117.31
515.074	155.31
515.29	403.31
515.506	1180.31
515.721	455.31
515.937	135.31
