Data from Uncirc_1999_H10_HRD10591_00092.txt Node
Date: Wed Jan 03 11:22:23 EST 2024
User: Yrep
Spectrometer: HR+D1059
Trigger mode: 1
Integration Time (sec): 1.000000E-1
Scans to average: 1
Electric dark correction enabled: true
Nonlinearity correction enabled: false
Boxcar width: 0
XAxis mode: Wavelengths
Number of Pixels in Spectrum: 2048
>>>>>Begin Spectral Data<<<<<
223.165	-11.19
223.4	-11.19
223.635	-11.19
223.869	-24.19
224.104	-11.19
224.338	-5.19
224.573	-5.19
224.808	-7.19
225.042	-9.19
225.277	-20.19
225.511	-7.19
225.746	0.81
225.98	7.81
226.215	6.81
226.449	8.81
226.683	19.81
226.918	22.81
227.152	33.81
227.387	43.81
227.621	39.81
227.856	44.81
228.09	57.81
228.324	51.81
228.559	58.81
228.793	58.81
229.027	68.81
229.262	63.81
229.496	65.81
229.73	93.81
229.964	86.81
230.199	64.81
230.433	60.81
230.667	78.81
230.901	87.81
231.136	85.81
231.37	80.81
231.604	82.81
231.838	70.81
232.072	75.81
232.306	77.81
232.541	75.81
232.775	78.81
233.009	85.81
233.243	86.81
233.477	96.81
233.711	81.81
233.945	71.81
234.179	67.81
234.413	78.81
234.647	88.81
234.881	74.81
235.115	73.81
235.349	80.81
235.583	96.81
235.817	70.81
236.051	90.81
236.285	70.81
236.519	71.81
236.753	80.81
236.987	84.81
237.221	74.81
237.455	93.81
237.689	83.81
237.922	74.81
238.156	69.81
238.39	73.81
238.624	78.81
238.858	89.81
239.091	82.81
239.325	80.81
239.559	81.81
239.793	82.81
240.027	86.81
240.26	88.81
240.494	65.81
240.728	76.81
240.961	64.81
241.195	74.81
241.429	77.81
241.662	69.81
241.896	79.81
242.13	84.81
242.363	75.81
242.597	84.81
242.83	57.81
243.064	93.81
243.298	77.81
243.531	68.81
243.765	90.81
243.998	82.81
244.232	79.81
244.465	87.81
244.699	77.81
244.932	79.81
245.166	75.81
245.399	72.81
245.633	71.81
245.866	65.81
246.099	85.81
246.333	73.81
246.566	66.81
246.8	63.81
247.033	70.81
247.266	73.81
247.5	70.81
247.733	69.81
247.966	80.81
248.2	83.81
248.433	78.81
248.666	85.81
248.899	74.81
249.133	83.81
249.366	82.81
249.599	83.81
249.832	80.81
250.066	84.81
250.299	78.81
250.532	72.81
250.765	76.81
250.998	80.81
251.231	76.81
251.465	72.81
251.698	68.81
251.931	72.81
252.164	83.81
252.397	87.81
252.63	75.81
252.863	74.81
253.096	69.81
253.329	88.81
253.562	79.81
253.795	77.81
254.028	88.81
254.261	85.81
254.494	85.81
254.727	69.81
254.96	85.81
255.193	78.81
255.426	79.81
255.659	89.81
255.892	91.81
256.124	63.81
256.357	73.81
256.59	81.81
256.823	78.81
257.056	67.81
257.289	81.81
257.521	91.81
257.754	97.81
257.987	97.81
258.22	75.81
258.452	78.81
258.685	90.81
258.918	96.81
259.151	85.81
259.383	82.81
259.616	67.81
259.849	80.81
260.081	78.81
260.314	88.81
260.547	87.81
260.779	84.81
261.012	103.81
261.244	82.81
261.477	82.81
261.71	87.81
261.942	106.81
262.175	109.81
262.407	90.81
262.64	73.81
262.872	78.81
263.105	80.81
263.337	93.81
263.57	79.81
263.802	77.81
264.035	81.81
264.267	85.81
264.499	80.81
264.732	79.81
264.964	82.81
265.197	79.81
265.429	72.81
265.661	82.81
265.894	77.81
266.126	85.81
266.358	83.81
266.591	79.81
266.823	75.81
267.055	68.81
267.287	94.81
267.52	85.81
267.752	86.81
267.984	103.81
268.216	80.81
268.448	83.81
268.681	83.81
268.913	78.81
269.145	65.81
269.377	94.81
269.609	80.81
269.841	85.81
270.073	93.81
270.306	85.81
270.538	84.81
270.77	80.81
271.002	101.81
271.234	94.81
271.466	83.81
271.698	84.81
271.93	92.81
272.162	89.81
272.394	96.81
272.626	84.81
272.858	74.81
273.09	91.81
273.322	88.81
273.553	85.81
273.785	75.81
274.017	81.81
274.249	78.81
274.481	87.81
274.713	87.81
274.945	91.81
275.176	68.81
275.408	83.81
275.64	93.81
275.872	84.81
276.104	97.81
276.335	78.81
276.567	97.81
276.799	91.81
277.031	93.81
277.262	77.81
277.494	79.81
277.726	83.81
277.957	82.81
278.189	92.81
278.421	86.81
278.652	87.81
278.884	89.81
279.115	89.81
279.347	82.81
279.579	67.81
279.81	81.81
280.042	83.81
280.273	85.81
280.505	78.81
280.736	96.81
280.968	89.81
281.199	86.81
281.431	87.81
281.662	91.81
281.894	96.81
282.125	92.81
282.356	120.81
282.588	122.81
282.819	106.81
283.051	85.81
283.282	76.81
283.513	93.81
283.745	103.81
283.976	88.81
284.207	89.81
284.439	85.81
284.67	74.81
284.901	83.81
285.132	81.81
285.364	79.81
285.595	87.81
285.826	89.81
286.057	89.81
286.288	85.81
286.52	76.81
286.751	78.81
286.982	91.81
287.213	79.81
287.444	85.81
287.675	96.81
287.906	93.81
288.138	93.81
288.369	96.81
288.6	101.81
288.831	90.81
289.062	79.81
289.293	83.81
289.524	72.81
289.755	77.81
289.986	87.81
290.217	79.81
290.448	84.81
290.679	81.81
290.91	85.81
291.141	88.81
291.371	91.81
291.602	71.81
291.833	84.81
292.064	97.81
292.295	97.81
292.526	89.81
292.757	83.81
292.987	79.81
293.218	76.81
293.449	85.81
293.68	99.81
293.91	95.81
294.141	83.81
294.372	89.81
294.603	96.81
294.833	83.81
295.064	78.81
295.295	95.81
295.525	78.81
295.756	87.81
295.987	104.81
296.217	133.81
296.448	110.81
296.679	97.81
296.909	100.81
297.14	83.81
297.37	100.81
297.601	75.81
297.831	91.81
298.062	88.81
298.292	91.81
298.523	89.81
298.753	85.81
298.984	88.81
299.214	108.81
299.445	83.81
299.675	98.81
299.905	84.81
300.136	100.81
300.366	97.81
300.597	104.81
300.827	83.81
301.057	95.81
301.288	81.81
301.518	86.81
301.748	76.81
301.979	94.81
302.209	89.81
302.439	93.81
302.669	98.81
302.9	85.81
303.13	80.81
303.36	91.81
303.59	106.81
303.82	99.81
304.051	100.81
304.281	88.81
304.511	97.81
304.741	87.81
304.971	75.81
305.201	89.81
305.431	92.81
305.661	91.81
305.891	96.81
306.121	102.81
306.352	101.81
306.582	88.81
306.812	90.81
307.042	92.81
307.272	77.81
307.502	104.81
307.731	105.81
307.961	89.81
308.191	96.81
308.421	83.81
308.651	94.81
308.881	93.81
309.111	92.81
309.341	86.81
309.571	102.81
309.8	96.81
310.03	97.81
310.26	103.81
310.49	83.81
310.72	91.81
310.949	93.81
311.179	98.81
311.409	94.81
311.639	100.81
311.868	102.81
312.098	87.81
312.328	91.81
312.557	102.81
312.787	87.81
313.017	89.81
313.246	71.81
313.476	94.81
313.706	85.81
313.935	102.81
314.165	102.81
314.394	95.81
314.624	86.81
314.853	99.81
315.083	80.81
315.312	92.81
315.542	82.81
315.771	94.81
316.001	97.81
316.23	76.81
316.46	80.81
316.689	91.81
316.919	100.81
317.148	95.81
317.377	92.81
317.607	85.81
317.836	101.81
318.065	94.81
318.295	88.81
318.524	84.81
318.753	100.81
318.983	84.81
319.212	89.81
319.441	90.81
319.67	100.81
319.9	90.81
320.129	106.81
320.358	88.81
320.587	99.81
320.816	104.81
321.046	101.81
321.275	90.81
321.504	95.81
321.733	91.81
321.962	92.81
322.191	99.81
322.42	94.81
322.649	97.81
322.878	110.81
323.108	109.81
323.337	118.81
323.566	138.81
323.795	155.81
324.024	192.81
324.253	400.81
324.482	863.81
324.71	1733.81
324.939	2270.81
325.168	819.81
325.397	251.81
325.626	134.81
325.855	123.81
326.084	127.81
326.313	147.81
326.542	158.81
326.77	237.81
326.999	477.81
327.228	969.81
327.457	1769.81
327.686	1411.81
327.914	368.81
328.143	188.81
328.372	160.81
328.6	121.81
328.829	109.81
329.058	127.81
329.287	107.81
329.515	112.81
329.744	97.81
329.972	93.81
330.201	94.81
330.43	93.81
330.658	103.81
330.887	138.81
331.115	121.81
331.344	98.81
331.572	100.81
331.801	103.81
332.03	85.81
332.258	97.81
332.486	107.81
332.715	107.81
332.943	85.81
333.172	101.81
333.4	89.81
333.629	93.81
333.857	112.81
334.085	113.81
334.314	101.81
334.542	100.81
334.771	105.81
334.999	92.81
335.227	88.81
335.455	99.81
335.684	105.81
335.912	101.81
336.14	106.81
336.369	101.81
336.597	104.81
336.825	102.81
337.053	90.81
337.281	77.81
337.51	78.81
337.738	95.81
337.966	90.81
338.194	93.81
338.422	92.81
338.65	85.81
338.878	96.81
339.106	95.81
339.334	94.81
339.562	84.81
339.79	87.81
340.018	89.81
340.246	86.81
340.474	96.81
340.702	96.81
340.93	81.81
341.158	91.81
341.386	87.81
341.614	89.81
341.842	90.81
342.07	96.81
342.298	95.81
342.526	97.81
342.754	92.81
342.981	81.81
343.209	87.81
343.437	85.81
343.665	96.81
343.893	79.81
344.12	83.81
344.348	78.81
344.576	100.81
344.804	93.81
345.031	105.81
345.259	94.81
345.487	92.81
345.714	91.81
345.942	87.81
346.17	109.81
346.397	105.81
346.625	81.81
346.853	94.81
347.08	97.81
347.308	100.81
347.535	102.81
347.763	91.81
347.99	91.81
348.218	102.81
348.445	97.81
348.673	105.81
348.9	104.81
349.128	104.81
349.355	94.81
349.583	87.81
349.81	86.81
350.037	97.81
350.265	94.81
350.492	89.81
350.72	97.81
350.947	105.81
351.174	101.81
351.402	97.81
351.629	90.81
351.856	106.81
352.083	116.81
352.311	105.81
352.538	102.81
352.765	101.81
352.992	108.81
353.22	115.81
353.447	102.81
353.674	112.81
353.901	103.81
354.128	100.81
354.355	95.81
354.583	109.81
354.81	93.81
355.037	108.81
355.264	99.81
355.491	99.81
355.718	88.81
355.945	83.81
356.172	85.81
356.399	92.81
356.626	108.81
356.853	100.81
357.08	94.81
357.307	86.81
357.534	93.81
357.761	91.81
357.988	92.81
358.215	101.81
358.441	100.81
358.668	87.81
358.895	86.81
359.122	81.81
359.349	83.81
359.576	102.81
359.802	102.81
360.029	100.81
360.256	104.81
360.483	93.81
360.709	88.81
360.936	93.81
361.163	87.81
361.39	79.81
361.616	102.81
361.843	87.81
362.07	103.81
362.296	97.81
362.523	86.81
362.749	82.81
362.976	83.81
363.203	89.81
363.429	75.81
363.656	77.81
363.882	96.81
364.109	94.81
364.335	94.81
364.562	79.81
364.788	77.81
365.015	95.81
365.241	103.81
365.468	98.81
365.694	94.81
365.92	94.81
366.147	86.81
366.373	86.81
366.599	86.81
366.826	88.81
367.052	87.81
367.278	96.81
367.505	91.81
367.731	82.81
367.957	86.81
368.184	83.81
368.41	93.81
368.636	109.81
368.862	116.81
369.089	100.81
369.315	92.81
369.541	100.81
369.767	91.81
369.993	75.81
370.219	72.81
370.445	80.81
370.672	91.81
370.898	89.81
371.124	104.81
371.35	83.81
371.576	84.81
371.802	94.81
372.028	92.81
372.254	84.81
372.48	88.81
372.706	92.81
372.932	88.81
373.158	85.81
373.384	86.81
373.61	81.81
373.835	91.81
374.061	83.81
374.287	87.81
374.513	93.81
374.739	90.81
374.965	103.81
375.191	75.81
375.416	96.81
375.642	87.81
375.868	107.81
376.094	89.81
376.319	88.81
376.545	65.81
376.771	93.81
376.997	101.81
377.222	87.81
377.448	91.81
377.674	76.81
377.899	93.81
378.125	78.81
378.35	97.81
378.576	82.81
378.802	82.81
379.027	95.81
379.253	93.81
379.478	90.81
379.704	83.81
379.929	69.81
380.155	103.81
380.38	108.81
380.606	88.81
380.831	99.81
381.057	83.81
381.282	94.81
381.507	86.81
381.733	103.81
381.958	100.81
382.184	97.81
382.409	96.81
382.634	105.81
382.86	107.81
383.085	90.81
383.31	91.81
383.535	103.81
383.761	106.81
383.986	94.81
384.211	92.81
384.436	85.81
384.662	99.81
384.887	106.81
385.112	92.81
385.337	89.81
385.562	95.81
385.787	103.81
386.013	95.81
386.238	101.81
386.463	123.81
386.688	92.81
386.913	98.81
387.138	102.81
387.363	99.81
387.588	101.81
387.813	117.81
388.038	123.81
388.263	93.81
388.488	99.81
388.713	100.81
388.938	103.81
389.163	92.81
389.387	88.81
389.612	95.81
389.837	88.81
390.062	82.81
390.287	90.81
390.512	107.81
390.736	108.81
390.961	92.81
391.186	87.81
391.411	100.81
391.636	90.81
391.86	90.81
392.085	94.81
392.31	84.81
392.534	94.81
392.759	83.81
392.984	94.81
393.208	86.81
393.433	84.81
393.658	84.81
393.882	85.81
394.107	80.81
394.331	65.81
394.556	85.81
394.78	83.81
395.005	75.81
395.229	81.81
395.454	83.81
395.678	90.81
395.903	88.81
396.127	71.81
396.352	75.81
396.576	83.81
396.801	99.81
397.025	84.81
397.249	84.81
397.474	103.81
397.698	85.81
397.922	84.81
398.147	83.81
398.371	78.81
398.595	83.81
398.82	93.81
399.044	86.81
399.268	90.81
399.492	91.81
399.717	96.81
399.941	96.81
400.165	92.81
400.389	76.81
400.613	87.81
400.837	96.81
401.062	92.81
401.286	97.81
401.51	95.81
401.734	76.81
401.958	89.81
402.182	111.81
402.406	145.81
402.63	105.81
402.854	83.81
403.078	95.81
403.302	84.81
403.526	71.81
403.75	92.81
403.974	82.81
404.198	78.81
404.422	85.81
404.645	88.81
404.869	85.81
405.093	101.81
405.317	86.81
405.541	96.81
405.765	86.81
405.988	102.81
406.212	157.81
406.436	187.81
406.66	115.81
406.883	100.81
407.107	85.81
407.331	103.81
407.555	95.81
407.778	100.81
408.002	92.81
408.226	79.81
408.449	78.81
408.673	97.81
408.896	89.81
409.12	98.81
409.344	77.81
409.567	91.81
409.791	88.81
410.014	96.81
410.238	83.81
410.461	83.81
410.685	97.81
410.908	91.81
411.132	100.81
411.355	80.81
411.578	99.81
411.802	90.81
412.025	82.81
412.249	103.81
412.472	97.81
412.695	85.81
412.919	82.81
413.142	83.81
413.365	87.81
413.589	84.81
413.812	79.81
414.035	83.81
414.258	85.81
414.482	99.81
414.705	86.81
414.928	102.81
415.151	92.81
415.374	91.81
415.597	91.81
415.821	88.81
416.044	76.81
416.267	91.81
416.49	87.81
416.713	91.81
416.936	92.81
417.159	95.81
417.382	86.81
417.605	90.81
417.828	94.81
418.051	101.81
418.274	93.81
418.497	87.81
418.72	74.81
418.943	88.81
419.166	101.81
419.389	89.81
419.611	81.81
419.834	82.81
420.057	93.81
420.28	93.81
420.503	87.81
420.726	95.81
420.948	99.81
421.171	96.81
421.394	90.81
421.617	92.81
421.839	82.81
422.062	94.81
422.285	98.81
422.507	97.81
422.73	107.81
422.953	83.81
423.175	83.81
423.398	100.81
423.621	88.81
423.843	91.81
424.066	77.81
424.288	80.81
424.511	94.81
424.733	97.81
424.956	96.81
425.178	89.81
425.401	95.81
425.623	91.81
425.846	89.81
426.068	95.81
426.291	86.81
426.513	90.81
426.735	91.81
426.958	87.81
427.18	95.81
427.402	133.81
427.625	152.81
427.847	117.81
428.069	104.81
428.292	82.81
428.514	94.81
428.736	86.81
428.958	93.81
429.181	79.81
429.403	93.81
429.625	88.81
429.847	96.81
430.069	106.81
430.292	74.81
430.514	86.81
430.736	89.81
430.958	88.81
431.18	92.81
431.402	89.81
431.624	79.81
431.846	101.81
432.068	90.81
432.29	87.81
432.512	89.81
432.734	90.81
432.956	77.81
433.178	72.81
433.4	96.81
433.622	84.81
433.844	82.81
434.066	89.81
434.287	87.81
434.509	84.81
434.731	75.81
434.953	87.81
435.175	91.81
435.397	86.81
435.618	77.81
435.84	103.81
436.062	116.81
436.284	109.81
436.505	93.81
436.727	89.81
436.949	96.81
437.17	92.81
437.392	85.81
437.614	90.81
437.835	105.81
438.057	107.81
438.278	109.81
438.5	104.81
438.721	115.81
438.943	91.81
439.165	78.81
439.386	94.81
439.608	93.81
439.829	90.81
440.05	104.81
440.272	143.81
440.493	96.81
440.715	85.81
440.936	89.81
441.158	86.81
441.379	84.81
441.6	91.81
441.822	84.81
442.043	80.81
442.264	91.81
442.486	88.81
442.707	95.81
442.928	103.81
443.149	118.81
443.371	130.81
443.592	118.81
443.813	104.81
444.034	97.81
444.255	88.81
444.476	102.81
444.698	83.81
444.919	82.81
445.14	109.81
445.361	106.81
445.582	100.81
445.803	131.81
446.024	132.81
446.245	121.81
446.466	106.81
446.687	80.81
446.908	82.81
447.129	83.81
447.35	83.81
447.571	94.81
447.792	101.81
448.013	94.81
448.234	102.81
448.455	97.81
448.675	101.81
448.896	115.81
449.117	106.81
449.338	98.81
449.559	124.81
449.779	136.81
450	105.81
450.221	83.81
450.442	100.81
450.662	89.81
450.883	84.81
451.104	107.81
451.324	89.81
451.545	71.81
451.766	80.81
451.986	79.81
452.207	95.81
452.428	75.81
452.648	93.81
452.869	109.81
453.089	108.81
453.31	111.81
453.53	100.81
453.751	105.81
453.971	98.81
454.192	94.81
454.412	78.81
454.633	101.81
454.853	77.81
455.073	95.81
455.294	90.81
455.514	94.81
455.734	104.81
455.955	81.81
456.175	85.81
456.395	81.81
456.616	91.81
456.836	77.81
457.056	97.81
457.276	90.81
457.497	80.81
457.717	82.81
457.937	81.81
458.157	80.81
458.377	87.81
458.598	101.81
458.818	131.81
459.038	147.81
459.258	108.81
459.478	90.81
459.698	78.81
459.918	85.81
460.138	80.81
460.358	72.81
460.578	67.81
460.798	78.81
461.018	99.81
461.238	84.81
461.458	91.81
461.678	103.81
461.898	78.81
462.118	80.81
462.338	81.81
462.558	87.81
462.777	88.81
462.997	75.81
463.217	91.81
463.437	104.81
463.657	83.81
463.876	93.81
464.096	74.81
464.316	85.81
464.536	79.81
464.755	88.81
464.975	116.81
465.195	139.81
465.414	137.81
465.634	88.81
465.854	90.81
466.073	87.81
466.293	86.81
466.512	78.81
466.732	87.81
466.951	88.81
467.171	93.81
467.391	79.81
467.61	80.81
467.829	83.81
468.049	94.81
468.268	86.81
468.488	73.81
468.707	97.81
468.927	76.81
469.146	77.81
469.365	77.81
469.585	76.81
469.804	89.81
470.023	84.81
470.243	88.81
470.462	84.81
470.681	109.81
470.901	85.81
471.12	105.81
471.339	83.81
471.558	92.81
471.777	90.81
471.997	90.81
472.216	76.81
472.435	86.81
472.654	85.81
472.873	92.81
473.092	86.81
473.311	77.81
473.53	73.81
473.749	88.81
473.968	103.81
474.187	87.81
474.406	98.81
474.625	84.81
474.844	93.81
475.063	84.81
475.282	87.81
475.501	81.81
475.72	95.81
475.939	87.81
476.158	83.81
476.377	89.81
476.596	91.81
476.814	96.81
477.033	97.81
477.252	75.81
477.471	87.81
477.69	79.81
477.908	81.81
478.127	95.81
478.346	85.81
478.564	98.81
478.783	84.81
479.002	87.81
479.22	99.81
479.439	100.81
479.658	93.81
479.876	104.81
480.095	91.81
480.313	73.81
480.532	93.81
480.751	83.81
480.969	102.81
481.188	118.81
481.406	102.81
481.624	95.81
481.843	83.81
482.061	86.81
482.28	84.81
482.498	91.81
482.717	80.81
482.935	95.81
483.153	92.81
483.372	89.81
483.59	98.81
483.808	92.81
484.027	100.81
484.245	91.81
484.463	89.81
484.681	102.81
484.9	84.81
485.118	97.81
485.336	92.81
485.554	97.81
485.772	105.81
485.99	99.81
486.209	108.81
486.427	110.81
486.645	106.81
486.863	105.81
487.081	91.81
487.299	95.81
487.517	86.81
487.735	94.81
487.953	97.81
488.171	88.81
488.389	83.81
488.607	89.81
488.825	95.81
489.043	94.81
489.261	80.81
489.479	75.81
489.696	87.81
489.914	83.81
490.132	90.81
490.35	77.81
490.568	92.81
490.786	88.81
491.003	74.81
491.221	82.81
491.439	85.81
491.657	90.81
491.874	86.81
492.092	88.81
492.31	94.81
492.527	92.81
492.745	92.81
492.963	85.81
493.18	85.81
493.398	93.81
493.615	96.81
493.833	88.81
494.05	86.81
494.268	76.81
494.485	93.81
494.703	89.81
494.92	87.81
495.138	104.81
495.355	101.81
495.573	99.81
495.79	97.81
496.008	84.81
496.225	87.81
496.442	89.81
496.66	94.81
496.877	86.81
497.094	102.81
497.312	88.81
497.529	95.81
497.746	77.81
497.963	77.81
498.181	81.81
498.398	90.81
498.615	112.81
498.832	96.81
499.049	90.81
499.267	92.81
499.484	103.81
499.701	84.81
499.918	102.81
500.135	77.81
500.352	78.81
500.569	104.81
500.786	97.81
501.003	100.81
501.22	92.81
501.437	84.81
501.654	88.81
501.871	101.81
502.088	92.81
502.305	83.81
502.522	84.81
502.739	91.81
502.956	98.81
503.172	80.81
503.389	111.81
503.606	110.81
503.823	100.81
504.04	90.81
504.256	89.81
504.473	96.81
504.69	92.81
504.907	93.81
505.123	81.81
505.34	88.81
505.557	87.81
505.773	90.81
505.99	93.81
506.207	85.81
506.423	93.81
506.64	91.81
506.856	85.81
507.073	91.81
507.289	100.81
507.506	98.81
507.722	92.81
507.939	96.81
508.155	99.81
508.372	99.81
508.588	81.81
508.805	91.81
509.021	94.81
509.238	93.81
509.454	101.81
509.67	96.81
509.887	101.81
510.103	131.81
510.319	218.81
510.536	707.81
510.752	2270.81
510.968	620.81
511.184	141.81
511.401	100.81
511.617	102.81
511.833	93.81
512.049	95.81
512.265	86.81
512.481	95.81
512.698	89.81
512.914	85.81
513.13	76.81
513.346	101.81
513.562	93.81
513.778	93.81
513.994	97.81
514.21	84.81
514.426	121.81
514.642	122.81
514.858	118.81
515.074	156.81
515.29	403.81
515.506	1308.81
515.721	480.81
515.937	158.81
516.153	102.81
