Data from Uncirc_1999_H10_HRD10591_00087.txt Node
Date: Wed Jan 03 11:22:22 EST 2024
User: Yrep
Spectrometer: HR+D1059
Trigger mode: 1
Integration Time (sec): 1.000000E-1
Scans to average: 1
Electric dark correction enabled: true
Nonlinearity correction enabled: false
Boxcar width: 0
XAxis mode: Wavelengths
Number of Pixels in Spectrum: 2048
>>>>>Begin Spectral Data<<<<<
223.165	-3.06
223.4	-3.06
223.635	-3.06
223.869	-22.06
224.104	-24.06
224.338	-27.06
224.573	-18.06
224.808	-18.06
225.042	-2.06
225.277	4.94
225.511	4.94
225.746	-1.06
225.98	5.94
226.215	4.94
226.449	21.94
226.683	19.94
226.918	16.94
227.152	35.94
227.387	22.94
227.621	47.94
227.856	38.94
228.09	45.94
228.324	51.94
228.559	67.94
228.793	55.94
229.027	42.94
229.262	61.94
229.496	77.94
229.73	72.94
229.964	80.94
230.199	86.94
230.433	78.94
230.667	71.94
230.901	79.94
231.136	56.94
231.37	71.94
231.604	82.94
231.838	72.94
232.072	77.94
232.306	78.94
232.541	84.94
232.775	76.94
233.009	87.94
233.243	87.94
233.477	81.94
233.711	83.94
233.945	81.94
234.179	57.94
234.413	86.94
234.647	85.94
234.881	75.94
235.115	76.94
235.349	66.94
235.583	89.94
235.817	79.94
236.051	79.94
236.285	66.94
236.519	65.94
236.753	73.94
236.987	73.94
237.221	85.94
237.455	93.94
237.689	68.94
237.922	75.94
238.156	86.94
238.39	82.94
238.624	73.94
238.858	78.94
239.091	65.94
239.325	62.94
239.559	82.94
239.793	70.94
240.027	66.94
240.26	72.94
240.494	78.94
240.728	80.94
240.961	76.94
241.195	76.94
241.429	90.94
241.662	65.94
241.896	67.94
242.13	84.94
242.363	85.94
242.597	79.94
242.83	80.94
243.064	71.94
243.298	87.94
243.531	87.94
243.765	80.94
243.998	80.94
244.232	88.94
244.465	78.94
244.699	78.94
244.932	72.94
245.166	80.94
245.399	85.94
245.633	81.94
245.866	86.94
246.099	66.94
246.333	66.94
246.566	74.94
246.8	70.94
247.033	91.94
247.266	72.94
247.5	63.94
247.733	78.94
247.966	90.94
248.2	87.94
248.433	65.94
248.666	84.94
248.899	74.94
249.133	72.94
249.366	92.94
249.599	74.94
249.832	76.94
250.066	76.94
250.299	71.94
250.532	59.94
250.765	97.94
250.998	72.94
251.231	84.94
251.465	91.94
251.698	72.94
251.931	75.94
252.164	89.94
252.397	77.94
252.63	76.94
252.863	82.94
253.096	87.94
253.329	72.94
253.562	77.94
253.795	83.94
254.028	79.94
254.261	81.94
254.494	88.94
254.727	72.94
254.96	91.94
255.193	84.94
255.426	79.94
255.659	75.94
255.892	79.94
256.124	77.94
256.357	89.94
256.59	82.94
256.823	72.94
257.056	79.94
257.289	73.94
257.521	76.94
257.754	80.94
257.987	72.94
258.22	78.94
258.452	80.94
258.685	76.94
258.918	80.94
259.151	90.94
259.383	82.94
259.616	93.94
259.849	89.94
260.081	79.94
260.314	84.94
260.547	72.94
260.779	82.94
261.012	84.94
261.244	80.94
261.477	70.94
261.71	95.94
261.942	119.94
262.175	109.94
262.407	93.94
262.64	90.94
262.872	68.94
263.105	84.94
263.337	77.94
263.57	82.94
263.802	85.94
264.035	84.94
264.267	76.94
264.499	93.94
264.732	74.94
264.964	88.94
265.197	82.94
265.429	77.94
265.661	87.94
265.894	95.94
266.126	90.94
266.358	75.94
266.591	84.94
266.823	84.94
267.055	86.94
267.287	94.94
267.52	89.94
267.752	78.94
267.984	63.94
268.216	97.94
268.448	90.94
268.681	77.94
268.913	71.94
269.145	78.94
269.377	88.94
269.609	96.94
269.841	94.94
270.073	81.94
270.306	81.94
270.538	90.94
270.77	71.94
271.002	74.94
271.234	91.94
271.466	84.94
271.698	70.94
271.93	64.94
272.162	109.94
272.394	88.94
272.626	88.94
272.858	94.94
273.09	82.94
273.322	86.94
273.553	77.94
273.785	100.94
274.017	82.94
274.249	87.94
274.481	77.94
274.713	90.94
274.945	81.94
275.176	84.94
275.408	94.94
275.64	85.94
275.872	86.94
276.104	80.94
276.335	84.94
276.567	76.94
276.799	88.94
277.031	94.94
277.262	91.94
277.494	89.94
277.726	95.94
277.957	82.94
278.189	84.94
278.421	95.94
278.652	80.94
278.884	79.94
279.115	77.94
279.347	72.94
279.579	85.94
279.81	89.94
280.042	95.94
280.273	84.94
280.505	87.94
280.736	91.94
280.968	87.94
281.199	93.94
281.431	80.94
281.662	90.94
281.894	85.94
282.125	100.94
282.356	116.94
282.588	129.94
282.819	117.94
283.051	81.94
283.282	87.94
283.513	81.94
283.745	82.94
283.976	83.94
284.207	74.94
284.439	78.94
284.67	87.94
284.901	79.94
285.132	82.94
285.364	89.94
285.595	93.94
285.826	103.94
286.057	100.94
286.288	89.94
286.52	90.94
286.751	86.94
286.982	82.94
287.213	99.94
287.444	84.94
287.675	77.94
287.906	97.94
288.138	97.94
288.369	89.94
288.6	88.94
288.831	88.94
289.062	94.94
289.293	95.94
289.524	72.94
289.755	94.94
289.986	88.94
290.217	87.94
290.448	89.94
290.679	101.94
290.91	109.94
291.141	96.94
291.371	92.94
291.602	100.94
291.833	86.94
292.064	88.94
292.295	76.94
292.526	82.94
292.757	82.94
292.987	86.94
293.218	84.94
293.449	100.94
293.68	97.94
293.91	90.94
294.141	96.94
294.372	77.94
294.603	80.94
294.833	88.94
295.064	72.94
295.295	81.94
295.525	93.94
295.756	99.94
295.987	112.94
296.217	152.94
296.448	116.94
296.679	102.94
296.909	92.94
297.14	66.94
297.37	91.94
297.601	72.94
297.831	91.94
298.062	84.94
298.292	90.94
298.523	90.94
298.753	73.94
298.984	90.94
299.214	85.94
299.445	80.94
299.675	90.94
299.905	87.94
300.136	76.94
300.366	89.94
300.597	85.94
300.827	76.94
301.057	88.94
301.288	98.94
301.518	93.94
301.748	86.94
301.979	92.94
302.209	72.94
302.439	89.94
302.669	85.94
302.9	77.94
303.13	82.94
303.36	92.94
303.59	105.94
303.82	100.94
304.051	96.94
304.281	96.94
304.511	95.94
304.741	92.94
304.971	90.94
305.201	85.94
305.431	85.94
305.661	75.94
305.891	100.94
306.121	89.94
306.352	91.94
306.582	109.94
306.812	100.94
307.042	81.94
307.272	98.94
307.502	95.94
307.731	105.94
307.961	97.94
308.191	88.94
308.421	76.94
308.651	102.94
308.881	93.94
309.111	101.94
309.341	85.94
309.571	93.94
309.8	94.94
310.03	86.94
310.26	103.94
310.49	95.94
310.72	97.94
310.949	101.94
311.179	100.94
311.409	93.94
311.639	87.94
311.868	97.94
312.098	97.94
312.328	97.94
312.557	101.94
312.787	106.94
313.017	104.94
313.246	89.94
313.476	99.94
313.706	104.94
313.935	90.94
314.165	95.94
314.394	92.94
314.624	92.94
314.853	91.94
315.083	88.94
315.312	94.94
315.542	96.94
315.771	89.94
316.001	95.94
316.23	92.94
316.46	88.94
316.689	91.94
316.919	74.94
317.148	82.94
317.377	104.94
317.607	88.94
317.836	104.94
318.065	98.94
318.295	90.94
318.524	90.94
318.753	96.94
318.983	105.94
319.212	94.94
319.441	102.94
319.67	100.94
319.9	94.94
320.129	105.94
320.358	90.94
320.587	85.94
320.816	80.94
321.046	80.94
321.275	84.94
321.504	102.94
321.733	101.94
321.962	88.94
322.191	95.94
322.42	105.94
322.649	134.94
322.878	127.94
323.108	94.94
323.337	106.94
323.566	126.94
323.795	145.94
324.024	182.94
324.253	381.94
324.482	797.94
324.71	1630.94
324.939	2146.94
325.168	794.94
325.397	233.94
325.626	142.94
325.855	132.94
326.084	120.94
326.313	140.94
326.542	149.94
326.77	211.94
326.999	442.94
327.228	920.94
327.457	1661.94
327.686	1300.94
327.914	358.94
328.143	195.94
328.372	147.94
328.6	118.94
328.829	100.94
329.058	124.94
329.287	133.94
329.515	110.94
329.744	113.94
329.972	116.94
330.201	99.94
330.43	114.94
330.658	117.94
330.887	122.94
331.115	130.94
331.344	81.94
331.572	94.94
331.801	110.94
332.03	100.94
332.258	93.94
332.486	102.94
332.715	90.94
332.943	98.94
333.172	87.94
333.4	90.94
333.629	106.94
333.857	110.94
334.085	102.94
334.314	94.94
334.542	108.94
334.771	107.94
334.999	94.94
335.227	97.94
335.455	99.94
335.684	93.94
335.912	91.94
336.14	87.94
336.369	103.94
336.597	107.94
336.825	108.94
337.053	93.94
337.281	92.94
337.51	103.94
337.738	98.94
337.966	79.94
338.194	99.94
338.422	103.94
338.65	86.94
338.878	84.94
339.106	81.94
339.334	95.94
339.562	90.94
339.79	95.94
340.018	99.94
340.246	84.94
340.474	83.94
340.702	87.94
340.93	81.94
341.158	73.94
341.386	97.94
341.614	82.94
341.842	105.94
342.07	84.94
342.298	92.94
342.526	116.94
342.754	93.94
342.981	81.94
343.209	88.94
343.437	96.94
343.665	78.94
343.893	91.94
344.12	102.94
344.348	93.94
344.576	76.94
344.804	96.94
345.031	86.94
345.259	98.94
345.487	98.94
345.714	101.94
345.942	98.94
346.17	103.94
346.397	95.94
346.625	90.94
346.853	94.94
347.08	88.94
347.308	87.94
347.535	93.94
347.763	112.94
347.99	93.94
348.218	112.94
348.445	95.94
348.673	86.94
348.9	90.94
349.128	105.94
349.355	103.94
349.583	93.94
349.81	113.94
350.037	92.94
350.265	97.94
350.492	88.94
350.72	96.94
350.947	94.94
351.174	99.94
351.402	122.94
351.629	101.94
351.856	91.94
352.083	96.94
352.311	104.94
352.538	104.94
352.765	118.94
352.992	105.94
353.22	112.94
353.447	106.94
353.674	114.94
353.901	106.94
354.128	92.94
354.355	97.94
354.583	98.94
354.81	92.94
355.037	99.94
355.264	106.94
355.491	101.94
355.718	82.94
355.945	75.94
356.172	101.94
356.399	94.94
356.626	100.94
356.853	80.94
357.08	92.94
357.307	92.94
357.534	77.94
357.761	81.94
357.988	87.94
358.215	103.94
358.441	88.94
358.668	90.94
358.895	87.94
359.122	100.94
359.349	89.94
359.576	84.94
359.802	103.94
360.029	116.94
360.256	96.94
360.483	112.94
360.709	81.94
360.936	111.94
361.163	97.94
361.39	96.94
361.616	107.94
361.843	94.94
362.07	81.94
362.296	107.94
362.523	103.94
362.749	80.94
362.976	100.94
363.203	92.94
363.429	92.94
363.656	82.94
363.882	82.94
364.109	85.94
364.335	82.94
364.562	92.94
364.788	84.94
365.015	94.94
365.241	79.94
365.468	107.94
365.694	110.94
365.92	93.94
366.147	95.94
366.373	86.94
366.599	79.94
366.826	75.94
367.052	81.94
367.278	85.94
367.505	97.94
367.731	68.94
367.957	93.94
368.184	84.94
368.41	104.94
368.636	106.94
368.862	117.94
369.089	113.94
369.315	98.94
369.541	96.94
369.767	94.94
369.993	100.94
370.219	97.94
370.445	81.94
370.672	92.94
370.898	82.94
371.124	87.94
371.35	86.94
371.576	90.94
371.802	87.94
372.028	90.94
372.254	77.94
372.48	90.94
372.706	79.94
372.932	92.94
373.158	84.94
373.384	97.94
373.61	93.94
373.835	74.94
374.061	82.94
374.287	97.94
374.513	97.94
374.739	83.94
374.965	94.94
375.191	95.94
375.416	82.94
375.642	78.94
375.868	80.94
376.094	89.94
376.319	93.94
376.545	83.94
376.771	78.94
376.997	88.94
377.222	109.94
377.448	92.94
377.674	88.94
377.899	84.94
378.125	101.94
378.35	94.94
378.576	83.94
378.802	89.94
379.027	108.94
379.253	107.94
379.478	102.94
379.704	119.94
379.929	104.94
380.155	110.94
380.38	78.94
380.606	70.94
380.831	94.94
381.057	98.94
381.282	95.94
381.507	89.94
381.733	94.94
381.958	89.94
382.184	103.94
382.409	89.94
382.634	105.94
382.86	106.94
383.085	108.94
383.31	86.94
383.535	98.94
383.761	102.94
383.986	95.94
384.211	91.94
384.436	96.94
384.662	80.94
384.887	94.94
385.112	103.94
385.337	104.94
385.562	104.94
385.787	110.94
386.013	99.94
386.238	111.94
386.463	112.94
386.688	125.94
386.913	92.94
387.138	80.94
387.363	97.94
387.588	81.94
387.813	114.94
388.038	110.94
388.263	121.94
388.488	111.94
388.713	101.94
388.938	94.94
389.163	95.94
389.387	98.94
389.612	103.94
389.837	89.94
390.062	94.94
390.287	93.94
390.512	96.94
390.736	74.94
390.961	96.94
391.186	100.94
391.411	86.94
391.636	79.94
391.86	94.94
392.085	101.94
392.31	91.94
392.534	81.94
392.759	70.94
392.984	76.94
393.208	89.94
393.433	84.94
393.658	92.94
393.882	99.94
394.107	84.94
394.331	81.94
394.556	73.94
394.78	78.94
395.005	81.94
395.229	81.94
395.454	81.94
395.678	84.94
395.903	98.94
396.127	84.94
396.352	84.94
396.576	82.94
396.801	100.94
397.025	82.94
397.249	84.94
397.474	101.94
397.698	96.94
397.922	79.94
398.147	88.94
398.371	80.94
398.595	92.94
398.82	79.94
399.044	79.94
399.268	86.94
399.492	94.94
399.717	92.94
399.941	97.94
400.165	100.94
400.389	80.94
400.613	80.94
400.837	102.94
401.062	92.94
401.286	85.94
401.51	98.94
401.734	89.94
401.958	108.94
402.182	127.94
402.406	147.94
402.63	108.94
402.854	80.94
403.078	85.94
403.302	81.94
403.526	92.94
403.75	81.94
403.974	93.94
404.198	102.94
404.422	112.94
404.645	100.94
404.869	86.94
405.093	93.94
405.317	108.94
405.541	106.94
405.765	99.94
405.988	105.94
406.212	164.94
406.436	208.94
406.66	125.94
406.883	120.94
407.107	86.94
407.331	103.94
407.555	85.94
407.778	102.94
408.002	94.94
408.226	86.94
408.449	95.94
408.673	97.94
408.896	95.94
409.12	92.94
409.344	85.94
409.567	93.94
409.791	91.94
410.014	102.94
410.238	102.94
410.461	99.94
410.685	94.94
410.908	88.94
411.132	109.94
411.355	106.94
411.578	96.94
411.802	89.94
412.025	76.94
412.249	94.94
412.472	92.94
412.695	89.94
412.919	85.94
413.142	78.94
413.365	88.94
413.589	95.94
413.812	87.94
414.035	93.94
414.258	98.94
414.482	90.94
414.705	93.94
414.928	96.94
415.151	93.94
415.374	90.94
415.597	103.94
415.821	73.94
416.044	92.94
416.267	82.94
416.49	89.94
416.713	98.94
416.936	89.94
417.159	93.94
417.382	79.94
417.605	91.94
417.828	97.94
418.051	85.94
418.274	89.94
418.497	100.94
418.72	85.94
418.943	89.94
419.166	93.94
419.389	82.94
419.611	98.94
419.834	92.94
420.057	89.94
420.28	79.94
420.503	97.94
420.726	93.94
420.948	93.94
421.171	96.94
421.394	104.94
421.617	98.94
421.839	98.94
422.062	81.94
422.285	82.94
422.507	110.94
422.73	100.94
422.953	97.94
423.175	82.94
423.398	82.94
423.621	88.94
423.843	91.94
424.066	81.94
424.288	94.94
424.511	95.94
424.733	103.94
424.956	106.94
425.178	91.94
425.401	98.94
425.623	92.94
425.846	101.94
426.068	107.94
426.291	90.94
426.513	99.94
426.735	95.94
426.958	88.94
427.18	103.94
427.402	132.94
427.625	170.94
427.847	128.94
428.069	100.94
428.292	94.94
428.514	85.94
428.736	85.94
428.958	87.94
429.181	89.94
429.403	75.94
429.625	80.94
429.847	73.94
430.069	94.94
430.292	84.94
430.514	79.94
430.736	87.94
430.958	71.94
431.18	75.94
431.402	88.94
431.624	84.94
431.846	115.94
432.068	98.94
432.29	77.94
432.512	93.94
432.734	94.94
432.956	81.94
433.178	91.94
433.4	100.94
433.622	99.94
433.844	105.94
434.066	96.94
434.287	92.94
434.509	104.94
434.731	91.94
434.953	98.94
435.175	95.94
435.397	90.94
435.618	107.94
435.84	98.94
436.062	109.94
436.284	117.94
436.505	102.94
436.727	102.94
436.949	81.94
437.17	65.94
437.392	81.94
437.614	101.94
437.835	112.94
438.057	100.94
438.278	104.94
438.5	101.94
438.721	114.94
438.943	98.94
439.165	94.94
439.386	93.94
439.608	92.94
439.829	98.94
440.05	126.94
440.272	142.94
440.493	94.94
440.715	90.94
440.936	87.94
441.158	94.94
441.379	85.94
441.6	76.94
441.822	85.94
442.043	78.94
442.264	105.94
442.486	99.94
442.707	98.94
442.928	91.94
443.149	114.94
443.371	127.94
443.592	107.94
443.813	101.94
444.034	95.94
444.255	94.94
444.476	77.94
444.698	86.94
444.919	83.94
445.14	129.94
445.361	122.94
445.582	102.94
445.803	132.94
446.024	119.94
446.245	116.94
446.466	104.94
446.687	93.94
446.908	91.94
447.129	81.94
447.35	88.94
447.571	96.94
447.792	91.94
448.013	92.94
448.234	116.94
448.455	106.94
448.675	111.94
448.896	112.94
449.117	76.94
449.338	98.94
449.559	134.94
449.779	121.94
450	90.94
450.221	84.94
450.442	94.94
450.662	105.94
450.883	91.94
451.104	93.94
451.324	83.94
451.545	86.94
451.766	98.94
451.986	86.94
452.207	86.94
452.428	84.94
452.648	87.94
452.869	102.94
453.089	103.94
453.31	125.94
453.53	101.94
453.751	103.94
453.971	112.94
454.192	113.94
454.412	93.94
454.633	90.94
454.853	85.94
455.073	92.94
455.294	84.94
455.514	95.94
455.734	78.94
455.955	91.94
456.175	70.94
456.395	91.94
456.616	76.94
456.836	93.94
457.056	101.94
457.276	86.94
457.497	82.94
457.717	90.94
457.937	68.94
458.157	83.94
458.377	84.94
458.598	102.94
458.818	144.94
459.038	139.94
459.258	109.94
459.478	90.94
459.698	94.94
459.918	96.94
460.138	94.94
460.358	97.94
460.578	85.94
460.798	90.94
461.018	96.94
461.238	80.94
461.458	96.94
461.678	89.94
461.898	86.94
462.118	76.94
462.338	94.94
462.558	82.94
462.777	99.94
462.997	82.94
463.217	74.94
463.437	81.94
463.657	96.94
463.876	82.94
464.096	86.94
464.316	96.94
464.536	89.94
464.755	105.94
464.975	108.94
465.195	155.94
465.414	154.94
465.634	108.94
465.854	97.94
466.073	89.94
466.293	95.94
466.512	91.94
466.732	96.94
466.951	87.94
467.171	101.94
467.391	109.94
467.61	83.94
467.829	95.94
468.049	101.94
468.268	84.94
468.488	78.94
468.707	81.94
468.927	95.94
469.146	83.94
469.365	88.94
469.585	105.94
469.804	95.94
470.023	92.94
470.243	86.94
470.462	94.94
470.681	123.94
470.901	98.94
471.12	82.94
471.339	91.94
471.558	93.94
471.777	78.94
471.997	90.94
472.216	98.94
472.435	98.94
472.654	88.94
472.873	102.94
473.092	100.94
473.311	95.94
473.53	99.94
473.749	90.94
473.968	93.94
474.187	88.94
474.406	99.94
474.625	98.94
474.844	91.94
475.063	89.94
475.282	85.94
475.501	87.94
475.72	90.94
475.939	98.94
476.158	77.94
476.377	98.94
476.596	92.94
476.814	84.94
477.033	96.94
477.252	83.94
477.471	90.94
477.69	105.94
477.908	95.94
478.127	83.94
478.346	79.94
478.564	78.94
478.783	94.94
479.002	105.94
479.22	92.94
479.439	82.94
479.658	94.94
479.876	92.94
480.095	101.94
480.313	91.94
480.532	92.94
480.751	105.94
480.969	100.94
481.188	100.94
481.406	99.94
481.624	92.94
481.843	97.94
482.061	108.94
482.28	84.94
482.498	97.94
482.717	88.94
482.935	93.94
483.153	89.94
483.372	86.94
483.59	84.94
483.808	98.94
484.027	111.94
484.245	84.94
484.463	81.94
484.681	103.94
484.9	87.94
485.118	87.94
485.336	94.94
485.554	100.94
485.772	97.94
485.99	105.94
486.209	94.94
486.427	91.94
486.645	105.94
486.863	104.94
487.081	91.94
487.299	98.94
487.517	96.94
487.735	110.94
487.953	102.94
488.171	96.94
488.389	102.94
488.607	95.94
488.825	96.94
489.043	93.94
489.261	94.94
489.479	77.94
489.696	86.94
489.914	92.94
490.132	83.94
490.35	97.94
490.568	96.94
490.786	91.94
491.003	96.94
491.221	75.94
491.439	89.94
491.657	109.94
491.874	90.94
492.092	91.94
492.31	91.94
492.527	97.94
492.745	86.94
492.963	92.94
493.18	86.94
493.398	100.94
493.615	87.94
493.833	94.94
494.05	91.94
494.268	104.94
494.485	84.94
494.703	102.94
494.92	104.94
495.138	98.94
495.355	76.94
495.573	92.94
495.79	93.94
496.008	97.94
496.225	86.94
496.442	85.94
496.66	91.94
496.877	95.94
497.094	97.94
497.312	84.94
497.529	95.94
497.746	109.94
497.963	91.94
498.181	84.94
498.398	86.94
498.615	117.94
498.832	103.94
499.049	95.94
499.267	77.94
499.484	85.94
499.701	101.94
499.918	91.94
500.135	82.94
500.352	91.94
500.569	88.94
500.786	88.94
501.003	82.94
501.22	97.94
501.437	90.94
501.654	93.94
501.871	97.94
502.088	92.94
502.305	105.94
502.522	87.94
502.739	80.94
502.956	87.94
503.172	83.94
503.389	103.94
503.606	106.94
503.823	102.94
504.04	94.94
504.256	94.94
504.473	84.94
504.69	83.94
504.907	92.94
505.123	93.94
505.34	89.94
505.557	99.94
505.773	92.94
505.99	80.94
506.207	80.94
506.423	78.94
506.64	90.94
506.856	103.94
507.073	83.94
507.289	76.94
507.506	104.94
507.722	85.94
507.939	97.94
508.155	92.94
508.372	89.94
508.588	81.94
508.805	87.94
509.021	88.94
509.238	81.94
509.454	103.94
509.67	100.94
509.887	97.94
510.103	132.94
510.319	207.94
510.536	767.94
510.752	2374.94
510.968	648.94
511.184	160.94
511.401	113.94
511.617	86.94
511.833	102.94
512.049	91.94
512.265	93.94
512.481	101.94
512.698	87.94
512.914	102.94
513.13	98.94
513.346	87.94
513.562	103.94
513.778	95.94
513.994	100.94
514.21	111.94
514.426	117.94
514.642	130.94
514.858	137.94
515.074	161.94
515.29	429.94
515.506	1386.94
515.721	502.94
