Data from Uncirc_1999_H10_HRD10591_00035.txt Node
Date: Wed Jan 03 11:22:12 EST 2024
User: Yrep
Spectrometer: HR+D1059
Trigger mode: 1
Integration Time (sec): 1.000000E-1
Scans to average: 1
Electric dark correction enabled: true
Nonlinearity correction enabled: false
Boxcar width: 0
XAxis mode: Wavelengths
Number of Pixels in Spectrum: 2048
>>>>>Begin Spectral Data<<<<<
223.165	-7.25
223.4	-7.25
223.635	-7.25
223.869	-10.25
224.104	-33.25
224.338	-0.25
224.573	-27.25
224.808	3.75
225.042	-4.25
225.277	-11.25
225.511	11.75
225.746	-0.25
225.98	7.75
226.215	0.75
226.449	16.75
226.683	20.75
226.918	10.75
227.152	21.75
227.387	23.75
227.621	21.75
227.856	39.75
228.09	37.75
228.324	55.75
228.559	54.75
228.793	59.75
229.027	58.75
229.262	61.75
229.496	70.75
229.73	69.75
229.964	84.75
230.199	71.75
230.433	77.75
230.667	80.75
230.901	60.75
231.136	83.75
231.37	81.75
231.604	75.75
231.838	83.75
232.072	83.75
232.306	79.75
232.541	69.75
232.775	84.75
233.009	77.75
233.243	79.75
233.477	85.75
233.711	69.75
233.945	82.75
234.179	75.75
234.413	81.75
234.647	74.75
234.881	69.75
235.115	82.75
235.349	71.75
235.583	73.75
235.817	75.75
236.051	87.75
236.285	67.75
236.519	80.75
236.753	76.75
236.987	76.75
237.221	77.75
237.455	86.75
237.689	69.75
237.922	59.75
238.156	86.75
238.39	71.75
238.624	60.75
238.858	71.75
239.091	71.75
239.325	77.75
239.559	58.75
239.793	77.75
240.027	91.75
240.26	74.75
240.494	93.75
240.728	83.75
240.961	67.75
241.195	73.75
241.429	84.75
241.662	71.75
241.896	79.75
242.13	77.75
242.363	79.75
242.597	75.75
242.83	76.75
243.064	78.75
243.298	76.75
243.531	75.75
243.765	88.75
243.998	75.75
244.232	88.75
244.465	84.75
244.699	68.75
244.932	78.75
245.166	81.75
245.399	74.75
245.633	79.75
245.866	63.75
246.099	102.75
246.333	80.75
246.566	74.75
246.8	80.75
247.033	84.75
247.266	68.75
247.5	67.75
247.733	78.75
247.966	73.75
248.2	72.75
248.433	75.75
248.666	67.75
248.899	73.75
249.133	92.75
249.366	85.75
249.599	85.75
249.832	78.75
250.066	90.75
250.299	78.75
250.532	77.75
250.765	83.75
250.998	83.75
251.231	82.75
251.465	85.75
251.698	82.75
251.931	88.75
252.164	78.75
252.397	76.75
252.63	83.75
252.863	75.75
253.096	77.75
253.329	84.75
253.562	82.75
253.795	80.75
254.028	79.75
254.261	78.75
254.494	78.75
254.727	78.75
254.96	89.75
255.193	91.75
255.426	83.75
255.659	81.75
255.892	82.75
256.124	84.75
256.357	76.75
256.59	79.75
256.823	81.75
257.056	71.75
257.289	92.75
257.521	85.75
257.754	68.75
257.987	76.75
258.22	67.75
258.452	79.75
258.685	61.75
258.918	71.75
259.151	79.75
259.383	88.75
259.616	78.75
259.849	101.75
260.081	86.75
260.314	85.75
260.547	98.75
260.779	89.75
261.012	87.75
261.244	82.75
261.477	89.75
261.71	102.75
261.942	95.75
262.175	110.75
262.407	89.75
262.64	77.75
262.872	87.75
263.105	92.75
263.337	83.75
263.57	76.75
263.802	87.75
264.035	79.75
264.267	75.75
264.499	68.75
264.732	91.75
264.964	75.75
265.197	81.75
265.429	86.75
265.661	90.75
265.894	88.75
266.126	78.75
266.358	78.75
266.591	96.75
266.823	80.75
267.055	73.75
267.287	80.75
267.52	104.75
267.752	83.75
267.984	78.75
268.216	71.75
268.448	82.75
268.681	88.75
268.913	74.75
269.145	83.75
269.377	87.75
269.609	79.75
269.841	88.75
270.073	77.75
270.306	88.75
270.538	86.75
270.77	81.75
271.002	75.75
271.234	90.75
271.466	71.75
271.698	79.75
271.93	96.75
272.162	85.75
272.394	80.75
272.626	84.75
272.858	91.75
273.09	89.75
273.322	100.75
273.553	93.75
273.785	90.75
274.017	81.75
274.249	89.75
274.481	95.75
274.713	85.75
274.945	94.75
275.176	83.75
275.408	81.75
275.64	97.75
275.872	91.75
276.104	103.75
276.335	92.75
276.567	89.75
276.799	93.75
277.031	100.75
277.262	78.75
277.494	92.75
277.726	90.75
277.957	88.75
278.189	91.75
278.421	91.75
278.652	90.75
278.884	74.75
279.115	81.75
279.347	91.75
279.579	101.75
279.81	75.75
280.042	68.75
280.273	88.75
280.505	89.75
280.736	76.75
280.968	87.75
281.199	84.75
281.431	94.75
281.662	92.75
281.894	93.75
282.125	95.75
282.356	109.75
282.588	128.75
282.819	99.75
283.051	97.75
283.282	92.75
283.513	86.75
283.745	96.75
283.976	88.75
284.207	106.75
284.439	94.75
284.67	72.75
284.901	98.75
285.132	84.75
285.364	102.75
285.595	87.75
285.826	92.75
286.057	82.75
286.288	90.75
286.52	72.75
286.751	91.75
286.982	91.75
287.213	87.75
287.444	101.75
287.675	84.75
287.906	80.75
288.138	87.75
288.369	86.75
288.6	84.75
288.831	89.75
289.062	83.75
289.293	79.75
289.524	77.75
289.755	89.75
289.986	88.75
290.217	88.75
290.448	91.75
290.679	93.75
290.91	88.75
291.141	93.75
291.371	88.75
291.602	84.75
291.833	88.75
292.064	90.75
292.295	93.75
292.526	87.75
292.757	97.75
292.987	90.75
293.218	85.75
293.449	83.75
293.68	95.75
293.91	87.75
294.141	80.75
294.372	89.75
294.603	101.75
294.833	96.75
295.064	98.75
295.295	80.75
295.525	83.75
295.756	102.75
295.987	117.75
296.217	101.75
296.448	119.75
296.679	86.75
296.909	92.75
297.14	89.75
297.37	72.75
297.601	98.75
297.831	84.75
298.062	88.75
298.292	85.75
298.523	87.75
298.753	98.75
298.984	91.75
299.214	89.75
299.445	91.75
299.675	86.75
299.905	106.75
300.136	105.75
300.366	87.75
300.597	90.75
300.827	91.75
301.057	94.75
301.288	89.75
301.518	92.75
301.748	89.75
301.979	101.75
302.209	96.75
302.439	81.75
302.669	88.75
302.9	99.75
303.13	79.75
303.36	88.75
303.59	99.75
303.82	93.75
304.051	91.75
304.281	77.75
304.511	96.75
304.741	82.75
304.971	90.75
305.201	88.75
305.431	91.75
305.661	92.75
305.891	99.75
306.121	104.75
306.352	104.75
306.582	103.75
306.812	94.75
307.042	87.75
307.272	88.75
307.502	101.75
307.731	103.75
307.961	88.75
308.191	84.75
308.421	88.75
308.651	86.75
308.881	89.75
309.111	93.75
309.341	96.75
309.571	93.75
309.8	94.75
310.03	103.75
310.26	103.75
310.49	102.75
310.72	93.75
310.949	102.75
311.179	103.75
311.409	88.75
311.639	92.75
311.868	88.75
312.098	91.75
312.328	84.75
312.557	95.75
312.787	91.75
313.017	104.75
313.246	91.75
313.476	85.75
313.706	90.75
313.935	87.75
314.165	97.75
314.394	117.75
314.624	94.75
314.853	100.75
315.083	81.75
315.312	92.75
315.542	92.75
315.771	84.75
316.001	87.75
316.23	85.75
316.46	90.75
316.689	99.75
316.919	95.75
317.148	92.75
317.377	93.75
317.607	96.75
317.836	95.75
318.065	87.75
318.295	93.75
318.524	87.75
318.753	95.75
318.983	89.75
319.212	108.75
319.441	96.75
319.67	112.75
319.9	91.75
320.129	92.75
320.358	87.75
320.587	92.75
320.816	92.75
321.046	107.75
321.275	95.75
321.504	95.75
321.733	101.75
321.962	99.75
322.191	87.75
322.42	95.75
322.649	103.75
322.878	112.75
323.108	108.75
323.337	147.75
323.566	131.75
323.795	134.75
324.024	187.75
324.253	393.75
324.482	787.75
324.71	1647.75
324.939	2163.75
325.168	791.75
325.397	237.75
325.626	148.75
325.855	125.75
326.084	115.75
326.313	119.75
326.542	154.75
326.77	227.75
326.999	459.75
327.228	958.75
327.457	1702.75
327.686	1324.75
327.914	360.75
328.143	188.75
328.372	135.75
328.6	126.75
328.829	125.75
329.058	120.75
329.287	116.75
329.515	98.75
329.744	111.75
329.972	97.75
330.201	97.75
330.43	110.75
330.658	120.75
330.887	119.75
331.115	106.75
331.344	96.75
331.572	115.75
331.801	88.75
332.03	95.75
332.258	76.75
332.486	88.75
332.715	93.75
332.943	109.75
333.172	107.75
333.4	101.75
333.629	98.75
333.857	104.75
334.085	96.75
334.314	103.75
334.542	104.75
334.771	103.75
334.999	81.75
335.227	96.75
335.455	111.75
335.684	96.75
335.912	99.75
336.14	105.75
336.369	91.75
336.597	94.75
336.825	84.75
337.053	91.75
337.281	92.75
337.51	83.75
337.738	99.75
337.966	99.75
338.194	83.75
338.422	96.75
338.65	93.75
338.878	83.75
339.106	90.75
339.334	91.75
339.562	84.75
339.79	79.75
340.018	92.75
340.246	88.75
340.474	86.75
340.702	85.75
340.93	94.75
341.158	93.75
341.386	95.75
341.614	94.75
341.842	88.75
342.07	87.75
342.298	92.75
342.526	96.75
342.754	93.75
342.981	93.75
343.209	89.75
343.437	100.75
343.665	98.75
343.893	94.75
344.12	79.75
344.348	85.75
344.576	93.75
344.804	93.75
345.031	92.75
345.259	98.75
345.487	96.75
345.714	86.75
345.942	91.75
346.17	96.75
346.397	88.75
346.625	80.75
346.853	101.75
347.08	102.75
347.308	86.75
347.535	96.75
347.763	108.75
347.99	108.75
348.218	113.75
348.445	102.75
348.673	108.75
348.9	101.75
349.128	92.75
349.355	89.75
349.583	79.75
349.81	87.75
350.037	79.75
350.265	115.75
350.492	82.75
350.72	79.75
350.947	96.75
351.174	109.75
351.402	108.75
351.629	102.75
351.856	112.75
352.083	116.75
352.311	100.75
352.538	108.75
352.765	103.75
352.992	118.75
353.22	120.75
353.447	99.75
353.674	113.75
353.901	83.75
354.128	93.75
354.355	109.75
354.583	84.75
354.81	99.75
355.037	108.75
355.264	95.75
355.491	91.75
355.718	89.75
355.945	89.75
356.172	100.75
356.399	99.75
356.626	107.75
356.853	96.75
357.08	94.75
357.307	99.75
357.534	99.75
357.761	93.75
357.988	104.75
358.215	88.75
358.441	86.75
358.668	81.75
358.895	85.75
359.122	94.75
359.349	96.75
359.576	93.75
359.802	101.75
360.029	105.75
360.256	97.75
360.483	98.75
360.709	72.75
360.936	96.75
361.163	94.75
361.39	89.75
361.616	104.75
361.843	105.75
362.07	97.75
362.296	99.75
362.523	83.75
362.749	82.75
362.976	89.75
363.203	95.75
363.429	98.75
363.656	89.75
363.882	79.75
364.109	87.75
364.335	83.75
364.562	90.75
364.788	91.75
365.015	85.75
365.241	93.75
365.468	105.75
365.694	101.75
365.92	89.75
366.147	105.75
366.373	81.75
366.599	95.75
366.826	88.75
367.052	92.75
367.278	89.75
367.505	94.75
367.731	89.75
367.957	103.75
368.184	84.75
368.41	93.75
368.636	101.75
368.862	106.75
369.089	100.75
369.315	89.75
369.541	97.75
369.767	79.75
369.993	98.75
370.219	71.75
370.445	88.75
370.672	84.75
370.898	87.75
371.124	91.75
371.35	81.75
371.576	84.75
371.802	72.75
372.028	75.75
372.254	100.75
372.48	91.75
372.706	89.75
372.932	97.75
373.158	94.75
373.384	88.75
373.61	97.75
373.835	94.75
374.061	92.75
374.287	99.75
374.513	94.75
374.739	77.75
374.965	89.75
375.191	96.75
375.416	77.75
375.642	87.75
375.868	92.75
376.094	96.75
376.319	95.75
376.545	70.75
376.771	93.75
376.997	76.75
377.222	83.75
377.448	80.75
377.674	88.75
377.899	96.75
378.125	85.75
378.35	92.75
378.576	97.75
378.802	100.75
379.027	95.75
379.253	103.75
379.478	101.75
379.704	91.75
379.929	100.75
380.155	112.75
380.38	98.75
380.606	104.75
380.831	90.75
381.057	103.75
381.282	101.75
381.507	103.75
381.733	102.75
381.958	98.75
382.184	90.75
382.409	94.75
382.634	123.75
382.86	101.75
383.085	98.75
383.31	115.75
383.535	103.75
383.761	111.75
383.986	99.75
384.211	93.75
384.436	100.75
384.662	113.75
384.887	106.75
385.112	111.75
385.337	95.75
385.562	104.75
385.787	92.75
386.013	121.75
386.238	111.75
386.463	123.75
386.688	124.75
386.913	111.75
387.138	119.75
387.363	114.75
387.588	91.75
387.813	110.75
388.038	106.75
388.263	110.75
388.488	114.75
388.713	100.75
388.938	102.75
389.163	88.75
389.387	89.75
389.612	99.75
389.837	87.75
390.062	93.75
390.287	105.75
390.512	101.75
390.736	80.75
390.961	87.75
391.186	91.75
391.411	93.75
391.636	111.75
391.86	105.75
392.085	83.75
392.31	96.75
392.534	94.75
392.759	100.75
392.984	83.75
393.208	81.75
393.433	83.75
393.658	91.75
393.882	91.75
394.107	78.75
394.331	91.75
394.556	95.75
394.78	103.75
395.005	91.75
395.229	96.75
395.454	88.75
395.678	84.75
395.903	78.75
396.127	93.75
396.352	91.75
396.576	91.75
396.801	84.75
397.025	84.75
397.249	92.75
397.474	76.75
397.698	91.75
397.922	91.75
398.147	71.75
398.371	96.75
398.595	80.75
398.82	88.75
399.044	78.75
399.268	76.75
399.492	82.75
399.717	88.75
399.941	84.75
400.165	94.75
400.389	105.75
400.613	99.75
400.837	100.75
401.062	85.75
401.286	79.75
401.51	77.75
401.734	104.75
401.958	89.75
402.182	136.75
402.406	148.75
402.63	113.75
402.854	100.75
403.078	89.75
403.302	87.75
403.526	86.75
403.75	90.75
403.974	86.75
404.198	86.75
404.422	91.75
404.645	84.75
404.869	74.75
405.093	109.75
405.317	101.75
405.541	103.75
405.765	108.75
405.988	106.75
406.212	159.75
406.436	199.75
406.66	137.75
406.883	95.75
407.107	98.75
407.331	79.75
407.555	96.75
407.778	102.75
408.002	84.75
408.226	85.75
408.449	90.75
408.673	78.75
408.896	85.75
409.12	92.75
409.344	91.75
409.567	98.75
409.791	83.75
410.014	87.75
410.238	94.75
410.461	93.75
410.685	101.75
410.908	88.75
411.132	108.75
411.355	110.75
411.578	104.75
411.802	80.75
412.025	92.75
412.249	86.75
412.472	93.75
412.695	106.75
412.919	94.75
413.142	86.75
413.365	89.75
413.589	77.75
413.812	82.75
414.035	84.75
414.258	90.75
414.482	79.75
414.705	87.75
414.928	93.75
415.151	90.75
415.374	98.75
415.597	97.75
415.821	83.75
416.044	81.75
416.267	85.75
416.49	101.75
416.713	90.75
416.936	92.75
417.159	93.75
417.382	103.75
417.605	98.75
417.828	100.75
418.051	87.75
418.274	93.75
418.497	93.75
418.72	85.75
418.943	91.75
419.166	77.75
419.389	91.75
419.611	76.75
419.834	88.75
420.057	86.75
420.28	85.75
420.503	75.75
420.726	94.75
420.948	94.75
421.171	101.75
421.394	77.75
421.617	95.75
421.839	92.75
422.062	93.75
422.285	96.75
422.507	92.75
422.73	76.75
422.953	96.75
423.175	101.75
423.398	104.75
423.621	88.75
423.843	99.75
424.066	87.75
424.288	81.75
424.511	93.75
424.733	97.75
424.956	105.75
425.178	96.75
425.401	99.75
425.623	91.75
425.846	100.75
426.068	77.75
426.291	100.75
426.513	98.75
426.735	95.75
426.958	85.75
427.18	89.75
427.402	125.75
427.625	144.75
427.847	125.75
428.069	87.75
428.292	91.75
428.514	88.75
428.736	86.75
428.958	79.75
429.181	77.75
429.403	100.75
429.625	94.75
429.847	103.75
430.069	83.75
430.292	96.75
430.514	80.75
430.736	70.75
430.958	98.75
431.18	84.75
431.402	86.75
431.624	79.75
431.846	87.75
432.068	85.75
432.29	98.75
432.512	80.75
432.734	93.75
432.956	91.75
433.178	101.75
433.4	90.75
433.622	77.75
433.844	87.75
434.066	89.75
434.287	95.75
434.509	89.75
434.731	92.75
434.953	71.75
435.175	83.75
435.397	91.75
435.618	89.75
435.84	112.75
436.062	104.75
436.284	92.75
436.505	108.75
436.727	95.75
436.949	101.75
437.17	81.75
437.392	96.75
437.614	82.75
437.835	103.75
438.057	107.75
438.278	104.75
438.5	94.75
438.721	110.75
438.943	97.75
439.165	103.75
439.386	75.75
439.608	99.75
439.829	104.75
440.05	108.75
440.272	114.75
440.493	100.75
440.715	82.75
440.936	89.75
441.158	98.75
441.379	87.75
441.6	86.75
441.822	78.75
442.043	98.75
442.264	88.75
442.486	103.75
442.707	96.75
442.928	106.75
443.149	105.75
443.371	104.75
443.592	96.75
443.813	103.75
444.034	106.75
444.255	104.75
444.476	87.75
444.698	91.75
444.919	103.75
445.14	136.75
445.361	106.75
445.582	110.75
445.803	117.75
446.024	130.75
446.245	131.75
446.466	113.75
446.687	73.75
446.908	93.75
447.129	78.75
447.35	105.75
447.571	85.75
447.792	84.75
448.013	110.75
448.234	85.75
448.455	105.75
448.675	121.75
448.896	108.75
449.117	91.75
449.338	90.75
449.559	106.75
449.779	125.75
450	97.75
450.221	75.75
450.442	78.75
450.662	95.75
450.883	99.75
451.104	108.75
451.324	84.75
451.545	83.75
451.766	90.75
451.986	75.75
452.207	81.75
452.428	89.75
452.648	106.75
452.869	106.75
453.089	100.75
453.31	116.75
453.53	91.75
453.751	71.75
453.971	97.75
454.192	104.75
454.412	90.75
454.633	76.75
454.853	83.75
455.073	79.75
455.294	99.75
455.514	98.75
455.734	92.75
455.955	85.75
456.175	85.75
456.395	84.75
456.616	100.75
456.836	78.75
457.056	96.75
457.276	83.75
457.497	85.75
457.717	92.75
457.937	90.75
458.157	85.75
458.377	74.75
458.598	96.75
458.818	164.75
459.038	141.75
459.258	105.75
459.478	75.75
459.698	87.75
459.918	88.75
460.138	79.75
460.358	77.75
460.578	87.75
460.798	71.75
461.018	98.75
461.238	95.75
461.458	75.75
461.678	90.75
461.898	89.75
462.118	91.75
462.338	101.75
462.558	87.75
462.777	92.75
462.997	94.75
463.217	92.75
463.437	93.75
463.657	90.75
463.876	92.75
464.096	87.75
464.316	88.75
464.536	80.75
464.755	95.75
464.975	93.75
465.195	139.75
465.414	134.75
465.634	89.75
465.854	99.75
466.073	87.75
466.293	108.75
466.512	93.75
466.732	86.75
466.951	85.75
467.171	90.75
467.391	104.75
467.61	100.75
467.829	95.75
468.049	88.75
468.268	87.75
468.488	82.75
468.707	77.75
468.927	84.75
469.146	85.75
469.365	76.75
469.585	97.75
469.804	87.75
470.023	91.75
470.243	91.75
470.462	100.75
470.681	105.75
470.901	90.75
471.12	83.75
471.339	88.75
471.558	75.75
471.777	82.75
471.997	91.75
472.216	104.75
472.435	91.75
472.654	82.75
472.873	83.75
473.092	101.75
473.311	94.75
473.53	89.75
473.749	76.75
473.968	96.75
474.187	96.75
474.406	103.75
474.625	90.75
474.844	94.75
475.063	84.75
475.282	81.75
475.501	78.75
475.72	87.75
475.939	80.75
476.158	94.75
476.377	83.75
476.596	86.75
476.814	88.75
477.033	95.75
477.252	88.75
477.471	97.75
477.69	86.75
477.908	83.75
478.127	92.75
478.346	96.75
478.564	87.75
478.783	89.75
479.002	84.75
479.22	94.75
479.439	91.75
479.658	95.75
479.876	100.75
480.095	88.75
480.313	89.75
480.532	86.75
480.751	85.75
480.969	90.75
481.188	126.75
481.406	126.75
481.624	97.75
481.843	84.75
482.061	103.75
482.28	81.75
482.498	91.75
482.717	74.75
482.935	96.75
483.153	83.75
483.372	88.75
483.59	97.75
483.808	82.75
484.027	84.75
484.245	96.75
484.463	93.75
484.681	91.75
484.9	87.75
485.118	100.75
485.336	101.75
485.554	88.75
485.772	96.75
485.99	103.75
486.209	97.75
486.427	95.75
486.645	114.75
486.863	114.75
487.081	101.75
487.299	80.75
487.517	110.75
487.735	90.75
487.953	95.75
488.171	86.75
488.389	91.75
488.607	100.75
488.825	86.75
489.043	82.75
489.261	95.75
489.479	95.75
489.696	89.75
489.914	85.75
490.132	92.75
490.35	85.75
490.568	82.75
490.786	79.75
491.003	92.75
491.221	91.75
491.439	91.75
491.657	102.75
491.874	101.75
492.092	84.75
492.31	95.75
492.527	75.75
492.745	81.75
492.963	98.75
493.18	107.75
493.398	85.75
493.615	89.75
493.833	85.75
494.05	95.75
494.268	85.75
494.485	92.75
494.703	87.75
494.92	85.75
495.138	89.75
495.355	93.75
495.573	85.75
495.79	87.75
496.008	80.75
496.225	92.75
496.442	88.75
496.66	104.75
496.877	82.75
497.094	97.75
497.312	94.75
497.529	89.75
497.746	81.75
497.963	101.75
498.181	96.75
498.398	89.75
498.615	82.75
498.832	103.75
499.049	109.75
499.267	84.75
499.484	87.75
499.701	90.75
499.918	71.75
500.135	84.75
500.352	97.75
500.569	84.75
500.786	95.75
501.003	101.75
501.22	102.75
501.437	91.75
501.654	88.75
501.871	88.75
502.088	74.75
502.305	89.75
502.522	96.75
502.739	103.75
502.956	94.75
503.172	89.75
503.389	88.75
503.606	98.75
503.823	107.75
504.04	94.75
504.256	89.75
504.473	90.75
504.69	92.75
504.907	111.75
505.123	97.75
505.34	95.75
505.557	90.75
505.773	87.75
505.99	91.75
506.207	88.75
506.423	85.75
506.64	92.75
506.856	77.75
507.073	79.75
507.289	94.75
507.506	112.75
507.722	104.75
507.939	107.75
508.155	83.75
508.372	96.75
508.588	100.75
508.805	108.75
509.021	85.75
509.238	98.75
509.454	105.75
509.67	104.75
509.887	111.75
510.103	135.75
510.319	206.75
510.536	751.75
510.752	2199.75
510.968	602.75
511.184	161.75
511.401	110.75
511.617	85.75
511.833	101.75
512.049	84.75
512.265	97.75
512.481	85.75
512.698	88.75
512.914	79.75
513.13	90.75
513.346	79.75
513.562	94.75
513.778	110.75
513.994	95.75
514.21	113.75
514.426	125.75
514.642	121.75
514.858	111.75
515.074	164.75
515.29	409.75
515.506	1283.75
515.721	474.75
