Data from Uncirc_1999_H10_HRD10591_00096.txt Node
Date: Wed Jan 03 11:22:24 EST 2024
User: Yrep
Spectrometer: HR+D1059
Trigger mode: 1
Integration Time (sec): 1.000000E-1
Scans to average: 1
Electric dark correction enabled: true
Nonlinearity correction enabled: false
Boxcar width: 0
XAxis mode: Wavelengths
Number of Pixels in Spectrum: 2048
>>>>>Begin Spectral Data<<<<<
223.165	-17.69
223.4	-17.69
223.635	-17.69
223.869	-18.69
224.104	-35.69
224.338	-15.69
224.573	-24.69
224.808	-9.69
225.042	-4.69
225.277	-6.69
225.511	3.31
225.746	8.31
225.98	17.31
226.215	26.31
226.449	8.31
226.683	15.31
226.918	27.31
227.152	27.31
227.387	39.31
227.621	33.31
227.856	51.31
228.09	38.31
228.324	42.31
228.559	58.31
228.793	51.31
229.027	58.31
229.262	73.31
229.496	80.31
229.73	78.31
229.964	76.31
230.199	76.31
230.433	82.31
230.667	78.31
230.901	80.31
231.136	74.31
231.37	81.31
231.604	69.31
231.838	64.31
232.072	71.31
232.306	87.31
232.541	81.31
232.775	75.31
233.009	87.31
233.243	77.31
233.477	79.31
233.711	75.31
233.945	71.31
234.179	67.31
234.413	85.31
234.647	78.31
234.881	80.31
235.115	73.31
235.349	78.31
235.583	80.31
235.817	77.31
236.051	69.31
236.285	61.31
236.519	76.31
236.753	78.31
236.987	73.31
237.221	89.31
237.455	85.31
237.689	79.31
237.922	71.31
238.156	75.31
238.39	78.31
238.624	72.31
238.858	80.31
239.091	79.31
239.325	69.31
239.559	77.31
239.793	72.31
240.027	95.31
240.26	72.31
240.494	84.31
240.728	75.31
240.961	64.31
241.195	70.31
241.429	72.31
241.662	77.31
241.896	77.31
242.13	81.31
242.363	67.31
242.597	76.31
242.83	75.31
243.064	71.31
243.298	86.31
243.531	73.31
243.765	77.31
243.998	71.31
244.232	71.31
244.465	83.31
244.699	79.31
244.932	89.31
245.166	72.31
245.399	80.31
245.633	89.31
245.866	67.31
246.099	59.31
246.333	77.31
246.566	72.31
246.8	70.31
247.033	71.31
247.266	71.31
247.5	72.31
247.733	75.31
247.966	64.31
248.2	74.31
248.433	78.31
248.666	68.31
248.899	83.31
249.133	80.31
249.366	89.31
249.599	114.31
249.832	77.31
250.066	87.31
250.299	72.31
250.532	86.31
250.765	71.31
250.998	79.31
251.231	71.31
251.465	88.31
251.698	73.31
251.931	80.31
252.164	86.31
252.397	87.31
252.63	62.31
252.863	73.31
253.096	66.31
253.329	81.31
253.562	72.31
253.795	67.31
254.028	90.31
254.261	68.31
254.494	75.31
254.727	80.31
254.96	75.31
255.193	85.31
255.426	78.31
255.659	86.31
255.892	78.31
256.124	84.31
256.357	60.31
256.59	80.31
256.823	80.31
257.056	74.31
257.289	76.31
257.521	83.31
257.754	92.31
257.987	78.31
258.22	86.31
258.452	73.31
258.685	83.31
258.918	83.31
259.151	72.31
259.383	90.31
259.616	75.31
259.849	88.31
260.081	90.31
260.314	92.31
260.547	75.31
260.779	78.31
261.012	84.31
261.244	74.31
261.477	89.31
261.71	82.31
261.942	106.31
262.175	98.31
262.407	96.31
262.64	84.31
262.872	79.31
263.105	90.31
263.337	67.31
263.57	78.31
263.802	92.31
264.035	87.31
264.267	77.31
264.499	71.31
264.732	77.31
264.964	75.31
265.197	88.31
265.429	97.31
265.661	94.31
265.894	62.31
266.126	104.31
266.358	83.31
266.591	77.31
266.823	58.31
267.055	80.31
267.287	86.31
267.52	90.31
267.752	79.31
267.984	71.31
268.216	72.31
268.448	93.31
268.681	78.31
268.913	81.31
269.145	76.31
269.377	87.31
269.609	91.31
269.841	95.31
270.073	94.31
270.306	86.31
270.538	81.31
270.77	75.31
271.002	85.31
271.234	86.31
271.466	75.31
271.698	81.31
271.93	78.31
272.162	92.31
272.394	91.31
272.626	79.31
272.858	96.31
273.09	83.31
273.322	96.31
273.553	86.31
273.785	80.31
274.017	85.31
274.249	87.31
274.481	78.31
274.713	76.31
274.945	72.31
275.176	78.31
275.408	80.31
275.64	93.31
275.872	100.31
276.104	85.31
276.335	86.31
276.567	86.31
276.799	105.31
277.031	93.31
277.262	71.31
277.494	84.31
277.726	67.31
277.957	80.31
278.189	85.31
278.421	80.31
278.652	85.31
278.884	85.31
279.115	83.31
279.347	83.31
279.579	79.31
279.81	93.31
280.042	84.31
280.273	84.31
280.505	70.31
280.736	86.31
280.968	92.31
281.199	92.31
281.431	85.31
281.662	83.31
281.894	88.31
282.125	94.31
282.356	92.31
282.588	127.31
282.819	108.31
283.051	86.31
283.282	91.31
283.513	103.31
283.745	73.31
283.976	63.31
284.207	84.31
284.439	75.31
284.67	79.31
284.901	82.31
285.132	87.31
285.364	78.31
285.595	91.31
285.826	92.31
286.057	102.31
286.288	94.31
286.52	79.31
286.751	95.31
286.982	86.31
287.213	91.31
287.444	99.31
287.675	88.31
287.906	87.31
288.138	83.31
288.369	77.31
288.6	89.31
288.831	92.31
289.062	96.31
289.293	80.31
289.524	75.31
289.755	90.31
289.986	73.31
290.217	83.31
290.448	85.31
290.679	83.31
290.91	92.31
291.141	79.31
291.371	95.31
291.602	93.31
291.833	77.31
292.064	98.31
292.295	69.31
292.526	74.31
292.757	81.31
292.987	84.31
293.218	80.31
293.449	93.31
293.68	94.31
293.91	82.31
294.141	91.31
294.372	87.31
294.603	98.31
294.833	104.31
295.064	79.31
295.295	115.31
295.525	95.31
295.756	103.31
295.987	112.31
296.217	119.31
296.448	125.31
296.679	79.31
296.909	86.31
297.14	90.31
297.37	88.31
297.601	102.31
297.831	86.31
298.062	91.31
298.292	81.31
298.523	75.31
298.753	82.31
298.984	86.31
299.214	84.31
299.445	74.31
299.675	99.31
299.905	87.31
300.136	100.31
300.366	78.31
300.597	77.31
300.827	94.31
301.057	96.31
301.288	97.31
301.518	92.31
301.748	100.31
301.979	105.31
302.209	91.31
302.439	87.31
302.669	93.31
302.9	90.31
303.13	86.31
303.36	92.31
303.59	74.31
303.82	88.31
304.051	72.31
304.281	99.31
304.511	92.31
304.741	93.31
304.971	85.31
305.201	96.31
305.431	76.31
305.661	83.31
305.891	97.31
306.121	78.31
306.352	93.31
306.582	95.31
306.812	79.31
307.042	96.31
307.272	99.31
307.502	96.31
307.731	85.31
307.961	89.31
308.191	85.31
308.421	95.31
308.651	104.31
308.881	92.31
309.111	90.31
309.341	97.31
309.571	94.31
309.8	94.31
310.03	86.31
310.26	84.31
310.49	84.31
310.72	91.31
310.949	96.31
311.179	98.31
311.409	92.31
311.639	95.31
311.868	102.31
312.098	93.31
312.328	96.31
312.557	96.31
312.787	91.31
313.017	86.31
313.246	84.31
313.476	89.31
313.706	85.31
313.935	96.31
314.165	83.31
314.394	103.31
314.624	89.31
314.853	91.31
315.083	92.31
315.312	77.31
315.542	98.31
315.771	91.31
316.001	90.31
316.23	82.31
316.46	89.31
316.689	87.31
316.919	82.31
317.148	97.31
317.377	89.31
317.607	95.31
317.836	99.31
318.065	92.31
318.295	83.31
318.524	103.31
318.753	86.31
318.983	91.31
319.212	91.31
319.441	98.31
319.67	100.31
319.9	93.31
320.129	89.31
320.358	90.31
320.587	99.31
320.816	103.31
321.046	109.31
321.275	90.31
321.504	101.31
321.733	91.31
321.962	102.31
322.191	103.31
322.42	107.31
322.649	117.31
322.878	108.31
323.108	119.31
323.337	118.31
323.566	127.31
323.795	153.31
324.024	199.31
324.253	422.31
324.482	904.31
324.71	1864.31
324.939	2416.31
325.168	867.31
325.397	253.31
325.626	155.31
325.855	130.31
326.084	120.31
326.313	129.31
326.542	143.31
326.77	233.31
326.999	491.31
327.228	1031.31
327.457	1868.31
327.686	1445.31
327.914	379.31
328.143	175.31
328.372	155.31
328.6	122.31
328.829	114.31
329.058	118.31
329.287	110.31
329.515	107.31
329.744	104.31
329.972	110.31
330.201	98.31
330.43	112.31
330.658	128.31
330.887	127.31
331.115	116.31
331.344	89.31
331.572	106.31
331.801	105.31
332.03	93.31
332.258	94.31
332.486	99.31
332.715	88.31
332.943	97.31
333.172	87.31
333.4	83.31
333.629	97.31
333.857	93.31
334.085	97.31
334.314	102.31
334.542	117.31
334.771	93.31
334.999	87.31
335.227	99.31
335.455	100.31
335.684	106.31
335.912	91.31
336.14	97.31
336.369	86.31
336.597	90.31
336.825	94.31
337.053	81.31
337.281	74.31
337.51	84.31
337.738	106.31
337.966	103.31
338.194	110.31
338.422	82.31
338.65	78.31
338.878	93.31
339.106	86.31
339.334	96.31
339.562	100.31
339.79	83.31
340.018	89.31
340.246	91.31
340.474	97.31
340.702	88.31
340.93	89.31
341.158	80.31
341.386	91.31
341.614	102.31
341.842	102.31
342.07	76.31
342.298	96.31
342.526	90.31
342.754	87.31
342.981	91.31
343.209	95.31
343.437	105.31
343.665	93.31
343.893	100.31
344.12	95.31
344.348	80.31
344.576	83.31
344.804	89.31
345.031	96.31
345.259	91.31
345.487	94.31
345.714	85.31
345.942	91.31
346.17	96.31
346.397	85.31
346.625	87.31
346.853	95.31
347.08	77.31
347.308	98.31
347.535	98.31
347.763	104.31
347.99	100.31
348.218	110.31
348.445	113.31
348.673	92.31
348.9	94.31
349.128	107.31
349.355	90.31
349.583	96.31
349.81	101.31
350.037	102.31
350.265	91.31
350.492	96.31
350.72	97.31
350.947	94.31
351.174	108.31
351.402	111.31
351.629	90.31
351.856	101.31
352.083	96.31
352.311	111.31
352.538	108.31
352.765	102.31
352.992	117.31
353.22	114.31
353.447	113.31
353.674	95.31
353.901	102.31
354.128	101.31
354.355	100.31
354.583	100.31
354.81	100.31
355.037	85.31
355.264	83.31
355.491	95.31
355.718	88.31
355.945	91.31
356.172	85.31
356.399	90.31
356.626	87.31
356.853	93.31
357.08	99.31
357.307	79.31
357.534	85.31
357.761	84.31
357.988	94.31
358.215	88.31
358.441	105.31
358.668	89.31
358.895	85.31
359.122	93.31
359.349	86.31
359.576	93.31
359.802	94.31
360.029	115.31
360.256	101.31
360.483	91.31
360.709	102.31
360.936	91.31
361.163	89.31
361.39	86.31
361.616	91.31
361.843	75.31
362.07	87.31
362.296	100.31
362.523	95.31
362.749	71.31
362.976	81.31
363.203	107.31
363.429	88.31
363.656	80.31
363.882	85.31
364.109	98.31
364.335	104.31
364.562	90.31
364.788	85.31
365.015	85.31
365.241	96.31
365.468	100.31
365.694	110.31
365.92	87.31
366.147	75.31
366.373	94.31
366.599	83.31
366.826	91.31
367.052	91.31
367.278	86.31
367.505	90.31
367.731	100.31
367.957	72.31
368.184	90.31
368.41	90.31
368.636	100.31
368.862	125.31
369.089	110.31
369.315	95.31
369.541	95.31
369.767	80.31
369.993	94.31
370.219	83.31
370.445	100.31
370.672	87.31
370.898	85.31
371.124	88.31
371.35	89.31
371.576	85.31
371.802	84.31
372.028	85.31
372.254	77.31
372.48	79.31
372.706	78.31
372.932	87.31
373.158	91.31
373.384	97.31
373.61	80.31
373.835	76.31
374.061	84.31
374.287	84.31
374.513	72.31
374.739	89.31
374.965	84.31
375.191	76.31
375.416	92.31
375.642	87.31
375.868	91.31
376.094	87.31
376.319	95.31
376.545	90.31
376.771	79.31
376.997	83.31
377.222	88.31
377.448	100.31
377.674	96.31
377.899	101.31
378.125	90.31
378.35	88.31
378.576	86.31
378.802	83.31
379.027	92.31
379.253	85.31
379.478	102.31
379.704	88.31
379.929	74.31
380.155	100.31
380.38	96.31
380.606	88.31
380.831	89.31
381.057	107.31
381.282	95.31
381.507	100.31
381.733	88.31
381.958	100.31
382.184	97.31
382.409	96.31
382.634	104.31
382.86	100.31
383.085	92.31
383.31	94.31
383.535	94.31
383.761	85.31
383.986	97.31
384.211	109.31
384.436	92.31
384.662	86.31
384.887	87.31
385.112	95.31
385.337	97.31
385.562	109.31
385.787	100.31
386.013	108.31
386.238	115.31
386.463	104.31
386.688	103.31
386.913	110.31
387.138	102.31
387.363	101.31
387.588	106.31
387.813	96.31
388.038	106.31
388.263	101.31
388.488	90.31
388.713	99.31
388.938	105.31
389.163	99.31
389.387	88.31
389.612	97.31
389.837	93.31
390.062	90.31
390.287	89.31
390.512	95.31
390.736	78.31
390.961	78.31
391.186	106.31
391.411	91.31
391.636	84.31
391.86	89.31
392.085	79.31
392.31	78.31
392.534	81.31
392.759	82.31
392.984	83.31
393.208	90.31
393.433	103.31
393.658	71.31
393.882	93.31
394.107	101.31
394.331	88.31
394.556	92.31
394.78	79.31
395.005	79.31
395.229	76.31
395.454	87.31
395.678	77.31
395.903	97.31
396.127	77.31
396.352	72.31
396.576	79.31
396.801	97.31
397.025	94.31
397.249	86.31
397.474	92.31
397.698	89.31
397.922	82.31
398.147	87.31
398.371	78.31
398.595	88.31
398.82	88.31
399.044	95.31
399.268	88.31
399.492	86.31
399.717	95.31
399.941	91.31
400.165	89.31
400.389	97.31
400.613	74.31
400.837	72.31
401.062	74.31
401.286	91.31
401.51	95.31
401.734	80.31
401.958	109.31
402.182	115.31
402.406	147.31
402.63	109.31
402.854	95.31
403.078	79.31
403.302	86.31
403.526	86.31
403.75	94.31
403.974	87.31
404.198	85.31
404.422	80.31
404.645	93.31
404.869	79.31
405.093	99.31
405.317	97.31
405.541	96.31
405.765	105.31
405.988	114.31
406.212	144.31
406.436	200.31
406.66	143.31
406.883	100.31
407.107	93.31
407.331	88.31
407.555	95.31
407.778	101.31
408.002	94.31
408.226	88.31
408.449	83.31
408.673	79.31
408.896	92.31
409.12	110.31
409.344	100.31
409.567	93.31
409.791	76.31
410.014	95.31
410.238	87.31
410.461	98.31
410.685	98.31
410.908	100.31
411.132	96.31
411.355	91.31
411.578	95.31
411.802	81.31
412.025	93.31
412.249	87.31
412.472	84.31
412.695	76.31
412.919	85.31
413.142	93.31
413.365	73.31
413.589	83.31
413.812	79.31
414.035	83.31
414.258	98.31
414.482	85.31
414.705	83.31
414.928	94.31
415.151	95.31
415.374	96.31
415.597	86.31
415.821	93.31
416.044	89.31
416.267	93.31
416.49	85.31
416.713	85.31
416.936	96.31
417.159	92.31
417.382	79.31
417.605	83.31
417.828	109.31
418.051	102.31
418.274	80.31
418.497	79.31
418.72	96.31
418.943	96.31
419.166	74.31
419.389	84.31
419.611	94.31
419.834	80.31
420.057	91.31
420.28	85.31
420.503	71.31
420.726	72.31
420.948	84.31
421.171	105.31
421.394	86.31
421.617	83.31
421.839	90.31
422.062	90.31
422.285	94.31
422.507	98.31
422.73	105.31
422.953	99.31
423.175	96.31
423.398	89.31
423.621	75.31
423.843	84.31
424.066	83.31
424.288	96.31
424.511	84.31
424.733	92.31
424.956	116.31
425.178	87.31
425.401	99.31
425.623	100.31
425.846	85.31
426.068	96.31
426.291	81.31
426.513	83.31
426.735	91.31
426.958	99.31
427.18	102.31
427.402	125.31
427.625	164.31
427.847	118.31
428.069	99.31
428.292	97.31
428.514	88.31
428.736	83.31
428.958	85.31
429.181	85.31
429.403	83.31
429.625	72.31
429.847	95.31
430.069	105.31
430.292	91.31
430.514	87.31
430.736	89.31
430.958	83.31
431.18	78.31
431.402	90.31
431.624	88.31
431.846	83.31
432.068	96.31
432.29	86.31
432.512	83.31
432.734	64.31
432.956	88.31
433.178	93.31
433.4	104.31
433.622	98.31
433.844	101.31
434.066	89.31
434.287	91.31
434.509	97.31
434.731	82.31
434.953	89.31
435.175	87.31
435.397	94.31
435.618	85.31
435.84	92.31
436.062	128.31
436.284	116.31
436.505	93.31
436.727	111.31
436.949	97.31
437.17	64.31
437.392	62.31
437.614	86.31
437.835	103.31
438.057	112.31
438.278	105.31
438.5	96.31
438.721	139.31
438.943	104.31
439.165	93.31
439.386	85.31
439.608	104.31
439.829	83.31
440.05	121.31
440.272	144.31
440.493	107.31
440.715	79.31
440.936	86.31
441.158	85.31
441.379	89.31
441.6	90.31
441.822	89.31
442.043	86.31
442.264	112.31
442.486	86.31
442.707	94.31
442.928	105.31
443.149	115.31
443.371	116.31
443.592	87.31
443.813	118.31
444.034	112.31
444.255	89.31
444.476	84.31
444.698	93.31
444.919	86.31
445.14	124.31
445.361	128.31
445.582	113.31
445.803	138.31
446.024	134.31
446.245	131.31
446.466	108.31
446.687	85.31
446.908	97.31
447.129	79.31
447.35	96.31
447.571	93.31
447.792	110.31
448.013	91.31
448.234	106.31
448.455	100.31
448.675	93.31
448.896	117.31
449.117	102.31
449.338	101.31
449.559	128.31
449.779	119.31
450	87.31
450.221	89.31
450.442	92.31
450.662	89.31
450.883	106.31
451.104	95.31
451.324	96.31
451.545	91.31
451.766	79.31
451.986	89.31
452.207	89.31
452.428	92.31
452.648	92.31
452.869	110.31
453.089	108.31
453.31	126.31
453.53	92.31
453.751	95.31
453.971	105.31
454.192	103.31
454.412	94.31
454.633	89.31
454.853	80.31
455.073	84.31
455.294	96.31
455.514	97.31
455.734	81.31
455.955	93.31
456.175	83.31
456.395	85.31
456.616	91.31
456.836	101.31
457.056	88.31
457.276	73.31
457.497	80.31
457.717	85.31
457.937	86.31
458.157	97.31
458.377	93.31
458.598	94.31
458.818	141.31
459.038	154.31
459.258	115.31
459.478	102.31
459.698	94.31
459.918	79.31
460.138	77.31
460.358	93.31
460.578	85.31
460.798	94.31
461.018	100.31
461.238	87.31
461.458	88.31
461.678	85.31
461.898	83.31
462.118	82.31
462.338	85.31
462.558	90.31
462.777	82.31
462.997	82.31
463.217	92.31
463.437	83.31
463.657	79.31
463.876	86.31
464.096	93.31
464.316	87.31
464.536	84.31
464.755	96.31
464.975	92.31
465.195	152.31
465.414	150.31
465.634	93.31
465.854	84.31
466.073	95.31
466.293	89.31
466.512	93.31
466.732	76.31
466.951	82.31
467.171	87.31
467.391	96.31
467.61	103.31
467.829	95.31
468.049	75.31
468.268	76.31
468.488	96.31
468.707	96.31
468.927	89.31
469.146	76.31
469.365	90.31
469.585	97.31
469.804	92.31
470.023	86.31
470.243	96.31
470.462	90.31
470.681	120.31
470.901	81.31
471.12	93.31
471.339	83.31
471.558	79.31
471.777	84.31
471.997	83.31
472.216	86.31
472.435	94.31
472.654	97.31
472.873	86.31
473.092	87.31
473.311	79.31
473.53	78.31
473.749	84.31
473.968	93.31
474.187	105.31
474.406	92.31
474.625	75.31
474.844	88.31
475.063	78.31
475.282	81.31
475.501	78.31
475.72	101.31
475.939	76.31
476.158	84.31
476.377	86.31
476.596	87.31
476.814	101.31
477.033	92.31
477.252	89.31
477.471	85.31
477.69	93.31
477.908	77.31
478.127	103.31
478.346	95.31
478.564	96.31
478.783	97.31
479.002	88.31
479.22	84.31
479.439	91.31
479.658	90.31
479.876	99.31
480.095	89.31
480.313	85.31
480.532	77.31
480.751	104.31
480.969	84.31
481.188	103.31
481.406	92.31
481.624	88.31
481.843	80.31
482.061	92.31
482.28	92.31
482.498	80.31
482.717	87.31
482.935	88.31
483.153	85.31
483.372	87.31
483.59	77.31
483.808	80.31
484.027	98.31
484.245	91.31
484.463	86.31
484.681	87.31
484.9	73.31
485.118	91.31
485.336	93.31
485.554	81.31
485.772	105.31
485.99	114.31
486.209	111.31
486.427	101.31
486.645	103.31
486.863	112.31
487.081	101.31
487.299	87.31
487.517	102.31
487.735	94.31
487.953	91.31
488.171	88.31
488.389	91.31
488.607	99.31
488.825	96.31
489.043	98.31
489.261	80.31
489.479	91.31
489.696	94.31
489.914	99.31
490.132	95.31
490.35	92.31
490.568	82.31
490.786	71.31
491.003	91.31
491.221	80.31
491.439	96.31
491.657	93.31
491.874	98.31
492.092	86.31
492.31	90.31
492.527	89.31
492.745	90.31
492.963	83.31
493.18	90.31
493.398	87.31
493.615	98.31
493.833	92.31
494.05	87.31
494.268	80.31
494.485	79.31
494.703	95.31
494.92	95.31
495.138	102.31
495.355	75.31
495.573	89.31
495.79	89.31
496.008	98.31
496.225	99.31
496.442	94.31
496.66	96.31
496.877	97.31
497.094	97.31
497.312	99.31
497.529	89.31
497.746	95.31
497.963	96.31
498.181	90.31
498.398	96.31
498.615	103.31
498.832	110.31
499.049	112.31
499.267	108.31
499.484	95.31
499.701	87.31
499.918	81.31
500.135	76.31
500.352	83.31
500.569	97.31
500.786	98.31
501.003	95.31
501.22	96.31
501.437	84.31
501.654	102.31
501.871	108.31
502.088	82.31
502.305	96.31
502.522	97.31
502.739	87.31
502.956	90.31
503.172	103.31
503.389	93.31
503.606	112.31
503.823	84.31
504.04	93.31
504.256	86.31
504.473	91.31
504.69	82.31
504.907	91.31
505.123	95.31
505.34	93.31
505.557	85.31
505.773	83.31
505.99	99.31
506.207	100.31
506.423	82.31
506.64	89.31
506.856	89.31
507.073	79.31
507.289	88.31
507.506	94.31
507.722	116.31
507.939	107.31
508.155	104.31
508.372	97.31
508.588	88.31
508.805	93.31
509.021	87.31
509.238	95.31
509.454	113.31
509.67	100.31
509.887	110.31
510.103	135.31
510.319	213.31
510.536	772.31
510.752	2375.31
510.968	657.31
511.184	153.31
511.401	93.31
511.617	95.31
511.833	92.31
512.049	87.31
512.265	113.31
512.481	100.31
512.698	90.31
512.914	98.31
513.13	93.31
513.346	94.31
513.562	95.31
513.778	99.31
513.994	107.31
514.21	97.31
514.426	104.31
514.642	124.31
514.858	129.31
515.074	159.31
515.29	436.31
515.506	1387.31
515.721	500.31
515.937	161.31
516.153	114.31
516.369	95.31
