Data from Uncirc_1999_H10_HRD10591_00050.txt Node
Date: Wed Jan 03 11:22:15 EST 2024
User: Yrep
Spectrometer: HR+D1059
Trigger mode: 1
Integration Time (sec): 1.000000E-1
Scans to average: 1
Electric dark correction enabled: true
Nonlinearity correction enabled: false
Boxcar width: 0
XAxis mode: Wavelengths
Number of Pixels in Spectrum: 2048
>>>>>Begin Spectral Data<<<<<
223.165	-22.06
223.4	-22.06
223.635	-22.06
223.869	-7.06
224.104	-16.06
224.338	-7.06
224.573	-18.06
224.808	-17.06
225.042	-19.06
225.277	-2.06
225.511	6.94
225.746	8.94
225.98	5.94
226.215	6.94
226.449	7.94
226.683	18.94
226.918	19.94
227.152	32.94
227.387	27.94
227.621	34.94
227.856	44.94
228.09	46.94
228.324	37.94
228.559	55.94
228.793	57.94
229.027	45.94
229.262	49.94
229.496	74.94
229.73	98.94
229.964	89.94
230.199	87.94
230.433	77.94
230.667	79.94
230.901	81.94
231.136	84.94
231.37	93.94
231.604	83.94
231.838	80.94
232.072	82.94
232.306	81.94
232.541	89.94
232.775	74.94
233.009	72.94
233.243	98.94
233.477	88.94
233.711	80.94
233.945	81.94
234.179	81.94
234.413	86.94
234.647	63.94
234.881	88.94
235.115	71.94
235.349	76.94
235.583	82.94
235.817	75.94
236.051	68.94
236.285	67.94
236.519	74.94
236.753	80.94
236.987	69.94
237.221	85.94
237.455	89.94
237.689	95.94
237.922	80.94
238.156	74.94
238.39	92.94
238.624	81.94
238.858	72.94
239.091	72.94
239.325	72.94
239.559	85.94
239.793	64.94
240.027	76.94
240.26	81.94
240.494	77.94
240.728	72.94
240.961	82.94
241.195	71.94
241.429	74.94
241.662	81.94
241.896	70.94
242.13	79.94
242.363	77.94
242.597	61.94
242.83	65.94
243.064	76.94
243.298	84.94
243.531	83.94
243.765	73.94
243.998	77.94
244.232	68.94
244.465	90.94
244.699	84.94
244.932	86.94
245.166	76.94
245.399	63.94
245.633	82.94
245.866	76.94
246.099	64.94
246.333	85.94
246.566	83.94
246.8	87.94
247.033	82.94
247.266	62.94
247.5	77.94
247.733	82.94
247.966	89.94
248.2	85.94
248.433	81.94
248.666	75.94
248.899	86.94
249.133	78.94
249.366	77.94
249.599	72.94
249.832	76.94
250.066	71.94
250.299	87.94
250.532	89.94
250.765	82.94
250.998	77.94
251.231	78.94
251.465	80.94
251.698	74.94
251.931	72.94
252.164	79.94
252.397	78.94
252.63	82.94
252.863	86.94
253.096	78.94
253.329	73.94
253.562	74.94
253.795	81.94
254.028	86.94
254.261	73.94
254.494	77.94
254.727	79.94
254.96	82.94
255.193	86.94
255.426	76.94
255.659	61.94
255.892	72.94
256.124	82.94
256.357	84.94
256.59	80.94
256.823	64.94
257.056	93.94
257.289	94.94
257.521	69.94
257.754	81.94
257.987	73.94
258.22	82.94
258.452	79.94
258.685	79.94
258.918	78.94
259.151	73.94
259.383	81.94
259.616	76.94
259.849	84.94
260.081	77.94
260.314	86.94
260.547	85.94
260.779	95.94
261.012	93.94
261.244	87.94
261.477	103.94
261.71	86.94
261.942	97.94
262.175	111.94
262.407	80.94
262.64	84.94
262.872	89.94
263.105	82.94
263.337	77.94
263.57	75.94
263.802	55.94
264.035	66.94
264.267	81.94
264.499	79.94
264.732	81.94
264.964	83.94
265.197	79.94
265.429	77.94
265.661	83.94
265.894	80.94
266.126	86.94
266.358	78.94
266.591	74.94
266.823	78.94
267.055	92.94
267.287	77.94
267.52	82.94
267.752	81.94
267.984	84.94
268.216	87.94
268.448	77.94
268.681	81.94
268.913	92.94
269.145	84.94
269.377	74.94
269.609	91.94
269.841	86.94
270.073	87.94
270.306	78.94
270.538	79.94
270.77	57.94
271.002	78.94
271.234	91.94
271.466	94.94
271.698	83.94
271.93	90.94
272.162	81.94
272.394	92.94
272.626	93.94
272.858	92.94
273.09	86.94
273.322	92.94
273.553	83.94
273.785	72.94
274.017	85.94
274.249	88.94
274.481	73.94
274.713	90.94
274.945	88.94
275.176	88.94
275.408	86.94
275.64	80.94
275.872	92.94
276.104	95.94
276.335	93.94
276.567	95.94
276.799	103.94
277.031	98.94
277.262	97.94
277.494	80.94
277.726	88.94
277.957	60.94
278.189	86.94
278.421	91.94
278.652	84.94
278.884	91.94
279.115	73.94
279.347	90.94
279.579	76.94
279.81	92.94
280.042	82.94
280.273	82.94
280.505	100.94
280.736	86.94
280.968	75.94
281.199	81.94
281.431	104.94
281.662	90.94
281.894	88.94
282.125	86.94
282.356	117.94
282.588	139.94
282.819	107.94
283.051	103.94
283.282	101.94
283.513	99.94
283.745	91.94
283.976	95.94
284.207	89.94
284.439	88.94
284.67	93.94
284.901	82.94
285.132	85.94
285.364	88.94
285.595	101.94
285.826	88.94
286.057	74.94
286.288	84.94
286.52	90.94
286.751	79.94
286.982	81.94
287.213	78.94
287.444	81.94
287.675	78.94
287.906	86.94
288.138	87.94
288.369	81.94
288.6	98.94
288.831	101.94
289.062	88.94
289.293	87.94
289.524	87.94
289.755	92.94
289.986	92.94
290.217	79.94
290.448	77.94
290.679	72.94
290.91	100.94
291.141	92.94
291.371	103.94
291.602	97.94
291.833	88.94
292.064	89.94
292.295	80.94
292.526	85.94
292.757	81.94
292.987	96.94
293.218	82.94
293.449	78.94
293.68	85.94
293.91	89.94
294.141	96.94
294.372	90.94
294.603	88.94
294.833	90.94
295.064	88.94
295.295	95.94
295.525	89.94
295.756	89.94
295.987	116.94
296.217	132.94
296.448	122.94
296.679	92.94
296.909	92.94
297.14	85.94
297.37	74.94
297.601	93.94
297.831	101.94
298.062	92.94
298.292	88.94
298.523	89.94
298.753	82.94
298.984	87.94
299.214	82.94
299.445	86.94
299.675	96.94
299.905	113.94
300.136	95.94
300.366	97.94
300.597	92.94
300.827	99.94
301.057	98.94
301.288	115.94
301.518	95.94
301.748	75.94
301.979	110.94
302.209	100.94
302.439	85.94
302.669	80.94
302.9	86.94
303.13	82.94
303.36	88.94
303.59	115.94
303.82	97.94
304.051	89.94
304.281	81.94
304.511	89.94
304.741	79.94
304.971	100.94
305.201	100.94
305.431	90.94
305.661	93.94
305.891	99.94
306.121	86.94
306.352	83.94
306.582	106.94
306.812	86.94
307.042	94.94
307.272	80.94
307.502	107.94
307.731	94.94
307.961	82.94
308.191	97.94
308.421	101.94
308.651	88.94
308.881	94.94
309.111	86.94
309.341	81.94
309.571	109.94
309.8	92.94
310.03	93.94
310.26	88.94
310.49	82.94
310.72	94.94
310.949	100.94
311.179	105.94
311.409	104.94
311.639	92.94
311.868	98.94
312.098	117.94
312.328	115.94
312.557	99.94
312.787	102.94
313.017	97.94
313.246	98.94
313.476	88.94
313.706	89.94
313.935	102.94
314.165	93.94
314.394	79.94
314.624	87.94
314.853	102.94
315.083	81.94
315.312	95.94
315.542	91.94
315.771	97.94
316.001	85.94
316.23	77.94
316.46	85.94
316.689	100.94
316.919	104.94
317.148	107.94
317.377	101.94
317.607	92.94
317.836	86.94
318.065	91.94
318.295	76.94
318.524	98.94
318.753	92.94
318.983	100.94
319.212	96.94
319.441	111.94
319.67	110.94
319.9	103.94
320.129	99.94
320.358	100.94
320.587	92.94
320.816	106.94
321.046	96.94
321.275	103.94
321.504	90.94
321.733	103.94
321.962	108.94
322.191	97.94
322.42	96.94
322.649	112.94
322.878	102.94
323.108	116.94
323.337	118.94
323.566	132.94
323.795	159.94
324.024	195.94
324.253	414.94
324.482	855.94
324.71	1702.94
324.939	2234.94
325.168	832.94
325.397	256.94
325.626	147.94
325.855	115.94
326.084	136.94
326.313	127.94
326.542	146.94
326.77	246.94
326.999	464.94
327.228	975.94
327.457	1756.94
327.686	1374.94
327.914	353.94
328.143	173.94
328.372	152.94
328.6	129.94
328.829	118.94
329.058	111.94
329.287	116.94
329.515	111.94
329.744	102.94
329.972	97.94
330.201	116.94
330.43	102.94
330.658	94.94
330.887	142.94
331.115	136.94
331.344	92.94
331.572	99.94
331.801	111.94
332.03	109.94
332.258	88.94
332.486	83.94
332.715	87.94
332.943	97.94
333.172	107.94
333.4	95.94
333.629	121.94
333.857	130.94
334.085	113.94
334.314	101.94
334.542	108.94
334.771	99.94
334.999	99.94
335.227	94.94
335.455	102.94
335.684	92.94
335.912	105.94
336.14	103.94
336.369	91.94
336.597	99.94
336.825	103.94
337.053	93.94
337.281	97.94
337.51	75.94
337.738	90.94
337.966	90.94
338.194	103.94
338.422	90.94
338.65	107.94
338.878	121.94
339.106	90.94
339.334	83.94
339.562	78.94
339.79	95.94
340.018	81.94
340.246	80.94
340.474	92.94
340.702	94.94
340.93	88.94
341.158	89.94
341.386	96.94
341.614	106.94
341.842	96.94
342.07	97.94
342.298	93.94
342.526	98.94
342.754	92.94
342.981	86.94
343.209	103.94
343.437	103.94
343.665	96.94
343.893	102.94
344.12	84.94
344.348	98.94
344.576	108.94
344.804	90.94
345.031	89.94
345.259	108.94
345.487	93.94
345.714	92.94
345.942	78.94
346.17	96.94
346.397	78.94
346.625	85.94
346.853	97.94
347.08	93.94
347.308	95.94
347.535	94.94
347.763	98.94
347.99	74.94
348.218	104.94
348.445	102.94
348.673	91.94
348.9	99.94
349.128	87.94
349.355	92.94
349.583	95.94
349.81	89.94
350.037	90.94
350.265	84.94
350.492	81.94
350.72	97.94
350.947	114.94
351.174	108.94
351.402	113.94
351.629	97.94
351.856	102.94
352.083	95.94
352.311	93.94
352.538	106.94
352.765	113.94
352.992	110.94
353.22	123.94
353.447	104.94
353.674	104.94
353.901	86.94
354.128	109.94
354.355	97.94
354.583	94.94
354.81	104.94
355.037	95.94
355.264	110.94
355.491	93.94
355.718	93.94
355.945	93.94
356.172	94.94
356.399	97.94
356.626	103.94
356.853	97.94
357.08	103.94
357.307	92.94
357.534	81.94
357.761	95.94
357.988	91.94
358.215	102.94
358.441	101.94
358.668	104.94
358.895	94.94
359.122	99.94
359.349	98.94
359.576	102.94
359.802	98.94
360.029	114.94
360.256	93.94
360.483	93.94
360.709	100.94
360.936	91.94
361.163	91.94
361.39	97.94
361.616	98.94
361.843	76.94
362.07	81.94
362.296	71.94
362.523	86.94
362.749	77.94
362.976	104.94
363.203	93.94
363.429	94.94
363.656	88.94
363.882	92.94
364.109	93.94
364.335	80.94
364.562	99.94
364.788	91.94
365.015	87.94
365.241	106.94
365.468	119.94
365.694	94.94
365.92	92.94
366.147	86.94
366.373	95.94
366.599	96.94
366.826	103.94
367.052	89.94
367.278	95.94
367.505	117.94
367.731	95.94
367.957	89.94
368.184	90.94
368.41	89.94
368.636	98.94
368.862	93.94
369.089	95.94
369.315	104.94
369.541	94.94
369.767	94.94
369.993	93.94
370.219	87.94
370.445	92.94
370.672	98.94
370.898	87.94
371.124	103.94
371.35	102.94
371.576	64.94
371.802	90.94
372.028	90.94
372.254	91.94
372.48	93.94
372.706	99.94
372.932	91.94
373.158	102.94
373.384	100.94
373.61	97.94
373.835	100.94
374.061	91.94
374.287	82.94
374.513	103.94
374.739	88.94
374.965	87.94
375.191	94.94
375.416	102.94
375.642	84.94
375.868	108.94
376.094	91.94
376.319	92.94
376.545	87.94
376.771	85.94
376.997	89.94
377.222	87.94
377.448	94.94
377.674	76.94
377.899	84.94
378.125	91.94
378.35	96.94
378.576	88.94
378.802	104.94
379.027	100.94
379.253	97.94
379.478	98.94
379.704	70.94
379.929	88.94
380.155	101.94
380.38	84.94
380.606	113.94
380.831	96.94
381.057	87.94
381.282	98.94
381.507	100.94
381.733	79.94
381.958	95.94
382.184	101.94
382.409	101.94
382.634	119.94
382.86	106.94
383.085	107.94
383.31	103.94
383.535	90.94
383.761	94.94
383.986	101.94
384.211	100.94
384.436	102.94
384.662	96.94
384.887	111.94
385.112	104.94
385.337	101.94
385.562	109.94
385.787	106.94
386.013	113.94
386.238	112.94
386.463	107.94
386.688	116.94
386.913	115.94
387.138	109.94
387.363	92.94
387.588	106.94
387.813	91.94
388.038	96.94
388.263	125.94
388.488	115.94
388.713	95.94
388.938	94.94
389.163	95.94
389.387	96.94
389.612	107.94
389.837	105.94
390.062	85.94
390.287	105.94
390.512	84.94
390.736	88.94
390.961	101.94
391.186	91.94
391.411	103.94
391.636	104.94
391.86	81.94
392.085	85.94
392.31	98.94
392.534	72.94
392.759	85.94
392.984	82.94
393.208	106.94
393.433	81.94
393.658	102.94
393.882	101.94
394.107	95.94
394.331	82.94
394.556	84.94
394.78	89.94
395.005	71.94
395.229	86.94
395.454	81.94
395.678	73.94
395.903	104.94
396.127	90.94
396.352	87.94
396.576	93.94
396.801	99.94
397.025	85.94
397.249	79.94
397.474	92.94
397.698	85.94
397.922	74.94
398.147	90.94
398.371	91.94
398.595	82.94
398.82	78.94
399.044	88.94
399.268	90.94
399.492	101.94
399.717	90.94
399.941	89.94
400.165	87.94
400.389	109.94
400.613	93.94
400.837	79.94
401.062	81.94
401.286	96.94
401.51	98.94
401.734	96.94
401.958	105.94
402.182	123.94
402.406	141.94
402.63	106.94
402.854	98.94
403.078	96.94
403.302	92.94
403.526	84.94
403.75	75.94
403.974	100.94
404.198	84.94
404.422	88.94
404.645	95.94
404.869	76.94
405.093	91.94
405.317	107.94
405.541	109.94
405.765	101.94
405.988	120.94
406.212	178.94
406.436	232.94
406.66	138.94
406.883	94.94
407.107	90.94
407.331	110.94
407.555	89.94
407.778	97.94
408.002	92.94
408.226	81.94
408.449	92.94
408.673	91.94
408.896	96.94
409.12	104.94
409.344	91.94
409.567	81.94
409.791	103.94
410.014	99.94
410.238	102.94
410.461	95.94
410.685	90.94
410.908	101.94
411.132	110.94
411.355	94.94
411.578	93.94
411.802	88.94
412.025	94.94
412.249	96.94
412.472	99.94
412.695	89.94
412.919	88.94
413.142	82.94
413.365	72.94
413.589	77.94
413.812	95.94
414.035	90.94
414.258	101.94
414.482	89.94
414.705	90.94
414.928	93.94
415.151	93.94
415.374	93.94
415.597	88.94
415.821	84.94
416.044	80.94
416.267	88.94
416.49	91.94
416.713	73.94
416.936	87.94
417.159	88.94
417.382	85.94
417.605	89.94
417.828	104.94
418.051	87.94
418.274	113.94
418.497	84.94
418.72	94.94
418.943	98.94
419.166	78.94
419.389	85.94
419.611	82.94
419.834	90.94
420.057	98.94
420.28	85.94
420.503	92.94
420.726	72.94
420.948	88.94
421.171	84.94
421.394	96.94
421.617	99.94
421.839	82.94
422.062	97.94
422.285	84.94
422.507	88.94
422.73	86.94
422.953	81.94
423.175	93.94
423.398	79.94
423.621	94.94
423.843	83.94
424.066	85.94
424.288	86.94
424.511	78.94
424.733	81.94
424.956	93.94
425.178	78.94
425.401	109.94
425.623	88.94
425.846	90.94
426.068	100.94
426.291	91.94
426.513	98.94
426.735	85.94
426.958	113.94
427.18	106.94
427.402	127.94
427.625	135.94
427.847	118.94
428.069	109.94
428.292	74.94
428.514	93.94
428.736	79.94
428.958	87.94
429.181	90.94
429.403	92.94
429.625	93.94
429.847	95.94
430.069	93.94
430.292	101.94
430.514	74.94
430.736	80.94
430.958	87.94
431.18	85.94
431.402	96.94
431.624	86.94
431.846	74.94
432.068	80.94
432.29	84.94
432.512	98.94
432.734	89.94
432.956	95.94
433.178	104.94
433.4	101.94
433.622	93.94
433.844	80.94
434.066	87.94
434.287	91.94
434.509	103.94
434.731	94.94
434.953	85.94
435.175	93.94
435.397	78.94
435.618	106.94
435.84	98.94
436.062	112.94
436.284	112.94
436.505	100.94
436.727	100.94
436.949	88.94
437.17	80.94
437.392	91.94
437.614	101.94
437.835	100.94
438.057	105.94
438.278	99.94
438.5	93.94
438.721	120.94
438.943	96.94
439.165	71.94
439.386	92.94
439.608	102.94
439.829	100.94
440.05	112.94
440.272	117.94
440.493	98.94
440.715	87.94
440.936	89.94
441.158	77.94
441.379	80.94
441.6	91.94
441.822	79.94
442.043	106.94
442.264	106.94
442.486	114.94
442.707	82.94
442.928	119.94
443.149	125.94
443.371	118.94
443.592	111.94
443.813	110.94
444.034	120.94
444.255	90.94
444.476	83.94
444.698	90.94
444.919	92.94
445.14	132.94
445.361	116.94
445.582	121.94
445.803	135.94
446.024	113.94
446.245	112.94
446.466	104.94
446.687	89.94
446.908	90.94
447.129	94.94
447.35	90.94
447.571	85.94
447.792	103.94
448.013	85.94
448.234	99.94
448.455	101.94
448.675	102.94
448.896	96.94
449.117	88.94
449.338	110.94
449.559	115.94
449.779	116.94
450	92.94
450.221	97.94
450.442	95.94
450.662	103.94
450.883	93.94
451.104	108.94
451.324	97.94
451.545	78.94
451.766	90.94
451.986	93.94
452.207	88.94
452.428	95.94
452.648	99.94
452.869	94.94
453.089	119.94
453.31	114.94
453.53	107.94
453.751	92.94
453.971	106.94
454.192	94.94
454.412	103.94
454.633	97.94
454.853	82.94
455.073	98.94
455.294	75.94
455.514	79.94
455.734	74.94
455.955	79.94
456.175	96.94
456.395	82.94
456.616	83.94
456.836	93.94
457.056	95.94
457.276	88.94
457.497	72.94
457.717	74.94
457.937	90.94
458.157	89.94
458.377	88.94
458.598	101.94
458.818	136.94
459.038	150.94
459.258	95.94
459.478	92.94
459.698	84.94
459.918	78.94
460.138	97.94
460.358	79.94
460.578	80.94
460.798	97.94
461.018	84.94
461.238	84.94
461.458	79.94
461.678	84.94
461.898	86.94
462.118	97.94
462.338	89.94
462.558	78.94
462.777	89.94
462.997	84.94
463.217	94.94
463.437	85.94
463.657	76.94
463.876	81.94
464.096	79.94
464.316	98.94
464.536	89.94
464.755	103.94
464.975	118.94
465.195	129.94
465.414	142.94
465.634	97.94
465.854	97.94
466.073	79.94
466.293	94.94
466.512	81.94
466.732	89.94
466.951	90.94
467.171	103.94
467.391	94.94
467.61	101.94
467.829	92.94
468.049	97.94
468.268	97.94
468.488	81.94
468.707	90.94
468.927	91.94
469.146	80.94
469.365	84.94
469.585	96.94
469.804	103.94
470.023	93.94
470.243	89.94
470.462	100.94
470.681	115.94
470.901	76.94
471.12	77.94
471.339	88.94
471.558	82.94
471.777	96.94
471.997	102.94
472.216	103.94
472.435	98.94
472.654	93.94
472.873	90.94
473.092	92.94
473.311	89.94
473.53	81.94
473.749	107.94
473.968	100.94
474.187	102.94
474.406	91.94
474.625	78.94
474.844	88.94
475.063	82.94
475.282	80.94
475.501	98.94
475.72	101.94
475.939	78.94
476.158	91.94
476.377	97.94
476.596	90.94
476.814	100.94
477.033	97.94
477.252	97.94
477.471	87.94
477.69	79.94
477.908	88.94
478.127	85.94
478.346	89.94
478.564	78.94
478.783	95.94
479.002	90.94
479.22	85.94
479.439	98.94
479.658	97.94
479.876	82.94
480.095	93.94
480.313	94.94
480.532	94.94
480.751	97.94
480.969	104.94
481.188	119.94
481.406	116.94
481.624	90.94
481.843	93.94
482.061	79.94
482.28	86.94
482.498	98.94
482.717	108.94
482.935	98.94
483.153	98.94
483.372	99.94
483.59	100.94
483.808	91.94
484.027	100.94
484.245	106.94
484.463	93.94
484.681	87.94
484.9	88.94
485.118	109.94
485.336	94.94
485.554	104.94
485.772	101.94
485.99	105.94
486.209	108.94
486.427	105.94
486.645	110.94
486.863	117.94
487.081	97.94
487.299	103.94
487.517	111.94
487.735	101.94
487.953	95.94
488.171	98.94
488.389	93.94
488.607	98.94
488.825	86.94
489.043	86.94
489.261	88.94
489.479	94.94
489.696	96.94
489.914	80.94
490.132	79.94
490.35	104.94
490.568	91.94
490.786	94.94
491.003	89.94
491.221	80.94
491.439	88.94
491.657	89.94
491.874	83.94
492.092	95.94
492.31	93.94
492.527	77.94
492.745	100.94
492.963	106.94
493.18	89.94
493.398	104.94
493.615	113.94
493.833	93.94
494.05	93.94
494.268	97.94
494.485	106.94
494.703	86.94
494.92	87.94
495.138	95.94
495.355	99.94
495.573	88.94
495.79	76.94
496.008	85.94
496.225	94.94
496.442	81.94
496.66	101.94
496.877	73.94
497.094	91.94
497.312	97.94
497.529	93.94
497.746	77.94
497.963	83.94
498.181	100.94
498.398	80.94
498.615	98.94
498.832	117.94
499.049	87.94
499.267	89.94
499.484	91.94
499.701	92.94
499.918	100.94
500.135	93.94
500.352	94.94
500.569	90.94
500.786	88.94
501.003	100.94
501.22	77.94
501.437	73.94
501.654	82.94
501.871	108.94
502.088	92.94
502.305	96.94
502.522	96.94
502.739	92.94
502.956	84.94
503.172	79.94
503.389	93.94
503.606	112.94
503.823	105.94
504.04	91.94
504.256	92.94
504.473	98.94
504.69	95.94
504.907	99.94
505.123	87.94
505.34	80.94
505.557	91.94
505.773	111.94
505.99	90.94
506.207	98.94
506.423	96.94
506.64	92.94
506.856	97.94
507.073	96.94
507.289	94.94
507.506	98.94
507.722	113.94
507.939	109.94
508.155	95.94
508.372	87.94
508.588	92.94
508.805	103.94
509.021	84.94
509.238	105.94
509.454	99.94
509.67	101.94
509.887	110.94
510.103	132.94
510.319	214.94
510.536	766.94
510.752	2405.94
510.968	666.94
511.184	145.94
511.401	117.94
511.617	103.94
511.833	90.94
512.049	85.94
512.265	91.94
512.481	80.94
512.698	101.94
512.914	91.94
513.13	97.94
513.346	93.94
513.562	97.94
513.778	101.94
513.994	97.94
514.21	98.94
514.426	103.94
514.642	132.94
514.858	125.94
515.074	162.94
515.29	418.94
