Data from Uncirc_1999_H10_HRD10591_00074.txt Node
Date: Wed Jan 03 11:22:20 EST 2024
User: Yrep
Spectrometer: HR+D1059
Trigger mode: 1
Integration Time (sec): 1.000000E-1
Scans to average: 1
Electric dark correction enabled: true
Nonlinearity correction enabled: false
Boxcar width: 0
XAxis mode: Wavelengths
Number of Pixels in Spectrum: 2048
>>>>>Begin Spectral Data<<<<<
223.165	-25.38
223.4	-25.38
223.635	-25.38
223.869	-1.38
224.104	-21.38
224.338	-17.38
224.573	-21.38
224.808	-11.38
225.042	-0.38
225.277	-13.38
225.511	-7.38
225.746	3.62
225.98	-1.38
226.215	7.62
226.449	6.62
226.683	41.62
226.918	24.62
227.152	36.62
227.387	44.62
227.621	36.62
227.856	26.62
228.09	51.62
228.324	50.62
228.559	42.62
228.793	71.62
229.027	71.62
229.262	61.62
229.496	76.62
229.73	89.62
229.964	74.62
230.199	69.62
230.433	80.62
230.667	72.62
230.901	66.62
231.136	86.62
231.37	80.62
231.604	82.62
231.838	86.62
232.072	68.62
232.306	72.62
232.541	67.62
232.775	86.62
233.009	74.62
233.243	86.62
233.477	72.62
233.711	97.62
233.945	81.62
234.179	67.62
234.413	88.62
234.647	87.62
234.881	88.62
235.115	90.62
235.349	82.62
235.583	76.62
235.817	77.62
236.051	79.62
236.285	83.62
236.519	77.62
236.753	80.62
236.987	81.62
237.221	86.62
237.455	80.62
237.689	76.62
237.922	83.62
238.156	90.62
238.39	81.62
238.624	78.62
238.858	75.62
239.091	71.62
239.325	93.62
239.559	73.62
239.793	70.62
240.027	75.62
240.26	74.62
240.494	71.62
240.728	82.62
240.961	88.62
241.195	97.62
241.429	74.62
241.662	76.62
241.896	75.62
242.13	83.62
242.363	66.62
242.597	77.62
242.83	83.62
243.064	77.62
243.298	73.62
243.531	83.62
243.765	77.62
243.998	77.62
244.232	76.62
244.465	74.62
244.699	73.62
244.932	83.62
245.166	84.62
245.399	84.62
245.633	80.62
245.866	90.62
246.099	78.62
246.333	79.62
246.566	70.62
246.8	78.62
247.033	83.62
247.266	80.62
247.5	77.62
247.733	70.62
247.966	65.62
248.2	93.62
248.433	80.62
248.666	86.62
248.899	64.62
249.133	70.62
249.366	97.62
249.599	79.62
249.832	74.62
250.066	83.62
250.299	81.62
250.532	88.62
250.765	75.62
250.998	78.62
251.231	82.62
251.465	94.62
251.698	84.62
251.931	68.62
252.164	88.62
252.397	94.62
252.63	72.62
252.863	89.62
253.096	84.62
253.329	90.62
253.562	96.62
253.795	79.62
254.028	78.62
254.261	94.62
254.494	75.62
254.727	97.62
254.96	81.62
255.193	79.62
255.426	72.62
255.659	92.62
255.892	92.62
256.124	92.62
256.357	87.62
256.59	78.62
256.823	79.62
257.056	98.62
257.289	83.62
257.521	73.62
257.754	66.62
257.987	98.62
258.22	91.62
258.452	75.62
258.685	81.62
258.918	81.62
259.151	64.62
259.383	97.62
259.616	80.62
259.849	86.62
260.081	90.62
260.314	84.62
260.547	77.62
260.779	78.62
261.012	82.62
261.244	78.62
261.477	81.62
261.71	93.62
261.942	96.62
262.175	109.62
262.407	86.62
262.64	87.62
262.872	93.62
263.105	83.62
263.337	92.62
263.57	80.62
263.802	93.62
264.035	72.62
264.267	95.62
264.499	88.62
264.732	85.62
264.964	83.62
265.197	89.62
265.429	88.62
265.661	84.62
265.894	85.62
266.126	83.62
266.358	90.62
266.591	91.62
266.823	85.62
267.055	79.62
267.287	82.62
267.52	83.62
267.752	89.62
267.984	84.62
268.216	96.62
268.448	99.62
268.681	84.62
268.913	80.62
269.145	93.62
269.377	81.62
269.609	83.62
269.841	77.62
270.073	87.62
270.306	74.62
270.538	91.62
270.77	90.62
271.002	71.62
271.234	86.62
271.466	86.62
271.698	78.62
271.93	96.62
272.162	96.62
272.394	84.62
272.626	87.62
272.858	94.62
273.09	75.62
273.322	71.62
273.553	91.62
273.785	95.62
274.017	88.62
274.249	95.62
274.481	93.62
274.713	86.62
274.945	89.62
275.176	76.62
275.408	86.62
275.64	90.62
275.872	91.62
276.104	91.62
276.335	85.62
276.567	102.62
276.799	102.62
277.031	94.62
277.262	78.62
277.494	95.62
277.726	87.62
277.957	83.62
278.189	82.62
278.421	81.62
278.652	83.62
278.884	85.62
279.115	82.62
279.347	78.62
279.579	83.62
279.81	77.62
280.042	97.62
280.273	95.62
280.505	83.62
280.736	81.62
280.968	90.62
281.199	87.62
281.431	88.62
281.662	95.62
281.894	89.62
282.125	104.62
282.356	110.62
282.588	129.62
282.819	105.62
283.051	94.62
283.282	103.62
283.513	94.62
283.745	103.62
283.976	98.62
284.207	97.62
284.439	91.62
284.67	91.62
284.901	93.62
285.132	88.62
285.364	90.62
285.595	82.62
285.826	84.62
286.057	87.62
286.288	76.62
286.52	98.62
286.751	99.62
286.982	81.62
287.213	70.62
287.444	97.62
287.675	89.62
287.906	92.62
288.138	77.62
288.369	95.62
288.6	100.62
288.831	95.62
289.062	81.62
289.293	91.62
289.524	87.62
289.755	84.62
289.986	89.62
290.217	74.62
290.448	90.62
290.679	84.62
290.91	81.62
291.141	78.62
291.371	94.62
291.602	79.62
291.833	93.62
292.064	96.62
292.295	91.62
292.526	96.62
292.757	91.62
292.987	93.62
293.218	81.62
293.449	97.62
293.68	97.62
293.91	88.62
294.141	96.62
294.372	89.62
294.603	94.62
294.833	96.62
295.064	73.62
295.295	91.62
295.525	98.62
295.756	111.62
295.987	119.62
296.217	120.62
296.448	105.62
296.679	98.62
296.909	88.62
297.14	92.62
297.37	92.62
297.601	94.62
297.831	78.62
298.062	91.62
298.292	98.62
298.523	108.62
298.753	81.62
298.984	81.62
299.214	81.62
299.445	84.62
299.675	86.62
299.905	98.62
300.136	92.62
300.366	98.62
300.597	97.62
300.827	84.62
301.057	119.62
301.288	113.62
301.518	104.62
301.748	99.62
301.979	95.62
302.209	100.62
302.439	101.62
302.669	96.62
302.9	90.62
303.13	93.62
303.36	81.62
303.59	100.62
303.82	109.62
304.051	81.62
304.281	90.62
304.511	83.62
304.741	84.62
304.971	99.62
305.201	105.62
305.431	84.62
305.661	94.62
305.891	90.62
306.121	93.62
306.352	95.62
306.582	100.62
306.812	91.62
307.042	87.62
307.272	95.62
307.502	96.62
307.731	96.62
307.961	83.62
308.191	99.62
308.421	90.62
308.651	86.62
308.881	74.62
309.111	90.62
309.341	97.62
309.571	88.62
309.8	90.62
310.03	92.62
310.26	121.62
310.49	112.62
310.72	103.62
310.949	100.62
311.179	90.62
311.409	99.62
311.639	93.62
311.868	106.62
312.098	103.62
312.328	95.62
312.557	106.62
312.787	95.62
313.017	106.62
313.246	90.62
313.476	91.62
313.706	80.62
313.935	82.62
314.165	93.62
314.394	107.62
314.624	95.62
314.853	96.62
315.083	103.62
315.312	104.62
315.542	75.62
315.771	106.62
316.001	90.62
316.23	87.62
316.46	78.62
316.689	92.62
316.919	93.62
317.148	94.62
317.377	97.62
317.607	84.62
317.836	96.62
318.065	85.62
318.295	90.62
318.524	108.62
318.753	81.62
318.983	94.62
319.212	97.62
319.441	79.62
319.67	106.62
319.9	84.62
320.129	89.62
320.358	96.62
320.587	99.62
320.816	111.62
321.046	110.62
321.275	109.62
321.504	99.62
321.733	95.62
321.962	93.62
322.191	93.62
322.42	110.62
322.649	112.62
322.878	112.62
323.108	105.62
323.337	114.62
323.566	130.62
323.795	154.62
324.024	202.62
324.253	382.62
324.482	798.62
324.71	1714.62
324.939	2207.62
325.168	807.62
325.397	237.62
325.626	142.62
325.855	113.62
326.084	121.62
326.313	136.62
326.542	146.62
326.77	233.62
326.999	438.62
327.228	961.62
327.457	1696.62
327.686	1379.62
327.914	363.62
328.143	183.62
328.372	136.62
328.6	136.62
328.829	126.62
329.058	124.62
329.287	117.62
329.515	90.62
329.744	106.62
329.972	106.62
330.201	89.62
330.43	115.62
330.658	115.62
330.887	129.62
331.115	100.62
331.344	87.62
331.572	92.62
331.801	115.62
332.03	95.62
332.258	88.62
332.486	96.62
332.715	89.62
332.943	80.62
333.172	88.62
333.4	78.62
333.629	113.62
333.857	110.62
334.085	102.62
334.314	100.62
334.542	113.62
334.771	113.62
334.999	99.62
335.227	89.62
335.455	96.62
335.684	106.62
335.912	89.62
336.14	84.62
336.369	100.62
336.597	95.62
336.825	109.62
337.053	99.62
337.281	85.62
337.51	85.62
337.738	100.62
337.966	87.62
338.194	99.62
338.422	105.62
338.65	96.62
338.878	72.62
339.106	84.62
339.334	107.62
339.562	91.62
339.79	105.62
340.018	78.62
340.246	85.62
340.474	104.62
340.702	97.62
340.93	90.62
341.158	95.62
341.386	105.62
341.614	109.62
341.842	98.62
342.07	84.62
342.298	106.62
342.526	88.62
342.754	95.62
342.981	79.62
343.209	99.62
343.437	94.62
343.665	95.62
343.893	98.62
344.12	91.62
344.348	98.62
344.576	100.62
344.804	98.62
345.031	94.62
345.259	105.62
345.487	89.62
345.714	88.62
345.942	93.62
346.17	105.62
346.397	86.62
346.625	81.62
346.853	94.62
347.08	92.62
347.308	88.62
347.535	102.62
347.763	104.62
347.99	99.62
348.218	89.62
348.445	109.62
348.673	104.62
348.9	94.62
349.128	102.62
349.355	106.62
349.583	107.62
349.81	94.62
350.037	108.62
350.265	94.62
350.492	98.62
350.72	103.62
350.947	98.62
351.174	106.62
351.402	116.62
351.629	99.62
351.856	99.62
352.083	97.62
352.311	107.62
352.538	106.62
352.765	108.62
352.992	115.62
353.22	111.62
353.447	109.62
353.674	118.62
353.901	102.62
354.128	99.62
354.355	92.62
354.583	102.62
354.81	106.62
355.037	94.62
355.264	109.62
355.491	94.62
355.718	99.62
355.945	121.62
356.172	91.62
356.399	100.62
356.626	100.62
356.853	79.62
357.08	94.62
357.307	100.62
357.534	81.62
357.761	100.62
357.988	92.62
358.215	93.62
358.441	83.62
358.668	84.62
358.895	93.62
359.122	81.62
359.349	107.62
359.576	83.62
359.802	89.62
360.029	108.62
360.256	101.62
360.483	84.62
360.709	103.62
360.936	88.62
361.163	103.62
361.39	92.62
361.616	98.62
361.843	87.62
362.07	103.62
362.296	95.62
362.523	89.62
362.749	84.62
362.976	86.62
363.203	92.62
363.429	91.62
363.656	105.62
363.882	88.62
364.109	96.62
364.335	95.62
364.562	84.62
364.788	84.62
365.015	107.62
365.241	95.62
365.468	109.62
365.694	103.62
365.92	90.62
366.147	82.62
366.373	84.62
366.599	84.62
366.826	86.62
367.052	92.62
367.278	96.62
367.505	87.62
367.731	93.62
367.957	97.62
368.184	86.62
368.41	96.62
368.636	103.62
368.862	108.62
369.089	100.62
369.315	89.62
369.541	86.62
369.767	86.62
369.993	103.62
370.219	95.62
370.445	102.62
370.672	87.62
370.898	91.62
371.124	93.62
371.35	93.62
371.576	95.62
371.802	90.62
372.028	86.62
372.254	99.62
372.48	92.62
372.706	87.62
372.932	86.62
373.158	90.62
373.384	85.62
373.61	96.62
373.835	91.62
374.061	86.62
374.287	81.62
374.513	107.62
374.739	84.62
374.965	89.62
375.191	78.62
375.416	88.62
375.642	92.62
375.868	90.62
376.094	83.62
376.319	86.62
376.545	97.62
376.771	84.62
376.997	94.62
377.222	91.62
377.448	80.62
377.674	91.62
377.899	97.62
378.125	94.62
378.35	87.62
378.576	89.62
378.802	88.62
379.027	84.62
379.253	103.62
379.478	83.62
379.704	101.62
379.929	90.62
380.155	86.62
380.38	99.62
380.606	103.62
380.831	102.62
381.057	82.62
381.282	95.62
381.507	101.62
381.733	102.62
381.958	92.62
382.184	97.62
382.409	99.62
382.634	107.62
382.86	98.62
383.085	81.62
383.31	106.62
383.535	113.62
383.761	108.62
383.986	106.62
384.211	107.62
384.436	85.62
384.662	99.62
384.887	107.62
385.112	95.62
385.337	110.62
385.562	93.62
385.787	97.62
386.013	116.62
386.238	98.62
386.463	121.62
386.688	114.62
386.913	97.62
387.138	122.62
387.363	93.62
387.588	116.62
387.813	107.62
388.038	124.62
388.263	114.62
388.488	119.62
388.713	88.62
388.938	109.62
389.163	95.62
389.387	97.62
389.612	90.62
389.837	92.62
390.062	76.62
390.287	106.62
390.512	101.62
390.736	83.62
390.961	102.62
391.186	102.62
391.411	95.62
391.636	99.62
391.86	87.62
392.085	82.62
392.31	94.62
392.534	92.62
392.759	74.62
392.984	109.62
393.208	86.62
393.433	79.62
393.658	83.62
393.882	79.62
394.107	88.62
394.331	100.62
394.556	98.62
394.78	86.62
395.005	87.62
395.229	85.62
395.454	78.62
395.678	85.62
395.903	91.62
396.127	89.62
396.352	83.62
396.576	86.62
396.801	82.62
397.025	93.62
397.249	92.62
397.474	102.62
397.698	83.62
397.922	84.62
398.147	86.62
398.371	94.62
398.595	97.62
398.82	83.62
399.044	83.62
399.268	93.62
399.492	91.62
399.717	103.62
399.941	87.62
400.165	103.62
400.389	103.62
400.613	91.62
400.837	91.62
401.062	74.62
401.286	89.62
401.51	84.62
401.734	92.62
401.958	97.62
402.182	122.62
402.406	149.62
402.63	113.62
402.854	105.62
403.078	88.62
403.302	85.62
403.526	82.62
403.75	80.62
403.974	97.62
404.198	84.62
404.422	74.62
404.645	88.62
404.869	86.62
405.093	88.62
405.317	99.62
405.541	95.62
405.765	110.62
405.988	114.62
406.212	147.62
406.436	181.62
406.66	122.62
406.883	90.62
407.107	100.62
407.331	104.62
407.555	98.62
407.778	84.62
408.002	83.62
408.226	94.62
408.449	83.62
408.673	94.62
408.896	96.62
409.12	81.62
409.344	107.62
409.567	89.62
409.791	104.62
410.014	88.62
410.238	103.62
410.461	93.62
410.685	92.62
410.908	96.62
411.132	104.62
411.355	94.62
411.578	94.62
411.802	75.62
412.025	82.62
412.249	107.62
412.472	88.62
412.695	92.62
412.919	94.62
413.142	84.62
413.365	80.62
413.589	93.62
413.812	85.62
414.035	106.62
414.258	102.62
414.482	92.62
414.705	82.62
414.928	92.62
415.151	99.62
415.374	99.62
415.597	90.62
415.821	99.62
416.044	95.62
416.267	88.62
416.49	98.62
416.713	87.62
416.936	87.62
417.159	86.62
417.382	87.62
417.605	92.62
417.828	99.62
418.051	100.62
418.274	82.62
418.497	104.62
418.72	84.62
418.943	96.62
419.166	97.62
419.389	86.62
419.611	100.62
419.834	96.62
420.057	83.62
420.28	82.62
420.503	98.62
420.726	94.62
420.948	83.62
421.171	97.62
421.394	85.62
421.617	88.62
421.839	83.62
422.062	85.62
422.285	86.62
422.507	92.62
422.73	101.62
422.953	83.62
423.175	82.62
423.398	88.62
423.621	93.62
423.843	94.62
424.066	85.62
424.288	83.62
424.511	89.62
424.733	104.62
424.956	108.62
425.178	97.62
425.401	104.62
425.623	103.62
425.846	106.62
426.068	84.62
426.291	94.62
426.513	100.62
426.735	100.62
426.958	89.62
427.18	111.62
427.402	120.62
427.625	146.62
427.847	116.62
428.069	91.62
428.292	90.62
428.514	82.62
428.736	64.62
428.958	91.62
429.181	92.62
429.403	82.62
429.625	93.62
429.847	86.62
430.069	99.62
430.292	95.62
430.514	78.62
430.736	104.62
430.958	90.62
431.18	106.62
431.402	86.62
431.624	92.62
431.846	92.62
432.068	90.62
432.29	82.62
432.512	93.62
432.734	97.62
432.956	84.62
433.178	108.62
433.4	95.62
433.622	90.62
433.844	83.62
434.066	87.62
434.287	90.62
434.509	90.62
434.731	103.62
434.953	94.62
435.175	91.62
435.397	86.62
435.618	88.62
435.84	100.62
436.062	123.62
436.284	104.62
436.505	89.62
436.727	100.62
436.949	90.62
437.17	98.62
437.392	86.62
437.614	91.62
437.835	100.62
438.057	103.62
438.278	94.62
438.5	92.62
438.721	119.62
438.943	105.62
439.165	81.62
439.386	98.62
439.608	92.62
439.829	82.62
440.05	125.62
440.272	123.62
440.493	100.62
440.715	89.62
440.936	85.62
441.158	94.62
441.379	97.62
441.6	87.62
441.822	88.62
442.043	98.62
442.264	100.62
442.486	100.62
442.707	97.62
442.928	100.62
443.149	113.62
443.371	123.62
443.592	99.62
443.813	115.62
444.034	95.62
444.255	93.62
444.476	95.62
444.698	85.62
444.919	84.62
445.14	132.62
445.361	124.62
445.582	104.62
445.803	108.62
446.024	137.62
446.245	134.62
446.466	112.62
446.687	96.62
446.908	95.62
447.129	93.62
447.35	98.62
447.571	107.62
447.792	90.62
448.013	92.62
448.234	92.62
448.455	118.62
448.675	96.62
448.896	115.62
449.117	91.62
449.338	105.62
449.559	141.62
449.779	133.62
450	90.62
450.221	90.62
450.442	84.62
450.662	95.62
450.883	105.62
451.104	84.62
451.324	93.62
451.545	84.62
451.766	86.62
451.986	83.62
452.207	86.62
452.428	81.62
452.648	107.62
452.869	113.62
453.089	120.62
453.31	104.62
453.53	93.62
453.751	101.62
453.971	96.62
454.192	116.62
454.412	95.62
454.633	100.62
454.853	91.62
455.073	97.62
455.294	91.62
455.514	110.62
455.734	94.62
455.955	94.62
456.175	88.62
456.395	90.62
456.616	80.62
456.836	85.62
457.056	82.62
457.276	106.62
457.497	83.62
457.717	75.62
457.937	91.62
458.157	97.62
458.377	84.62
458.598	107.62
458.818	135.62
459.038	138.62
459.258	120.62
459.478	92.62
459.698	87.62
459.918	96.62
460.138	104.62
460.358	80.62
460.578	94.62
460.798	86.62
461.018	104.62
461.238	84.62
461.458	85.62
461.678	91.62
461.898	89.62
462.118	89.62
462.338	86.62
462.558	76.62
462.777	95.62
462.997	98.62
463.217	98.62
463.437	97.62
463.657	90.62
463.876	100.62
464.096	87.62
464.316	93.62
464.536	83.62
464.755	81.62
464.975	107.62
465.195	143.62
465.414	137.62
465.634	90.62
465.854	95.62
466.073	70.62
466.293	91.62
466.512	90.62
466.732	87.62
466.951	82.62
467.171	91.62
467.391	92.62
467.61	107.62
467.829	96.62
468.049	87.62
468.268	89.62
468.488	83.62
468.707	87.62
468.927	93.62
469.146	84.62
469.365	86.62
469.585	87.62
469.804	84.62
470.023	94.62
470.243	101.62
470.462	84.62
470.681	111.62
470.901	98.62
471.12	90.62
471.339	67.62
471.558	88.62
471.777	90.62
471.997	83.62
472.216	99.62
472.435	95.62
472.654	88.62
472.873	107.62
473.092	91.62
473.311	86.62
473.53	96.62
473.749	94.62
473.968	92.62
474.187	111.62
474.406	94.62
474.625	92.62
474.844	95.62
475.063	107.62
475.282	80.62
475.501	110.62
475.72	93.62
475.939	94.62
476.158	95.62
476.377	86.62
476.596	96.62
476.814	90.62
477.033	104.62
477.252	98.62
477.471	92.62
477.69	86.62
477.908	88.62
478.127	96.62
478.346	85.62
478.564	91.62
478.783	86.62
479.002	99.62
479.22	85.62
479.439	92.62
479.658	104.62
479.876	90.62
480.095	94.62
480.313	98.62
480.532	89.62
480.751	90.62
480.969	98.62
481.188	119.62
481.406	104.62
481.624	100.62
481.843	97.62
482.061	93.62
482.28	97.62
482.498	96.62
482.717	104.62
482.935	91.62
483.153	74.62
483.372	80.62
483.59	103.62
483.808	93.62
484.027	91.62
484.245	86.62
484.463	87.62
484.681	94.62
484.9	90.62
485.118	102.62
485.336	107.62
485.554	91.62
485.772	106.62
485.99	100.62
486.209	108.62
486.427	103.62
486.645	117.62
486.863	112.62
487.081	96.62
487.299	98.62
487.517	105.62
487.735	95.62
487.953	103.62
488.171	97.62
488.389	97.62
488.607	93.62
488.825	92.62
489.043	89.62
489.261	82.62
489.479	94.62
489.696	89.62
489.914	89.62
490.132	86.62
490.35	96.62
490.568	92.62
490.786	75.62
491.003	86.62
491.221	91.62
491.439	93.62
491.657	99.62
491.874	90.62
492.092	87.62
492.31	92.62
492.527	91.62
492.745	92.62
492.963	110.62
493.18	76.62
493.398	94.62
493.615	95.62
493.833	83.62
494.05	101.62
494.268	93.62
494.485	102.62
494.703	92.62
494.92	103.62
495.138	81.62
495.355	86.62
495.573	96.62
495.79	96.62
496.008	102.62
496.225	105.62
496.442	80.62
496.66	110.62
496.877	87.62
497.094	99.62
497.312	92.62
497.529	102.62
497.746	98.62
497.963	99.62
498.181	100.62
498.398	91.62
498.615	107.62
498.832	106.62
499.049	100.62
499.267	97.62
499.484	111.62
499.701	94.62
499.918	83.62
500.135	95.62
500.352	83.62
500.569	89.62
500.786	96.62
501.003	81.62
501.22	86.62
501.437	82.62
501.654	86.62
501.871	93.62
502.088	82.62
502.305	94.62
502.522	93.62
502.739	84.62
502.956	83.62
503.172	82.62
503.389	102.62
503.606	96.62
503.823	97.62
504.04	93.62
504.256	95.62
504.473	85.62
504.69	96.62
504.907	99.62
505.123	89.62
505.34	87.62
505.557	95.62
505.773	101.62
505.99	83.62
506.207	87.62
506.423	86.62
506.64	95.62
506.856	78.62
507.073	95.62
507.289	98.62
507.506	99.62
507.722	94.62
507.939	92.62
508.155	82.62
508.372	91.62
508.588	90.62
508.805	93.62
509.021	106.62
509.238	88.62
509.454	103.62
509.67	107.62
509.887	105.62
510.103	140.62
510.319	202.62
510.536	680.62
510.752	2046.62
510.968	568.62
511.184	148.62
511.401	116.62
511.617	101.62
511.833	91.62
512.049	90.62
512.265	95.62
512.481	112.62
512.698	96.62
512.914	95.62
513.13	90.62
513.346	93.62
513.562	91.62
513.778	104.62
513.994	96.62
514.21	89.62
514.426	111.62
514.642	117.62
514.858	115.62
515.074	141.62
515.29	379.62
515.506	1228.62
