Data from 1600_2_HRD10591_00030.txt Node
Date: Mon Jan 19 13:53:56 EST 2026
User: Yrep
Spectrometer: HR+D1059
Trigger mode: 1
Integration Time (sec): 1.000000E-1
Scans to average: 1
Electric dark correction enabled: true
Nonlinearity correction enabled: false
Boxcar width: 0
XAxis mode: Wavelengths
Number of Pixels in Spectrum: 2048
>>>>>Begin Spectral Data<<<<<
223.165	-11.38
223.4	-11.38
223.635	-11.38
223.869	-28.38
224.104	-14.38
224.338	-17.38
224.573	-14.38
224.808	-19.38
225.042	-7.38
225.277	-7.38
225.511	-16.38
225.746	3.62
225.98	13.62
226.215	15.62
226.449	13.62
226.683	21.62
226.918	41.62
227.152	26.62
227.387	22.62
227.621	32.62
227.856	33.62
228.09	49.62
228.324	48.62
228.559	49.62
228.793	50.62
229.027	51.62
229.262	51.62
229.496	49.62
229.73	61.62
229.964	56.62
230.199	62.62
230.433	76.62
230.667	74.62
230.901	65.62
231.136	91.62
231.37	70.62
231.604	70.62
231.838	73.62
232.072	84.62
232.306	81.62
232.541	79.62
232.775	65.62
233.009	78.62
233.243	75.62
233.477	77.62
233.711	72.62
233.945	83.62
234.179	90.62
234.413	87.62
234.647	100.62
234.881	75.62
235.115	79.62
235.349	74.62
235.583	75.62
235.817	64.62
236.051	65.62
236.285	76.62
236.519	82.62
236.753	79.62
236.987	73.62
237.221	60.62
237.455	73.62
237.689	85.62
237.922	60.62
238.156	68.62
238.39	66.62
238.624	53.62
238.858	73.62
239.091	67.62
239.325	74.62
239.559	79.62
239.793	74.62
240.027	78.62
240.26	73.62
240.494	74.62
240.728	64.62
240.961	65.62
241.195	62.62
241.429	64.62
241.662	71.62
241.896	70.62
242.13	68.62
242.363	74.62
242.597	80.62
242.83	72.62
243.064	77.62
243.298	78.62
243.531	81.62
243.765	80.62
243.998	69.62
244.232	62.62
244.465	78.62
244.699	70.62
244.932	67.62
245.166	62.62
245.399	83.62
245.633	65.62
245.866	84.62
246.099	71.62
246.333	70.62
246.566	74.62
246.8	92.62
247.033	77.62
247.266	67.62
247.5	80.62
247.733	84.62
247.966	81.62
248.2	83.62
248.433	70.62
248.666	63.62
248.899	80.62
249.133	71.62
249.366	77.62
249.599	80.62
249.832	61.62
250.066	80.62
250.299	70.62
250.532	83.62
250.765	84.62
250.998	90.62
251.231	65.62
251.465	91.62
251.698	75.62
251.931	61.62
252.164	76.62
252.397	69.62
252.63	78.62
252.863	85.62
253.096	69.62
253.329	72.62
253.562	76.62
253.795	79.62
254.028	61.62
254.261	93.62
254.494	74.62
254.727	74.62
254.96	80.62
255.193	82.62
255.426	75.62
255.659	71.62
255.892	78.62
256.124	80.62
256.357	78.62
256.59	80.62
256.823	64.62
257.056	64.62
257.289	80.62
257.521	83.62
257.754	77.62
257.987	75.62
258.22	75.62
258.452	84.62
258.685	86.62
258.918	77.62
259.151	84.62
259.383	81.62
259.616	97.62
259.849	73.62
260.081	70.62
260.314	70.62
260.547	70.62
260.779	57.62
261.012	76.62
261.244	77.62
261.477	71.62
261.71	78.62
261.942	81.62
262.175	90.62
262.407	88.62
262.64	84.62
262.872	67.62
263.105	69.62
263.337	82.62
263.57	81.62
263.802	75.62
264.035	88.62
264.267	65.62
264.499	69.62
264.732	77.62
264.964	77.62
265.197	70.62
265.429	75.62
265.661	78.62
265.894	81.62
266.126	84.62
266.358	77.62
266.591	64.62
266.823	77.62
267.055	78.62
267.287	96.62
267.52	63.62
267.752	76.62
267.984	79.62
268.216	90.62
268.448	89.62
268.681	85.62
268.913	84.62
269.145	76.62
269.377	81.62
269.609	77.62
269.841	81.62
270.073	77.62
270.306	81.62
270.538	76.62
270.77	77.62
271.002	89.62
271.234	82.62
271.466	84.62
271.698	69.62
271.93	71.62
272.162	74.62
272.394	96.62
272.626	68.62
272.858	82.62
273.09	94.62
273.322	70.62
273.553	88.62
273.785	92.62
274.017	81.62
274.249	77.62
274.481	92.62
274.713	69.62
274.945	80.62
275.176	70.62
275.408	87.62
275.64	90.62
275.872	76.62
276.104	88.62
276.335	83.62
276.567	86.62
276.799	87.62
277.031	69.62
277.262	73.62
277.494	73.62
277.726	84.62
277.957	87.62
278.189	95.62
278.421	83.62
278.652	84.62
278.884	94.62
279.115	85.62
279.347	74.62
279.579	84.62
279.81	84.62
280.042	89.62
280.273	81.62
280.505	74.62
280.736	81.62
280.968	89.62
281.199	89.62
281.431	90.62
281.662	77.62
281.894	79.62
282.125	67.62
282.356	91.62
282.588	75.62
282.819	76.62
283.051	82.62
283.282	82.62
283.513	89.62
283.745	76.62
283.976	82.62
284.207	85.62
284.439	84.62
284.67	83.62
284.901	88.62
285.132	93.62
285.364	90.62
285.595	79.62
285.826	81.62
286.057	91.62
286.288	77.62
286.52	69.62
286.751	91.62
286.982	82.62
287.213	74.62
287.444	84.62
287.675	84.62
287.906	81.62
288.138	86.62
288.369	87.62
288.6	82.62
288.831	93.62
289.062	77.62
289.293	86.62
289.524	74.62
289.755	82.62
289.986	69.62
290.217	68.62
290.448	57.62
290.679	82.62
290.91	85.62
291.141	72.62
291.371	71.62
291.602	85.62
291.833	73.62
292.064	79.62
292.295	88.62
292.526	88.62
292.757	89.62
292.987	95.62
293.218	78.62
293.449	98.62
293.68	93.62
293.91	75.62
294.141	73.62
294.372	84.62
294.603	70.62
294.833	96.62
295.064	77.62
295.295	88.62
295.525	78.62
295.756	90.62
295.987	76.62
296.217	90.62
296.448	93.62
296.679	88.62
296.909	89.62
297.14	82.62
297.37	79.62
297.601	91.62
297.831	96.62
298.062	82.62
298.292	86.62
298.523	96.62
298.753	74.62
298.984	74.62
299.214	71.62
299.445	73.62
299.675	88.62
299.905	84.62
300.136	101.62
300.366	81.62
300.597	83.62
300.827	82.62
301.057	85.62
301.288	84.62
301.518	81.62
301.748	95.62
301.979	101.62
302.209	88.62
302.439	78.62
302.669	70.62
302.9	84.62
303.13	87.62
303.36	83.62
303.59	63.62
303.82	81.62
304.051	76.62
304.281	72.62
304.511	97.62
304.741	84.62
304.971	77.62
305.201	67.62
305.431	90.62
305.661	76.62
305.891	69.62
306.121	90.62
306.352	75.62
306.582	101.62
306.812	82.62
307.042	73.62
307.272	85.62
307.502	77.62
307.731	79.62
307.961	83.62
308.191	88.62
308.421	87.62
308.651	93.62
308.881	82.62
309.111	104.62
309.341	99.62
309.571	97.62
309.8	94.62
310.03	85.62
310.26	88.62
310.49	84.62
310.72	71.62
310.949	62.62
311.179	95.62
311.409	80.62
311.639	71.62
311.868	84.62
312.098	85.62
312.328	90.62
312.557	93.62
312.787	80.62
313.017	80.62
313.246	72.62
313.476	80.62
313.706	68.62
313.935	91.62
314.165	74.62
314.394	89.62
314.624	91.62
314.853	82.62
315.083	78.62
315.312	69.62
315.542	70.62
315.771	68.62
316.001	92.62
316.23	80.62
316.46	80.62
316.689	86.62
316.919	70.62
317.148	83.62
317.377	84.62
317.607	78.62
317.836	85.62
318.065	82.62
318.295	85.62
318.524	82.62
318.753	90.62
318.983	84.62
319.212	80.62
319.441	74.62
319.67	90.62
319.9	80.62
320.129	86.62
320.358	67.62
320.587	86.62
320.816	69.62
321.046	88.62
321.275	79.62
321.504	66.62
321.733	83.62
321.962	77.62
322.191	70.62
322.42	90.62
322.649	85.62
322.878	74.62
323.108	89.62
323.337	80.62
323.566	81.62
323.795	82.62
324.024	79.62
324.253	76.62
324.482	82.62
324.71	81.62
324.939	81.62
325.168	85.62
325.397	78.62
325.626	75.62
325.855	89.62
326.084	77.62
326.313	76.62
326.542	73.62
326.77	86.62
326.999	73.62
327.228	88.62
327.457	78.62
327.686	84.62
327.914	83.62
328.143	86.62
328.372	89.62
328.6	87.62
328.829	81.62
329.058	73.62
329.287	81.62
329.515	89.62
329.744	92.62
329.972	73.62
330.201	83.62
330.43	88.62
330.658	80.62
330.887	84.62
331.115	92.62
331.344	77.62
331.572	83.62
331.801	82.62
332.03	86.62
332.258	67.62
332.486	73.62
332.715	81.62
332.943	76.62
333.172	92.62
333.4	90.62
333.629	69.62
333.857	76.62
334.085	79.62
334.314	79.62
334.542	77.62
334.771	81.62
334.999	82.62
335.227	73.62
335.455	80.62
335.684	81.62
335.912	78.62
336.14	74.62
336.369	75.62
336.597	77.62
336.825	91.62
337.053	92.62
337.281	86.62
337.51	82.62
337.738	76.62
337.966	86.62
338.194	82.62
338.422	78.62
338.65	82.62
338.878	84.62
339.106	79.62
339.334	88.62
339.562	82.62
339.79	66.62
340.018	73.62
340.246	65.62
340.474	83.62
340.702	67.62
340.93	68.62
341.158	87.62
341.386	78.62
341.614	72.62
341.842	70.62
342.07	68.62
342.298	77.62
342.526	78.62
342.754	89.62
342.981	83.62
343.209	79.62
343.437	101.62
343.665	83.62
343.893	87.62
344.12	78.62
344.348	90.62
344.576	80.62
344.804	83.62
345.031	81.62
345.259	88.62
345.487	69.62
345.714	76.62
345.942	80.62
346.17	82.62
346.397	77.62
346.625	88.62
346.853	84.62
347.08	77.62
347.308	83.62
347.535	78.62
347.763	75.62
347.99	85.62
348.218	78.62
348.445	82.62
348.673	70.62
348.9	73.62
349.128	82.62
349.355	89.62
349.583	93.62
349.81	77.62
350.037	81.62
350.265	64.62
350.492	78.62
350.72	76.62
350.947	92.62
351.174	83.62
351.402	69.62
351.629	69.62
351.856	86.62
352.083	88.62
352.311	76.62
352.538	85.62
352.765	83.62
352.992	85.62
353.22	82.62
353.447	77.62
353.674	83.62
353.901	89.62
354.128	95.62
354.355	79.62
354.583	100.62
354.81	97.62
355.037	85.62
355.264	84.62
355.491	84.62
355.718	81.62
355.945	82.62
356.172	91.62
356.399	80.62
356.626	79.62
356.853	88.62
357.08	94.62
357.307	84.62
357.534	92.62
357.761	97.62
357.988	81.62
358.215	99.62
358.441	100.62
358.668	77.62
358.895	101.62
359.122	79.62
359.349	104.62
359.576	84.62
359.802	70.62
360.029	92.62
360.256	82.62
360.483	83.62
360.709	72.62
360.936	81.62
361.163	84.62
361.39	88.62
361.616	84.62
361.843	85.62
362.07	94.62
362.296	84.62
362.523	85.62
362.749	94.62
362.976	93.62
363.203	107.62
363.429	86.62
363.656	90.62
363.882	88.62
364.109	87.62
364.335	108.62
364.562	113.62
364.788	88.62
365.015	80.62
365.241	85.62
365.468	97.62
365.694	91.62
365.92	94.62
366.147	86.62
366.373	65.62
366.599	98.62
366.826	76.62
367.052	74.62
367.278	93.62
367.505	90.62
367.731	101.62
367.957	80.62
368.184	84.62
368.41	82.62
368.636	95.62
368.862	95.62
369.089	78.62
369.315	74.62
369.541	85.62
369.767	87.62
369.993	79.62
370.219	73.62
370.445	77.62
370.672	94.62
370.898	98.62
371.124	92.62
371.35	86.62
371.576	74.62
371.802	97.62
372.028	104.62
372.254	99.62
372.48	88.62
372.706	91.62
372.932	91.62
373.158	90.62
373.384	97.62
373.61	113.62
373.835	104.62
374.061	85.62
374.287	84.62
374.513	94.62
374.739	109.62
374.965	112.62
375.191	105.62
375.416	94.62
375.642	91.62
375.868	105.62
376.094	93.62
376.319	92.62
376.545	76.62
376.771	89.62
376.997	74.62
377.222	84.62
377.448	75.62
377.674	79.62
377.899	85.62
378.125	80.62
378.35	81.62
378.576	86.62
378.802	85.62
379.027	84.62
379.253	89.62
379.478	84.62
379.704	81.62
379.929	89.62
380.155	72.62
380.38	85.62
380.606	87.62
380.831	93.62
381.057	77.62
381.282	84.62
381.507	86.62
381.733	97.62
381.958	91.62
382.184	108.62
382.409	98.62
382.634	95.62
382.86	110.62
383.085	102.62
383.31	107.62
383.535	95.62
383.761	111.62
383.986	123.62
384.211	102.62
384.436	89.62
384.662	85.62
384.887	93.62
385.112	85.62
385.337	96.62
385.562	86.62
385.787	92.62
386.013	109.62
386.238	100.62
386.463	82.62
386.688	88.62
386.913	88.62
387.138	83.62
387.363	82.62
387.588	104.62
387.813	84.62
388.038	98.62
388.263	83.62
388.488	95.62
388.713	84.62
388.938	99.62
389.163	82.62
389.387	80.62
389.612	89.62
389.837	97.62
390.062	88.62
390.287	78.62
390.512	90.62
390.736	98.62
390.961	99.62
391.186	78.62
391.411	72.62
391.636	70.62
391.86	80.62
392.085	81.62
392.31	90.62
392.534	84.62
392.759	99.62
392.984	127.62
393.208	180.62
393.433	259.62
393.658	206.62
393.882	94.62
394.107	100.62
394.331	112.62
394.556	142.62
394.78	117.62
395.005	87.62
395.229	88.62
395.454	79.62
395.678	104.62
395.903	107.62
396.127	154.62
396.352	155.62
396.576	129.62
396.801	188.62
397.025	218.62
397.249	126.62
397.474	102.62
397.698	88.62
397.922	82.62
398.147	97.62
398.371	85.62
398.595	95.62
398.82	82.62
399.044	75.62
399.268	80.62
399.492	91.62
399.717	80.62
399.941	64.62
400.165	74.62
400.389	80.62
400.613	82.62
400.837	85.62
401.062	84.62
401.286	82.62
401.51	90.62
401.734	79.62
401.958	71.62
402.182	58.62
402.406	89.62
402.63	88.62
402.854	92.62
403.078	87.62
403.302	82.62
403.526	93.62
403.75	74.62
403.974	85.62
404.198	112.62
404.422	145.62
404.645	169.62
404.869	154.62
405.093	106.62
405.317	93.62
405.541	76.62
405.765	87.62
405.988	89.62
406.212	75.62
406.436	84.62
406.66	90.62
406.883	82.62
407.107	83.62
407.331	84.62
407.555	91.62
407.778	92.62
408.002	81.62
408.226	71.62
408.449	81.62
408.673	89.62
408.896	71.62
409.12	86.62
409.344	69.62
409.567	84.62
409.791	86.62
410.014	87.62
410.238	77.62
410.461	80.62
410.685	80.62
410.908	91.62
411.132	74.62
411.355	76.62
411.578	84.62
411.802	68.62
412.025	84.62
412.249	76.62
412.472	70.62
412.695	83.62
412.919	80.62
413.142	99.62
413.365	80.62
413.589	80.62
413.812	76.62
414.035	76.62
414.258	94.62
414.482	88.62
414.705	93.62
414.928	76.62
415.151	84.62
415.374	77.62
415.597	63.62
415.821	85.62
416.044	70.62
416.267	74.62
416.49	81.62
416.713	88.62
416.936	67.62
417.159	82.62
417.382	74.62
417.605	86.62
417.828	84.62
418.051	75.62
418.274	75.62
418.497	67.62
418.72	76.62
418.943	79.62
419.166	68.62
419.389	91.62
419.611	91.62
419.834	91.62
420.057	77.62
420.28	88.62
420.503	76.62
420.726	82.62
420.948	88.62
421.171	80.62
421.394	68.62
421.617	82.62
421.839	101.62
422.062	112.62
422.285	124.62
422.507	227.62
422.73	378.62
422.953	347.62
423.175	139.62
423.398	96.62
423.621	87.62
423.843	90.62
424.066	74.62
424.288	91.62
424.511	84.62
424.733	77.62
424.956	85.62
425.178	78.62
425.401	68.62
425.623	85.62
425.846	77.62
426.068	83.62
426.291	90.62
426.513	64.62
426.735	82.62
426.958	68.62
427.18	83.62
427.402	98.62
427.625	90.62
427.847	76.62
428.069	83.62
428.292	111.62
428.514	116.62
428.736	94.62
428.958	119.62
429.181	117.62
429.403	88.62
429.625	90.62
429.847	98.62
430.069	137.62
430.292	158.62
430.514	145.62
430.736	118.62
430.958	126.62
431.18	85.62
431.402	88.62
431.624	82.62
431.846	114.62
432.068	121.62
432.29	80.62
432.512	92.62
432.734	83.62
432.956	85.62
433.178	90.62
433.4	66.62
433.622	89.62
433.844	76.62
434.066	76.62
434.287	74.62
434.509	75.62
434.731	70.62
434.953	77.62
435.175	88.62
435.397	92.62
435.618	69.62
435.84	78.62
436.062	71.62
436.284	83.62
436.505	86.62
436.727	67.62
436.949	82.62
437.17	82.62
437.392	80.62
437.614	87.62
437.835	89.62
438.057	81.62
438.278	80.62
438.5	88.62
438.721	96.62
438.943	82.62
439.165	71.62
439.386	88.62
439.608	80.62
439.829	84.62
440.05	89.62
440.272	86.62
440.493	85.62
440.715	78.62
440.936	84.62
441.158	93.62
441.379	85.62
441.6	84.62
441.822	77.62
442.043	79.62
442.264	92.62
442.486	84.62
442.707	126.62
442.928	88.62
443.149	92.62
443.371	122.62
443.592	163.62
443.813	163.62
444.034	93.62
444.255	80.62
444.476	84.62
444.698	86.62
444.919	98.62
445.14	188.62
445.361	176.62
445.582	212.62
445.803	177.62
446.024	100.62
446.245	84.62
446.466	75.62
446.687	73.62
446.908	88.62
447.129	92.62
447.35	79.62
447.571	70.62
447.792	91.62
448.013	67.62
448.234	77.62
448.455	92.62
448.675	77.62
448.896	72.62
449.117	79.62
449.338	75.62
449.559	82.62
449.779	80.62
450	83.62
450.221	77.62
450.442	87.62
450.662	75.62
450.883	68.62
451.104	68.62
451.324	75.62
451.545	74.62
451.766	84.62
451.986	77.62
452.207	79.62
452.428	80.62
452.648	83.62
452.869	75.62
453.089	93.62
453.31	80.62
453.53	79.62
453.751	74.62
453.971	88.62
454.192	82.62
454.412	66.62
454.633	88.62
454.853	69.62
455.073	80.62
455.294	84.62
455.514	99.62
455.734	85.62
455.955	88.62
456.175	78.62
456.395	82.62
456.616	71.62
456.836	63.62
457.056	65.62
457.276	76.62
457.497	80.62
457.717	83.62
457.937	97.62
458.157	90.62
458.377	83.62
458.598	94.62
458.818	85.62
459.038	88.62
459.258	81.62
459.478	79.62
459.698	73.62
459.918	76.62
460.138	84.62
460.358	80.62
460.578	96.62
460.798	93.62
461.018	92.62
461.238	80.62
461.458	92.62
461.678	82.62
461.898	80.62
462.118	77.62
462.338	68.62
462.558	62.62
462.777	81.62
462.997	74.62
463.217	70.62
463.437	68.62
463.657	81.62
463.876	83.62
464.096	81.62
464.316	78.62
464.536	80.62
464.755	80.62
464.975	85.62
465.195	84.62
465.414	84.62
465.634	90.62
465.854	83.62
466.073	85.62
466.293	80.62
466.512	92.62
466.732	72.62
466.951	80.62
467.171	90.62
467.391	90.62
467.61	64.62
467.829	78.62
468.049	82.62
468.268	80.62
468.488	84.62
468.707	72.62
468.927	72.62
469.146	67.62
469.365	78.62
469.585	87.62
469.804	80.62
470.023	70.62
470.243	76.62
470.462	86.62
470.681	81.62
470.901	88.62
471.12	84.62
471.339	93.62
471.558	70.62
471.777	87.62
471.997	82.62
472.216	78.62
472.435	87.62
472.654	76.62
472.873	76.62
473.092	76.62
473.311	89.62
473.53	75.62
473.749	100.62
473.968	78.62
474.187	84.62
474.406	75.62
474.625	66.62
474.844	78.62
475.063	93.62
475.282	82.62
475.501	72.62
475.72	92.62
475.939	76.62
476.158	73.62
476.377	85.62
476.596	80.62
476.814	82.62
477.033	73.62
477.252	77.62
477.471	93.62
477.69	76.62
477.908	66.62
478.127	85.62
478.346	74.62
478.564	60.62
478.783	79.62
479.002	73.62
479.22	81.62
479.439	83.62
479.658	90.62
479.876	71.62
480.095	81.62
480.313	81.62
480.532	81.62
480.751	82.62
480.969	79.62
481.188	77.62
481.406	88.62
481.624	88.62
481.843	80.62
482.061	72.62
482.28	77.62
482.498	70.62
482.717	77.62
482.935	71.62
483.153	83.62
483.372	70.62
483.59	79.62
483.808	92.62
484.027	78.62
484.245	77.62
484.463	73.62
484.681	91.62
484.9	69.62
485.118	80.62
485.336	83.62
485.554	79.62
485.772	74.62
485.99	102.62
486.209	88.62
486.427	73.62
486.645	83.62
486.863	76.62
487.081	88.62
487.299	95.62
487.517	74.62
487.735	84.62
487.953	106.62
488.171	100.62
488.389	78.62
488.607	79.62
488.825	72.62
489.043	75.62
489.261	87.62
489.479	95.62
489.696	84.62
489.914	76.62
490.132	83.62
490.35	81.62
490.568	82.62
490.786	79.62
491.003	88.62
491.221	86.62
491.439	79.62
491.657	78.62
491.874	76.62
492.092	75.62
492.31	85.62
492.527	81.62
492.745	79.62
492.963	85.62
493.18	86.62
493.398	96.62
493.615	94.62
493.833	89.62
494.05	87.62
494.268	77.62
494.485	80.62
494.703	91.62
494.92	94.62
495.138	71.62
495.355	98.62
495.573	83.62
495.79	81.62
496.008	86.62
496.225	74.62
496.442	84.62
496.66	98.62
496.877	84.62
497.094	84.62
497.312	79.62
497.529	87.62
497.746	87.62
497.963	85.62
498.181	80.62
498.398	99.62
498.615	85.62
498.832	85.62
499.049	90.62
499.267	92.62
499.484	101.62
499.701	100.62
499.918	89.62
500.135	97.62
500.352	85.62
500.569	78.62
500.786	76.62
501.003	82.62
501.22	88.62
501.437	96.62
501.654	94.62
501.871	76.62
502.088	84.62
502.305	88.62
502.522	73.62
502.739	76.62
502.956	93.62
503.172	82.62
503.389	90.62
503.606	82.62
503.823	94.62
504.04	100.62
504.256	101.62
504.473	87.62
504.69	74.62
504.907	89.62
505.123	81.62
505.34	66.62
505.557	82.62
505.773	80.62
505.99	78.62
506.207	72.62
506.423	72.62
506.64	77.62
506.856	85.62
507.073	90.62
507.289	84.62
507.506	88.62
507.722	79.62
507.939	81.62
508.155	77.62
508.372	73.62
508.588	87.62
508.805	94.62
509.021	84.62
509.238	68.62
509.454	78.62
509.67	82.62
509.887	88.62
510.103	90.62
510.319	101.62
510.536	89.62
510.752	81.62
510.968	84.62
511.184	84.62
511.401	87.62
511.617	90.62
511.833	86.62
512.049	91.62
512.265	76.62
512.481	75.62
512.698	91.62
512.914	79.62
513.13	77.62
513.346	82.62
513.562	71.62
513.778	79.62
513.994	85.62
514.21	85.62
514.426	96.62
514.642	82.62
514.858	77.62
515.074	79.62
515.29	88.62
515.506	90.62
515.721	69.62
515.937	75.62
516.153	80.62
516.369	77.62
516.585	75.62
516.801	98.62
517.016	100.62
517.232	101.62
517.448	116.62
517.664	98.62
517.879	81.62
518.095	86.62
518.311	108.62
518.527	144.62
518.742	125.62
518.958	114.62
