Data from 1600_2_HRD10591_00011.txt Node
Date: Mon Jan 19 13:53:46 EST 2026
User: Yrep
Spectrometer: HR+D1059
Trigger mode: 1
Integration Time (sec): 1.000000E-1
Scans to average: 1
Electric dark correction enabled: true
Nonlinearity correction enabled: false
Boxcar width: 0
XAxis mode: Wavelengths
Number of Pixels in Spectrum: 2048
>>>>>Begin Spectral Data<<<<<
223.165	-16.94
223.4	-16.94
223.635	-16.94
223.869	-25.94
224.104	-7.94
224.338	-11.94
224.573	-10.94
224.808	-10.94
225.042	-6.94
225.277	1.06
225.511	3.06
225.746	-3.94
225.98	-1.94
226.215	9.06
226.449	13.06
226.683	24.06
226.918	23.06
227.152	24.06
227.387	33.06
227.621	53.06
227.856	44.06
228.09	47.06
228.324	49.06
228.559	45.06
228.793	46.06
229.027	73.06
229.262	75.06
229.496	74.06
229.73	72.06
229.964	59.06
230.199	55.06
230.433	85.06
230.667	93.06
230.901	71.06
231.136	77.06
231.37	73.06
231.604	82.06
231.838	87.06
232.072	76.06
232.306	92.06
232.541	61.06
232.775	80.06
233.009	52.06
233.243	81.06
233.477	81.06
233.711	73.06
233.945	79.06
234.179	85.06
234.413	76.06
234.647	92.06
234.881	73.06
235.115	88.06
235.349	83.06
235.583	64.06
235.817	75.06
236.051	79.06
236.285	80.06
236.519	70.06
236.753	82.06
236.987	71.06
237.221	80.06
237.455	73.06
237.689	69.06
237.922	78.06
238.156	73.06
238.39	88.06
238.624	76.06
238.858	80.06
239.091	79.06
239.325	76.06
239.559	88.06
239.793	73.06
240.027	89.06
240.26	80.06
240.494	82.06
240.728	88.06
240.961	77.06
241.195	68.06
241.429	75.06
241.662	77.06
241.896	67.06
242.13	79.06
242.363	89.06
242.597	81.06
242.83	78.06
243.064	82.06
243.298	76.06
243.531	73.06
243.765	67.06
243.998	68.06
244.232	87.06
244.465	78.06
244.699	65.06
244.932	91.06
245.166	81.06
245.399	74.06
245.633	79.06
245.866	62.06
246.099	92.06
246.333	72.06
246.566	77.06
246.8	82.06
247.033	81.06
247.266	74.06
247.5	81.06
247.733	80.06
247.966	82.06
248.2	65.06
248.433	78.06
248.666	75.06
248.899	94.06
249.133	91.06
249.366	94.06
249.599	70.06
249.832	76.06
250.066	87.06
250.299	63.06
250.532	83.06
250.765	73.06
250.998	79.06
251.231	81.06
251.465	79.06
251.698	81.06
251.931	86.06
252.164	71.06
252.397	84.06
252.63	79.06
252.863	68.06
253.096	84.06
253.329	88.06
253.562	83.06
253.795	66.06
254.028	83.06
254.261	83.06
254.494	71.06
254.727	81.06
254.96	75.06
255.193	76.06
255.426	75.06
255.659	73.06
255.892	86.06
256.124	77.06
256.357	81.06
256.59	87.06
256.823	79.06
257.056	70.06
257.289	79.06
257.521	83.06
257.754	81.06
257.987	72.06
258.22	73.06
258.452	75.06
258.685	77.06
258.918	78.06
259.151	72.06
259.383	83.06
259.616	80.06
259.849	81.06
260.081	89.06
260.314	91.06
260.547	85.06
260.779	63.06
261.012	69.06
261.244	82.06
261.477	93.06
261.71	83.06
261.942	77.06
262.175	71.06
262.407	85.06
262.64	60.06
262.872	89.06
263.105	83.06
263.337	79.06
263.57	87.06
263.802	84.06
264.035	87.06
264.267	85.06
264.499	80.06
264.732	90.06
264.964	89.06
265.197	90.06
265.429	83.06
265.661	98.06
265.894	79.06
266.126	85.06
266.358	84.06
266.591	74.06
266.823	88.06
267.055	78.06
267.287	73.06
267.52	77.06
267.752	67.06
267.984	86.06
268.216	83.06
268.448	101.06
268.681	93.06
268.913	86.06
269.145	93.06
269.377	68.06
269.609	81.06
269.841	97.06
270.073	75.06
270.306	84.06
270.538	79.06
270.77	94.06
271.002	86.06
271.234	84.06
271.466	88.06
271.698	89.06
271.93	84.06
272.162	78.06
272.394	74.06
272.626	72.06
272.858	82.06
273.09	91.06
273.322	82.06
273.553	77.06
273.785	80.06
274.017	83.06
274.249	81.06
274.481	96.06
274.713	69.06
274.945	85.06
275.176	87.06
275.408	75.06
275.64	91.06
275.872	81.06
276.104	80.06
276.335	82.06
276.567	86.06
276.799	80.06
277.031	73.06
277.262	69.06
277.494	81.06
277.726	81.06
277.957	91.06
278.189	76.06
278.421	89.06
278.652	92.06
278.884	88.06
279.115	85.06
279.347	79.06
279.579	65.06
279.81	82.06
280.042	68.06
280.273	79.06
280.505	87.06
280.736	82.06
280.968	94.06
281.199	70.06
281.431	102.06
281.662	80.06
281.894	66.06
282.125	75.06
282.356	85.06
282.588	80.06
282.819	69.06
283.051	83.06
283.282	81.06
283.513	90.06
283.745	71.06
283.976	87.06
284.207	83.06
284.439	80.06
284.67	81.06
284.901	74.06
285.132	84.06
285.364	93.06
285.595	91.06
285.826	84.06
286.057	78.06
286.288	56.06
286.52	79.06
286.751	82.06
286.982	88.06
287.213	75.06
287.444	89.06
287.675	86.06
287.906	80.06
288.138	86.06
288.369	79.06
288.6	78.06
288.831	99.06
289.062	103.06
289.293	92.06
289.524	90.06
289.755	79.06
289.986	83.06
290.217	69.06
290.448	69.06
290.679	87.06
290.91	91.06
291.141	87.06
291.371	84.06
291.602	76.06
291.833	89.06
292.064	99.06
292.295	67.06
292.526	98.06
292.757	74.06
292.987	92.06
293.218	89.06
293.449	75.06
293.68	83.06
293.91	75.06
294.141	87.06
294.372	84.06
294.603	77.06
294.833	80.06
295.064	85.06
295.295	75.06
295.525	87.06
295.756	92.06
295.987	73.06
296.217	84.06
296.448	86.06
296.679	89.06
296.909	81.06
297.14	94.06
297.37	75.06
297.601	72.06
297.831	85.06
298.062	81.06
298.292	72.06
298.523	83.06
298.753	93.06
298.984	79.06
299.214	97.06
299.445	81.06
299.675	71.06
299.905	96.06
300.136	79.06
300.366	76.06
300.597	92.06
300.827	80.06
301.057	80.06
301.288	84.06
301.518	88.06
301.748	81.06
301.979	94.06
302.209	87.06
302.439	96.06
302.669	79.06
302.9	88.06
303.13	88.06
303.36	82.06
303.59	72.06
303.82	93.06
304.051	89.06
304.281	88.06
304.511	91.06
304.741	85.06
304.971	85.06
305.201	70.06
305.431	86.06
305.661	77.06
305.891	87.06
306.121	88.06
306.352	76.06
306.582	79.06
306.812	86.06
307.042	79.06
307.272	76.06
307.502	97.06
307.731	86.06
307.961	90.06
308.191	83.06
308.421	85.06
308.651	81.06
308.881	93.06
309.111	92.06
309.341	101.06
309.571	66.06
309.8	91.06
310.03	71.06
310.26	92.06
310.49	75.06
310.72	89.06
310.949	95.06
311.179	86.06
311.409	73.06
311.639	86.06
311.868	90.06
312.098	92.06
312.328	90.06
312.557	81.06
312.787	81.06
313.017	78.06
313.246	85.06
313.476	83.06
313.706	78.06
313.935	83.06
314.165	95.06
314.394	79.06
314.624	92.06
314.853	87.06
315.083	99.06
315.312	88.06
315.542	78.06
315.771	78.06
316.001	81.06
316.23	96.06
316.46	87.06
316.689	95.06
316.919	79.06
317.148	95.06
317.377	88.06
317.607	85.06
317.836	87.06
318.065	94.06
318.295	81.06
318.524	92.06
318.753	84.06
318.983	89.06
319.212	85.06
319.441	86.06
319.67	104.06
319.9	93.06
320.129	82.06
320.358	87.06
320.587	73.06
320.816	92.06
321.046	95.06
321.275	84.06
321.504	77.06
321.733	80.06
321.962	83.06
322.191	81.06
322.42	91.06
322.649	91.06
322.878	87.06
323.108	66.06
323.337	83.06
323.566	77.06
323.795	91.06
324.024	84.06
324.253	71.06
324.482	83.06
324.71	80.06
324.939	86.06
325.168	85.06
325.397	77.06
325.626	61.06
325.855	85.06
326.084	86.06
326.313	84.06
326.542	67.06
326.77	93.06
326.999	87.06
327.228	85.06
327.457	76.06
327.686	93.06
327.914	83.06
328.143	90.06
328.372	91.06
328.6	107.06
328.829	93.06
329.058	82.06
329.287	87.06
329.515	75.06
329.744	78.06
329.972	87.06
330.201	74.06
330.43	85.06
330.658	77.06
330.887	83.06
331.115	71.06
331.344	75.06
331.572	85.06
331.801	79.06
332.03	84.06
332.258	91.06
332.486	84.06
332.715	75.06
332.943	79.06
333.172	93.06
333.4	93.06
333.629	93.06
333.857	90.06
334.085	88.06
334.314	86.06
334.542	83.06
334.771	83.06
334.999	78.06
335.227	69.06
335.455	85.06
335.684	81.06
335.912	89.06
336.14	85.06
336.369	84.06
336.597	80.06
336.825	93.06
337.053	97.06
337.281	75.06
337.51	90.06
337.738	83.06
337.966	67.06
338.194	72.06
338.422	87.06
338.65	68.06
338.878	83.06
339.106	99.06
339.334	81.06
339.562	94.06
339.79	76.06
340.018	91.06
340.246	94.06
340.474	82.06
340.702	85.06
340.93	76.06
341.158	87.06
341.386	93.06
341.614	86.06
341.842	76.06
342.07	79.06
342.298	83.06
342.526	90.06
342.754	77.06
342.981	87.06
343.209	89.06
343.437	88.06
343.665	91.06
343.893	90.06
344.12	79.06
344.348	87.06
344.576	75.06
344.804	68.06
345.031	81.06
345.259	79.06
345.487	86.06
345.714	88.06
345.942	82.06
346.17	88.06
346.397	91.06
346.625	83.06
346.853	76.06
347.08	90.06
347.308	95.06
347.535	81.06
347.763	85.06
347.99	93.06
348.218	95.06
348.445	69.06
348.673	91.06
348.9	85.06
349.128	79.06
349.355	81.06
349.583	71.06
349.81	84.06
350.037	87.06
350.265	80.06
350.492	86.06
350.72	65.06
350.947	73.06
351.174	77.06
351.402	81.06
351.629	87.06
351.856	80.06
352.083	82.06
352.311	92.06
352.538	78.06
352.765	83.06
352.992	79.06
353.22	86.06
353.447	86.06
353.674	89.06
353.901	85.06
354.128	88.06
354.355	72.06
354.583	84.06
354.81	71.06
355.037	84.06
355.264	91.06
355.491	78.06
355.718	84.06
355.945	90.06
356.172	95.06
356.399	82.06
356.626	73.06
356.853	93.06
357.08	88.06
357.307	87.06
357.534	90.06
357.761	95.06
357.988	85.06
358.215	86.06
358.441	93.06
358.668	84.06
358.895	79.06
359.122	85.06
359.349	75.06
359.576	89.06
359.802	79.06
360.029	77.06
360.256	72.06
360.483	79.06
360.709	80.06
360.936	87.06
361.163	95.06
361.39	75.06
361.616	88.06
361.843	89.06
362.07	89.06
362.296	88.06
362.523	84.06
362.749	83.06
362.976	83.06
363.203	95.06
363.429	93.06
363.656	88.06
363.882	95.06
364.109	96.06
364.335	96.06
364.562	87.06
364.788	92.06
365.015	89.06
365.241	74.06
365.468	79.06
365.694	82.06
365.92	80.06
366.147	87.06
366.373	79.06
366.599	91.06
366.826	70.06
367.052	70.06
367.278	90.06
367.505	87.06
367.731	102.06
367.957	88.06
368.184	76.06
368.41	79.06
368.636	81.06
368.862	99.06
369.089	76.06
369.315	87.06
369.541	71.06
369.767	77.06
369.993	80.06
370.219	77.06
370.445	79.06
370.672	90.06
370.898	104.06
371.124	85.06
371.35	88.06
371.576	87.06
371.802	81.06
372.028	79.06
372.254	81.06
372.48	84.06
372.706	81.06
372.932	70.06
373.158	84.06
373.384	75.06
373.61	94.06
373.835	93.06
374.061	94.06
374.287	72.06
374.513	83.06
374.739	73.06
374.965	91.06
375.191	85.06
375.416	76.06
375.642	60.06
375.868	83.06
376.094	91.06
376.319	84.06
376.545	87.06
376.771	92.06
376.997	80.06
377.222	88.06
377.448	78.06
377.674	79.06
377.899	86.06
378.125	75.06
378.35	94.06
378.576	83.06
378.802	75.06
379.027	88.06
379.253	83.06
379.478	75.06
379.704	79.06
379.929	85.06
380.155	89.06
380.38	86.06
380.606	79.06
380.831	99.06
381.057	89.06
381.282	85.06
381.507	77.06
381.733	86.06
381.958	72.06
382.184	88.06
382.409	88.06
382.634	83.06
382.86	82.06
383.085	87.06
383.31	97.06
383.535	101.06
383.761	86.06
383.986	112.06
384.211	79.06
384.436	91.06
384.662	83.06
384.887	93.06
385.112	74.06
385.337	75.06
385.562	79.06
385.787	77.06
386.013	82.06
386.238	101.06
386.463	78.06
386.688	79.06
386.913	85.06
387.138	80.06
387.363	82.06
387.588	84.06
387.813	74.06
388.038	78.06
388.263	89.06
388.488	87.06
388.713	93.06
388.938	83.06
389.163	84.06
389.387	82.06
389.612	90.06
389.837	67.06
390.062	85.06
390.287	81.06
390.512	91.06
390.736	79.06
390.961	82.06
391.186	77.06
391.411	88.06
391.636	95.06
391.86	81.06
392.085	86.06
392.31	87.06
392.534	93.06
392.759	96.06
392.984	88.06
393.208	103.06
393.433	128.06
393.658	102.06
393.882	93.06
394.107	85.06
394.331	93.06
394.556	89.06
394.78	97.06
395.005	104.06
395.229	99.06
395.454	81.06
395.678	85.06
395.903	75.06
396.127	104.06
396.352	97.06
396.576	93.06
396.801	107.06
397.025	123.06
397.249	109.06
397.474	90.06
397.698	83.06
397.922	90.06
398.147	89.06
398.371	79.06
398.595	81.06
398.82	86.06
399.044	83.06
399.268	61.06
399.492	80.06
399.717	84.06
399.941	59.06
400.165	81.06
400.389	79.06
400.613	86.06
400.837	83.06
401.062	88.06
401.286	79.06
401.51	77.06
401.734	88.06
401.958	78.06
402.182	83.06
402.406	87.06
402.63	75.06
402.854	80.06
403.078	80.06
403.302	77.06
403.526	85.06
403.75	79.06
403.974	73.06
404.198	78.06
404.422	90.06
404.645	101.06
404.869	96.06
405.093	71.06
405.317	86.06
405.541	87.06
405.765	77.06
405.988	68.06
406.212	91.06
406.436	94.06
406.66	95.06
406.883	84.06
407.107	89.06
407.331	88.06
407.555	87.06
407.778	75.06
408.002	63.06
408.226	73.06
408.449	77.06
408.673	80.06
408.896	77.06
409.12	77.06
409.344	83.06
409.567	76.06
409.791	86.06
410.014	88.06
410.238	95.06
410.461	77.06
410.685	76.06
410.908	90.06
411.132	80.06
411.355	70.06
411.578	94.06
411.802	84.06
412.025	66.06
412.249	83.06
412.472	79.06
412.695	88.06
412.919	73.06
413.142	95.06
413.365	71.06
413.589	76.06
413.812	79.06
414.035	80.06
414.258	87.06
414.482	81.06
414.705	81.06
414.928	88.06
415.151	85.06
415.374	76.06
415.597	89.06
415.821	81.06
416.044	90.06
416.267	81.06
416.49	87.06
416.713	64.06
416.936	87.06
417.159	65.06
417.382	81.06
417.605	92.06
417.828	77.06
418.051	81.06
418.274	80.06
418.497	89.06
418.72	91.06
418.943	99.06
419.166	99.06
419.389	87.06
419.611	85.06
419.834	84.06
420.057	68.06
420.28	70.06
420.503	73.06
420.726	83.06
420.948	81.06
421.171	84.06
421.394	67.06
421.617	74.06
421.839	87.06
422.062	83.06
422.285	93.06
422.507	108.06
422.73	152.06
422.953	113.06
423.175	97.06
423.398	82.06
423.621	81.06
423.843	97.06
424.066	89.06
424.288	90.06
424.511	84.06
424.733	84.06
424.956	81.06
425.178	97.06
425.401	76.06
425.623	81.06
425.846	70.06
426.068	70.06
426.291	91.06
426.513	77.06
426.735	87.06
426.958	83.06
427.18	88.06
427.402	95.06
427.625	87.06
427.847	80.06
428.069	79.06
428.292	93.06
428.514	85.06
428.736	85.06
428.958	84.06
429.181	86.06
429.403	95.06
429.625	80.06
429.847	87.06
430.069	100.06
430.292	101.06
430.514	96.06
430.736	90.06
430.958	83.06
431.18	79.06
431.402	72.06
431.624	105.06
431.846	96.06
432.068	104.06
432.29	84.06
432.512	83.06
432.734	83.06
432.956	82.06
433.178	84.06
433.4	91.06
433.622	91.06
433.844	84.06
434.066	65.06
434.287	73.06
434.509	79.06
434.731	81.06
434.953	83.06
435.175	86.06
435.397	74.06
435.618	86.06
435.84	79.06
436.062	83.06
436.284	86.06
436.505	73.06
436.727	82.06
436.949	85.06
437.17	95.06
437.392	73.06
437.614	87.06
437.835	87.06
438.057	79.06
438.278	78.06
438.5	78.06
438.721	94.06
438.943	81.06
439.165	81.06
439.386	74.06
439.608	94.06
439.829	81.06
440.05	86.06
440.272	79.06
440.493	83.06
440.715	91.06
440.936	81.06
441.158	84.06
441.379	87.06
441.6	85.06
441.822	98.06
442.043	73.06
442.264	89.06
442.486	85.06
442.707	77.06
442.928	87.06
443.149	74.06
443.371	89.06
443.592	113.06
443.813	99.06
444.034	93.06
444.255	87.06
444.476	73.06
444.698	86.06
444.919	83.06
445.14	154.06
445.361	147.06
445.582	112.06
445.803	113.06
446.024	91.06
446.245	76.06
446.466	68.06
446.687	78.06
446.908	89.06
447.129	84.06
447.35	69.06
447.571	73.06
447.792	76.06
448.013	76.06
448.234	80.06
448.455	79.06
448.675	91.06
448.896	91.06
449.117	80.06
449.338	81.06
449.559	88.06
449.779	98.06
450	98.06
450.221	74.06
450.442	68.06
450.662	74.06
450.883	77.06
451.104	79.06
451.324	91.06
451.545	80.06
451.766	84.06
451.986	101.06
452.207	91.06
452.428	74.06
452.648	88.06
452.869	85.06
453.089	91.06
453.31	85.06
453.53	87.06
453.751	99.06
453.971	88.06
454.192	78.06
454.412	80.06
454.633	77.06
454.853	81.06
455.073	82.06
455.294	83.06
455.514	88.06
455.734	83.06
455.955	76.06
456.175	78.06
456.395	79.06
456.616	69.06
456.836	79.06
457.056	87.06
457.276	70.06
457.497	95.06
457.717	98.06
457.937	87.06
458.157	80.06
458.377	80.06
458.598	70.06
458.818	87.06
459.038	85.06
459.258	98.06
459.478	89.06
459.698	88.06
459.918	80.06
460.138	80.06
460.358	88.06
460.578	87.06
460.798	85.06
461.018	92.06
461.238	85.06
461.458	64.06
461.678	74.06
461.898	90.06
462.118	92.06
462.338	79.06
462.558	92.06
462.777	84.06
462.997	77.06
463.217	81.06
463.437	74.06
463.657	72.06
463.876	84.06
464.096	89.06
464.316	90.06
464.536	101.06
464.755	78.06
464.975	66.06
465.195	91.06
465.414	92.06
465.634	82.06
465.854	73.06
466.073	77.06
466.293	84.06
466.512	67.06
466.732	71.06
466.951	85.06
467.171	82.06
467.391	83.06
467.61	88.06
467.829	81.06
468.049	85.06
468.268	79.06
468.488	83.06
468.707	82.06
468.927	83.06
469.146	78.06
469.365	99.06
469.585	87.06
469.804	89.06
470.023	95.06
470.243	86.06
470.462	74.06
470.681	84.06
470.901	77.06
471.12	87.06
471.339	85.06
471.558	77.06
471.777	88.06
471.997	78.06
472.216	101.06
472.435	81.06
472.654	96.06
472.873	79.06
473.092	85.06
473.311	75.06
473.53	83.06
473.749	96.06
473.968	91.06
474.187	88.06
474.406	79.06
474.625	85.06
474.844	83.06
475.063	98.06
475.282	74.06
475.501	81.06
475.72	85.06
475.939	84.06
476.158	86.06
476.377	92.06
476.596	83.06
476.814	83.06
477.033	84.06
477.252	93.06
477.471	86.06
477.69	89.06
477.908	88.06
478.127	88.06
478.346	86.06
478.564	84.06
478.783	70.06
479.002	82.06
479.22	81.06
479.439	95.06
479.658	93.06
479.876	76.06
480.095	65.06
480.313	75.06
480.532	71.06
480.751	88.06
480.969	85.06
481.188	79.06
481.406	88.06
481.624	67.06
481.843	79.06
482.061	84.06
482.28	81.06
482.498	74.06
482.717	73.06
482.935	93.06
483.153	79.06
483.372	95.06
483.59	98.06
483.808	85.06
484.027	79.06
484.245	80.06
484.463	61.06
484.681	77.06
484.9	85.06
485.118	89.06
485.336	95.06
485.554	77.06
485.772	87.06
485.99	95.06
486.209	69.06
486.427	75.06
486.645	91.06
486.863	94.06
487.081	81.06
487.299	80.06
487.517	95.06
487.735	83.06
487.953	94.06
488.171	87.06
488.389	80.06
488.607	82.06
488.825	83.06
489.043	93.06
489.261	84.06
489.479	94.06
489.696	80.06
489.914	88.06
490.132	85.06
490.35	68.06
490.568	86.06
490.786	85.06
491.003	89.06
491.221	84.06
491.439	84.06
491.657	80.06
491.874	96.06
492.092	78.06
492.31	78.06
492.527	85.06
492.745	91.06
492.963	76.06
493.18	78.06
493.398	91.06
493.615	75.06
493.833	77.06
494.05	92.06
494.268	83.06
494.485	79.06
494.703	85.06
494.92	85.06
495.138	85.06
495.355	80.06
495.573	83.06
495.79	99.06
496.008	92.06
496.225	87.06
496.442	101.06
496.66	89.06
496.877	72.06
497.094	93.06
497.312	79.06
497.529	86.06
497.746	82.06
497.963	84.06
498.181	82.06
498.398	90.06
498.615	94.06
498.832	83.06
499.049	97.06
499.267	100.06
499.484	81.06
499.701	86.06
499.918	71.06
500.135	87.06
500.352	85.06
500.569	91.06
500.786	92.06
501.003	80.06
501.22	76.06
501.437	64.06
501.654	87.06
501.871	90.06
502.088	79.06
502.305	87.06
502.522	84.06
502.739	85.06
502.956	83.06
503.172	87.06
503.389	84.06
503.606	87.06
503.823	111.06
504.04	93.06
504.256	91.06
504.473	88.06
504.69	102.06
504.907	91.06
505.123	68.06
505.34	77.06
505.557	80.06
505.773	81.06
505.99	84.06
506.207	87.06
506.423	71.06
506.64	91.06
506.856	85.06
507.073	83.06
507.289	88.06
507.506	97.06
507.722	78.06
507.939	91.06
508.155	83.06
508.372	79.06
508.588	84.06
508.805	79.06
509.021	74.06
509.238	79.06
509.454	73.06
509.67	93.06
509.887	91.06
510.103	93.06
510.319	96.06
510.536	90.06
510.752	80.06
510.968	96.06
511.184	86.06
511.401	78.06
511.617	82.06
511.833	89.06
512.049	73.06
512.265	87.06
512.481	89.06
512.698	89.06
512.914	79.06
513.13	83.06
513.346	77.06
513.562	94.06
513.778	89.06
513.994	79.06
514.21	81.06
514.426	89.06
514.642	87.06
514.858	79.06
515.074	86.06
515.29	76.06
515.506	87.06
515.721	85.06
515.937	102.06
516.153	87.06
516.369	93.06
516.585	92.06
516.801	91.06
517.016	88.06
517.232	75.06
517.448	101.06
517.664	95.06
517.879	96.06
518.095	81.06
518.311	83.06
518.527	96.06
518.742	106.06
518.958	98.06
519.173	89.06
519.389	87.06
519.605	76.06
519.82	86.06
