Data from 1600_2_HRD10591_00043.txt Node
Date: Mon Jan 19 13:54:02 EST 2026
User: Yrep
Spectrometer: HR+D1059
Trigger mode: 1
Integration Time (sec): 1.000000E-1
Scans to average: 1
Electric dark correction enabled: true
Nonlinearity correction enabled: false
Boxcar width: 0
XAxis mode: Wavelengths
Number of Pixels in Spectrum: 2048
>>>>>Begin Spectral Data<<<<<
223.165	-12.88
223.4	-12.88
223.635	-12.88
223.869	-15.88
224.104	-29.88
224.338	-15.88
224.573	-22.88
224.808	-15.88
225.042	-7.88
225.277	-7.88
225.511	10.12
225.746	5.12
225.98	12.12
226.215	3.12
226.449	15.12
226.683	19.12
226.918	31.12
227.152	33.12
227.387	26.12
227.621	26.12
227.856	42.12
228.09	41.12
228.324	55.12
228.559	58.12
228.793	58.12
229.027	62.12
229.262	65.12
229.496	66.12
229.73	70.12
229.964	69.12
230.199	75.12
230.433	79.12
230.667	74.12
230.901	79.12
231.136	76.12
231.37	94.12
231.604	90.12
231.838	91.12
232.072	88.12
232.306	103.12
232.541	74.12
232.775	84.12
233.009	80.12
233.243	94.12
233.477	74.12
233.711	72.12
233.945	66.12
234.179	85.12
234.413	90.12
234.647	91.12
234.881	89.12
235.115	84.12
235.349	73.12
235.583	90.12
235.817	85.12
236.051	91.12
236.285	80.12
236.519	64.12
236.753	82.12
236.987	84.12
237.221	69.12
237.455	88.12
237.689	68.12
237.922	73.12
238.156	70.12
238.39	80.12
238.624	75.12
238.858	83.12
239.091	83.12
239.325	71.12
239.559	72.12
239.793	77.12
240.027	86.12
240.26	80.12
240.494	80.12
240.728	85.12
240.961	79.12
241.195	72.12
241.429	75.12
241.662	68.12
241.896	70.12
242.13	72.12
242.363	86.12
242.597	86.12
242.83	70.12
243.064	83.12
243.298	77.12
243.531	70.12
243.765	77.12
243.998	82.12
244.232	87.12
244.465	84.12
244.699	76.12
244.932	75.12
245.166	90.12
245.399	77.12
245.633	80.12
245.866	88.12
246.099	97.12
246.333	75.12
246.566	78.12
246.8	68.12
247.033	75.12
247.266	83.12
247.5	95.12
247.733	82.12
247.966	84.12
248.2	87.12
248.433	79.12
248.666	77.12
248.899	87.12
249.133	84.12
249.366	77.12
249.599	59.12
249.832	75.12
250.066	77.12
250.299	77.12
250.532	73.12
250.765	80.12
250.998	76.12
251.231	81.12
251.465	88.12
251.698	90.12
251.931	75.12
252.164	73.12
252.397	73.12
252.63	89.12
252.863	76.12
253.096	86.12
253.329	81.12
253.562	70.12
253.795	74.12
254.028	79.12
254.261	84.12
254.494	85.12
254.727	86.12
254.96	78.12
255.193	76.12
255.426	77.12
255.659	81.12
255.892	77.12
256.124	77.12
256.357	86.12
256.59	80.12
256.823	70.12
257.056	90.12
257.289	80.12
257.521	97.12
257.754	80.12
257.987	94.12
258.22	94.12
258.452	75.12
258.685	94.12
258.918	95.12
259.151	86.12
259.383	75.12
259.616	78.12
259.849	85.12
260.081	76.12
260.314	83.12
260.547	71.12
260.779	76.12
261.012	85.12
261.244	88.12
261.477	90.12
261.71	67.12
261.942	86.12
262.175	74.12
262.407	78.12
262.64	88.12
262.872	96.12
263.105	81.12
263.337	80.12
263.57	74.12
263.802	91.12
264.035	85.12
264.267	77.12
264.499	92.12
264.732	84.12
264.964	79.12
265.197	90.12
265.429	91.12
265.661	69.12
265.894	80.12
266.126	77.12
266.358	69.12
266.591	87.12
266.823	86.12
267.055	83.12
267.287	86.12
267.52	68.12
267.752	91.12
267.984	83.12
268.216	83.12
268.448	73.12
268.681	84.12
268.913	87.12
269.145	90.12
269.377	83.12
269.609	84.12
269.841	94.12
270.073	86.12
270.306	99.12
270.538	82.12
270.77	89.12
271.002	88.12
271.234	89.12
271.466	85.12
271.698	78.12
271.93	98.12
272.162	85.12
272.394	92.12
272.626	91.12
272.858	82.12
273.09	89.12
273.322	90.12
273.553	89.12
273.785	97.12
274.017	90.12
274.249	87.12
274.481	90.12
274.713	79.12
274.945	92.12
275.176	79.12
275.408	88.12
275.64	79.12
275.872	78.12
276.104	94.12
276.335	81.12
276.567	90.12
276.799	95.12
277.031	80.12
277.262	91.12
277.494	80.12
277.726	87.12
277.957	90.12
278.189	95.12
278.421	87.12
278.652	83.12
278.884	78.12
279.115	85.12
279.347	97.12
279.579	73.12
279.81	85.12
280.042	87.12
280.273	90.12
280.505	80.12
280.736	88.12
280.968	95.12
281.199	90.12
281.431	96.12
281.662	85.12
281.894	85.12
282.125	83.12
282.356	84.12
282.588	87.12
282.819	94.12
283.051	87.12
283.282	82.12
283.513	80.12
283.745	70.12
283.976	78.12
284.207	91.12
284.439	91.12
284.67	91.12
284.901	84.12
285.132	79.12
285.364	99.12
285.595	97.12
285.826	80.12
286.057	90.12
286.288	84.12
286.52	86.12
286.751	86.12
286.982	80.12
287.213	80.12
287.444	98.12
287.675	72.12
287.906	72.12
288.138	90.12
288.369	88.12
288.6	86.12
288.831	90.12
289.062	83.12
289.293	85.12
289.524	82.12
289.755	81.12
289.986	85.12
290.217	94.12
290.448	90.12
290.679	91.12
290.91	85.12
291.141	84.12
291.371	85.12
291.602	88.12
291.833	84.12
292.064	75.12
292.295	97.12
292.526	78.12
292.757	82.12
292.987	80.12
293.218	91.12
293.449	69.12
293.68	86.12
293.91	87.12
294.141	90.12
294.372	85.12
294.603	91.12
294.833	75.12
295.064	90.12
295.295	87.12
295.525	89.12
295.756	99.12
295.987	85.12
296.217	68.12
296.448	89.12
296.679	87.12
296.909	77.12
297.14	97.12
297.37	98.12
297.601	84.12
297.831	70.12
298.062	80.12
298.292	84.12
298.523	86.12
298.753	95.12
298.984	93.12
299.214	86.12
299.445	84.12
299.675	97.12
299.905	81.12
300.136	79.12
300.366	89.12
300.597	92.12
300.827	95.12
301.057	100.12
301.288	94.12
301.518	98.12
301.748	84.12
301.979	85.12
302.209	88.12
302.439	82.12
302.669	76.12
302.9	83.12
303.13	81.12
303.36	92.12
303.59	90.12
303.82	96.12
304.051	94.12
304.281	81.12
304.511	99.12
304.741	77.12
304.971	88.12
305.201	89.12
305.431	91.12
305.661	83.12
305.891	69.12
306.121	95.12
306.352	83.12
306.582	77.12
306.812	102.12
307.042	89.12
307.272	84.12
307.502	93.12
307.731	83.12
307.961	77.12
308.191	96.12
308.421	94.12
308.651	84.12
308.881	85.12
309.111	85.12
309.341	79.12
309.571	100.12
309.8	99.12
310.03	75.12
310.26	93.12
310.49	92.12
310.72	86.12
310.949	85.12
311.179	94.12
311.409	75.12
311.639	84.12
311.868	94.12
312.098	88.12
312.328	100.12
312.557	80.12
312.787	84.12
313.017	83.12
313.246	87.12
313.476	81.12
313.706	69.12
313.935	73.12
314.165	79.12
314.394	100.12
314.624	90.12
314.853	80.12
315.083	95.12
315.312	76.12
315.542	81.12
315.771	94.12
316.001	91.12
316.23	89.12
316.46	108.12
316.689	105.12
316.919	70.12
317.148	99.12
317.377	96.12
317.607	84.12
317.836	85.12
318.065	102.12
318.295	74.12
318.524	98.12
318.753	69.12
318.983	64.12
319.212	83.12
319.441	64.12
319.67	82.12
319.9	98.12
320.129	76.12
320.358	77.12
320.587	97.12
320.816	87.12
321.046	76.12
321.275	71.12
321.504	73.12
321.733	78.12
321.962	91.12
322.191	79.12
322.42	83.12
322.649	96.12
322.878	84.12
323.108	93.12
323.337	83.12
323.566	75.12
323.795	88.12
324.024	75.12
324.253	79.12
324.482	84.12
324.71	88.12
324.939	92.12
325.168	77.12
325.397	89.12
325.626	85.12
325.855	91.12
326.084	89.12
326.313	94.12
326.542	72.12
326.77	88.12
326.999	80.12
327.228	88.12
327.457	88.12
327.686	95.12
327.914	87.12
328.143	87.12
328.372	88.12
328.6	85.12
328.829	81.12
329.058	86.12
329.287	94.12
329.515	84.12
329.744	80.12
329.972	83.12
330.201	78.12
330.43	92.12
330.658	82.12
330.887	84.12
331.115	91.12
331.344	88.12
331.572	87.12
331.801	96.12
332.03	91.12
332.258	89.12
332.486	93.12
332.715	103.12
332.943	90.12
333.172	100.12
333.4	98.12
333.629	76.12
333.857	91.12
334.085	86.12
334.314	83.12
334.542	86.12
334.771	95.12
334.999	82.12
335.227	79.12
335.455	89.12
335.684	89.12
335.912	72.12
336.14	82.12
336.369	78.12
336.597	87.12
336.825	88.12
337.053	77.12
337.281	83.12
337.51	98.12
337.738	87.12
337.966	74.12
338.194	73.12
338.422	74.12
338.65	97.12
338.878	103.12
339.106	84.12
339.334	84.12
339.562	91.12
339.79	80.12
340.018	69.12
340.246	98.12
340.474	92.12
340.702	85.12
340.93	83.12
341.158	72.12
341.386	89.12
341.614	96.12
341.842	92.12
342.07	74.12
342.298	76.12
342.526	85.12
342.754	82.12
342.981	65.12
343.209	69.12
343.437	91.12
343.665	92.12
343.893	87.12
344.12	80.12
344.348	92.12
344.576	79.12
344.804	92.12
345.031	99.12
345.259	88.12
345.487	94.12
345.714	103.12
345.942	86.12
346.17	84.12
346.397	74.12
346.625	82.12
346.853	88.12
347.08	87.12
347.308	89.12
347.535	79.12
347.763	86.12
347.99	82.12
348.218	84.12
348.445	90.12
348.673	87.12
348.9	86.12
349.128	99.12
349.355	88.12
349.583	88.12
349.81	88.12
350.037	90.12
350.265	84.12
350.492	96.12
350.72	89.12
350.947	83.12
351.174	90.12
351.402	86.12
351.629	75.12
351.856	90.12
352.083	82.12
352.311	85.12
352.538	86.12
352.765	96.12
352.992	81.12
353.22	80.12
353.447	101.12
353.674	81.12
353.901	84.12
354.128	85.12
354.355	73.12
354.583	76.12
354.81	76.12
355.037	97.12
355.264	83.12
355.491	76.12
355.718	89.12
355.945	93.12
356.172	96.12
356.399	83.12
356.626	82.12
356.853	87.12
357.08	87.12
357.307	85.12
357.534	96.12
357.761	82.12
357.988	71.12
358.215	90.12
358.441	88.12
358.668	96.12
358.895	99.12
359.122	94.12
359.349	81.12
359.576	85.12
359.802	77.12
360.029	93.12
360.256	81.12
360.483	92.12
360.709	82.12
360.936	95.12
361.163	81.12
361.39	86.12
361.616	86.12
361.843	82.12
362.07	101.12
362.296	95.12
362.523	84.12
362.749	77.12
362.976	82.12
363.203	90.12
363.429	89.12
363.656	80.12
363.882	94.12
364.109	82.12
364.335	91.12
364.562	83.12
364.788	100.12
365.015	82.12
365.241	89.12
365.468	79.12
365.694	90.12
365.92	78.12
366.147	89.12
366.373	91.12
366.599	98.12
366.826	88.12
367.052	88.12
367.278	97.12
367.505	82.12
367.731	81.12
367.957	87.12
368.184	87.12
368.41	76.12
368.636	91.12
368.862	79.12
369.089	70.12
369.315	87.12
369.541	108.12
369.767	91.12
369.993	92.12
370.219	90.12
370.445	94.12
370.672	70.12
370.898	82.12
371.124	84.12
371.35	93.12
371.576	85.12
371.802	86.12
372.028	92.12
372.254	98.12
372.48	92.12
372.706	85.12
372.932	73.12
373.158	84.12
373.384	86.12
373.61	89.12
373.835	83.12
374.061	77.12
374.287	89.12
374.513	85.12
374.739	90.12
374.965	88.12
375.191	74.12
375.416	87.12
375.642	80.12
375.868	105.12
376.094	96.12
376.319	104.12
376.545	88.12
376.771	89.12
376.997	87.12
377.222	87.12
377.448	83.12
377.674	75.12
377.899	80.12
378.125	89.12
378.35	86.12
378.576	77.12
378.802	79.12
379.027	80.12
379.253	86.12
379.478	86.12
379.704	74.12
379.929	85.12
380.155	89.12
380.38	97.12
380.606	79.12
380.831	79.12
381.057	92.12
381.282	94.12
381.507	91.12
381.733	89.12
381.958	95.12
382.184	90.12
382.409	82.12
382.634	89.12
382.86	92.12
383.085	94.12
383.31	100.12
383.535	75.12
383.761	89.12
383.986	73.12
384.211	87.12
384.436	84.12
384.662	79.12
384.887	80.12
385.112	81.12
385.337	75.12
385.562	79.12
385.787	83.12
386.013	99.12
386.238	96.12
386.463	101.12
386.688	69.12
386.913	93.12
387.138	94.12
387.363	92.12
387.588	90.12
387.813	83.12
388.038	87.12
388.263	90.12
388.488	88.12
388.713	81.12
388.938	96.12
389.163	91.12
389.387	92.12
389.612	80.12
389.837	84.12
390.062	79.12
390.287	84.12
390.512	79.12
390.736	79.12
390.961	76.12
391.186	83.12
391.411	86.12
391.636	82.12
391.86	71.12
392.085	94.12
392.31	96.12
392.534	91.12
392.759	73.12
392.984	86.12
393.208	119.12
393.433	134.12
393.658	118.12
393.882	94.12
394.107	59.12
394.331	85.12
394.556	86.12
394.78	80.12
395.005	81.12
395.229	91.12
395.454	71.12
395.678	93.12
395.903	96.12
396.127	96.12
396.352	100.12
396.576	104.12
396.801	126.12
397.025	113.12
397.249	93.12
397.474	92.12
397.698	86.12
397.922	85.12
398.147	90.12
398.371	94.12
398.595	82.12
398.82	76.12
399.044	79.12
399.268	86.12
399.492	80.12
399.717	76.12
399.941	80.12
400.165	84.12
400.389	78.12
400.613	87.12
400.837	90.12
401.062	88.12
401.286	76.12
401.51	93.12
401.734	84.12
401.958	82.12
402.182	80.12
402.406	73.12
402.63	90.12
402.854	80.12
403.078	94.12
403.302	73.12
403.526	90.12
403.75	89.12
403.974	80.12
404.198	110.12
404.422	107.12
404.645	102.12
404.869	104.12
405.093	96.12
405.317	83.12
405.541	81.12
405.765	99.12
405.988	88.12
406.212	79.12
406.436	80.12
406.66	84.12
406.883	94.12
407.107	81.12
407.331	74.12
407.555	86.12
407.778	86.12
408.002	88.12
408.226	82.12
408.449	102.12
408.673	84.12
408.896	84.12
409.12	88.12
409.344	86.12
409.567	85.12
409.791	88.12
410.014	92.12
410.238	86.12
410.461	82.12
410.685	81.12
410.908	89.12
411.132	98.12
411.355	66.12
411.578	88.12
411.802	87.12
412.025	72.12
412.249	83.12
412.472	73.12
412.695	80.12
412.919	76.12
413.142	72.12
413.365	94.12
413.589	81.12
413.812	89.12
414.035	98.12
414.258	84.12
414.482	75.12
414.705	80.12
414.928	90.12
415.151	83.12
415.374	71.12
415.597	72.12
415.821	84.12
416.044	93.12
416.267	84.12
416.49	97.12
416.713	90.12
416.936	81.12
417.159	82.12
417.382	80.12
417.605	73.12
417.828	103.12
418.051	76.12
418.274	72.12
418.497	80.12
418.72	99.12
418.943	95.12
419.166	89.12
419.389	92.12
419.611	88.12
419.834	78.12
420.057	75.12
420.28	86.12
420.503	84.12
420.726	86.12
420.948	82.12
421.171	103.12
421.394	82.12
421.617	96.12
421.839	97.12
422.062	74.12
422.285	83.12
422.507	127.12
422.73	166.12
422.953	156.12
423.175	90.12
423.398	87.12
423.621	74.12
423.843	74.12
424.066	79.12
424.288	89.12
424.511	86.12
424.733	76.12
424.956	82.12
425.178	96.12
425.401	87.12
425.623	74.12
425.846	88.12
426.068	51.12
426.291	78.12
426.513	97.12
426.735	82.12
426.958	73.12
427.18	73.12
427.402	83.12
427.625	92.12
427.847	89.12
428.069	89.12
428.292	87.12
428.514	94.12
428.736	90.12
428.958	81.12
429.181	100.12
429.403	95.12
429.625	83.12
429.847	92.12
430.069	93.12
430.292	120.12
430.514	114.12
430.736	96.12
430.958	90.12
431.18	91.12
431.402	88.12
431.624	88.12
431.846	95.12
432.068	105.12
432.29	94.12
432.512	86.12
432.734	91.12
432.956	92.12
433.178	98.12
433.4	89.12
433.622	93.12
433.844	77.12
434.066	71.12
434.287	89.12
434.509	79.12
434.731	89.12
434.953	86.12
435.175	94.12
435.397	91.12
435.618	77.12
435.84	88.12
436.062	73.12
436.284	83.12
436.505	91.12
436.727	77.12
436.949	76.12
437.17	79.12
437.392	82.12
437.614	94.12
437.835	86.12
438.057	88.12
438.278	88.12
438.5	77.12
438.721	86.12
438.943	82.12
439.165	85.12
439.386	82.12
439.608	92.12
439.829	94.12
440.05	96.12
440.272	93.12
440.493	82.12
440.715	87.12
440.936	71.12
441.158	86.12
441.379	81.12
441.6	92.12
441.822	75.12
442.043	63.12
442.264	94.12
442.486	87.12
442.707	112.12
442.928	66.12
443.149	84.12
443.371	98.12
443.592	97.12
443.813	86.12
444.034	98.12
444.255	97.12
444.476	88.12
444.698	79.12
444.919	75.12
445.14	171.12
445.361	135.12
445.582	128.12
445.803	106.12
446.024	101.12
446.245	86.12
446.466	72.12
446.687	74.12
446.908	89.12
447.129	76.12
447.35	69.12
447.571	86.12
447.792	84.12
448.013	92.12
448.234	76.12
448.455	81.12
448.675	88.12
448.896	86.12
449.117	100.12
449.338	82.12
449.559	79.12
449.779	74.12
450	84.12
450.221	86.12
450.442	76.12
450.662	82.12
450.883	78.12
451.104	103.12
451.324	86.12
451.545	84.12
451.766	86.12
451.986	76.12
452.207	73.12
452.428	76.12
452.648	79.12
452.869	62.12
453.089	79.12
453.31	68.12
453.53	86.12
453.751	82.12
453.971	83.12
454.192	82.12
454.412	84.12
454.633	87.12
454.853	75.12
455.073	84.12
455.294	78.12
455.514	97.12
455.734	96.12
455.955	96.12
456.175	81.12
456.395	91.12
456.616	82.12
456.836	90.12
457.056	74.12
457.276	80.12
457.497	77.12
457.717	75.12
457.937	78.12
458.157	86.12
458.377	85.12
458.598	97.12
458.818	98.12
459.038	88.12
459.258	94.12
459.478	66.12
459.698	83.12
459.918	80.12
460.138	70.12
460.358	73.12
460.578	80.12
460.798	79.12
461.018	83.12
461.238	88.12
461.458	90.12
461.678	91.12
461.898	70.12
462.118	94.12
462.338	83.12
462.558	74.12
462.777	79.12
462.997	84.12
463.217	72.12
463.437	99.12
463.657	80.12
463.876	86.12
464.096	73.12
464.316	83.12
464.536	84.12
464.755	70.12
464.975	74.12
465.195	91.12
465.414	102.12
465.634	83.12
465.854	64.12
466.073	83.12
466.293	95.12
466.512	87.12
466.732	80.12
466.951	77.12
467.171	98.12
467.391	91.12
467.61	97.12
467.829	98.12
468.049	82.12
468.268	80.12
468.488	93.12
468.707	80.12
468.927	79.12
469.146	82.12
469.365	87.12
469.585	80.12
469.804	83.12
470.023	98.12
470.243	78.12
470.462	83.12
470.681	76.12
470.901	83.12
471.12	91.12
471.339	95.12
471.558	72.12
471.777	91.12
471.997	87.12
472.216	88.12
472.435	70.12
472.654	82.12
472.873	82.12
473.092	85.12
473.311	86.12
473.53	84.12
473.749	73.12
473.968	84.12
474.187	89.12
474.406	92.12
474.625	72.12
474.844	88.12
475.063	82.12
475.282	70.12
475.501	92.12
475.72	84.12
475.939	74.12
476.158	74.12
476.377	80.12
476.596	95.12
476.814	102.12
477.033	77.12
477.252	82.12
477.471	90.12
477.69	82.12
477.908	81.12
478.127	91.12
478.346	86.12
478.564	84.12
478.783	89.12
479.002	83.12
479.22	86.12
479.439	90.12
479.658	103.12
479.876	95.12
480.095	78.12
480.313	75.12
480.532	86.12
480.751	82.12
480.969	76.12
481.188	79.12
481.406	82.12
481.624	88.12
481.843	79.12
482.061	75.12
482.28	84.12
482.498	89.12
482.717	88.12
482.935	97.12
483.153	94.12
483.372	96.12
483.59	88.12
483.808	89.12
484.027	98.12
484.245	94.12
484.463	83.12
484.681	95.12
484.9	65.12
485.118	90.12
485.336	86.12
485.554	88.12
485.772	100.12
485.99	95.12
486.209	82.12
486.427	80.12
486.645	101.12
486.863	74.12
487.081	87.12
487.299	84.12
487.517	90.12
487.735	88.12
487.953	105.12
488.171	106.12
488.389	84.12
488.607	84.12
488.825	93.12
489.043	89.12
489.261	84.12
489.479	107.12
489.696	90.12
489.914	91.12
490.132	88.12
490.35	84.12
490.568	92.12
490.786	88.12
491.003	72.12
491.221	95.12
491.439	76.12
491.657	82.12
491.874	90.12
492.092	83.12
492.31	94.12
492.527	87.12
492.745	63.12
492.963	82.12
493.18	88.12
493.398	94.12
493.615	94.12
493.833	77.12
494.05	101.12
494.268	89.12
494.485	86.12
494.703	86.12
494.92	111.12
495.138	96.12
495.355	96.12
495.573	71.12
495.79	69.12
496.008	89.12
496.225	84.12
496.442	84.12
496.66	90.12
496.877	80.12
497.094	70.12
497.312	90.12
497.529	79.12
497.746	89.12
497.963	87.12
498.181	63.12
498.398	86.12
498.615	70.12
498.832	86.12
499.049	86.12
499.267	102.12
499.484	95.12
499.701	78.12
499.918	93.12
500.135	70.12
500.352	78.12
500.569	87.12
500.786	74.12
501.003	90.12
501.22	86.12
501.437	81.12
501.654	77.12
501.871	73.12
502.088	80.12
502.305	86.12
502.522	86.12
502.739	90.12
502.956	85.12
503.172	85.12
503.389	96.12
503.606	88.12
503.823	102.12
504.04	90.12
504.256	101.12
504.473	83.12
504.69	91.12
504.907	93.12
505.123	86.12
505.34	91.12
505.557	86.12
505.773	89.12
505.99	89.12
506.207	91.12
506.423	84.12
506.64	81.12
506.856	99.12
507.073	92.12
507.289	92.12
507.506	79.12
507.722	80.12
507.939	86.12
508.155	95.12
508.372	81.12
508.588	85.12
508.805	80.12
509.021	91.12
509.238	90.12
509.454	82.12
509.67	85.12
509.887	78.12
510.103	84.12
510.319	91.12
510.536	83.12
510.752	81.12
510.968	98.12
511.184	83.12
511.401	95.12
511.617	90.12
511.833	95.12
512.049	112.12
512.265	98.12
512.481	83.12
512.698	99.12
512.914	91.12
513.13	81.12
513.346	84.12
513.562	79.12
513.778	98.12
513.994	83.12
514.21	80.12
514.426	102.12
514.642	67.12
514.858	77.12
515.074	76.12
515.29	96.12
515.506	82.12
515.721	72.12
515.937	87.12
516.153	91.12
516.369	73.12
516.585	76.12
516.801	84.12
517.016	99.12
517.232	81.12
517.448	83.12
517.664	89.12
517.879	99.12
518.095	81.12
518.311	88.12
518.527	98.12
518.742	100.12
518.958	103.12
519.173	94.12
519.389	96.12
