Data from 1600_2_HRD10591_00004.txt Node
Date: Mon Jan 19 13:53:43 EST 2026
User: Yrep
Spectrometer: HR+D1059
Trigger mode: 1
Integration Time (sec): 1.000000E-1
Scans to average: 1
Electric dark correction enabled: true
Nonlinearity correction enabled: false
Boxcar width: 0
XAxis mode: Wavelengths
Number of Pixels in Spectrum: 2048
>>>>>Begin Spectral Data<<<<<
223.165	-13.62
223.4	-13.62
223.635	-13.62
223.869	-27.62
224.104	-8.62
224.338	-0.62
224.573	-20.62
224.808	-4.62
225.042	-11.62
225.277	-4.62
225.511	-6.62
225.746	-12.62
225.98	8.38
226.215	6.38
226.449	25.38
226.683	23.38
226.918	18.38
227.152	29.38
227.387	49.38
227.621	36.38
227.856	38.38
228.09	57.38
228.324	52.38
228.559	49.38
228.793	59.38
229.027	65.38
229.262	54.38
229.496	69.38
229.73	58.38
229.964	79.38
230.199	83.38
230.433	79.38
230.667	72.38
230.901	78.38
231.136	83.38
231.37	78.38
231.604	84.38
231.838	77.38
232.072	79.38
232.306	72.38
232.541	82.38
232.775	78.38
233.009	78.38
233.243	86.38
233.477	80.38
233.711	75.38
233.945	86.38
234.179	91.38
234.413	81.38
234.647	71.38
234.881	79.38
235.115	79.38
235.349	72.38
235.583	64.38
235.817	70.38
236.051	88.38
236.285	64.38
236.519	81.38
236.753	70.38
236.987	66.38
237.221	80.38
237.455	83.38
237.689	79.38
237.922	65.38
238.156	74.38
238.39	72.38
238.624	73.38
238.858	76.38
239.091	80.38
239.325	68.38
239.559	75.38
239.793	68.38
240.027	82.38
240.26	62.38
240.494	79.38
240.728	81.38
240.961	64.38
241.195	63.38
241.429	63.38
241.662	75.38
241.896	83.38
242.13	69.38
242.363	85.38
242.597	81.38
242.83	85.38
243.064	72.38
243.298	79.38
243.531	85.38
243.765	96.38
243.998	72.38
244.232	75.38
244.465	67.38
244.699	69.38
244.932	84.38
245.166	76.38
245.399	79.38
245.633	74.38
245.866	81.38
246.099	75.38
246.333	72.38
246.566	79.38
246.8	70.38
247.033	69.38
247.266	77.38
247.5	80.38
247.733	79.38
247.966	87.38
248.2	77.38
248.433	73.38
248.666	71.38
248.899	67.38
249.133	70.38
249.366	71.38
249.599	96.38
249.832	75.38
250.066	79.38
250.299	86.38
250.532	78.38
250.765	74.38
250.998	63.38
251.231	75.38
251.465	59.38
251.698	66.38
251.931	74.38
252.164	81.38
252.397	74.38
252.63	78.38
252.863	71.38
253.096	75.38
253.329	64.38
253.562	75.38
253.795	87.38
254.028	81.38
254.261	81.38
254.494	80.38
254.727	74.38
254.96	78.38
255.193	74.38
255.426	78.38
255.659	73.38
255.892	84.38
256.124	80.38
256.357	72.38
256.59	67.38
256.823	83.38
257.056	71.38
257.289	78.38
257.521	61.38
257.754	81.38
257.987	84.38
258.22	100.38
258.452	73.38
258.685	85.38
258.918	73.38
259.151	79.38
259.383	81.38
259.616	79.38
259.849	82.38
260.081	90.38
260.314	80.38
260.547	68.38
260.779	77.38
261.012	91.38
261.244	83.38
261.477	81.38
261.71	76.38
261.942	83.38
262.175	79.38
262.407	92.38
262.64	81.38
262.872	87.38
263.105	101.38
263.337	88.38
263.57	83.38
263.802	85.38
264.035	89.38
264.267	87.38
264.499	87.38
264.732	75.38
264.964	70.38
265.197	91.38
265.429	88.38
265.661	80.38
265.894	73.38
266.126	77.38
266.358	75.38
266.591	77.38
266.823	81.38
267.055	90.38
267.287	82.38
267.52	86.38
267.752	91.38
267.984	71.38
268.216	84.38
268.448	86.38
268.681	72.38
268.913	65.38
269.145	74.38
269.377	78.38
269.609	69.38
269.841	90.38
270.073	83.38
270.306	91.38
270.538	88.38
270.77	83.38
271.002	79.38
271.234	82.38
271.466	78.38
271.698	93.38
271.93	82.38
272.162	78.38
272.394	85.38
272.626	82.38
272.858	80.38
273.09	93.38
273.322	73.38
273.553	81.38
273.785	65.38
274.017	85.38
274.249	71.38
274.481	71.38
274.713	88.38
274.945	75.38
275.176	95.38
275.408	96.38
275.64	89.38
275.872	84.38
276.104	79.38
276.335	75.38
276.567	82.38
276.799	88.38
277.031	97.38
277.262	75.38
277.494	86.38
277.726	73.38
277.957	79.38
278.189	87.38
278.421	90.38
278.652	79.38
278.884	92.38
279.115	83.38
279.347	92.38
279.579	83.38
279.81	91.38
280.042	78.38
280.273	89.38
280.505	88.38
280.736	77.38
280.968	86.38
281.199	80.38
281.431	77.38
281.662	76.38
281.894	73.38
282.125	97.38
282.356	69.38
282.588	93.38
282.819	73.38
283.051	94.38
283.282	83.38
283.513	99.38
283.745	76.38
283.976	82.38
284.207	72.38
284.439	95.38
284.67	83.38
284.901	88.38
285.132	78.38
285.364	100.38
285.595	101.38
285.826	92.38
286.057	80.38
286.288	90.38
286.52	78.38
286.751	74.38
286.982	69.38
287.213	72.38
287.444	85.38
287.675	77.38
287.906	97.38
288.138	74.38
288.369	96.38
288.6	77.38
288.831	82.38
289.062	82.38
289.293	78.38
289.524	85.38
289.755	81.38
289.986	77.38
290.217	69.38
290.448	88.38
290.679	88.38
290.91	87.38
291.141	78.38
291.371	76.38
291.602	78.38
291.833	80.38
292.064	77.38
292.295	95.38
292.526	87.38
292.757	81.38
292.987	93.38
293.218	96.38
293.449	90.38
293.68	91.38
293.91	77.38
294.141	76.38
294.372	94.38
294.603	91.38
294.833	81.38
295.064	76.38
295.295	84.38
295.525	95.38
295.756	75.38
295.987	87.38
296.217	94.38
296.448	77.38
296.679	85.38
296.909	94.38
297.14	86.38
297.37	83.38
297.601	70.38
297.831	107.38
298.062	92.38
298.292	96.38
298.523	80.38
298.753	99.38
298.984	74.38
299.214	79.38
299.445	76.38
299.675	87.38
299.905	87.38
300.136	81.38
300.366	93.38
300.597	93.38
300.827	86.38
301.057	67.38
301.288	83.38
301.518	79.38
301.748	74.38
301.979	95.38
302.209	92.38
302.439	91.38
302.669	82.38
302.9	96.38
303.13	79.38
303.36	89.38
303.59	82.38
303.82	85.38
304.051	89.38
304.281	89.38
304.511	94.38
304.741	80.38
304.971	85.38
305.201	90.38
305.431	73.38
305.661	85.38
305.891	81.38
306.121	91.38
306.352	71.38
306.582	88.38
306.812	85.38
307.042	82.38
307.272	89.38
307.502	96.38
307.731	88.38
307.961	74.38
308.191	90.38
308.421	94.38
308.651	91.38
308.881	108.38
309.111	81.38
309.341	87.38
309.571	100.38
309.8	97.38
310.03	67.38
310.26	77.38
310.49	83.38
310.72	95.38
310.949	101.38
311.179	109.38
311.409	93.38
311.639	87.38
311.868	70.38
312.098	94.38
312.328	87.38
312.557	84.38
312.787	87.38
313.017	91.38
313.246	85.38
313.476	87.38
313.706	85.38
313.935	87.38
314.165	87.38
314.394	85.38
314.624	78.38
314.853	74.38
315.083	100.38
315.312	102.38
315.542	88.38
315.771	86.38
316.001	95.38
316.23	91.38
316.46	77.38
316.689	99.38
316.919	91.38
317.148	85.38
317.377	90.38
317.607	97.38
317.836	77.38
318.065	80.38
318.295	85.38
318.524	76.38
318.753	79.38
318.983	79.38
319.212	68.38
319.441	86.38
319.67	79.38
319.9	81.38
320.129	77.38
320.358	89.38
320.587	80.38
320.816	87.38
321.046	88.38
321.275	95.38
321.504	79.38
321.733	88.38
321.962	89.38
322.191	101.38
322.42	94.38
322.649	77.38
322.878	94.38
323.108	98.38
323.337	91.38
323.566	85.38
323.795	94.38
324.024	87.38
324.253	83.38
324.482	87.38
324.71	77.38
324.939	93.38
325.168	77.38
325.397	78.38
325.626	100.38
325.855	93.38
326.084	78.38
326.313	92.38
326.542	71.38
326.77	84.38
326.999	72.38
327.228	81.38
327.457	71.38
327.686	96.38
327.914	97.38
328.143	83.38
328.372	80.38
328.6	81.38
328.829	74.38
329.058	93.38
329.287	83.38
329.515	85.38
329.744	82.38
329.972	80.38
330.201	78.38
330.43	95.38
330.658	77.38
330.887	79.38
331.115	85.38
331.344	96.38
331.572	88.38
331.801	90.38
332.03	77.38
332.258	70.38
332.486	87.38
332.715	79.38
332.943	81.38
333.172	78.38
333.4	93.38
333.629	101.38
333.857	86.38
334.085	78.38
334.314	93.38
334.542	80.38
334.771	77.38
334.999	73.38
335.227	102.38
335.455	73.38
335.684	77.38
335.912	94.38
336.14	96.38
336.369	79.38
336.597	77.38
336.825	79.38
337.053	105.38
337.281	87.38
337.51	77.38
337.738	76.38
337.966	83.38
338.194	75.38
338.422	90.38
338.65	99.38
338.878	80.38
339.106	73.38
339.334	89.38
339.562	95.38
339.79	90.38
340.018	77.38
340.246	94.38
340.474	79.38
340.702	83.38
340.93	91.38
341.158	85.38
341.386	80.38
341.614	94.38
341.842	81.38
342.07	93.38
342.298	83.38
342.526	85.38
342.754	79.38
342.981	79.38
343.209	71.38
343.437	92.38
343.665	96.38
343.893	68.38
344.12	95.38
344.348	89.38
344.576	80.38
344.804	107.38
345.031	88.38
345.259	76.38
345.487	85.38
345.714	86.38
345.942	68.38
346.17	89.38
346.397	85.38
346.625	73.38
346.853	104.38
347.08	97.38
347.308	80.38
347.535	81.38
347.763	97.38
347.99	103.38
348.218	73.38
348.445	78.38
348.673	79.38
348.9	86.38
349.128	99.38
349.355	74.38
349.583	85.38
349.81	94.38
350.037	83.38
350.265	85.38
350.492	81.38
350.72	88.38
350.947	89.38
351.174	93.38
351.402	95.38
351.629	80.38
351.856	88.38
352.083	93.38
352.311	95.38
352.538	83.38
352.765	87.38
352.992	86.38
353.22	101.38
353.447	82.38
353.674	92.38
353.901	81.38
354.128	87.38
354.355	83.38
354.583	70.38
354.81	95.38
355.037	70.38
355.264	90.38
355.491	92.38
355.718	98.38
355.945	99.38
356.172	86.38
356.399	89.38
356.626	73.38
356.853	85.38
357.08	88.38
357.307	108.38
357.534	97.38
357.761	88.38
357.988	100.38
358.215	107.38
358.441	88.38
358.668	87.38
358.895	88.38
359.122	92.38
359.349	72.38
359.576	82.38
359.802	90.38
360.029	83.38
360.256	86.38
360.483	85.38
360.709	79.38
360.936	97.38
361.163	95.38
361.39	75.38
361.616	91.38
361.843	79.38
362.07	90.38
362.296	93.38
362.523	101.38
362.749	87.38
362.976	107.38
363.203	119.38
363.429	99.38
363.656	100.38
363.882	91.38
364.109	97.38
364.335	96.38
364.562	98.38
364.788	94.38
365.015	93.38
365.241	89.38
365.468	95.38
365.694	81.38
365.92	68.38
366.147	91.38
366.373	95.38
366.599	81.38
366.826	69.38
367.052	89.38
367.278	93.38
367.505	78.38
367.731	85.38
367.957	95.38
368.184	85.38
368.41	92.38
368.636	76.38
368.862	79.38
369.089	86.38
369.315	89.38
369.541	70.38
369.767	85.38
369.993	85.38
370.219	72.38
370.445	81.38
370.672	95.38
370.898	86.38
371.124	93.38
371.35	85.38
371.576	88.38
371.802	96.38
372.028	101.38
372.254	79.38
372.48	86.38
372.706	94.38
372.932	100.38
373.158	88.38
373.384	92.38
373.61	95.38
373.835	91.38
374.061	80.38
374.287	79.38
374.513	98.38
374.739	101.38
374.965	96.38
375.191	96.38
375.416	85.38
375.642	91.38
375.868	94.38
376.094	95.38
376.319	83.38
376.545	68.38
376.771	96.38
376.997	101.38
377.222	91.38
377.448	85.38
377.674	85.38
377.899	88.38
378.125	86.38
378.35	67.38
378.576	97.38
378.802	92.38
379.027	85.38
379.253	92.38
379.478	91.38
379.704	83.38
379.929	80.38
380.155	92.38
380.38	78.38
380.606	66.38
380.831	69.38
381.057	103.38
381.282	82.38
381.507	84.38
381.733	95.38
381.958	99.38
382.184	88.38
382.409	85.38
382.634	98.38
382.86	104.38
383.085	106.38
383.31	100.38
383.535	100.38
383.761	94.38
383.986	103.38
384.211	90.38
384.436	77.38
384.662	84.38
384.887	79.38
385.112	80.38
385.337	84.38
385.562	73.38
385.787	91.38
386.013	100.38
386.238	95.38
386.463	93.38
386.688	91.38
386.913	90.38
387.138	91.38
387.363	87.38
387.588	87.38
387.813	80.38
388.038	89.38
388.263	78.38
388.488	87.38
388.713	100.38
388.938	99.38
389.163	95.38
389.387	77.38
389.612	76.38
389.837	88.38
390.062	94.38
390.287	95.38
390.512	89.38
390.736	87.38
390.961	96.38
391.186	92.38
391.411	99.38
391.636	86.38
391.86	87.38
392.085	84.38
392.31	92.38
392.534	94.38
392.759	102.38
392.984	109.38
393.208	144.38
393.433	193.38
393.658	150.38
393.882	107.38
394.107	115.38
394.331	110.38
394.556	115.38
394.78	97.38
395.005	90.38
395.229	90.38
395.454	91.38
395.678	99.38
395.903	104.38
396.127	125.38
396.352	132.38
396.576	115.38
396.801	151.38
397.025	159.38
397.249	124.38
397.474	105.38
397.698	88.38
397.922	73.38
398.147	99.38
398.371	80.38
398.595	81.38
398.82	95.38
399.044	84.38
399.268	87.38
399.492	89.38
399.717	92.38
399.941	80.38
400.165	86.38
400.389	83.38
400.613	73.38
400.837	77.38
401.062	91.38
401.286	82.38
401.51	84.38
401.734	75.38
401.958	74.38
402.182	63.38
402.406	92.38
402.63	97.38
402.854	82.38
403.078	87.38
403.302	92.38
403.526	84.38
403.75	97.38
403.974	102.38
404.198	115.38
404.422	160.38
404.645	180.38
404.869	161.38
405.093	117.38
405.317	101.38
405.541	93.38
405.765	93.38
405.988	94.38
406.212	83.38
406.436	94.38
406.66	101.38
406.883	91.38
407.107	87.38
407.331	99.38
407.555	89.38
407.778	88.38
408.002	78.38
408.226	90.38
408.449	89.38
408.673	91.38
408.896	91.38
409.12	73.38
409.344	87.38
409.567	100.38
409.791	93.38
410.014	96.38
410.238	83.38
410.461	103.38
410.685	78.38
410.908	88.38
411.132	81.38
411.355	89.38
411.578	94.38
411.802	88.38
412.025	74.38
412.249	83.38
412.472	83.38
412.695	75.38
412.919	90.38
413.142	76.38
413.365	78.38
413.589	96.38
413.812	71.38
414.035	107.38
414.258	81.38
414.482	81.38
414.705	96.38
414.928	89.38
415.151	100.38
415.374	80.38
415.597	90.38
415.821	87.38
416.044	85.38
416.267	81.38
416.49	79.38
416.713	69.38
416.936	90.38
417.159	88.38
417.382	73.38
417.605	92.38
417.828	81.38
418.051	83.38
418.274	76.38
418.497	89.38
418.72	85.38
418.943	84.38
419.166	86.38
419.389	93.38
419.611	97.38
419.834	99.38
420.057	94.38
420.28	79.38
420.503	85.38
420.726	103.38
420.948	95.38
421.171	80.38
421.394	88.38
421.617	90.38
421.839	110.38
422.062	112.38
422.285	130.38
422.507	233.38
422.73	302.38
422.953	280.38
423.175	157.38
423.398	109.38
423.621	99.38
423.843	99.38
424.066	90.38
424.288	100.38
424.511	89.38
424.733	95.38
424.956	84.38
425.178	71.38
425.401	81.38
425.623	88.38
425.846	83.38
426.068	93.38
426.291	89.38
426.513	89.38
426.735	80.38
426.958	92.38
427.18	89.38
427.402	79.38
427.625	89.38
427.847	85.38
428.069	90.38
428.292	105.38
428.514	128.38
428.736	112.38
428.958	114.38
429.181	104.38
429.403	97.38
429.625	100.38
429.847	114.38
430.069	134.38
430.292	164.38
430.514	135.38
430.736	124.38
430.958	127.38
431.18	91.38
431.402	84.38
431.624	85.38
431.846	101.38
432.068	114.38
432.29	99.38
432.512	101.38
432.734	82.38
432.956	85.38
433.178	86.38
433.4	76.38
433.622	88.38
433.844	85.38
434.066	80.38
434.287	68.38
434.509	82.38
434.731	84.38
434.953	65.38
435.175	85.38
435.397	85.38
435.618	94.38
435.84	103.38
436.062	91.38
436.284	96.38
436.505	83.38
436.727	86.38
436.949	77.38
437.17	85.38
437.392	87.38
437.614	85.38
437.835	84.38
438.057	78.38
438.278	88.38
438.5	101.38
438.721	83.38
438.943	77.38
439.165	83.38
439.386	75.38
439.608	101.38
439.829	85.38
440.05	83.38
440.272	82.38
440.493	85.38
440.715	96.38
440.936	80.38
441.158	82.38
441.379	83.38
441.6	83.38
441.822	68.38
442.043	90.38
442.264	95.38
442.486	116.38
442.707	136.38
442.928	97.38
443.149	101.38
443.371	137.38
443.592	199.38
443.813	176.38
444.034	99.38
444.255	100.38
444.476	90.38
444.698	98.38
444.919	90.38
445.14	184.38
445.361	171.38
445.582	223.38
445.803	191.38
446.024	89.38
446.245	100.38
446.466	82.38
446.687	85.38
446.908	84.38
447.129	84.38
447.35	83.38
447.571	71.38
447.792	79.38
448.013	83.38
448.234	76.38
448.455	75.38
448.675	81.38
448.896	88.38
449.117	76.38
449.338	83.38
449.559	92.38
449.779	86.38
450	74.38
450.221	84.38
450.442	84.38
450.662	93.38
450.883	89.38
451.104	89.38
451.324	90.38
451.545	72.38
451.766	85.38
451.986	67.38
452.207	91.38
452.428	98.38
452.648	102.38
452.869	83.38
453.089	89.38
453.31	84.38
453.53	91.38
453.751	82.38
453.971	76.38
454.192	71.38
454.412	76.38
454.633	85.38
454.853	85.38
455.073	73.38
455.294	79.38
455.514	66.38
455.734	79.38
455.955	103.38
456.175	91.38
456.395	79.38
456.616	86.38
456.836	81.38
457.056	96.38
457.276	90.38
457.497	84.38
457.717	80.38
457.937	93.38
458.157	89.38
458.377	99.38
458.598	112.38
458.818	99.38
459.038	83.38
459.258	74.38
459.478	66.38
459.698	83.38
459.918	76.38
460.138	79.38
460.358	85.38
460.578	102.38
460.798	112.38
461.018	110.38
461.238	83.38
461.458	92.38
461.678	89.38
461.898	99.38
462.118	94.38
462.338	80.38
462.558	93.38
462.777	77.38
462.997	81.38
463.217	75.38
463.437	79.38
463.657	77.38
463.876	79.38
464.096	85.38
464.316	85.38
464.536	79.38
464.755	71.38
464.975	88.38
465.195	81.38
465.414	99.38
465.634	91.38
465.854	88.38
466.073	73.38
466.293	73.38
466.512	81.38
466.732	85.38
466.951	92.38
467.171	75.38
467.391	79.38
467.61	85.38
467.829	91.38
468.049	79.38
468.268	87.38
468.488	85.38
468.707	79.38
468.927	92.38
469.146	89.38
469.365	76.38
469.585	85.38
469.804	83.38
470.023	79.38
470.243	81.38
470.462	87.38
470.681	80.38
470.901	89.38
471.12	82.38
471.339	73.38
471.558	84.38
471.777	80.38
471.997	86.38
472.216	86.38
472.435	72.38
472.654	83.38
472.873	87.38
473.092	84.38
473.311	88.38
473.53	91.38
473.749	69.38
473.968	91.38
474.187	90.38
474.406	79.38
474.625	88.38
474.844	82.38
475.063	81.38
475.282	65.38
475.501	92.38
475.72	94.38
475.939	69.38
476.158	88.38
476.377	87.38
476.596	90.38
476.814	83.38
477.033	81.38
477.252	97.38
477.471	84.38
477.69	77.38
477.908	102.38
478.127	81.38
478.346	84.38
478.564	82.38
478.783	86.38
479.002	95.38
479.22	73.38
479.439	77.38
479.658	72.38
479.876	99.38
480.095	78.38
480.313	83.38
480.532	105.38
480.751	107.38
480.969	75.38
481.188	72.38
481.406	95.38
481.624	95.38
481.843	72.38
482.061	97.38
482.28	89.38
482.498	88.38
482.717	82.38
482.935	91.38
483.153	86.38
483.372	79.38
483.59	87.38
483.808	96.38
484.027	85.38
484.245	82.38
484.463	96.38
484.681	88.38
484.9	82.38
485.118	67.38
485.336	90.38
485.554	77.38
485.772	86.38
485.99	84.38
486.209	92.38
486.427	78.38
486.645	88.38
486.863	70.38
487.081	64.38
487.299	86.38
487.517	89.38
487.735	93.38
487.953	118.38
488.171	127.38
488.389	88.38
488.607	99.38
488.825	87.38
489.043	84.38
489.261	93.38
489.479	84.38
489.696	74.38
489.914	89.38
490.132	94.38
490.35	91.38
490.568	88.38
490.786	91.38
491.003	87.38
491.221	83.38
491.439	88.38
491.657	86.38
491.874	88.38
492.092	87.38
492.31	81.38
492.527	85.38
492.745	93.38
492.963	85.38
493.18	89.38
493.398	97.38
493.615	86.38
493.833	79.38
494.05	100.38
494.268	84.38
494.485	80.38
494.703	87.38
494.92	87.38
495.138	96.38
495.355	82.38
495.573	91.38
495.79	104.38
496.008	89.38
496.225	100.38
496.442	88.38
496.66	88.38
496.877	95.38
497.094	92.38
497.312	74.38
497.529	91.38
497.746	95.38
497.963	80.38
498.181	94.38
498.398	102.38
498.615	79.38
498.832	91.38
499.049	88.38
499.267	92.38
499.484	91.38
499.701	91.38
499.918	91.38
500.135	110.38
500.352	96.38
500.569	96.38
500.786	93.38
501.003	85.38
501.22	85.38
501.437	91.38
501.654	81.38
501.871	84.38
502.088	99.38
502.305	102.38
502.522	85.38
502.739	87.38
502.956	87.38
503.172	95.38
503.389	95.38
503.606	88.38
503.823	85.38
504.04	95.38
504.256	102.38
504.473	110.38
504.69	95.38
504.907	89.38
505.123	100.38
505.34	105.38
505.557	87.38
505.773	98.38
505.99	88.38
506.207	84.38
506.423	88.38
506.64	94.38
506.856	72.38
507.073	76.38
507.289	65.38
507.506	67.38
507.722	81.38
507.939	86.38
508.155	87.38
508.372	84.38
508.588	95.38
508.805	85.38
509.021	84.38
509.238	88.38
509.454	77.38
509.67	83.38
509.887	96.38
510.103	84.38
510.319	96.38
510.536	87.38
510.752	105.38
510.968	74.38
511.184	104.38
511.401	104.38
511.617	89.38
511.833	102.38
512.049	102.38
512.265	99.38
512.481	89.38
512.698	87.38
512.914	95.38
513.13	98.38
513.346	81.38
513.562	71.38
513.778	74.38
513.994	78.38
514.21	83.38
514.426	77.38
514.642	87.38
514.858	93.38
515.074	92.38
515.29	93.38
515.506	88.38
515.721	75.38
515.937	88.38
516.153	100.38
516.369	86.38
516.585	70.38
516.801	93.38
517.016	112.38
517.232	97.38
517.448	110.38
517.664	89.38
517.879	94.38
518.095	86.38
518.311	87.38
