Data from 1600_2_HRD10591_00039.txt Node
Date: Mon Jan 19 13:54:00 EST 2026
User: Yrep
Spectrometer: HR+D1059
Trigger mode: 1
Integration Time (sec): 1.000000E-1
Scans to average: 1
Electric dark correction enabled: true
Nonlinearity correction enabled: false
Boxcar width: 0
XAxis mode: Wavelengths
Number of Pixels in Spectrum: 2048
>>>>>Begin Spectral Data<<<<<
223.165	-21.06
223.4	-21.06
223.635	-21.06
223.869	2.94
224.104	-25.06
224.338	-10.06
224.573	-23.06
224.808	-13.06
225.042	-14.06
225.277	-2.06
225.511	-9.06
225.746	4.94
225.98	11.94
226.215	4.94
226.449	6.94
226.683	21.94
226.918	22.94
227.152	40.94
227.387	35.94
227.621	39.94
227.856	58.94
228.09	54.94
228.324	53.94
228.559	64.94
228.793	56.94
229.027	62.94
229.262	62.94
229.496	72.94
229.73	68.94
229.964	80.94
230.199	69.94
230.433	69.94
230.667	80.94
230.901	93.94
231.136	92.94
231.37	92.94
231.604	72.94
231.838	74.94
232.072	80.94
232.306	87.94
232.541	80.94
232.775	80.94
233.009	62.94
233.243	73.94
233.477	88.94
233.711	87.94
233.945	93.94
234.179	88.94
234.413	85.94
234.647	74.94
234.881	74.94
235.115	88.94
235.349	83.94
235.583	105.94
235.817	88.94
236.051	74.94
236.285	79.94
236.519	72.94
236.753	83.94
236.987	75.94
237.221	64.94
237.455	82.94
237.689	73.94
237.922	81.94
238.156	80.94
238.39	79.94
238.624	87.94
238.858	68.94
239.091	75.94
239.325	83.94
239.559	75.94
239.793	80.94
240.027	61.94
240.26	74.94
240.494	85.94
240.728	83.94
240.961	69.94
241.195	72.94
241.429	80.94
241.662	72.94
241.896	68.94
242.13	71.94
242.363	76.94
242.597	76.94
242.83	72.94
243.064	86.94
243.298	81.94
243.531	80.94
243.765	73.94
243.998	85.94
244.232	72.94
244.465	73.94
244.699	88.94
244.932	77.94
245.166	95.94
245.399	80.94
245.633	75.94
245.866	82.94
246.099	78.94
246.333	54.94
246.566	72.94
246.8	72.94
247.033	78.94
247.266	93.94
247.5	83.94
247.733	85.94
247.966	80.94
248.2	68.94
248.433	64.94
248.666	85.94
248.899	64.94
249.133	82.94
249.366	88.94
249.599	85.94
249.832	69.94
250.066	88.94
250.299	77.94
250.532	86.94
250.765	77.94
250.998	74.94
251.231	83.94
251.465	83.94
251.698	85.94
251.931	85.94
252.164	75.94
252.397	80.94
252.63	84.94
252.863	81.94
253.096	78.94
253.329	84.94
253.562	76.94
253.795	81.94
254.028	73.94
254.261	76.94
254.494	83.94
254.727	90.94
254.96	67.94
255.193	70.94
255.426	79.94
255.659	90.94
255.892	91.94
256.124	82.94
256.357	78.94
256.59	78.94
256.823	79.94
257.056	74.94
257.289	73.94
257.521	60.94
257.754	93.94
257.987	73.94
258.22	88.94
258.452	80.94
258.685	81.94
258.918	81.94
259.151	92.94
259.383	69.94
259.616	64.94
259.849	84.94
260.081	73.94
260.314	72.94
260.547	80.94
260.779	76.94
261.012	76.94
261.244	85.94
261.477	98.94
261.71	70.94
261.942	84.94
262.175	85.94
262.407	74.94
262.64	69.94
262.872	81.94
263.105	70.94
263.337	80.94
263.57	78.94
263.802	84.94
264.035	92.94
264.267	83.94
264.499	86.94
264.732	94.94
264.964	89.94
265.197	87.94
265.429	94.94
265.661	73.94
265.894	88.94
266.126	69.94
266.358	82.94
266.591	80.94
266.823	82.94
267.055	89.94
267.287	91.94
267.52	77.94
267.752	89.94
267.984	80.94
268.216	80.94
268.448	80.94
268.681	89.94
268.913	88.94
269.145	61.94
269.377	74.94
269.609	78.94
269.841	89.94
270.073	72.94
270.306	82.94
270.538	86.94
270.77	86.94
271.002	84.94
271.234	74.94
271.466	76.94
271.698	84.94
271.93	74.94
272.162	73.94
272.394	84.94
272.626	78.94
272.858	80.94
273.09	86.94
273.322	60.94
273.553	76.94
273.785	85.94
274.017	84.94
274.249	92.94
274.481	91.94
274.713	88.94
274.945	74.94
275.176	75.94
275.408	81.94
275.64	85.94
275.872	86.94
276.104	71.94
276.335	85.94
276.567	80.94
276.799	99.94
277.031	72.94
277.262	80.94
277.494	75.94
277.726	89.94
277.957	81.94
278.189	77.94
278.421	83.94
278.652	81.94
278.884	71.94
279.115	89.94
279.347	88.94
279.579	94.94
279.81	92.94
280.042	86.94
280.273	86.94
280.505	90.94
280.736	73.94
280.968	84.94
281.199	79.94
281.431	81.94
281.662	85.94
281.894	87.94
282.125	88.94
282.356	87.94
282.588	95.94
282.819	93.94
283.051	75.94
283.282	75.94
283.513	90.94
283.745	86.94
283.976	84.94
284.207	68.94
284.439	89.94
284.67	90.94
284.901	90.94
285.132	94.94
285.364	87.94
285.595	96.94
285.826	84.94
286.057	98.94
286.288	80.94
286.52	87.94
286.751	84.94
286.982	73.94
287.213	70.94
287.444	79.94
287.675	89.94
287.906	82.94
288.138	73.94
288.369	83.94
288.6	75.94
288.831	94.94
289.062	89.94
289.293	95.94
289.524	96.94
289.755	89.94
289.986	84.94
290.217	79.94
290.448	80.94
290.679	88.94
290.91	90.94
291.141	73.94
291.371	71.94
291.602	82.94
291.833	88.94
292.064	90.94
292.295	101.94
292.526	74.94
292.757	93.94
292.987	80.94
293.218	79.94
293.449	84.94
293.68	90.94
293.91	82.94
294.141	80.94
294.372	78.94
294.603	78.94
294.833	82.94
295.064	97.94
295.295	78.94
295.525	90.94
295.756	98.94
295.987	83.94
296.217	84.94
296.448	89.94
296.679	85.94
296.909	84.94
297.14	69.94
297.37	90.94
297.601	99.94
297.831	78.94
298.062	78.94
298.292	81.94
298.523	92.94
298.753	83.94
298.984	93.94
299.214	95.94
299.445	78.94
299.675	93.94
299.905	74.94
300.136	86.94
300.366	81.94
300.597	92.94
300.827	86.94
301.057	77.94
301.288	81.94
301.518	93.94
301.748	86.94
301.979	98.94
302.209	80.94
302.439	84.94
302.669	80.94
302.9	89.94
303.13	82.94
303.36	96.94
303.59	74.94
303.82	91.94
304.051	87.94
304.281	94.94
304.511	83.94
304.741	86.94
304.971	80.94
305.201	92.94
305.431	98.94
305.661	93.94
305.891	91.94
306.121	87.94
306.352	86.94
306.582	96.94
306.812	90.94
307.042	90.94
307.272	84.94
307.502	87.94
307.731	84.94
307.961	80.94
308.191	93.94
308.421	81.94
308.651	82.94
308.881	86.94
309.111	75.94
309.341	87.94
309.571	101.94
309.8	90.94
310.03	90.94
310.26	92.94
310.49	73.94
310.72	84.94
310.949	89.94
311.179	90.94
311.409	90.94
311.639	79.94
311.868	90.94
312.098	89.94
312.328	74.94
312.557	80.94
312.787	92.94
313.017	78.94
313.246	62.94
313.476	80.94
313.706	86.94
313.935	94.94
314.165	94.94
314.394	77.94
314.624	93.94
314.853	81.94
315.083	89.94
315.312	78.94
315.542	72.94
315.771	92.94
316.001	98.94
316.23	85.94
316.46	72.94
316.689	78.94
316.919	91.94
317.148	80.94
317.377	88.94
317.607	90.94
317.836	82.94
318.065	92.94
318.295	92.94
318.524	80.94
318.753	85.94
318.983	78.94
319.212	86.94
319.441	84.94
319.67	85.94
319.9	75.94
320.129	95.94
320.358	96.94
320.587	94.94
320.816	95.94
321.046	91.94
321.275	88.94
321.504	89.94
321.733	85.94
321.962	81.94
322.191	94.94
322.42	76.94
322.649	86.94
322.878	87.94
323.108	90.94
323.337	82.94
323.566	99.94
323.795	84.94
324.024	79.94
324.253	88.94
324.482	93.94
324.71	94.94
324.939	81.94
325.168	92.94
325.397	81.94
325.626	88.94
325.855	93.94
326.084	83.94
326.313	86.94
326.542	85.94
326.77	78.94
326.999	96.94
327.228	88.94
327.457	87.94
327.686	75.94
327.914	75.94
328.143	81.94
328.372	82.94
328.6	86.94
328.829	89.94
329.058	79.94
329.287	90.94
329.515	95.94
329.744	89.94
329.972	95.94
330.201	88.94
330.43	83.94
330.658	88.94
330.887	87.94
331.115	78.94
331.344	88.94
331.572	98.94
331.801	73.94
332.03	78.94
332.258	88.94
332.486	77.94
332.715	74.94
332.943	97.94
333.172	81.94
333.4	78.94
333.629	80.94
333.857	75.94
334.085	88.94
334.314	78.94
334.542	90.94
334.771	94.94
334.999	92.94
335.227	100.94
335.455	77.94
335.684	86.94
335.912	84.94
336.14	90.94
336.369	74.94
336.597	73.94
336.825	84.94
337.053	80.94
337.281	84.94
337.51	86.94
337.738	80.94
337.966	80.94
338.194	97.94
338.422	81.94
338.65	80.94
338.878	78.94
339.106	92.94
339.334	82.94
339.562	92.94
339.79	88.94
340.018	82.94
340.246	84.94
340.474	76.94
340.702	71.94
340.93	74.94
341.158	87.94
341.386	88.94
341.614	75.94
341.842	80.94
342.07	93.94
342.298	88.94
342.526	66.94
342.754	82.94
342.981	83.94
343.209	80.94
343.437	88.94
343.665	88.94
343.893	100.94
344.12	83.94
344.348	90.94
344.576	82.94
344.804	89.94
345.031	85.94
345.259	98.94
345.487	80.94
345.714	81.94
345.942	90.94
346.17	94.94
346.397	86.94
346.625	89.94
346.853	80.94
347.08	89.94
347.308	96.94
347.535	85.94
347.763	99.94
347.99	108.94
348.218	85.94
348.445	74.94
348.673	81.94
348.9	95.94
349.128	94.94
349.355	82.94
349.583	93.94
349.81	87.94
350.037	73.94
350.265	93.94
350.492	82.94
350.72	85.94
350.947	87.94
351.174	80.94
351.402	101.94
351.629	96.94
351.856	93.94
352.083	101.94
352.311	88.94
352.538	88.94
352.765	62.94
352.992	73.94
353.22	86.94
353.447	95.94
353.674	98.94
353.901	86.94
354.128	71.94
354.355	82.94
354.583	84.94
354.81	97.94
355.037	87.94
355.264	99.94
355.491	84.94
355.718	78.94
355.945	82.94
356.172	79.94
356.399	87.94
356.626	90.94
356.853	75.94
357.08	82.94
357.307	84.94
357.534	88.94
357.761	83.94
357.988	105.94
358.215	87.94
358.441	84.94
358.668	85.94
358.895	77.94
359.122	95.94
359.349	86.94
359.576	82.94
359.802	86.94
360.029	81.94
360.256	95.94
360.483	98.94
360.709	83.94
360.936	77.94
361.163	87.94
361.39	95.94
361.616	84.94
361.843	95.94
362.07	94.94
362.296	80.94
362.523	100.94
362.749	83.94
362.976	83.94
363.203	86.94
363.429	79.94
363.656	82.94
363.882	72.94
364.109	92.94
364.335	84.94
364.562	88.94
364.788	81.94
365.015	83.94
365.241	75.94
365.468	96.94
365.694	95.94
365.92	93.94
366.147	76.94
366.373	67.94
366.599	93.94
366.826	70.94
367.052	81.94
367.278	94.94
367.505	88.94
367.731	101.94
367.957	87.94
368.184	83.94
368.41	92.94
368.636	89.94
368.862	80.94
369.089	81.94
369.315	75.94
369.541	93.94
369.767	88.94
369.993	90.94
370.219	81.94
370.445	84.94
370.672	84.94
370.898	100.94
371.124	106.94
371.35	95.94
371.576	78.94
371.802	88.94
372.028	76.94
372.254	93.94
372.48	83.94
372.706	80.94
372.932	84.94
373.158	80.94
373.384	83.94
373.61	100.94
373.835	80.94
374.061	81.94
374.287	69.94
374.513	93.94
374.739	94.94
374.965	78.94
375.191	89.94
375.416	90.94
375.642	92.94
375.868	76.94
376.094	78.94
376.319	84.94
376.545	99.94
376.771	84.94
376.997	81.94
377.222	64.94
377.448	85.94
377.674	80.94
377.899	87.94
378.125	78.94
378.35	72.94
378.576	77.94
378.802	84.94
379.027	73.94
379.253	84.94
379.478	83.94
379.704	80.94
379.929	86.94
380.155	81.94
380.38	99.94
380.606	76.94
380.831	76.94
381.057	80.94
381.282	90.94
381.507	88.94
381.733	95.94
381.958	92.94
382.184	90.94
382.409	85.94
382.634	94.94
382.86	86.94
383.085	95.94
383.31	76.94
383.535	82.94
383.761	85.94
383.986	94.94
384.211	93.94
384.436	94.94
384.662	94.94
384.887	89.94
385.112	75.94
385.337	80.94
385.562	89.94
385.787	93.94
386.013	83.94
386.238	82.94
386.463	84.94
386.688	95.94
386.913	86.94
387.138	75.94
387.363	81.94
387.588	89.94
387.813	81.94
388.038	74.94
388.263	73.94
388.488	98.94
388.713	93.94
388.938	95.94
389.163	91.94
389.387	94.94
389.612	93.94
389.837	92.94
390.062	86.94
390.287	90.94
390.512	90.94
390.736	66.94
390.961	81.94
391.186	99.94
391.411	90.94
391.636	93.94
391.86	68.94
392.085	74.94
392.31	89.94
392.534	71.94
392.759	100.94
392.984	94.94
393.208	127.94
393.433	146.94
393.658	130.94
393.882	85.94
394.107	84.94
394.331	91.94
394.556	108.94
394.78	86.94
395.005	73.94
395.229	78.94
395.454	92.94
395.678	85.94
395.903	86.94
396.127	100.94
396.352	112.94
396.576	105.94
396.801	106.94
397.025	136.94
397.249	94.94
397.474	92.94
397.698	85.94
397.922	89.94
398.147	85.94
398.371	83.94
398.595	80.94
398.82	92.94
399.044	85.94
399.268	85.94
399.492	87.94
399.717	94.94
399.941	93.94
400.165	93.94
400.389	79.94
400.613	80.94
400.837	92.94
401.062	99.94
401.286	85.94
401.51	101.94
401.734	73.94
401.958	79.94
402.182	108.94
402.406	86.94
402.63	83.94
402.854	94.94
403.078	86.94
403.302	89.94
403.526	86.94
403.75	78.94
403.974	83.94
404.198	82.94
404.422	85.94
404.645	95.94
404.869	82.94
405.093	87.94
405.317	89.94
405.541	82.94
405.765	81.94
405.988	94.94
406.212	87.94
406.436	79.94
406.66	82.94
406.883	89.94
407.107	87.94
407.331	86.94
407.555	84.94
407.778	78.94
408.002	77.94
408.226	95.94
408.449	98.94
408.673	79.94
408.896	85.94
409.12	78.94
409.344	93.94
409.567	84.94
409.791	90.94
410.014	84.94
410.238	82.94
410.461	80.94
410.685	95.94
410.908	82.94
411.132	89.94
411.355	71.94
411.578	94.94
411.802	78.94
412.025	76.94
412.249	83.94
412.472	88.94
412.695	77.94
412.919	80.94
413.142	67.94
413.365	86.94
413.589	83.94
413.812	66.94
414.035	79.94
414.258	72.94
414.482	98.94
414.705	87.94
414.928	82.94
415.151	83.94
415.374	74.94
415.597	80.94
415.821	78.94
416.044	92.94
416.267	87.94
416.49	88.94
416.713	80.94
416.936	92.94
417.159	85.94
417.382	73.94
417.605	83.94
417.828	80.94
418.051	82.94
418.274	85.94
418.497	83.94
418.72	74.94
418.943	82.94
419.166	93.94
419.389	87.94
419.611	80.94
419.834	89.94
420.057	85.94
420.28	80.94
420.503	80.94
420.726	82.94
420.948	89.94
421.171	87.94
421.394	86.94
421.617	84.94
421.839	89.94
422.062	88.94
422.285	86.94
422.507	113.94
422.73	183.94
422.953	156.94
423.175	114.94
423.398	89.94
423.621	88.94
423.843	80.94
424.066	80.94
424.288	93.94
424.511	83.94
424.733	94.94
424.956	78.94
425.178	74.94
425.401	66.94
425.623	88.94
425.846	72.94
426.068	80.94
426.291	81.94
426.513	84.94
426.735	82.94
426.958	86.94
427.18	89.94
427.402	92.94
427.625	96.94
427.847	87.94
428.069	88.94
428.292	99.94
428.514	102.94
428.736	88.94
428.958	110.94
429.181	98.94
429.403	88.94
429.625	92.94
429.847	84.94
430.069	91.94
430.292	100.94
430.514	92.94
430.736	91.94
430.958	92.94
431.18	88.94
431.402	82.94
431.624	82.94
431.846	99.94
432.068	87.94
432.29	91.94
432.512	82.94
432.734	94.94
432.956	85.94
433.178	62.94
433.4	74.94
433.622	72.94
433.844	82.94
434.066	98.94
434.287	84.94
434.509	79.94
434.731	80.94
434.953	70.94
435.175	86.94
435.397	89.94
435.618	81.94
435.84	80.94
436.062	85.94
436.284	76.94
436.505	78.94
436.727	92.94
436.949	78.94
437.17	80.94
437.392	80.94
437.614	91.94
437.835	80.94
438.057	78.94
438.278	79.94
438.5	85.94
438.721	80.94
438.943	89.94
439.165	93.94
439.386	88.94
439.608	89.94
439.829	79.94
440.05	80.94
440.272	93.94
440.493	84.94
440.715	78.94
440.936	82.94
441.158	80.94
441.379	81.94
441.6	88.94
441.822	82.94
442.043	68.94
442.264	85.94
442.486	82.94
442.707	89.94
442.928	79.94
443.149	94.94
443.371	89.94
443.592	104.94
443.813	100.94
444.034	86.94
444.255	74.94
444.476	90.94
444.698	84.94
444.919	82.94
445.14	167.94
445.361	136.94
445.582	115.94
445.803	108.94
446.024	82.94
446.245	75.94
446.466	89.94
446.687	78.94
446.908	77.94
447.129	84.94
447.35	93.94
447.571	91.94
447.792	79.94
448.013	83.94
448.234	93.94
448.455	90.94
448.675	81.94
448.896	83.94
449.117	88.94
449.338	76.94
449.559	85.94
449.779	100.94
450	85.94
450.221	81.94
450.442	74.94
450.662	89.94
450.883	83.94
451.104	87.94
451.324	73.94
451.545	72.94
451.766	74.94
451.986	69.94
452.207	81.94
452.428	78.94
452.648	91.94
452.869	88.94
453.089	87.94
453.31	88.94
453.53	90.94
453.751	78.94
453.971	82.94
454.192	81.94
454.412	89.94
454.633	77.94
454.853	73.94
455.073	84.94
455.294	90.94
455.514	73.94
455.734	84.94
455.955	84.94
456.175	76.94
456.395	73.94
456.616	84.94
456.836	88.94
457.056	65.94
457.276	80.94
457.497	88.94
457.717	75.94
457.937	78.94
458.157	74.94
458.377	92.94
458.598	92.94
458.818	84.94
459.038	78.94
459.258	83.94
459.478	79.94
459.698	88.94
459.918	97.94
460.138	97.94
460.358	79.94
460.578	83.94
460.798	80.94
461.018	103.94
461.238	83.94
461.458	86.94
461.678	74.94
461.898	92.94
462.118	73.94
462.338	92.94
462.558	84.94
462.777	81.94
462.997	90.94
463.217	80.94
463.437	86.94
463.657	77.94
463.876	96.94
464.096	88.94
464.316	85.94
464.536	89.94
464.755	89.94
464.975	92.94
465.195	93.94
465.414	90.94
465.634	89.94
465.854	96.94
466.073	81.94
466.293	83.94
466.512	79.94
466.732	97.94
466.951	100.94
467.171	73.94
467.391	94.94
467.61	83.94
467.829	73.94
468.049	81.94
468.268	76.94
468.488	75.94
468.707	70.94
468.927	71.94
469.146	74.94
469.365	80.94
469.585	85.94
469.804	82.94
470.023	76.94
470.243	77.94
470.462	84.94
470.681	82.94
470.901	79.94
471.12	84.94
471.339	75.94
471.558	88.94
471.777	83.94
471.997	89.94
472.216	75.94
472.435	78.94
472.654	72.94
472.873	90.94
473.092	103.94
473.311	92.94
473.53	89.94
473.749	84.94
473.968	75.94
474.187	79.94
474.406	73.94
474.625	89.94
474.844	86.94
475.063	88.94
475.282	88.94
475.501	74.94
475.72	94.94
475.939	92.94
476.158	82.94
476.377	74.94
476.596	76.94
476.814	86.94
477.033	82.94
477.252	75.94
477.471	80.94
477.69	100.94
477.908	93.94
478.127	80.94
478.346	75.94
478.564	72.94
478.783	81.94
479.002	84.94
479.22	88.94
479.439	86.94
479.658	82.94
479.876	75.94
480.095	98.94
480.313	100.94
480.532	72.94
480.751	97.94
480.969	83.94
481.188	82.94
481.406	78.94
481.624	80.94
481.843	85.94
482.061	70.94
482.28	64.94
482.498	80.94
482.717	83.94
482.935	84.94
483.153	82.94
483.372	79.94
483.59	80.94
483.808	78.94
484.027	83.94
484.245	85.94
484.463	90.94
484.681	91.94
484.9	84.94
485.118	87.94
485.336	69.94
485.554	82.94
485.772	96.94
485.99	81.94
486.209	70.94
486.427	82.94
486.645	82.94
486.863	76.94
487.081	75.94
487.299	81.94
487.517	87.94
487.735	94.94
487.953	92.94
488.171	90.94
488.389	75.94
488.607	80.94
488.825	86.94
489.043	87.94
489.261	95.94
489.479	79.94
489.696	88.94
489.914	90.94
490.132	80.94
490.35	95.94
490.568	85.94
490.786	92.94
491.003	79.94
491.221	99.94
491.439	83.94
491.657	83.94
491.874	88.94
492.092	80.94
492.31	93.94
492.527	79.94
492.745	90.94
492.963	97.94
493.18	90.94
493.398	74.94
493.615	79.94
493.833	92.94
494.05	93.94
494.268	102.94
494.485	98.94
494.703	84.94
494.92	83.94
495.138	86.94
495.355	90.94
495.573	81.94
495.79	89.94
496.008	86.94
496.225	81.94
496.442	98.94
496.66	105.94
496.877	86.94
497.094	81.94
497.312	85.94
497.529	73.94
497.746	78.94
497.963	85.94
498.181	79.94
498.398	94.94
498.615	98.94
498.832	77.94
499.049	90.94
499.267	98.94
499.484	81.94
499.701	93.94
499.918	87.94
500.135	81.94
500.352	85.94
500.569	84.94
500.786	93.94
501.003	93.94
501.22	82.94
501.437	80.94
501.654	81.94
501.871	84.94
502.088	73.94
502.305	87.94
502.522	68.94
502.739	84.94
502.956	93.94
503.172	101.94
503.389	85.94
503.606	82.94
503.823	80.94
504.04	81.94
504.256	97.94
504.473	84.94
504.69	88.94
504.907	98.94
505.123	100.94
505.34	85.94
505.557	88.94
505.773	87.94
505.99	70.94
506.207	85.94
506.423	84.94
506.64	96.94
506.856	84.94
507.073	80.94
507.289	96.94
507.506	90.94
507.722	72.94
507.939	86.94
508.155	93.94
508.372	92.94
508.588	81.94
508.805	98.94
509.021	80.94
509.238	72.94
509.454	96.94
509.67	86.94
509.887	99.94
510.103	88.94
510.319	78.94
510.536	89.94
510.752	99.94
510.968	79.94
511.184	82.94
511.401	98.94
511.617	94.94
511.833	82.94
512.049	87.94
512.265	82.94
512.481	101.94
512.698	75.94
512.914	89.94
513.13	85.94
513.346	82.94
513.562	90.94
513.778	95.94
513.994	88.94
514.21	75.94
514.426	82.94
514.642	70.94
514.858	87.94
515.074	97.94
515.29	98.94
515.506	78.94
515.721	74.94
515.937	82.94
516.153	88.94
516.369	96.94
516.585	84.94
516.801	86.94
517.016	95.94
517.232	105.94
517.448	94.94
517.664	87.94
517.879	80.94
518.095	77.94
518.311	93.94
518.527	98.94
518.742	87.94
518.958	91.94
519.173	97.94
519.389	96.94
519.605	81.94
