Data from 1600_2_HRD10591_00020.txt Node
Date: Mon Jan 19 13:53:51 EST 2026
User: Yrep
Spectrometer: HR+D1059
Trigger mode: 1
Integration Time (sec): 1.000000E-1
Scans to average: 1
Electric dark correction enabled: true
Nonlinearity correction enabled: false
Boxcar width: 0
XAxis mode: Wavelengths
Number of Pixels in Spectrum: 2048
>>>>>Begin Spectral Data<<<<<
223.165	-27.12
223.4	-27.12
223.635	-27.12
223.869	-10.12
224.104	-22.12
224.338	-9.12
224.573	-18.12
224.808	-12.12
225.042	-8.12
225.277	-7.12
225.511	3.88
225.746	1.88
225.98	-5.12
226.215	16.88
226.449	18.88
226.683	25.88
226.918	30.88
227.152	20.88
227.387	22.88
227.621	28.88
227.856	47.88
228.09	43.88
228.324	57.88
228.559	60.88
228.793	68.88
229.027	52.88
229.262	60.88
229.496	69.88
229.73	70.88
229.964	81.88
230.199	68.88
230.433	56.88
230.667	67.88
230.901	74.88
231.136	70.88
231.37	79.88
231.604	68.88
231.838	85.88
232.072	80.88
232.306	94.88
232.541	98.88
232.775	100.88
233.009	79.88
233.243	83.88
233.477	72.88
233.711	99.88
233.945	81.88
234.179	91.88
234.413	74.88
234.647	83.88
234.881	66.88
235.115	80.88
235.349	82.88
235.583	82.88
235.817	76.88
236.051	71.88
236.285	77.88
236.519	81.88
236.753	84.88
236.987	75.88
237.221	73.88
237.455	82.88
237.689	75.88
237.922	78.88
238.156	66.88
238.39	57.88
238.624	68.88
238.858	71.88
239.091	77.88
239.325	69.88
239.559	70.88
239.793	73.88
240.027	79.88
240.26	71.88
240.494	85.88
240.728	78.88
240.961	81.88
241.195	78.88
241.429	63.88
241.662	78.88
241.896	75.88
242.13	85.88
242.363	81.88
242.597	71.88
242.83	77.88
243.064	67.88
243.298	83.88
243.531	76.88
243.765	97.88
243.998	71.88
244.232	83.88
244.465	61.88
244.699	83.88
244.932	74.88
245.166	62.88
245.399	72.88
245.633	84.88
245.866	79.88
246.099	73.88
246.333	79.88
246.566	87.88
246.8	86.88
247.033	58.88
247.266	93.88
247.5	79.88
247.733	78.88
247.966	77.88
248.2	82.88
248.433	88.88
248.666	77.88
248.899	69.88
249.133	83.88
249.366	79.88
249.599	76.88
249.832	62.88
250.066	94.88
250.299	85.88
250.532	90.88
250.765	77.88
250.998	72.88
251.231	70.88
251.465	82.88
251.698	79.88
251.931	88.88
252.164	84.88
252.397	80.88
252.63	79.88
252.863	77.88
253.096	75.88
253.329	87.88
253.562	69.88
253.795	85.88
254.028	87.88
254.261	80.88
254.494	81.88
254.727	73.88
254.96	82.88
255.193	80.88
255.426	61.88
255.659	83.88
255.892	86.88
256.124	80.88
256.357	77.88
256.59	79.88
256.823	69.88
257.056	86.88
257.289	85.88
257.521	95.88
257.754	87.88
257.987	72.88
258.22	69.88
258.452	78.88
258.685	83.88
258.918	79.88
259.151	78.88
259.383	79.88
259.616	73.88
259.849	77.88
260.081	85.88
260.314	80.88
260.547	73.88
260.779	71.88
261.012	97.88
261.244	65.88
261.477	81.88
261.71	83.88
261.942	82.88
262.175	70.88
262.407	89.88
262.64	86.88
262.872	74.88
263.105	83.88
263.337	100.88
263.57	87.88
263.802	69.88
264.035	75.88
264.267	65.88
264.499	78.88
264.732	80.88
264.964	66.88
265.197	73.88
265.429	87.88
265.661	82.88
265.894	93.88
266.126	74.88
266.358	75.88
266.591	77.88
266.823	74.88
267.055	66.88
267.287	71.88
267.52	83.88
267.752	96.88
267.984	79.88
268.216	97.88
268.448	91.88
268.681	85.88
268.913	82.88
269.145	88.88
269.377	76.88
269.609	85.88
269.841	77.88
270.073	87.88
270.306	77.88
270.538	79.88
270.77	77.88
271.002	81.88
271.234	80.88
271.466	73.88
271.698	77.88
271.93	81.88
272.162	86.88
272.394	92.88
272.626	84.88
272.858	78.88
273.09	90.88
273.322	85.88
273.553	87.88
273.785	88.88
274.017	74.88
274.249	99.88
274.481	69.88
274.713	82.88
274.945	92.88
275.176	79.88
275.408	76.88
275.64	83.88
275.872	89.88
276.104	88.88
276.335	93.88
276.567	81.88
276.799	73.88
277.031	95.88
277.262	82.88
277.494	65.88
277.726	86.88
277.957	78.88
278.189	74.88
278.421	86.88
278.652	80.88
278.884	83.88
279.115	93.88
279.347	82.88
279.579	90.88
279.81	88.88
280.042	84.88
280.273	67.88
280.505	88.88
280.736	82.88
280.968	88.88
281.199	96.88
281.431	86.88
281.662	84.88
281.894	94.88
282.125	84.88
282.356	90.88
282.588	85.88
282.819	96.88
283.051	94.88
283.282	81.88
283.513	98.88
283.745	100.88
283.976	74.88
284.207	75.88
284.439	79.88
284.67	72.88
284.901	80.88
285.132	92.88
285.364	95.88
285.595	91.88
285.826	74.88
286.057	80.88
286.288	84.88
286.52	78.88
286.751	80.88
286.982	71.88
287.213	86.88
287.444	86.88
287.675	90.88
287.906	88.88
288.138	81.88
288.369	85.88
288.6	84.88
288.831	78.88
289.062	83.88
289.293	77.88
289.524	86.88
289.755	87.88
289.986	72.88
290.217	88.88
290.448	92.88
290.679	72.88
290.91	83.88
291.141	85.88
291.371	91.88
291.602	85.88
291.833	96.88
292.064	68.88
292.295	88.88
292.526	73.88
292.757	87.88
292.987	74.88
293.218	74.88
293.449	85.88
293.68	94.88
293.91	91.88
294.141	82.88
294.372	88.88
294.603	82.88
294.833	88.88
295.064	91.88
295.295	75.88
295.525	99.88
295.756	91.88
295.987	91.88
296.217	70.88
296.448	83.88
296.679	91.88
296.909	84.88
297.14	83.88
297.37	93.88
297.601	84.88
297.831	73.88
298.062	86.88
298.292	79.88
298.523	76.88
298.753	81.88
298.984	71.88
299.214	78.88
299.445	79.88
299.675	95.88
299.905	87.88
300.136	86.88
300.366	94.88
300.597	104.88
300.827	93.88
301.057	81.88
301.288	96.88
301.518	98.88
301.748	97.88
301.979	107.88
302.209	78.88
302.439	86.88
302.669	93.88
302.9	72.88
303.13	94.88
303.36	99.88
303.59	90.88
303.82	88.88
304.051	73.88
304.281	84.88
304.511	78.88
304.741	75.88
304.971	80.88
305.201	85.88
305.431	91.88
305.661	88.88
305.891	94.88
306.121	85.88
306.352	89.88
306.582	77.88
306.812	76.88
307.042	83.88
307.272	82.88
307.502	78.88
307.731	85.88
307.961	93.88
308.191	89.88
308.421	95.88
308.651	99.88
308.881	92.88
309.111	87.88
309.341	85.88
309.571	87.88
309.8	86.88
310.03	101.88
310.26	96.88
310.49	84.88
310.72	91.88
310.949	75.88
311.179	70.88
311.409	90.88
311.639	84.88
311.868	80.88
312.098	91.88
312.328	82.88
312.557	81.88
312.787	83.88
313.017	77.88
313.246	69.88
313.476	81.88
313.706	77.88
313.935	84.88
314.165	80.88
314.394	94.88
314.624	91.88
314.853	92.88
315.083	87.88
315.312	74.88
315.542	77.88
315.771	86.88
316.001	85.88
316.23	74.88
316.46	74.88
316.689	80.88
316.919	87.88
317.148	92.88
317.377	78.88
317.607	70.88
317.836	80.88
318.065	81.88
318.295	77.88
318.524	91.88
318.753	79.88
318.983	81.88
319.212	89.88
319.441	88.88
319.67	86.88
319.9	87.88
320.129	77.88
320.358	75.88
320.587	91.88
320.816	82.88
321.046	87.88
321.275	73.88
321.504	89.88
321.733	97.88
321.962	78.88
322.191	74.88
322.42	85.88
322.649	98.88
322.878	89.88
323.108	78.88
323.337	78.88
323.566	86.88
323.795	74.88
324.024	80.88
324.253	83.88
324.482	83.88
324.71	72.88
324.939	83.88
325.168	77.88
325.397	84.88
325.626	87.88
325.855	74.88
326.084	89.88
326.313	71.88
326.542	81.88
326.77	87.88
326.999	78.88
327.228	86.88
327.457	86.88
327.686	80.88
327.914	90.88
328.143	81.88
328.372	73.88
328.6	87.88
328.829	80.88
329.058	87.88
329.287	82.88
329.515	62.88
329.744	68.88
329.972	86.88
330.201	81.88
330.43	78.88
330.658	80.88
330.887	91.88
331.115	80.88
331.344	86.88
331.572	92.88
331.801	74.88
332.03	103.88
332.258	80.88
332.486	83.88
332.715	80.88
332.943	88.88
333.172	87.88
333.4	85.88
333.629	95.88
333.857	91.88
334.085	96.88
334.314	84.88
334.542	91.88
334.771	79.88
334.999	91.88
335.227	70.88
335.455	84.88
335.684	68.88
335.912	87.88
336.14	95.88
336.369	91.88
336.597	88.88
336.825	82.88
337.053	97.88
337.281	98.88
337.51	83.88
337.738	93.88
337.966	95.88
338.194	87.88
338.422	74.88
338.65	95.88
338.878	76.88
339.106	81.88
339.334	63.88
339.562	83.88
339.79	93.88
340.018	77.88
340.246	86.88
340.474	79.88
340.702	79.88
340.93	73.88
341.158	87.88
341.386	83.88
341.614	95.88
341.842	80.88
342.07	85.88
342.298	89.88
342.526	85.88
342.754	83.88
342.981	81.88
343.209	83.88
343.437	94.88
343.665	84.88
343.893	85.88
344.12	81.88
344.348	92.88
344.576	73.88
344.804	79.88
345.031	69.88
345.259	67.88
345.487	73.88
345.714	86.88
345.942	96.88
346.17	86.88
346.397	79.88
346.625	82.88
346.853	82.88
347.08	89.88
347.308	78.88
347.535	78.88
347.763	81.88
347.99	87.88
348.218	85.88
348.445	85.88
348.673	81.88
348.9	84.88
349.128	89.88
349.355	88.88
349.583	82.88
349.81	69.88
350.037	83.88
350.265	84.88
350.492	96.88
350.72	81.88
350.947	91.88
351.174	76.88
351.402	81.88
351.629	77.88
351.856	91.88
352.083	86.88
352.311	91.88
352.538	91.88
352.765	74.88
352.992	88.88
353.22	82.88
353.447	79.88
353.674	93.88
353.901	95.88
354.128	77.88
354.355	81.88
354.583	71.88
354.81	89.88
355.037	82.88
355.264	71.88
355.491	80.88
355.718	77.88
355.945	82.88
356.172	95.88
356.399	96.88
356.626	91.88
356.853	91.88
357.08	93.88
357.307	100.88
357.534	83.88
357.761	89.88
357.988	91.88
358.215	101.88
358.441	91.88
358.668	81.88
358.895	79.88
359.122	88.88
359.349	77.88
359.576	83.88
359.802	78.88
360.029	92.88
360.256	91.88
360.483	79.88
360.709	88.88
360.936	90.88
361.163	95.88
361.39	87.88
361.616	82.88
361.843	79.88
362.07	104.88
362.296	88.88
362.523	82.88
362.749	87.88
362.976	95.88
363.203	103.88
363.429	89.88
363.656	98.88
363.882	76.88
364.109	80.88
364.335	95.88
364.562	105.88
364.788	90.88
365.015	91.88
365.241	90.88
365.468	75.88
365.694	83.88
365.92	95.88
366.147	67.88
366.373	68.88
366.599	75.88
366.826	77.88
367.052	80.88
367.278	85.88
367.505	84.88
367.731	95.88
367.957	86.88
368.184	88.88
368.41	85.88
368.636	84.88
368.862	67.88
369.089	76.88
369.315	76.88
369.541	82.88
369.767	86.88
369.993	72.88
370.219	82.88
370.445	84.88
370.672	89.88
370.898	82.88
371.124	87.88
371.35	71.88
371.576	91.88
371.802	91.88
372.028	79.88
372.254	93.88
372.48	96.88
372.706	87.88
372.932	100.88
373.158	97.88
373.384	101.88
373.61	111.88
373.835	97.88
374.061	90.88
374.287	73.88
374.513	107.88
374.739	106.88
374.965	84.88
375.191	103.88
375.416	92.88
375.642	104.88
375.868	97.88
376.094	75.88
376.319	83.88
376.545	88.88
376.771	102.88
376.997	92.88
377.222	100.88
377.448	79.88
377.674	79.88
377.899	91.88
378.125	75.88
378.35	88.88
378.576	86.88
378.802	84.88
379.027	84.88
379.253	99.88
379.478	79.88
379.704	97.88
379.929	92.88
380.155	76.88
380.38	92.88
380.606	78.88
380.831	77.88
381.057	87.88
381.282	76.88
381.507	85.88
381.733	99.88
381.958	85.88
382.184	91.88
382.409	99.88
382.634	97.88
382.86	102.88
383.085	116.88
383.31	113.88
383.535	117.88
383.761	105.88
383.986	111.88
384.211	94.88
384.436	93.88
384.662	92.88
384.887	86.88
385.112	93.88
385.337	89.88
385.562	88.88
385.787	88.88
386.013	89.88
386.238	91.88
386.463	80.88
386.688	100.88
386.913	92.88
387.138	92.88
387.363	81.88
387.588	88.88
387.813	91.88
388.038	91.88
388.263	104.88
388.488	76.88
388.713	100.88
388.938	111.88
389.163	87.88
389.387	85.88
389.612	67.88
389.837	77.88
390.062	93.88
390.287	86.88
390.512	85.88
390.736	90.88
390.961	88.88
391.186	92.88
391.411	91.88
391.636	74.88
391.86	75.88
392.085	91.88
392.31	92.88
392.534	88.88
392.759	102.88
392.984	110.88
393.208	179.88
393.433	242.88
393.658	204.88
393.882	103.88
394.107	103.88
394.331	124.88
394.556	136.88
394.78	102.88
395.005	89.88
395.229	83.88
395.454	87.88
395.678	103.88
395.903	108.88
396.127	128.88
396.352	135.88
396.576	129.88
396.801	145.88
397.025	202.88
397.249	130.88
397.474	101.88
397.698	98.88
397.922	75.88
398.147	87.88
398.371	89.88
398.595	81.88
398.82	92.88
399.044	81.88
399.268	79.88
399.492	85.88
399.717	80.88
399.941	86.88
400.165	82.88
400.389	83.88
400.613	86.88
400.837	91.88
401.062	83.88
401.286	87.88
401.51	80.88
401.734	94.88
401.958	74.88
402.182	71.88
402.406	78.88
402.63	71.88
402.854	81.88
403.078	98.88
403.302	91.88
403.526	102.88
403.75	86.88
403.974	85.88
404.198	93.88
404.422	132.88
404.645	138.88
404.869	111.88
405.093	99.88
405.317	77.88
405.541	93.88
405.765	70.88
405.988	87.88
406.212	88.88
406.436	79.88
406.66	79.88
406.883	96.88
407.107	99.88
407.331	77.88
407.555	83.88
407.778	85.88
408.002	91.88
408.226	85.88
408.449	91.88
408.673	76.88
408.896	90.88
409.12	71.88
409.344	86.88
409.567	91.88
409.791	80.88
410.014	83.88
410.238	91.88
410.461	79.88
410.685	93.88
410.908	81.88
411.132	88.88
411.355	82.88
411.578	71.88
411.802	73.88
412.025	89.88
412.249	84.88
412.472	84.88
412.695	85.88
412.919	84.88
413.142	83.88
413.365	83.88
413.589	83.88
413.812	77.88
414.035	80.88
414.258	89.88
414.482	84.88
414.705	83.88
414.928	83.88
415.151	72.88
415.374	70.88
415.597	70.88
415.821	83.88
416.044	77.88
416.267	83.88
416.49	84.88
416.713	80.88
416.936	91.88
417.159	76.88
417.382	79.88
417.605	83.88
417.828	87.88
418.051	80.88
418.274	88.88
418.497	80.88
418.72	72.88
418.943	67.88
419.166	92.88
419.389	85.88
419.611	79.88
419.834	91.88
420.057	85.88
420.28	77.88
420.503	78.88
420.726	79.88
420.948	82.88
421.171	80.88
421.394	84.88
421.617	95.88
421.839	93.88
422.062	80.88
422.285	130.88
422.507	208.88
422.73	328.88
422.953	301.88
423.175	125.88
423.398	99.88
423.621	87.88
423.843	96.88
424.066	81.88
424.288	87.88
424.511	74.88
424.733	71.88
424.956	87.88
425.178	90.88
425.401	81.88
425.623	81.88
425.846	81.88
426.068	89.88
426.291	79.88
426.513	81.88
426.735	75.88
426.958	93.88
427.18	71.88
427.402	87.88
427.625	92.88
427.847	89.88
428.069	102.88
428.292	115.88
428.514	111.88
428.736	88.88
428.958	107.88
429.181	112.88
429.403	92.88
429.625	91.88
429.847	98.88
430.069	129.88
430.292	147.88
430.514	137.88
430.736	118.88
430.958	134.88
431.18	87.88
431.402	75.88
431.624	84.88
431.846	109.88
432.068	125.88
432.29	99.88
432.512	88.88
432.734	96.88
432.956	73.88
433.178	92.88
433.4	83.88
433.622	86.88
433.844	83.88
434.066	74.88
434.287	80.88
434.509	79.88
434.731	66.88
434.953	74.88
435.175	65.88
435.397	86.88
435.618	82.88
435.84	84.88
436.062	80.88
436.284	77.88
436.505	79.88
436.727	65.88
436.949	80.88
437.17	82.88
437.392	87.88
437.614	86.88
437.835	103.88
438.057	84.88
438.278	87.88
438.5	95.88
438.721	77.88
438.943	79.88
439.165	91.88
439.386	80.88
439.608	85.88
439.829	93.88
440.05	80.88
440.272	89.88
440.493	84.88
440.715	100.88
440.936	85.88
441.158	68.88
441.379	87.88
441.6	84.88
441.822	83.88
442.043	93.88
442.264	79.88
442.486	104.88
442.707	118.88
442.928	98.88
443.149	92.88
443.371	134.88
443.592	166.88
443.813	137.88
444.034	104.88
444.255	90.88
444.476	68.88
444.698	88.88
444.919	101.88
445.14	177.88
445.361	174.88
445.582	199.88
445.803	180.88
446.024	100.88
446.245	92.88
446.466	78.88
446.687	89.88
446.908	72.88
447.129	86.88
447.35	91.88
447.571	93.88
447.792	82.88
448.013	92.88
448.234	87.88
448.455	90.88
448.675	89.88
448.896	86.88
449.117	91.88
449.338	85.88
449.559	89.88
449.779	89.88
450	77.88
450.221	81.88
450.442	65.88
450.662	94.88
450.883	81.88
451.104	82.88
451.324	77.88
451.545	97.88
451.766	85.88
451.986	91.88
452.207	92.88
452.428	79.88
452.648	81.88
452.869	78.88
453.089	94.88
453.31	78.88
453.53	86.88
453.751	100.88
453.971	84.88
454.192	73.88
454.412	84.88
454.633	80.88
454.853	81.88
455.073	78.88
455.294	72.88
455.514	79.88
455.734	86.88
455.955	92.88
456.175	65.88
456.395	72.88
456.616	89.88
456.836	79.88
457.056	94.88
457.276	95.88
457.497	81.88
457.717	94.88
457.937	102.88
458.157	95.88
458.377	97.88
458.598	94.88
458.818	97.88
459.038	87.88
459.258	88.88
459.478	83.88
459.698	66.88
459.918	73.88
460.138	82.88
460.358	82.88
460.578	97.88
460.798	99.88
461.018	100.88
461.238	69.88
461.458	76.88
461.678	90.88
461.898	80.88
462.118	89.88
462.338	95.88
462.558	70.88
462.777	76.88
462.997	77.88
463.217	76.88
463.437	64.88
463.657	68.88
463.876	82.88
464.096	86.88
464.316	91.88
464.536	94.88
464.755	85.88
464.975	78.88
465.195	83.88
465.414	82.88
465.634	95.88
465.854	67.88
466.073	84.88
466.293	93.88
466.512	82.88
466.732	89.88
466.951	88.88
467.171	86.88
467.391	72.88
467.61	74.88
467.829	85.88
468.049	83.88
468.268	83.88
468.488	100.88
468.707	72.88
468.927	91.88
469.146	79.88
469.365	90.88
469.585	83.88
469.804	87.88
470.023	81.88
470.243	82.88
470.462	77.88
470.681	79.88
470.901	81.88
471.12	78.88
471.339	87.88
471.558	73.88
471.777	74.88
471.997	102.88
472.216	85.88
472.435	91.88
472.654	83.88
472.873	92.88
473.092	72.88
473.311	91.88
473.53	79.88
473.749	87.88
473.968	93.88
474.187	94.88
474.406	84.88
474.625	71.88
474.844	101.88
475.063	89.88
475.282	74.88
475.501	92.88
475.72	88.88
475.939	93.88
476.158	83.88
476.377	85.88
476.596	77.88
476.814	82.88
477.033	76.88
477.252	78.88
477.471	83.88
477.69	86.88
477.908	76.88
478.127	76.88
478.346	67.88
478.564	80.88
478.783	86.88
479.002	83.88
479.22	79.88
479.439	92.88
479.658	88.88
479.876	87.88
480.095	91.88
480.313	96.88
480.532	92.88
480.751	89.88
480.969	86.88
481.188	83.88
481.406	80.88
481.624	82.88
481.843	83.88
482.061	99.88
482.28	83.88
482.498	81.88
482.717	79.88
482.935	83.88
483.153	84.88
483.372	99.88
483.59	88.88
483.808	93.88
484.027	94.88
484.245	73.88
484.463	86.88
484.681	93.88
484.9	71.88
485.118	77.88
485.336	80.88
485.554	83.88
485.772	85.88
485.99	95.88
486.209	89.88
486.427	74.88
486.645	85.88
486.863	91.88
487.081	94.88
487.299	93.88
487.517	91.88
487.735	99.88
487.953	124.88
488.171	109.88
488.389	81.88
488.607	91.88
488.825	79.88
489.043	95.88
489.261	80.88
489.479	77.88
489.696	78.88
489.914	82.88
490.132	91.88
490.35	86.88
490.568	86.88
490.786	75.88
491.003	86.88
491.221	84.88
491.439	90.88
491.657	87.88
491.874	85.88
492.092	105.88
492.31	69.88
492.527	94.88
492.745	87.88
492.963	85.88
493.18	83.88
493.398	90.88
493.615	88.88
493.833	76.88
494.05	81.88
494.268	81.88
494.485	95.88
494.703	79.88
494.92	69.88
495.138	82.88
495.355	86.88
495.573	86.88
495.79	90.88
496.008	73.88
496.225	89.88
496.442	90.88
496.66	85.88
496.877	92.88
497.094	99.88
497.312	90.88
497.529	80.88
497.746	92.88
497.963	85.88
498.181	93.88
498.398	102.88
498.615	82.88
498.832	84.88
499.049	91.88
499.267	99.88
499.484	88.88
499.701	91.88
499.918	73.88
500.135	91.88
500.352	83.88
500.569	85.88
500.786	82.88
501.003	91.88
501.22	100.88
501.437	93.88
501.654	91.88
501.871	88.88
502.088	93.88
502.305	72.88
502.522	72.88
502.739	74.88
502.956	79.88
503.172	93.88
503.389	83.88
503.606	97.88
503.823	97.88
504.04	111.88
504.256	99.88
504.473	75.88
504.69	92.88
504.907	105.88
505.123	79.88
505.34	91.88
505.557	72.88
505.773	65.88
505.99	73.88
506.207	86.88
506.423	88.88
506.64	88.88
506.856	74.88
507.073	94.88
507.289	99.88
507.506	81.88
507.722	87.88
507.939	88.88
508.155	99.88
508.372	85.88
508.588	90.88
508.805	73.88
509.021	80.88
509.238	86.88
509.454	88.88
509.67	88.88
509.887	91.88
510.103	83.88
510.319	77.88
510.536	83.88
510.752	90.88
510.968	101.88
511.184	87.88
511.401	95.88
511.617	84.88
511.833	85.88
512.049	79.88
512.265	91.88
512.481	93.88
512.698	92.88
512.914	78.88
513.13	94.88
513.346	84.88
513.562	87.88
513.778	79.88
513.994	72.88
514.21	84.88
514.426	78.88
514.642	72.88
514.858	89.88
515.074	86.88
515.29	98.88
515.506	95.88
515.721	81.88
515.937	92.88
516.153	89.88
516.369	85.88
516.585	83.88
516.801	91.88
517.016	103.88
517.232	108.88
517.448	116.88
517.664	86.88
517.879	81.88
518.095	104.88
518.311	104.88
518.527	115.88
518.742	100.88
