Data from 1600_2_HRD10591_00033.txt Node
Date: Mon Jan 19 13:53:57 EST 2026
User: Yrep
Spectrometer: HR+D1059
Trigger mode: 1
Integration Time (sec): 1.000000E-1
Scans to average: 1
Electric dark correction enabled: true
Nonlinearity correction enabled: false
Boxcar width: 0
XAxis mode: Wavelengths
Number of Pixels in Spectrum: 2048
>>>>>Begin Spectral Data<<<<<
223.165	-28.81
223.4	-28.81
223.635	-28.81
223.869	-17.81
224.104	-19.81
224.338	-18.81
224.573	-21.81
224.808	-5.81
225.042	3.19
225.277	-7.81
225.511	3.19
225.746	4.19
225.98	9.19
226.215	10.19
226.449	18.19
226.683	19.19
226.918	18.19
227.152	35.19
227.387	47.19
227.621	50.19
227.856	25.19
228.09	42.19
228.324	65.19
228.559	60.19
228.793	60.19
229.027	57.19
229.262	50.19
229.496	82.19
229.73	72.19
229.964	73.19
230.199	72.19
230.433	55.19
230.667	76.19
230.901	76.19
231.136	79.19
231.37	84.19
231.604	73.19
231.838	88.19
232.072	66.19
232.306	77.19
232.541	94.19
232.775	74.19
233.009	65.19
233.243	74.19
233.477	76.19
233.711	81.19
233.945	97.19
234.179	82.19
234.413	74.19
234.647	84.19
234.881	81.19
235.115	72.19
235.349	66.19
235.583	92.19
235.817	70.19
236.051	79.19
236.285	81.19
236.519	58.19
236.753	70.19
236.987	58.19
237.221	80.19
237.455	86.19
237.689	83.19
237.922	81.19
238.156	76.19
238.39	78.19
238.624	68.19
238.858	64.19
239.091	65.19
239.325	73.19
239.559	60.19
239.793	71.19
240.027	85.19
240.26	74.19
240.494	69.19
240.728	67.19
240.961	72.19
241.195	79.19
241.429	66.19
241.662	72.19
241.896	56.19
242.13	80.19
242.363	58.19
242.597	76.19
242.83	82.19
243.064	69.19
243.298	55.19
243.531	78.19
243.765	82.19
243.998	75.19
244.232	97.19
244.465	73.19
244.699	74.19
244.932	80.19
245.166	78.19
245.399	76.19
245.633	69.19
245.866	80.19
246.099	80.19
246.333	68.19
246.566	78.19
246.8	88.19
247.033	73.19
247.266	74.19
247.5	66.19
247.733	73.19
247.966	86.19
248.2	74.19
248.433	77.19
248.666	83.19
248.899	75.19
249.133	85.19
249.366	85.19
249.599	77.19
249.832	82.19
250.066	70.19
250.299	76.19
250.532	77.19
250.765	92.19
250.998	79.19
251.231	97.19
251.465	84.19
251.698	64.19
251.931	67.19
252.164	79.19
252.397	82.19
252.63	75.19
252.863	80.19
253.096	63.19
253.329	89.19
253.562	77.19
253.795	74.19
254.028	101.19
254.261	92.19
254.494	85.19
254.727	77.19
254.96	75.19
255.193	79.19
255.426	84.19
255.659	85.19
255.892	68.19
256.124	72.19
256.357	77.19
256.59	78.19
256.823	75.19
257.056	90.19
257.289	71.19
257.521	86.19
257.754	86.19
257.987	90.19
258.22	84.19
258.452	81.19
258.685	84.19
258.918	82.19
259.151	87.19
259.383	85.19
259.616	74.19
259.849	92.19
260.081	69.19
260.314	66.19
260.547	98.19
260.779	95.19
261.012	94.19
261.244	82.19
261.477	96.19
261.71	86.19
261.942	78.19
262.175	80.19
262.407	74.19
262.64	97.19
262.872	71.19
263.105	84.19
263.337	86.19
263.57	78.19
263.802	88.19
264.035	75.19
264.267	86.19
264.499	79.19
264.732	79.19
264.964	71.19
265.197	85.19
265.429	86.19
265.661	90.19
265.894	76.19
266.126	81.19
266.358	83.19
266.591	80.19
266.823	92.19
267.055	65.19
267.287	87.19
267.52	89.19
267.752	89.19
267.984	91.19
268.216	87.19
268.448	68.19
268.681	80.19
268.913	85.19
269.145	84.19
269.377	91.19
269.609	84.19
269.841	78.19
270.073	83.19
270.306	85.19
270.538	85.19
270.77	89.19
271.002	73.19
271.234	97.19
271.466	88.19
271.698	72.19
271.93	84.19
272.162	96.19
272.394	92.19
272.626	84.19
272.858	72.19
273.09	82.19
273.322	94.19
273.553	91.19
273.785	95.19
274.017	72.19
274.249	90.19
274.481	88.19
274.713	80.19
274.945	83.19
275.176	73.19
275.408	94.19
275.64	90.19
275.872	81.19
276.104	74.19
276.335	87.19
276.567	95.19
276.799	91.19
277.031	73.19
277.262	69.19
277.494	70.19
277.726	86.19
277.957	78.19
278.189	86.19
278.421	79.19
278.652	86.19
278.884	86.19
279.115	77.19
279.347	80.19
279.579	83.19
279.81	89.19
280.042	82.19
280.273	78.19
280.505	86.19
280.736	95.19
280.968	90.19
281.199	74.19
281.431	85.19
281.662	74.19
281.894	96.19
282.125	92.19
282.356	83.19
282.588	86.19
282.819	92.19
283.051	69.19
283.282	82.19
283.513	75.19
283.745	76.19
283.976	86.19
284.207	77.19
284.439	92.19
284.67	84.19
284.901	77.19
285.132	102.19
285.364	81.19
285.595	93.19
285.826	90.19
286.057	92.19
286.288	76.19
286.52	82.19
286.751	82.19
286.982	82.19
287.213	89.19
287.444	91.19
287.675	72.19
287.906	86.19
288.138	97.19
288.369	100.19
288.6	77.19
288.831	85.19
289.062	99.19
289.293	86.19
289.524	83.19
289.755	78.19
289.986	87.19
290.217	80.19
290.448	92.19
290.679	85.19
290.91	85.19
291.141	88.19
291.371	88.19
291.602	92.19
291.833	70.19
292.064	67.19
292.295	83.19
292.526	81.19
292.757	81.19
292.987	85.19
293.218	88.19
293.449	70.19
293.68	89.19
293.91	80.19
294.141	82.19
294.372	86.19
294.603	87.19
294.833	89.19
295.064	89.19
295.295	79.19
295.525	85.19
295.756	88.19
295.987	84.19
296.217	89.19
296.448	66.19
296.679	90.19
296.909	86.19
297.14	73.19
297.37	78.19
297.601	92.19
297.831	90.19
298.062	76.19
298.292	86.19
298.523	90.19
298.753	86.19
298.984	103.19
299.214	92.19
299.445	92.19
299.675	88.19
299.905	94.19
300.136	79.19
300.366	78.19
300.597	85.19
300.827	88.19
301.057	82.19
301.288	81.19
301.518	82.19
301.748	79.19
301.979	105.19
302.209	80.19
302.439	79.19
302.669	82.19
302.9	82.19
303.13	70.19
303.36	82.19
303.59	80.19
303.82	96.19
304.051	98.19
304.281	69.19
304.511	94.19
304.741	80.19
304.971	86.19
305.201	73.19
305.431	70.19
305.661	93.19
305.891	73.19
306.121	79.19
306.352	76.19
306.582	88.19
306.812	71.19
307.042	83.19
307.272	76.19
307.502	95.19
307.731	100.19
307.961	92.19
308.191	88.19
308.421	76.19
308.651	106.19
308.881	82.19
309.111	84.19
309.341	84.19
309.571	97.19
309.8	84.19
310.03	80.19
310.26	81.19
310.49	77.19
310.72	88.19
310.949	84.19
311.179	70.19
311.409	77.19
311.639	84.19
311.868	84.19
312.098	89.19
312.328	83.19
312.557	74.19
312.787	80.19
313.017	86.19
313.246	84.19
313.476	74.19
313.706	73.19
313.935	80.19
314.165	109.19
314.394	85.19
314.624	91.19
314.853	82.19
315.083	80.19
315.312	71.19
315.542	68.19
315.771	90.19
316.001	101.19
316.23	80.19
316.46	80.19
316.689	82.19
316.919	81.19
317.148	77.19
317.377	85.19
317.607	96.19
317.836	82.19
318.065	101.19
318.295	78.19
318.524	92.19
318.753	75.19
318.983	90.19
319.212	80.19
319.441	71.19
319.67	88.19
319.9	85.19
320.129	89.19
320.358	76.19
320.587	81.19
320.816	81.19
321.046	72.19
321.275	81.19
321.504	82.19
321.733	90.19
321.962	75.19
322.191	84.19
322.42	104.19
322.649	72.19
322.878	88.19
323.108	83.19
323.337	71.19
323.566	73.19
323.795	80.19
324.024	90.19
324.253	81.19
324.482	81.19
324.71	84.19
324.939	94.19
325.168	99.19
325.397	80.19
325.626	96.19
325.855	71.19
326.084	73.19
326.313	87.19
326.542	88.19
326.77	86.19
326.999	86.19
327.228	69.19
327.457	81.19
327.686	82.19
327.914	100.19
328.143	84.19
328.372	92.19
328.6	92.19
328.829	85.19
329.058	95.19
329.287	74.19
329.515	85.19
329.744	87.19
329.972	78.19
330.201	84.19
330.43	90.19
330.658	87.19
330.887	91.19
331.115	75.19
331.344	78.19
331.572	77.19
331.801	73.19
332.03	79.19
332.258	81.19
332.486	89.19
332.715	96.19
332.943	78.19
333.172	73.19
333.4	79.19
333.629	88.19
333.857	85.19
334.085	81.19
334.314	99.19
334.542	92.19
334.771	82.19
334.999	89.19
335.227	84.19
335.455	87.19
335.684	84.19
335.912	76.19
336.14	95.19
336.369	78.19
336.597	94.19
336.825	88.19
337.053	84.19
337.281	83.19
337.51	76.19
337.738	86.19
337.966	82.19
338.194	85.19
338.422	92.19
338.65	85.19
338.878	81.19
339.106	100.19
339.334	81.19
339.562	84.19
339.79	77.19
340.018	93.19
340.246	75.19
340.474	81.19
340.702	95.19
340.93	82.19
341.158	77.19
341.386	89.19
341.614	89.19
341.842	81.19
342.07	78.19
342.298	82.19
342.526	66.19
342.754	78.19
342.981	81.19
343.209	83.19
343.437	90.19
343.665	74.19
343.893	77.19
344.12	96.19
344.348	72.19
344.576	97.19
344.804	91.19
345.031	93.19
345.259	85.19
345.487	87.19
345.714	85.19
345.942	77.19
346.17	75.19
346.397	82.19
346.625	88.19
346.853	87.19
347.08	78.19
347.308	95.19
347.535	94.19
347.763	89.19
347.99	73.19
348.218	78.19
348.445	90.19
348.673	87.19
348.9	87.19
349.128	88.19
349.355	82.19
349.583	80.19
349.81	83.19
350.037	78.19
350.265	86.19
350.492	75.19
350.72	94.19
350.947	83.19
351.174	92.19
351.402	81.19
351.629	87.19
351.856	81.19
352.083	88.19
352.311	78.19
352.538	68.19
352.765	82.19
352.992	86.19
353.22	99.19
353.447	88.19
353.674	80.19
353.901	74.19
354.128	81.19
354.355	86.19
354.583	84.19
354.81	73.19
355.037	73.19
355.264	96.19
355.491	83.19
355.718	78.19
355.945	86.19
356.172	80.19
356.399	98.19
356.626	86.19
356.853	83.19
357.08	92.19
357.307	88.19
357.534	81.19
357.761	87.19
357.988	88.19
358.215	90.19
358.441	85.19
358.668	79.19
358.895	73.19
359.122	98.19
359.349	92.19
359.576	88.19
359.802	88.19
360.029	75.19
360.256	77.19
360.483	92.19
360.709	82.19
360.936	80.19
361.163	88.19
361.39	85.19
361.616	75.19
361.843	90.19
362.07	93.19
362.296	96.19
362.523	81.19
362.749	71.19
362.976	90.19
363.203	90.19
363.429	102.19
363.656	97.19
363.882	93.19
364.109	85.19
364.335	93.19
364.562	90.19
364.788	78.19
365.015	82.19
365.241	85.19
365.468	70.19
365.694	80.19
365.92	78.19
366.147	89.19
366.373	89.19
366.599	89.19
366.826	90.19
367.052	88.19
367.278	82.19
367.505	77.19
367.731	82.19
367.957	90.19
368.184	87.19
368.41	93.19
368.636	83.19
368.862	86.19
369.089	79.19
369.315	58.19
369.541	97.19
369.767	77.19
369.993	75.19
370.219	75.19
370.445	88.19
370.672	80.19
370.898	80.19
371.124	76.19
371.35	88.19
371.576	70.19
371.802	92.19
372.028	101.19
372.254	68.19
372.48	86.19
372.706	103.19
372.932	93.19
373.158	77.19
373.384	86.19
373.61	101.19
373.835	89.19
374.061	90.19
374.287	88.19
374.513	85.19
374.739	87.19
374.965	68.19
375.191	87.19
375.416	72.19
375.642	80.19
375.868	76.19
376.094	85.19
376.319	73.19
376.545	82.19
376.771	90.19
376.997	84.19
377.222	83.19
377.448	80.19
377.674	80.19
377.899	89.19
378.125	88.19
378.35	86.19
378.576	101.19
378.802	83.19
379.027	74.19
379.253	84.19
379.478	82.19
379.704	80.19
379.929	84.19
380.155	78.19
380.38	83.19
380.606	80.19
380.831	83.19
381.057	80.19
381.282	77.19
381.507	91.19
381.733	101.19
381.958	94.19
382.184	89.19
382.409	101.19
382.634	96.19
382.86	99.19
383.085	94.19
383.31	103.19
383.535	89.19
383.761	92.19
383.986	78.19
384.211	78.19
384.436	75.19
384.662	98.19
384.887	84.19
385.112	69.19
385.337	88.19
385.562	65.19
385.787	88.19
386.013	101.19
386.238	100.19
386.463	77.19
386.688	90.19
386.913	89.19
387.138	80.19
387.363	82.19
387.588	89.19
387.813	89.19
388.038	94.19
388.263	81.19
388.488	78.19
388.713	82.19
388.938	90.19
389.163	86.19
389.387	72.19
389.612	70.19
389.837	71.19
390.062	89.19
390.287	89.19
390.512	87.19
390.736	86.19
390.961	82.19
391.186	74.19
391.411	91.19
391.636	74.19
391.86	69.19
392.085	78.19
392.31	82.19
392.534	83.19
392.759	83.19
392.984	93.19
393.208	108.19
393.433	136.19
393.658	123.19
393.882	95.19
394.107	83.19
394.331	87.19
394.556	110.19
394.78	93.19
395.005	75.19
395.229	84.19
395.454	88.19
395.678	85.19
395.903	93.19
396.127	90.19
396.352	105.19
396.576	105.19
396.801	114.19
397.025	125.19
397.249	92.19
397.474	84.19
397.698	89.19
397.922	89.19
398.147	82.19
398.371	80.19
398.595	81.19
398.82	84.19
399.044	81.19
399.268	70.19
399.492	85.19
399.717	82.19
399.941	86.19
400.165	72.19
400.389	75.19
400.613	82.19
400.837	91.19
401.062	78.19
401.286	85.19
401.51	67.19
401.734	82.19
401.958	76.19
402.182	81.19
402.406	90.19
402.63	83.19
402.854	80.19
403.078	86.19
403.302	104.19
403.526	81.19
403.75	82.19
403.974	76.19
404.198	86.19
404.422	109.19
404.645	78.19
404.869	89.19
405.093	83.19
405.317	93.19
405.541	92.19
405.765	77.19
405.988	88.19
406.212	74.19
406.436	75.19
406.66	80.19
406.883	85.19
407.107	78.19
407.331	73.19
407.555	98.19
407.778	88.19
408.002	76.19
408.226	88.19
408.449	68.19
408.673	68.19
408.896	73.19
409.12	76.19
409.344	101.19
409.567	81.19
409.791	76.19
410.014	86.19
410.238	85.19
410.461	91.19
410.685	90.19
410.908	72.19
411.132	82.19
411.355	92.19
411.578	90.19
411.802	90.19
412.025	90.19
412.249	74.19
412.472	77.19
412.695	74.19
412.919	95.19
413.142	80.19
413.365	90.19
413.589	81.19
413.812	87.19
414.035	94.19
414.258	80.19
414.482	83.19
414.705	73.19
414.928	74.19
415.151	77.19
415.374	93.19
415.597	86.19
415.821	80.19
416.044	81.19
416.267	89.19
416.49	100.19
416.713	77.19
416.936	90.19
417.159	88.19
417.382	90.19
417.605	96.19
417.828	88.19
418.051	68.19
418.274	80.19
418.497	79.19
418.72	77.19
418.943	81.19
419.166	85.19
419.389	89.19
419.611	79.19
419.834	86.19
420.057	83.19
420.28	72.19
420.503	91.19
420.726	90.19
420.948	95.19
421.171	85.19
421.394	76.19
421.617	85.19
421.839	81.19
422.062	92.19
422.285	108.19
422.507	132.19
422.73	208.19
422.953	176.19
423.175	97.19
423.398	92.19
423.621	82.19
423.843	72.19
424.066	81.19
424.288	80.19
424.511	85.19
424.733	85.19
424.956	78.19
425.178	80.19
425.401	73.19
425.623	85.19
425.846	90.19
426.068	85.19
426.291	78.19
426.513	88.19
426.735	84.19
426.958	92.19
427.18	68.19
427.402	70.19
427.625	68.19
427.847	92.19
428.069	92.19
428.292	93.19
428.514	99.19
428.736	90.19
428.958	99.19
429.181	91.19
429.403	74.19
429.625	90.19
429.847	96.19
430.069	94.19
430.292	101.19
430.514	110.19
430.736	104.19
430.958	106.19
431.18	90.19
431.402	85.19
431.624	87.19
431.846	91.19
432.068	88.19
432.29	78.19
432.512	86.19
432.734	84.19
432.956	73.19
433.178	96.19
433.4	91.19
433.622	68.19
433.844	79.19
434.066	79.19
434.287	84.19
434.509	74.19
434.731	75.19
434.953	63.19
435.175	78.19
435.397	92.19
435.618	85.19
435.84	77.19
436.062	81.19
436.284	80.19
436.505	92.19
436.727	74.19
436.949	76.19
437.17	82.19
437.392	64.19
437.614	80.19
437.835	84.19
438.057	91.19
438.278	76.19
438.5	99.19
438.721	106.19
438.943	86.19
439.165	82.19
439.386	76.19
439.608	98.19
439.829	95.19
440.05	90.19
440.272	90.19
440.493	74.19
440.715	83.19
440.936	88.19
441.158	90.19
441.379	91.19
441.6	80.19
441.822	82.19
442.043	84.19
442.264	79.19
442.486	66.19
442.707	88.19
442.928	92.19
443.149	94.19
443.371	109.19
443.592	110.19
443.813	116.19
444.034	89.19
444.255	88.19
444.476	68.19
444.698	82.19
444.919	80.19
445.14	159.19
445.361	139.19
445.582	125.19
445.803	116.19
446.024	74.19
446.245	78.19
446.466	70.19
446.687	78.19
446.908	89.19
447.129	80.19
447.35	84.19
447.571	96.19
447.792	63.19
448.013	84.19
448.234	81.19
448.455	82.19
448.675	84.19
448.896	74.19
449.117	84.19
449.338	74.19
449.559	74.19
449.779	78.19
450	79.19
450.221	79.19
450.442	70.19
450.662	74.19
450.883	60.19
451.104	78.19
451.324	80.19
451.545	91.19
451.766	87.19
451.986	75.19
452.207	85.19
452.428	75.19
452.648	90.19
452.869	88.19
453.089	83.19
453.31	80.19
453.53	89.19
453.751	86.19
453.971	85.19
454.192	85.19
454.412	79.19
454.633	88.19
454.853	86.19
455.073	99.19
455.294	104.19
455.514	100.19
455.734	78.19
455.955	86.19
456.175	70.19
456.395	72.19
456.616	72.19
456.836	88.19
457.056	87.19
457.276	71.19
457.497	77.19
457.717	87.19
457.937	88.19
458.157	87.19
458.377	87.19
458.598	86.19
458.818	81.19
459.038	80.19
459.258	84.19
459.478	90.19
459.698	79.19
459.918	80.19
460.138	68.19
460.358	71.19
460.578	85.19
460.798	97.19
461.018	102.19
461.238	98.19
461.458	82.19
461.678	78.19
461.898	70.19
462.118	77.19
462.338	80.19
462.558	91.19
462.777	80.19
462.997	80.19
463.217	78.19
463.437	88.19
463.657	85.19
463.876	83.19
464.096	80.19
464.316	67.19
464.536	82.19
464.755	87.19
464.975	82.19
465.195	83.19
465.414	68.19
465.634	86.19
465.854	81.19
466.073	67.19
466.293	76.19
466.512	75.19
466.732	85.19
466.951	87.19
467.171	80.19
467.391	81.19
467.61	75.19
467.829	89.19
468.049	83.19
468.268	87.19
468.488	76.19
468.707	89.19
468.927	99.19
469.146	78.19
469.365	82.19
469.585	88.19
469.804	97.19
470.023	79.19
470.243	91.19
470.462	88.19
470.681	72.19
470.901	89.19
471.12	70.19
471.339	86.19
471.558	84.19
471.777	81.19
471.997	89.19
472.216	86.19
472.435	84.19
472.654	86.19
472.873	90.19
473.092	85.19
473.311	79.19
473.53	88.19
473.749	81.19
473.968	74.19
474.187	81.19
474.406	78.19
474.625	96.19
474.844	93.19
475.063	81.19
475.282	90.19
475.501	80.19
475.72	68.19
475.939	76.19
476.158	71.19
476.377	89.19
476.596	89.19
476.814	83.19
477.033	72.19
477.252	90.19
477.471	72.19
477.69	83.19
477.908	94.19
478.127	82.19
478.346	87.19
478.564	84.19
478.783	71.19
479.002	86.19
479.22	87.19
479.439	93.19
479.658	86.19
479.876	71.19
480.095	97.19
480.313	79.19
480.532	88.19
480.751	82.19
480.969	77.19
481.188	79.19
481.406	82.19
481.624	86.19
481.843	74.19
482.061	79.19
482.28	89.19
482.498	73.19
482.717	89.19
482.935	74.19
483.153	91.19
483.372	82.19
483.59	84.19
483.808	77.19
484.027	74.19
484.245	83.19
484.463	77.19
484.681	82.19
484.9	85.19
485.118	77.19
485.336	79.19
485.554	82.19
485.772	74.19
485.99	81.19
486.209	77.19
486.427	90.19
486.645	75.19
486.863	79.19
487.081	88.19
487.299	82.19
487.517	75.19
487.735	94.19
487.953	96.19
488.171	100.19
488.389	86.19
488.607	87.19
488.825	81.19
489.043	69.19
489.261	90.19
489.479	86.19
489.696	87.19
489.914	87.19
490.132	79.19
490.35	72.19
490.568	82.19
490.786	83.19
491.003	87.19
491.221	84.19
491.439	99.19
491.657	89.19
491.874	83.19
492.092	76.19
492.31	84.19
492.527	78.19
492.745	83.19
492.963	80.19
493.18	97.19
493.398	92.19
493.615	78.19
493.833	65.19
494.05	67.19
494.268	74.19
494.485	78.19
494.703	88.19
494.92	72.19
495.138	84.19
495.355	76.19
495.573	89.19
495.79	75.19
496.008	93.19
496.225	87.19
496.442	92.19
496.66	77.19
496.877	86.19
497.094	82.19
497.312	80.19
497.529	69.19
497.746	79.19
497.963	80.19
498.181	75.19
498.398	85.19
498.615	84.19
498.832	94.19
499.049	92.19
499.267	80.19
499.484	80.19
499.701	80.19
499.918	78.19
500.135	72.19
500.352	82.19
500.569	86.19
500.786	95.19
501.003	82.19
501.22	87.19
501.437	80.19
501.654	82.19
501.871	83.19
502.088	71.19
502.305	75.19
502.522	73.19
502.739	87.19
502.956	85.19
503.172	74.19
503.389	87.19
503.606	92.19
503.823	66.19
504.04	93.19
504.256	108.19
504.473	82.19
504.69	90.19
504.907	92.19
505.123	87.19
505.34	82.19
505.557	72.19
505.773	82.19
505.99	67.19
506.207	78.19
506.423	88.19
506.64	89.19
506.856	80.19
507.073	80.19
507.289	79.19
507.506	93.19
507.722	80.19
507.939	69.19
508.155	88.19
508.372	89.19
508.588	87.19
508.805	97.19
509.021	86.19
509.238	89.19
509.454	84.19
509.67	69.19
509.887	90.19
510.103	82.19
510.319	89.19
510.536	88.19
510.752	80.19
510.968	80.19
511.184	92.19
511.401	82.19
511.617	97.19
511.833	84.19
512.049	82.19
512.265	90.19
512.481	94.19
512.698	90.19
512.914	79.19
513.13	101.19
513.346	80.19
513.562	88.19
513.778	88.19
513.994	88.19
514.21	74.19
514.426	87.19
514.642	85.19
514.858	104.19
515.074	81.19
515.29	88.19
515.506	78.19
515.721	81.19
515.937	89.19
516.153	72.19
516.369	74.19
516.585	91.19
516.801	87.19
517.016	89.19
517.232	92.19
517.448	86.19
517.664	84.19
517.879	73.19
518.095	90.19
518.311	86.19
518.527	96.19
518.742	80.19
518.958	87.19
519.173	93.19
519.389	72.19
519.605	89.19
