Data from 1600_2_HRD10591_00042.txt Node
Date: Mon Jan 19 13:54:02 EST 2026
User: Yrep
Spectrometer: HR+D1059
Trigger mode: 1
Integration Time (sec): 1.000000E-1
Scans to average: 1
Electric dark correction enabled: true
Nonlinearity correction enabled: false
Boxcar width: 0
XAxis mode: Wavelengths
Number of Pixels in Spectrum: 2048
>>>>>Begin Spectral Data<<<<<
223.165	-13.19
223.4	-13.19
223.635	-13.19
223.869	-11.19
224.104	-35.19
224.338	-1.19
224.573	-9.19
224.808	-12.19
225.042	-8.19
225.277	-2.19
225.511	0.81
225.746	-11.19
225.98	-1.19
226.215	11.81
226.449	2.81
226.683	27.81
226.918	33.81
227.152	27.81
227.387	37.81
227.621	46.81
227.856	49.81
228.09	46.81
228.324	44.81
228.559	54.81
228.793	53.81
229.027	69.81
229.262	77.81
229.496	75.81
229.73	63.81
229.964	80.81
230.199	80.81
230.433	77.81
230.667	78.81
230.901	72.81
231.136	67.81
231.37	71.81
231.604	85.81
231.838	79.81
232.072	84.81
232.306	78.81
232.541	82.81
232.775	79.81
233.009	95.81
233.243	80.81
233.477	84.81
233.711	77.81
233.945	61.81
234.179	73.81
234.413	73.81
234.647	82.81
234.881	82.81
235.115	85.81
235.349	90.81
235.583	73.81
235.817	87.81
236.051	74.81
236.285	69.81
236.519	69.81
236.753	62.81
236.987	83.81
237.221	81.81
237.455	77.81
237.689	80.81
237.922	76.81
238.156	73.81
238.39	65.81
238.624	70.81
238.858	77.81
239.091	74.81
239.325	78.81
239.559	86.81
239.793	75.81
240.027	70.81
240.26	77.81
240.494	81.81
240.728	67.81
240.961	62.81
241.195	94.81
241.429	83.81
241.662	61.81
241.896	64.81
242.13	79.81
242.363	67.81
242.597	82.81
242.83	73.81
243.064	78.81
243.298	69.81
243.531	74.81
243.765	87.81
243.998	77.81
244.232	71.81
244.465	60.81
244.699	74.81
244.932	72.81
245.166	75.81
245.399	80.81
245.633	85.81
245.866	63.81
246.099	79.81
246.333	74.81
246.566	75.81
246.8	78.81
247.033	67.81
247.266	86.81
247.5	75.81
247.733	77.81
247.966	85.81
248.2	74.81
248.433	59.81
248.666	72.81
248.899	86.81
249.133	81.81
249.366	73.81
249.599	74.81
249.832	74.81
250.066	71.81
250.299	68.81
250.532	83.81
250.765	73.81
250.998	82.81
251.231	75.81
251.465	80.81
251.698	73.81
251.931	75.81
252.164	95.81
252.397	81.81
252.63	93.81
252.863	67.81
253.096	84.81
253.329	69.81
253.562	88.81
253.795	70.81
254.028	73.81
254.261	83.81
254.494	87.81
254.727	74.81
254.96	81.81
255.193	67.81
255.426	63.81
255.659	65.81
255.892	69.81
256.124	83.81
256.357	81.81
256.59	71.81
256.823	86.81
257.056	73.81
257.289	71.81
257.521	70.81
257.754	76.81
257.987	68.81
258.22	80.81
258.452	79.81
258.685	63.81
258.918	82.81
259.151	63.81
259.383	82.81
259.616	73.81
259.849	77.81
260.081	80.81
260.314	87.81
260.547	81.81
260.779	82.81
261.012	95.81
261.244	84.81
261.477	83.81
261.71	74.81
261.942	74.81
262.175	78.81
262.407	95.81
262.64	76.81
262.872	95.81
263.105	87.81
263.337	78.81
263.57	67.81
263.802	87.81
264.035	79.81
264.267	60.81
264.499	85.81
264.732	73.81
264.964	84.81
265.197	74.81
265.429	83.81
265.661	80.81
265.894	82.81
266.126	85.81
266.358	80.81
266.591	82.81
266.823	78.81
267.055	85.81
267.287	87.81
267.52	65.81
267.752	83.81
267.984	75.81
268.216	73.81
268.448	85.81
268.681	85.81
268.913	82.81
269.145	83.81
269.377	84.81
269.609	85.81
269.841	73.81
270.073	80.81
270.306	89.81
270.538	73.81
270.77	84.81
271.002	82.81
271.234	94.81
271.466	85.81
271.698	88.81
271.93	98.81
272.162	96.81
272.394	79.81
272.626	91.81
272.858	88.81
273.09	96.81
273.322	82.81
273.553	91.81
273.785	76.81
274.017	88.81
274.249	86.81
274.481	71.81
274.713	89.81
274.945	74.81
275.176	79.81
275.408	87.81
275.64	97.81
275.872	80.81
276.104	81.81
276.335	80.81
276.567	87.81
276.799	71.81
277.031	81.81
277.262	74.81
277.494	89.81
277.726	79.81
277.957	92.81
278.189	86.81
278.421	82.81
278.652	85.81
278.884	81.81
279.115	92.81
279.347	89.81
279.579	91.81
279.81	79.81
280.042	72.81
280.273	92.81
280.505	86.81
280.736	86.81
280.968	81.81
281.199	86.81
281.431	88.81
281.662	88.81
281.894	84.81
282.125	78.81
282.356	80.81
282.588	88.81
282.819	81.81
283.051	81.81
283.282	90.81
283.513	79.81
283.745	77.81
283.976	94.81
284.207	70.81
284.439	72.81
284.67	87.81
284.901	79.81
285.132	94.81
285.364	100.81
285.595	97.81
285.826	98.81
286.057	91.81
286.288	77.81
286.52	75.81
286.751	88.81
286.982	100.81
287.213	96.81
287.444	84.81
287.675	71.81
287.906	94.81
288.138	83.81
288.369	85.81
288.6	81.81
288.831	91.81
289.062	80.81
289.293	87.81
289.524	79.81
289.755	90.81
289.986	90.81
290.217	84.81
290.448	85.81
290.679	91.81
290.91	79.81
291.141	83.81
291.371	86.81
291.602	93.81
291.833	69.81
292.064	83.81
292.295	81.81
292.526	88.81
292.757	78.81
292.987	79.81
293.218	84.81
293.449	73.81
293.68	91.81
293.91	91.81
294.141	92.81
294.372	76.81
294.603	86.81
294.833	93.81
295.064	100.81
295.295	83.81
295.525	79.81
295.756	95.81
295.987	102.81
296.217	95.81
296.448	88.81
296.679	83.81
296.909	90.81
297.14	75.81
297.37	84.81
297.601	84.81
297.831	99.81
298.062	96.81
298.292	88.81
298.523	87.81
298.753	77.81
298.984	99.81
299.214	81.81
299.445	85.81
299.675	88.81
299.905	94.81
300.136	93.81
300.366	85.81
300.597	82.81
300.827	86.81
301.057	83.81
301.288	74.81
301.518	85.81
301.748	76.81
301.979	97.81
302.209	96.81
302.439	74.81
302.669	81.81
302.9	92.81
303.13	92.81
303.36	93.81
303.59	69.81
303.82	102.81
304.051	85.81
304.281	96.81
304.511	74.81
304.741	80.81
304.971	95.81
305.201	100.81
305.431	82.81
305.661	93.81
305.891	70.81
306.121	79.81
306.352	84.81
306.582	88.81
306.812	81.81
307.042	86.81
307.272	99.81
307.502	87.81
307.731	84.81
307.961	81.81
308.191	93.81
308.421	96.81
308.651	90.81
308.881	94.81
309.111	93.81
309.341	82.81
309.571	86.81
309.8	91.81
310.03	84.81
310.26	87.81
310.49	82.81
310.72	74.81
310.949	98.81
311.179	88.81
311.409	86.81
311.639	93.81
311.868	101.81
312.098	99.81
312.328	92.81
312.557	96.81
312.787	95.81
313.017	81.81
313.246	102.81
313.476	95.81
313.706	68.81
313.935	83.81
314.165	88.81
314.394	93.81
314.624	92.81
314.853	90.81
315.083	82.81
315.312	87.81
315.542	84.81
315.771	88.81
316.001	90.81
316.23	87.81
316.46	83.81
316.689	95.81
316.919	80.81
317.148	82.81
317.377	105.81
317.607	66.81
317.836	90.81
318.065	93.81
318.295	79.81
318.524	71.81
318.753	93.81
318.983	98.81
319.212	92.81
319.441	88.81
319.67	103.81
319.9	91.81
320.129	77.81
320.358	79.81
320.587	77.81
320.816	86.81
321.046	82.81
321.275	86.81
321.504	75.81
321.733	87.81
321.962	90.81
322.191	77.81
322.42	84.81
322.649	84.81
322.878	102.81
323.108	95.81
323.337	93.81
323.566	97.81
323.795	76.81
324.024	89.81
324.253	88.81
324.482	81.81
324.71	83.81
324.939	89.81
325.168	103.81
325.397	91.81
325.626	84.81
325.855	71.81
326.084	81.81
326.313	93.81
326.542	86.81
326.77	80.81
326.999	80.81
327.228	86.81
327.457	95.81
327.686	80.81
327.914	92.81
328.143	83.81
328.372	94.81
328.6	75.81
328.829	85.81
329.058	81.81
329.287	88.81
329.515	88.81
329.744	73.81
329.972	77.81
330.201	86.81
330.43	84.81
330.658	74.81
330.887	96.81
331.115	70.81
331.344	78.81
331.572	87.81
331.801	86.81
332.03	79.81
332.258	93.81
332.486	88.81
332.715	84.81
332.943	89.81
333.172	92.81
333.4	89.81
333.629	84.81
333.857	90.81
334.085	93.81
334.314	104.81
334.542	105.81
334.771	77.81
334.999	84.81
335.227	81.81
335.455	94.81
335.684	81.81
335.912	85.81
336.14	85.81
336.369	77.81
336.597	95.81
336.825	87.81
337.053	81.81
337.281	96.81
337.51	87.81
337.738	88.81
337.966	89.81
338.194	80.81
338.422	93.81
338.65	91.81
338.878	85.81
339.106	67.81
339.334	102.81
339.562	84.81
339.79	75.81
340.018	96.81
340.246	81.81
340.474	85.81
340.702	92.81
340.93	93.81
341.158	97.81
341.386	73.81
341.614	77.81
341.842	104.81
342.07	78.81
342.298	85.81
342.526	88.81
342.754	92.81
342.981	73.81
343.209	92.81
343.437	87.81
343.665	89.81
343.893	73.81
344.12	101.81
344.348	94.81
344.576	87.81
344.804	79.81
345.031	79.81
345.259	85.81
345.487	84.81
345.714	87.81
345.942	96.81
346.17	88.81
346.397	82.81
346.625	81.81
346.853	81.81
347.08	87.81
347.308	95.81
347.535	70.81
347.763	101.81
347.99	87.81
348.218	79.81
348.445	85.81
348.673	92.81
348.9	101.81
349.128	92.81
349.355	81.81
349.583	73.81
349.81	81.81
350.037	87.81
350.265	97.81
350.492	76.81
350.72	83.81
350.947	101.81
351.174	94.81
351.402	75.81
351.629	85.81
351.856	87.81
352.083	77.81
352.311	87.81
352.538	88.81
352.765	79.81
352.992	95.81
353.22	73.81
353.447	74.81
353.674	81.81
353.901	87.81
354.128	80.81
354.355	88.81
354.583	95.81
354.81	71.81
355.037	86.81
355.264	73.81
355.491	99.81
355.718	81.81
355.945	80.81
356.172	81.81
356.399	82.81
356.626	81.81
356.853	92.81
357.08	78.81
357.307	89.81
357.534	80.81
357.761	93.81
357.988	116.81
358.215	95.81
358.441	95.81
358.668	84.81
358.895	89.81
359.122	85.81
359.349	71.81
359.576	93.81
359.802	89.81
360.029	97.81
360.256	85.81
360.483	82.81
360.709	65.81
360.936	91.81
361.163	82.81
361.39	94.81
361.616	73.81
361.843	91.81
362.07	100.81
362.296	84.81
362.523	91.81
362.749	82.81
362.976	90.81
363.203	101.81
363.429	99.81
363.656	84.81
363.882	72.81
364.109	79.81
364.335	94.81
364.562	92.81
364.788	101.81
365.015	88.81
365.241	66.81
365.468	81.81
365.694	83.81
365.92	94.81
366.147	83.81
366.373	90.81
366.599	82.81
366.826	81.81
367.052	89.81
367.278	100.81
367.505	94.81
367.731	97.81
367.957	82.81
368.184	70.81
368.41	92.81
368.636	87.81
368.862	107.81
369.089	81.81
369.315	83.81
369.541	90.81
369.767	84.81
369.993	86.81
370.219	73.81
370.445	91.81
370.672	80.81
370.898	72.81
371.124	86.81
371.35	83.81
371.576	85.81
371.802	100.81
372.028	90.81
372.254	97.81
372.48	87.81
372.706	88.81
372.932	76.81
373.158	104.81
373.384	104.81
373.61	97.81
373.835	95.81
374.061	82.81
374.287	92.81
374.513	93.81
374.739	101.81
374.965	87.81
375.191	88.81
375.416	83.81
375.642	92.81
375.868	85.81
376.094	82.81
376.319	86.81
376.545	97.81
376.771	76.81
376.997	87.81
377.222	87.81
377.448	77.81
377.674	82.81
377.899	78.81
378.125	79.81
378.35	91.81
378.576	69.81
378.802	83.81
379.027	87.81
379.253	78.81
379.478	79.81
379.704	84.81
379.929	83.81
380.155	82.81
380.38	87.81
380.606	86.81
380.831	91.81
381.057	86.81
381.282	93.81
381.507	87.81
381.733	97.81
381.958	81.81
382.184	92.81
382.409	99.81
382.634	94.81
382.86	79.81
383.085	87.81
383.31	94.81
383.535	104.81
383.761	97.81
383.986	95.81
384.211	89.81
384.436	92.81
384.662	77.81
384.887	78.81
385.112	95.81
385.337	89.81
385.562	86.81
385.787	70.81
386.013	102.81
386.238	106.81
386.463	80.81
386.688	103.81
386.913	87.81
387.138	91.81
387.363	79.81
387.588	69.81
387.813	92.81
388.038	87.81
388.263	86.81
388.488	78.81
388.713	84.81
388.938	79.81
389.163	91.81
389.387	89.81
389.612	85.81
389.837	94.81
390.062	95.81
390.287	90.81
390.512	80.81
390.736	86.81
390.961	80.81
391.186	73.81
391.411	81.81
391.636	84.81
391.86	80.81
392.085	88.81
392.31	84.81
392.534	83.81
392.759	79.81
392.984	104.81
393.208	165.81
393.433	193.81
393.658	171.81
393.882	108.81
394.107	90.81
394.331	97.81
394.556	115.81
394.78	94.81
395.005	79.81
395.229	86.81
395.454	94.81
395.678	78.81
395.903	104.81
396.127	115.81
396.352	122.81
396.576	119.81
396.801	151.81
397.025	180.81
397.249	111.81
397.474	74.81
397.698	85.81
397.922	87.81
398.147	103.81
398.371	85.81
398.595	81.81
398.82	83.81
399.044	83.81
399.268	91.81
399.492	85.81
399.717	93.81
399.941	100.81
400.165	74.81
400.389	73.81
400.613	92.81
400.837	83.81
401.062	80.81
401.286	84.81
401.51	97.81
401.734	82.81
401.958	85.81
402.182	92.81
402.406	77.81
402.63	80.81
402.854	88.81
403.078	82.81
403.302	87.81
403.526	76.81
403.75	89.81
403.974	70.81
404.198	83.81
404.422	94.81
404.645	94.81
404.869	78.81
405.093	84.81
405.317	86.81
405.541	89.81
405.765	90.81
405.988	85.81
406.212	85.81
406.436	82.81
406.66	72.81
406.883	87.81
407.107	64.81
407.331	73.81
407.555	73.81
407.778	78.81
408.002	82.81
408.226	63.81
408.449	102.81
408.673	84.81
408.896	76.81
409.12	80.81
409.344	87.81
409.567	84.81
409.791	101.81
410.014	96.81
410.238	87.81
410.461	89.81
410.685	82.81
410.908	101.81
411.132	88.81
411.355	75.81
411.578	100.81
411.802	95.81
412.025	82.81
412.249	77.81
412.472	78.81
412.695	80.81
412.919	71.81
413.142	82.81
413.365	82.81
413.589	80.81
413.812	82.81
414.035	90.81
414.258	79.81
414.482	87.81
414.705	84.81
414.928	88.81
415.151	67.81
415.374	70.81
415.597	81.81
415.821	87.81
416.044	82.81
416.267	78.81
416.49	81.81
416.713	84.81
416.936	73.81
417.159	89.81
417.382	69.81
417.605	88.81
417.828	81.81
418.051	78.81
418.274	91.81
418.497	85.81
418.72	82.81
418.943	81.81
419.166	85.81
419.389	101.81
419.611	82.81
419.834	84.81
420.057	78.81
420.28	79.81
420.503	76.81
420.726	85.81
420.948	80.81
421.171	88.81
421.394	88.81
421.617	74.81
421.839	83.81
422.062	85.81
422.285	110.81
422.507	151.81
422.73	223.81
422.953	209.81
423.175	104.81
423.398	93.81
423.621	84.81
423.843	88.81
424.066	101.81
424.288	80.81
424.511	70.81
424.733	83.81
424.956	81.81
425.178	91.81
425.401	85.81
425.623	87.81
425.846	88.81
426.068	68.81
426.291	77.81
426.513	97.81
426.735	80.81
426.958	87.81
427.18	93.81
427.402	83.81
427.625	81.81
427.847	92.81
428.069	93.81
428.292	96.81
428.514	109.81
428.736	85.81
428.958	88.81
429.181	100.81
429.403	101.81
429.625	81.81
429.847	88.81
430.069	119.81
430.292	103.81
430.514	120.81
430.736	99.81
430.958	94.81
431.18	83.81
431.402	81.81
431.624	87.81
431.846	93.81
432.068	108.81
432.29	89.81
432.512	84.81
432.734	83.81
432.956	78.81
433.178	87.81
433.4	82.81
433.622	88.81
433.844	80.81
434.066	84.81
434.287	75.81
434.509	71.81
434.731	78.81
434.953	78.81
435.175	71.81
435.397	81.81
435.618	68.81
435.84	89.81
436.062	87.81
436.284	71.81
436.505	85.81
436.727	84.81
436.949	77.81
437.17	93.81
437.392	75.81
437.614	79.81
437.835	83.81
438.057	70.81
438.278	94.81
438.5	81.81
438.721	83.81
438.943	77.81
439.165	69.81
439.386	72.81
439.608	77.81
439.829	88.81
440.05	94.81
440.272	91.81
440.493	88.81
440.715	90.81
440.936	87.81
441.158	80.81
441.379	94.81
441.6	83.81
441.822	93.81
442.043	96.81
442.264	79.81
442.486	96.81
442.707	100.81
442.928	98.81
443.149	83.81
443.371	97.81
443.592	117.81
443.813	108.81
444.034	85.81
444.255	85.81
444.476	97.81
444.698	77.81
444.919	103.81
445.14	166.81
445.361	140.81
445.582	127.81
445.803	113.81
446.024	101.81
446.245	79.81
446.466	87.81
446.687	79.81
446.908	84.81
447.129	75.81
447.35	81.81
447.571	89.81
447.792	82.81
448.013	91.81
448.234	77.81
448.455	79.81
448.675	74.81
448.896	75.81
449.117	84.81
449.338	76.81
449.559	77.81
449.779	88.81
450	80.81
450.221	74.81
450.442	79.81
450.662	81.81
450.883	88.81
451.104	88.81
451.324	90.81
451.545	68.81
451.766	83.81
451.986	68.81
452.207	74.81
452.428	83.81
452.648	72.81
452.869	76.81
453.089	82.81
453.31	83.81
453.53	88.81
453.751	83.81
453.971	73.81
454.192	83.81
454.412	96.81
454.633	84.81
454.853	82.81
455.073	85.81
455.294	83.81
455.514	84.81
455.734	66.81
455.955	90.81
456.175	79.81
456.395	91.81
456.616	97.81
456.836	87.81
457.056	65.81
457.276	73.81
457.497	91.81
457.717	87.81
457.937	87.81
458.157	94.81
458.377	85.81
458.598	73.81
458.818	87.81
459.038	80.81
459.258	94.81
459.478	73.81
459.698	80.81
459.918	79.81
460.138	81.81
460.358	79.81
460.578	82.81
460.798	82.81
461.018	101.81
461.238	83.81
461.458	81.81
461.678	75.81
461.898	84.81
462.118	93.81
462.338	85.81
462.558	84.81
462.777	77.81
462.997	79.81
463.217	72.81
463.437	73.81
463.657	77.81
463.876	91.81
464.096	77.81
464.316	72.81
464.536	91.81
464.755	65.81
464.975	73.81
465.195	79.81
465.414	84.81
465.634	84.81
465.854	92.81
466.073	85.81
466.293	75.81
466.512	64.81
466.732	68.81
466.951	83.81
467.171	82.81
467.391	73.81
467.61	86.81
467.829	89.81
468.049	90.81
468.268	75.81
468.488	90.81
468.707	91.81
468.927	79.81
469.146	69.81
469.365	84.81
469.585	80.81
469.804	94.81
470.023	70.81
470.243	81.81
470.462	73.81
470.681	82.81
470.901	86.81
471.12	78.81
471.339	82.81
471.558	75.81
471.777	72.81
471.997	80.81
472.216	89.81
472.435	72.81
472.654	71.81
472.873	88.81
473.092	85.81
473.311	69.81
473.53	82.81
473.749	77.81
473.968	77.81
474.187	68.81
474.406	79.81
474.625	91.81
474.844	91.81
475.063	79.81
475.282	73.81
475.501	85.81
475.72	81.81
475.939	86.81
476.158	79.81
476.377	87.81
476.596	81.81
476.814	72.81
477.033	72.81
477.252	99.81
477.471	88.81
477.69	81.81
477.908	76.81
478.127	75.81
478.346	87.81
478.564	83.81
478.783	82.81
479.002	82.81
479.22	89.81
479.439	85.81
479.658	78.81
479.876	88.81
480.095	82.81
480.313	77.81
480.532	82.81
480.751	87.81
480.969	65.81
481.188	83.81
481.406	83.81
481.624	84.81
481.843	86.81
482.061	89.81
482.28	90.81
482.498	87.81
482.717	74.81
482.935	83.81
483.153	74.81
483.372	71.81
483.59	73.81
483.808	89.81
484.027	91.81
484.245	103.81
484.463	95.81
484.681	97.81
484.9	81.81
485.118	86.81
485.336	82.81
485.554	91.81
485.772	91.81
485.99	87.81
486.209	75.81
486.427	81.81
486.645	85.81
486.863	83.81
487.081	88.81
487.299	76.81
487.517	68.81
487.735	86.81
487.953	100.81
488.171	85.81
488.389	92.81
488.607	81.81
488.825	92.81
489.043	78.81
489.261	79.81
489.479	70.81
489.696	71.81
489.914	79.81
490.132	91.81
490.35	82.81
490.568	88.81
490.786	92.81
491.003	80.81
491.221	78.81
491.439	89.81
491.657	89.81
491.874	90.81
492.092	87.81
492.31	86.81
492.527	81.81
492.745	83.81
492.963	79.81
493.18	89.81
493.398	95.81
493.615	91.81
493.833	73.81
494.05	71.81
494.268	95.81
494.485	86.81
494.703	82.81
494.92	79.81
495.138	71.81
495.355	85.81
495.573	85.81
495.79	80.81
496.008	81.81
496.225	78.81
496.442	72.81
496.66	96.81
496.877	91.81
497.094	77.81
497.312	82.81
497.529	71.81
497.746	81.81
497.963	87.81
498.181	87.81
498.398	87.81
498.615	83.81
498.832	85.81
499.049	85.81
499.267	88.81
499.484	72.81
499.701	79.81
499.918	93.81
500.135	98.81
500.352	89.81
500.569	84.81
500.786	90.81
501.003	73.81
501.22	97.81
501.437	80.81
501.654	64.81
501.871	78.81
502.088	83.81
502.305	85.81
502.522	82.81
502.739	88.81
502.956	75.81
503.172	88.81
503.389	82.81
503.606	92.81
503.823	88.81
504.04	98.81
504.256	100.81
504.473	91.81
504.69	92.81
504.907	97.81
505.123	77.81
505.34	88.81
505.557	83.81
505.773	77.81
505.99	93.81
506.207	77.81
506.423	87.81
506.64	72.81
506.856	84.81
507.073	82.81
507.289	91.81
507.506	92.81
507.722	77.81
507.939	91.81
508.155	90.81
508.372	87.81
508.588	80.81
508.805	77.81
509.021	83.81
509.238	76.81
509.454	67.81
509.67	78.81
509.887	76.81
510.103	91.81
510.319	95.81
510.536	86.81
510.752	72.81
510.968	88.81
511.184	83.81
511.401	87.81
511.617	83.81
511.833	86.81
512.049	86.81
512.265	77.81
512.481	89.81
512.698	85.81
512.914	90.81
513.13	91.81
513.346	75.81
513.562	100.81
513.778	91.81
513.994	88.81
514.21	83.81
514.426	94.81
514.642	90.81
514.858	85.81
515.074	76.81
515.29	81.81
515.506	85.81
515.721	89.81
515.937	90.81
516.153	81.81
516.369	92.81
516.585	72.81
516.801	81.81
517.016	88.81
517.232	81.81
517.448	108.81
517.664	91.81
517.879	73.81
518.095	91.81
518.311	96.81
518.527	111.81
518.742	99.81
518.958	87.81
519.173	104.81
