Data from 1600_2_HRD10591_00001.txt Node
Date: Mon Jan 19 13:53:41 EST 2026
User: Yrep
Spectrometer: HR+D1059
Trigger mode: 1
Integration Time (sec): 1.000000E-1
Scans to average: 1
Electric dark correction enabled: true
Nonlinearity correction enabled: false
Boxcar width: 0
XAxis mode: Wavelengths
Number of Pixels in Spectrum: 2048
>>>>>Begin Spectral Data<<<<<
223.165	-28
223.4	-28
223.635	-28
223.869	-19
224.104	-23
224.338	-9
224.573	-16
224.808	-4
225.042	-7
225.277	1
225.511	-9
225.746	1
225.98	16
226.215	9
226.449	17
226.683	17
226.918	26
227.152	28
227.387	38
227.621	36
227.856	57
228.09	49
228.324	61
228.559	52
228.793	50
229.027	66
229.262	70
229.496	61
229.73	73
229.964	53
230.199	78
230.433	66
230.667	70
230.901	67
231.136	73
231.37	65
231.604	79
231.838	77
232.072	78
232.306	67
232.541	92
232.775	89
233.009	72
233.243	84
233.477	78
233.711	67
233.945	92
234.179	79
234.413	83
234.647	86
234.881	76
235.115	73
235.349	84
235.583	80
235.817	91
236.051	78
236.285	88
236.519	78
236.753	78
236.987	75
237.221	85
237.455	78
237.689	86
237.922	80
238.156	64
238.39	68
238.624	85
238.858	74
239.091	70
239.325	68
239.559	72
239.793	77
240.027	70
240.26	71
240.494	81
240.728	82
240.961	64
241.195	70
241.429	89
241.662	71
241.896	94
242.13	73
242.363	79
242.597	81
242.83	90
243.064	83
243.298	73
243.531	66
243.765	82
243.998	77
244.232	86
244.465	79
244.699	68
244.932	77
245.166	78
245.399	85
245.633	92
245.866	78
246.099	78
246.333	71
246.566	65
246.8	86
247.033	88
247.266	81
247.5	74
247.733	78
247.966	89
248.2	82
248.433	81
248.666	82
248.899	71
249.133	89
249.366	85
249.599	90
249.832	87
250.066	70
250.299	79
250.532	82
250.765	86
250.998	76
251.231	76
251.465	83
251.698	77
251.931	79
252.164	82
252.397	89
252.63	92
252.863	76
253.096	80
253.329	82
253.562	75
253.795	64
254.028	92
254.261	71
254.494	76
254.727	82
254.96	79
255.193	78
255.426	66
255.659	78
255.892	86
256.124	72
256.357	68
256.59	88
256.823	82
257.056	78
257.289	93
257.521	81
257.754	84
257.987	81
258.22	74
258.452	79
258.685	72
258.918	88
259.151	77
259.383	72
259.616	80
259.849	74
260.081	84
260.314	84
260.547	84
260.779	84
261.012	81
261.244	64
261.477	76
261.71	91
261.942	84
262.175	88
262.407	79
262.64	80
262.872	81
263.105	73
263.337	82
263.57	72
263.802	93
264.035	93
264.267	81
264.499	88
264.732	80
264.964	69
265.197	81
265.429	94
265.661	78
265.894	94
266.126	79
266.358	73
266.591	73
266.823	82
267.055	76
267.287	65
267.52	68
267.752	72
267.984	81
268.216	77
268.448	89
268.681	77
268.913	75
269.145	88
269.377	89
269.609	73
269.841	92
270.073	86
270.306	91
270.538	81
270.77	89
271.002	101
271.234	72
271.466	89
271.698	70
271.93	90
272.162	79
272.394	103
272.626	84
272.858	86
273.09	82
273.322	80
273.553	92
273.785	95
274.017	105
274.249	86
274.481	88
274.713	81
274.945	82
275.176	89
275.408	88
275.64	63
275.872	71
276.104	79
276.335	87
276.567	92
276.799	88
277.031	91
277.262	72
277.494	90
277.726	98
277.957	77
278.189	85
278.421	85
278.652	91
278.884	78
279.115	98
279.347	94
279.579	82
279.81	79
280.042	83
280.273	97
280.505	83
280.736	79
280.968	81
281.199	87
281.431	85
281.662	92
281.894	91
282.125	84
282.356	85
282.588	77
282.819	84
283.051	80
283.282	82
283.513	71
283.745	80
283.976	94
284.207	84
284.439	85
284.67	102
284.901	93
285.132	86
285.364	93
285.595	90
285.826	87
286.057	96
286.288	78
286.52	79
286.751	74
286.982	84
287.213	86
287.444	75
287.675	92
287.906	87
288.138	97
288.369	103
288.6	90
288.831	74
289.062	84
289.293	95
289.524	72
289.755	92
289.986	91
290.217	71
290.448	90
290.679	83
290.91	90
291.141	86
291.371	87
291.602	99
291.833	89
292.064	72
292.295	100
292.526	93
292.757	88
292.987	100
293.218	92
293.449	88
293.68	95
293.91	93
294.141	95
294.372	82
294.603	76
294.833	75
295.064	79
295.295	79
295.525	94
295.756	99
295.987	88
296.217	95
296.448	90
296.679	91
296.909	90
297.14	86
297.37	103
297.601	95
297.831	73
298.062	93
298.292	83
298.523	81
298.753	91
298.984	93
299.214	93
299.445	74
299.675	88
299.905	105
300.136	92
300.366	89
300.597	81
300.827	77
301.057	84
301.288	86
301.518	103
301.748	92
301.979	104
302.209	88
302.439	95
302.669	80
302.9	84
303.13	91
303.36	78
303.59	92
303.82	74
304.051	88
304.281	83
304.511	93
304.741	80
304.971	86
305.201	93
305.431	91
305.661	85
305.891	93
306.121	79
306.352	78
306.582	81
306.812	87
307.042	80
307.272	86
307.502	89
307.731	94
307.961	89
308.191	84
308.421	89
308.651	101
308.881	101
309.111	100
309.341	103
309.571	86
309.8	103
310.03	92
310.26	72
310.49	79
310.72	83
310.949	84
311.179	92
311.409	76
311.639	72
311.868	88
312.098	93
312.328	85
312.557	89
312.787	98
313.017	83
313.246	72
313.476	91
313.706	86
313.935	89
314.165	80
314.394	84
314.624	90
314.853	97
315.083	100
315.312	82
315.542	82
315.771	76
316.001	87
316.23	84
316.46	86
316.689	88
316.919	90
317.148	89
317.377	83
317.607	88
317.836	80
318.065	97
318.295	88
318.524	85
318.753	90
318.983	88
319.212	80
319.441	88
319.67	101
319.9	75
320.129	86
320.358	84
320.587	82
320.816	78
321.046	92
321.275	91
321.504	97
321.733	86
321.962	87
322.191	79
322.42	77
322.649	79
322.878	90
323.108	79
323.337	87
323.566	94
323.795	89
324.024	71
324.253	77
324.482	86
324.71	85
324.939	83
325.168	77
325.397	88
325.626	84
325.855	98
326.084	95
326.313	104
326.542	87
326.77	88
326.999	80
327.228	95
327.457	91
327.686	79
327.914	81
328.143	87
328.372	92
328.6	74
328.829	94
329.058	82
329.287	90
329.515	85
329.744	89
329.972	83
330.201	71
330.43	82
330.658	82
330.887	75
331.115	67
331.344	92
331.572	82
331.801	92
332.03	95
332.258	80
332.486	99
332.715	85
332.943	83
333.172	77
333.4	81
333.629	85
333.857	78
334.085	92
334.314	80
334.542	98
334.771	87
334.999	86
335.227	88
335.455	86
335.684	93
335.912	91
336.14	73
336.369	81
336.597	82
336.825	89
337.053	77
337.281	80
337.51	87
337.738	86
337.966	76
338.194	81
338.422	87
338.65	84
338.878	87
339.106	76
339.334	86
339.562	80
339.79	84
340.018	80
340.246	75
340.474	89
340.702	88
340.93	79
341.158	88
341.386	79
341.614	92
341.842	94
342.07	71
342.298	82
342.526	89
342.754	76
342.981	74
343.209	83
343.437	98
343.665	92
343.893	80
344.12	90
344.348	98
344.576	102
344.804	84
345.031	92
345.259	88
345.487	74
345.714	88
345.942	90
346.17	74
346.397	77
346.625	85
346.853	89
347.08	89
347.308	79
347.535	87
347.763	84
347.99	86
348.218	95
348.445	88
348.673	93
348.9	84
349.128	82
349.355	85
349.583	81
349.81	81
350.037	74
350.265	96
350.492	93
350.72	86
350.947	82
351.174	61
351.402	68
351.629	73
351.856	90
352.083	83
352.311	73
352.538	96
352.765	92
352.992	96
353.22	88
353.447	90
353.674	79
353.901	57
354.128	88
354.355	83
354.583	85
354.81	85
355.037	66
355.264	78
355.491	88
355.718	69
355.945	74
356.172	90
356.399	87
356.626	90
356.853	87
357.08	97
357.307	89
357.534	84
357.761	84
357.988	90
358.215	101
358.441	95
358.668	81
358.895	86
359.122	89
359.349	86
359.576	87
359.802	89
360.029	80
360.256	80
360.483	73
360.709	87
360.936	95
361.163	96
361.39	82
361.616	97
361.843	90
362.07	84
362.296	105
362.523	88
362.749	88
362.976	96
363.203	98
363.429	88
363.656	86
363.882	92
364.109	84
364.335	106
364.562	103
364.788	97
365.015	80
365.241	93
365.468	88
365.694	81
365.92	86
366.147	93
366.373	74
366.599	74
366.826	79
367.052	81
367.278	85
367.505	87
367.731	92
367.957	92
368.184	88
368.41	82
368.636	87
368.862	88
369.089	81
369.315	78
369.541	89
369.767	92
369.993	93
370.219	106
370.445	94
370.672	103
370.898	97
371.124	91
371.35	82
371.576	75
371.802	86
372.028	92
372.254	98
372.48	82
372.706	93
372.932	86
373.158	86
373.384	117
373.61	110
373.835	99
374.061	78
374.287	90
374.513	83
374.739	94
374.965	96
375.191	98
375.416	84
375.642	83
375.868	74
376.094	84
376.319	84
376.545	95
376.771	96
376.997	87
377.222	86
377.448	75
377.674	80
377.899	74
378.125	79
378.35	88
378.576	90
378.802	80
379.027	86
379.253	85
379.478	83
379.704	86
379.929	92
380.155	88
380.38	77
380.606	83
380.831	101
381.057	98
381.282	74
381.507	86
381.733	89
381.958	96
382.184	89
382.409	103
382.634	99
382.86	102
383.085	100
383.31	101
383.535	93
383.761	96
383.986	104
384.211	96
384.436	88
384.662	80
384.887	98
385.112	81
385.337	99
385.562	80
385.787	80
386.013	100
386.238	84
386.463	88
386.688	85
386.913	80
387.138	86
387.363	87
387.588	106
387.813	95
388.038	93
388.263	84
388.488	95
388.713	108
388.938	88
389.163	88
389.387	94
389.612	76
389.837	84
390.062	86
390.287	74
390.512	86
390.736	88
390.961	88
391.186	90
391.411	86
391.636	80
391.86	78
392.085	90
392.31	86
392.534	88
392.759	92
392.984	116
393.208	138
393.433	166
393.658	146
393.882	108
394.107	98
394.331	98
394.556	116
394.78	90
395.005	90
395.229	89
395.454	96
395.678	82
395.903	109
396.127	120
396.352	122
396.576	113
396.801	141
397.025	143
397.249	115
397.474	97
397.698	94
397.922	75
398.147	92
398.371	79
398.595	82
398.82	80
399.044	79
399.268	71
399.492	84
399.717	72
399.941	96
400.165	82
400.389	96
400.613	74
400.837	88
401.062	86
401.286	83
401.51	85
401.734	80
401.958	89
402.182	80
402.406	85
402.63	76
402.854	85
403.078	79
403.302	105
403.526	97
403.75	91
403.974	89
404.198	83
404.422	131
404.645	129
404.869	101
405.093	76
405.317	82
405.541	76
405.765	88
405.988	83
406.212	93
406.436	94
406.66	89
406.883	89
407.107	94
407.331	92
407.555	90
407.778	90
408.002	77
408.226	79
408.449	89
408.673	66
408.896	76
409.12	88
409.344	86
409.567	94
409.791	101
410.014	88
410.238	74
410.461	84
410.685	79
410.908	84
411.132	86
411.355	97
411.578	85
411.802	74
412.025	85
412.249	84
412.472	88
412.695	72
412.919	77
413.142	88
413.365	81
413.589	87
413.812	74
414.035	93
414.258	74
414.482	76
414.705	65
414.928	84
415.151	82
415.374	83
415.597	84
415.821	81
416.044	77
416.267	78
416.49	85
416.713	75
416.936	83
417.159	63
417.382	81
417.605	78
417.828	98
418.051	84
418.274	80
418.497	84
418.72	96
418.943	80
419.166	79
419.389	84
419.611	72
419.834	79
420.057	96
420.28	91
420.503	74
420.726	88
420.948	87
421.171	84
421.394	85
421.617	87
421.839	98
422.062	100
422.285	110
422.507	162
422.73	246
422.953	218
423.175	104
423.398	105
423.621	99
423.843	86
424.066	99
424.288	76
424.511	85
424.733	85
424.956	84
425.178	76
425.401	79
425.623	96
425.846	93
426.068	84
426.291	84
426.513	85
426.735	91
426.958	81
427.18	86
427.402	88
427.625	84
427.847	83
428.069	97
428.292	95
428.514	108
428.736	96
428.958	118
429.181	100
429.403	87
429.625	92
429.847	112
430.069	120
430.292	119
430.514	119
430.736	106
430.958	116
431.18	87
431.402	86
431.624	96
431.846	104
432.068	121
432.29	90
432.512	85
432.734	100
432.956	63
433.178	67
433.4	83
433.622	86
433.844	93
434.066	83
434.287	81
434.509	74
434.731	76
434.953	74
435.175	84
435.397	93
435.618	93
435.84	63
436.062	74
436.284	82
436.505	81
436.727	86
436.949	77
437.17	78
437.392	91
437.614	82
437.835	85
438.057	101
438.278	76
438.5	109
438.721	81
438.943	88
439.165	92
439.386	86
439.608	83
439.829	92
440.05	86
440.272	66
440.493	79
440.715	83
440.936	70
441.158	68
441.379	74
441.6	82
441.822	82
442.043	87
442.264	87
442.486	106
442.707	122
442.928	108
443.149	83
443.371	108
443.592	142
443.813	148
444.034	94
444.255	86
444.476	98
444.698	101
444.919	85
445.14	172
445.361	167
445.582	166
445.803	159
446.024	94
446.245	96
446.466	101
446.687	88
446.908	93
447.129	82
447.35	90
447.571	94
447.792	76
448.013	75
448.234	76
448.455	89
448.675	78
448.896	79
449.117	83
449.338	78
449.559	82
449.779	78
450	70
450.221	94
450.442	100
450.662	93
450.883	88
451.104	80
451.324	90
451.545	73
451.766	64
451.986	79
452.207	90
452.428	83
452.648	80
452.869	88
453.089	73
453.31	85
453.53	74
453.751	96
453.971	79
454.192	90
454.412	90
454.633	83
454.853	77
455.073	82
455.294	88
455.514	98
455.734	77
455.955	90
456.175	89
456.395	76
456.616	78
456.836	84
457.056	88
457.276	83
457.497	85
457.717	78
457.937	85
458.157	98
458.377	98
458.598	110
458.818	93
459.038	95
459.258	82
459.478	80
459.698	88
459.918	80
460.138	92
460.358	90
460.578	98
460.798	98
461.018	102
461.238	85
461.458	92
461.678	84
461.898	83
462.118	90
462.338	98
462.558	88
462.777	91
462.997	85
463.217	90
463.437	71
463.657	86
463.876	82
464.096	90
464.316	84
464.536	84
464.755	89
464.975	70
465.195	93
465.414	90
465.634	84
465.854	77
466.073	77
466.293	85
466.512	94
466.732	82
466.951	82
467.171	80
467.391	87
467.61	79
467.829	94
468.049	84
468.268	84
468.488	79
468.707	78
468.927	85
469.146	95
469.365	79
469.585	86
469.804	89
470.023	93
470.243	104
470.462	91
470.681	74
470.901	74
471.12	80
471.339	91
471.558	79
471.777	72
471.997	87
472.216	95
472.435	87
472.654	82
472.873	90
473.092	85
473.311	105
473.53	84
473.749	78
473.968	74
474.187	82
474.406	75
474.625	89
474.844	97
475.063	86
475.282	66
475.501	92
475.72	88
475.939	93
476.158	88
476.377	80
476.596	81
476.814	83
477.033	84
477.252	88
477.471	88
477.69	84
477.908	80
478.127	91
478.346	72
478.564	93
478.783	79
479.002	72
479.22	77
479.439	70
479.658	75
479.876	87
480.095	97
480.313	70
480.532	97
480.751	84
480.969	85
481.188	82
481.406	100
481.624	90
481.843	90
482.061	92
482.28	74
482.498	82
482.717	84
482.935	99
483.153	85
483.372	89
483.59	85
483.808	70
484.027	72
484.245	87
484.463	90
484.681	97
484.9	85
485.118	82
485.336	74
485.554	89
485.772	79
485.99	81
486.209	85
486.427	95
486.645	86
486.863	79
487.081	82
487.299	83
487.517	88
487.735	102
487.953	104
488.171	89
488.389	86
488.607	79
488.825	92
489.043	91
489.261	84
489.479	81
489.696	92
489.914	93
490.132	86
490.35	81
490.568	73
490.786	80
491.003	93
491.221	69
491.439	93
491.657	91
491.874	85
492.092	84
492.31	88
492.527	83
492.745	86
492.963	91
493.18	74
493.398	78
493.615	85
493.833	83
494.05	68
494.268	80
494.485	82
494.703	87
494.92	97
495.138	71
495.355	85
495.573	105
495.79	88
496.008	84
496.225	86
496.442	87
496.66	83
496.877	83
497.094	75
497.312	100
497.529	98
497.746	82
497.963	93
498.181	105
498.398	102
498.615	96
498.832	92
499.049	72
499.267	80
499.484	80
499.701	90
499.918	73
500.135	100
500.352	82
500.569	80
500.786	97
501.003	73
501.22	83
501.437	90
501.654	85
501.871	92
502.088	96
502.305	77
502.522	76
502.739	87
502.956	86
503.172	96
503.389	83
503.606	84
503.823	101
504.04	96
504.256	98
504.473	90
504.69	84
504.907	78
505.123	92
505.34	92
505.557	78
505.773	92
505.99	82
506.207	90
506.423	79
506.64	82
506.856	86
507.073	88
507.289	78
507.506	96
507.722	92
507.939	80
508.155	81
508.372	86
508.588	87
508.805	75
509.021	90
509.238	84
509.454	88
509.67	99
509.887	82
510.103	82
510.319	86
510.536	86
510.752	92
510.968	80
511.184	84
511.401	82
511.617	77
511.833	84
512.049	92
512.265	82
512.481	81
512.698	65
512.914	96
513.13	89
513.346	92
513.562	78
513.778	82
513.994	85
514.21	85
514.426	99
514.642	82
514.858	89
515.074	77
515.29	92
515.506	82
515.721	92
515.937	75
516.153	86
516.369	91
516.585	83
516.801	84
517.016	97
517.232	90
517.448	98
517.664	91
517.879	81
518.095	86
518.311	104
518.527	116
518.742	114
518.958	99
519.173	103
519.389	101
519.605	97
519.82	90
520.036	94
520.251	86
520.467	79
520.682	93
520.898	90
521.113	86
521.329	85
521.544	94
521.76	89
521.975	92
522.19	89
522.406	82
522.621	88
522.836	85
523.052	82
523.267	101
523.482	91
523.698	92
523.913	104
524.128	85
524.343	76
524.559	84
524.774	82
524.989	97
525.204	81
525.419	80
525.634	83
525.849	89
526.064	114
526.28	130
526.495	156
526.71	188
526.925	147
527.14	151
527.355	149
527.57	90
527.785	79
527.999	70
528.214	78
528.429	78
528.644	86
528.859	85
529.074	81
529.289	89
529.503	87
529.718	94
529.933	91
530.148	88
530.363	80
530.577	72
530.792	90
531.007	83
531.221	89
531.436	93
531.651	88
531.865	82
532.08	89
532.295	92
532.509	91
532.724	83
532.938	88
533.153	81
533.367	74
533.582	84
533.796	82
534.011	95
534.225	97
534.44	90
534.654	104
534.868	85
535.083	89
535.297	103
535.511	84
535.726	84
535.94	84
536.154	92
536.369	83
536.583	84
536.797	93
537.011	81
537.225	94
537.44	79
537.654	97
537.868	92
538.082	96
538.296	84
538.51	98
538.724	100
538.938	93
539.153	88
539.367	75
539.581	86
539.795	81
540.009	85
540.222	102
540.436	79
540.65	96
540.864	85
541.078	72
541.292	99
541.506	94
541.72	92
541.934	96
542.147	95
542.361	98
542.575	92
542.789	100
543.002	95
543.216	94
543.43	88
543.644	104
543.857	95
544.071	84
544.285	94
544.498	80
544.712	92
544.925	94
545.139	96
545.352	90
545.566	82
545.779	83
545.993	76
546.206	85
546.42	89
546.633	93
546.847	102
547.06	99
547.274	103
547.487	86
547.7	106
547.914	93
548.127	106
548.34	94
548.554	112
548.767	112
548.98	112
549.193	112
549.407	99
549.62	106
549.833	95
550.046	104
550.259	118
550.473	114
550.686	120
550.899	121
551.112	117
551.325	115
551.538	123
551.751	131
551.964	127
552.177	117
552.39	115
552.603	113
552.816	109
553.029	116
553.242	119
553.455	116
553.667	116
553.88	107
554.093	126
554.306	126
554.519	125
554.732	131
554.944	126
555.157	114
555.37	115
555.583	118
555.795	118
556.008	109
556.221	115
556.433	102
556.646	114
556.859	103
557.071	96
557.284	92
557.496	99
557.709	97
557.921	97
558.134	100
558.346	122
558.559	119
558.771	108
558.984	174
559.196	192
559.409	129
559.621	166
559.833	148
560.046	145
560.258	155
560.47	122
560.683	99
560.895	98
561.107	84
561.32	103
561.532	86
561.744	94
561.956	92
562.168	78
562.381	89
562.593	101
562.805	91
563.017	97
563.229	95
563.441	98
563.653	89
563.865	98
564.077	76
564.289	96
564.501	91
564.713	103
564.925	85
565.137	92
565.349	115
565.561	94
565.773	92
565.985	77
566.197	88
566.408	90
566.62	84
566.832	82
567.044	97
567.255	94
567.467	88
567.679	69
567.891	86
568.102	100
568.314	99
568.526	93
568.737	94
568.949	88
569.161	91
569.372	94
569.584	94
569.795	100
570.007	95
570.218	92
570.43	95
570.641	98
570.853	85
571.064	99
571.276	90
571.487	96
571.698	88
571.91	80
572.121	96
572.333	95
572.544	85
572.755	80
572.966	82
573.178	92
573.389	93
573.6	80
573.811	89
574.023	71
574.234	89
574.445	101
574.656	90
574.867	91
575.078	96
575.289	87
575.501	89
575.712	73
575.923	87
576.134	89
576.345	76
576.556	81
576.767	94
576.978	83
577.188	71
577.399	82
577.61	87
577.821	93
578.032	102
578.243	91
578.454	88
578.665	101
578.875	81
579.086	79
579.297	98
579.508	92
579.718	92
579.929	92
580.14	80
580.35	84
580.561	93
580.772	94
580.982	89
581.193	91
581.403	92
581.614	96
581.825	80
582.035	92
582.246	94
582.456	97
582.667	74
582.877	83
583.087	93
583.298	86
583.508	105
583.719	105
583.929	89
584.139	88
584.35	99
584.56	99
584.77	74
584.981	84
585.191	108
585.401	96
585.611	78
585.821	119
586.032	146
586.242	102
586.452	80
586.662	76
586.872	99
587.082	86
587.292	89
587.502	78
587.713	81
