Data from 1600_2_HRD10591_00032.txt Node
Date: Mon Jan 19 13:53:57 EST 2026
User: Yrep
Spectrometer: HR+D1059
Trigger mode: 1
Integration Time (sec): 1.000000E-1
Scans to average: 1
Electric dark correction enabled: true
Nonlinearity correction enabled: false
Boxcar width: 0
XAxis mode: Wavelengths
Number of Pixels in Spectrum: 2048
>>>>>Begin Spectral Data<<<<<
223.165	-11.38
223.4	-11.38
223.635	-11.38
223.869	-21.38
224.104	-26.38
224.338	-24.38
224.573	-1.38
224.808	-3.38
225.042	-12.38
225.277	-2.38
225.511	7.62
225.746	0.62
225.98	14.62
226.215	16.62
226.449	14.62
226.683	17.62
226.918	5.62
227.152	25.62
227.387	27.62
227.621	42.62
227.856	52.62
228.09	50.62
228.324	47.62
228.559	53.62
228.793	58.62
229.027	59.62
229.262	61.62
229.496	67.62
229.73	53.62
229.964	89.62
230.199	80.62
230.433	78.62
230.667	99.62
230.901	82.62
231.136	75.62
231.37	72.62
231.604	86.62
231.838	76.62
232.072	74.62
232.306	84.62
232.541	80.62
232.775	73.62
233.009	85.62
233.243	68.62
233.477	72.62
233.711	86.62
233.945	97.62
234.179	77.62
234.413	81.62
234.647	84.62
234.881	75.62
235.115	78.62
235.349	66.62
235.583	83.62
235.817	78.62
236.051	79.62
236.285	74.62
236.519	79.62
236.753	75.62
236.987	85.62
237.221	74.62
237.455	75.62
237.689	90.62
237.922	79.62
238.156	69.62
238.39	80.62
238.624	72.62
238.858	72.62
239.091	76.62
239.325	80.62
239.559	77.62
239.793	89.62
240.027	79.62
240.26	64.62
240.494	68.62
240.728	85.62
240.961	76.62
241.195	80.62
241.429	71.62
241.662	78.62
241.896	75.62
242.13	85.62
242.363	65.62
242.597	81.62
242.83	69.62
243.064	72.62
243.298	87.62
243.531	69.62
243.765	76.62
243.998	80.62
244.232	80.62
244.465	74.62
244.699	80.62
244.932	76.62
245.166	73.62
245.399	84.62
245.633	72.62
245.866	78.62
246.099	92.62
246.333	60.62
246.566	75.62
246.8	82.62
247.033	82.62
247.266	72.62
247.5	84.62
247.733	78.62
247.966	82.62
248.2	75.62
248.433	83.62
248.666	78.62
248.899	82.62
249.133	74.62
249.366	86.62
249.599	86.62
249.832	83.62
250.066	76.62
250.299	69.62
250.532	80.62
250.765	91.62
250.998	76.62
251.231	78.62
251.465	78.62
251.698	82.62
251.931	70.62
252.164	67.62
252.397	82.62
252.63	71.62
252.863	93.62
253.096	84.62
253.329	80.62
253.562	92.62
253.795	89.62
254.028	85.62
254.261	66.62
254.494	71.62
254.727	80.62
254.96	85.62
255.193	78.62
255.426	98.62
255.659	85.62
255.892	90.62
256.124	84.62
256.357	80.62
256.59	70.62
256.823	97.62
257.056	75.62
257.289	84.62
257.521	77.62
257.754	88.62
257.987	80.62
258.22	81.62
258.452	71.62
258.685	90.62
258.918	78.62
259.151	87.62
259.383	94.62
259.616	89.62
259.849	89.62
260.081	75.62
260.314	72.62
260.547	70.62
260.779	72.62
261.012	78.62
261.244	89.62
261.477	75.62
261.71	73.62
261.942	80.62
262.175	76.62
262.407	84.62
262.64	70.62
262.872	80.62
263.105	82.62
263.337	90.62
263.57	89.62
263.802	83.62
264.035	89.62
264.267	76.62
264.499	75.62
264.732	80.62
264.964	72.62
265.197	88.62
265.429	93.62
265.661	74.62
265.894	70.62
266.126	84.62
266.358	81.62
266.591	73.62
266.823	75.62
267.055	72.62
267.287	88.62
267.52	88.62
267.752	80.62
267.984	81.62
268.216	71.62
268.448	74.62
268.681	99.62
268.913	75.62
269.145	71.62
269.377	72.62
269.609	82.62
269.841	83.62
270.073	92.62
270.306	78.62
270.538	79.62
270.77	78.62
271.002	73.62
271.234	82.62
271.466	81.62
271.698	87.62
271.93	89.62
272.162	77.62
272.394	92.62
272.626	73.62
272.858	71.62
273.09	84.62
273.322	89.62
273.553	76.62
273.785	81.62
274.017	79.62
274.249	82.62
274.481	87.62
274.713	82.62
274.945	88.62
275.176	83.62
275.408	84.62
275.64	80.62
275.872	88.62
276.104	89.62
276.335	71.62
276.567	71.62
276.799	74.62
277.031	75.62
277.262	98.62
277.494	80.62
277.726	73.62
277.957	74.62
278.189	80.62
278.421	82.62
278.652	97.62
278.884	92.62
279.115	96.62
279.347	92.62
279.579	77.62
279.81	88.62
280.042	80.62
280.273	82.62
280.505	83.62
280.736	100.62
280.968	83.62
281.199	77.62
281.431	93.62
281.662	88.62
281.894	76.62
282.125	81.62
282.356	83.62
282.588	84.62
282.819	84.62
283.051	88.62
283.282	91.62
283.513	90.62
283.745	87.62
283.976	92.62
284.207	78.62
284.439	87.62
284.67	92.62
284.901	90.62
285.132	86.62
285.364	90.62
285.595	99.62
285.826	90.62
286.057	88.62
286.288	85.62
286.52	62.62
286.751	68.62
286.982	63.62
287.213	79.62
287.444	79.62
287.675	90.62
287.906	83.62
288.138	96.62
288.369	112.62
288.6	77.62
288.831	84.62
289.062	87.62
289.293	85.62
289.524	100.62
289.755	89.62
289.986	78.62
290.217	74.62
290.448	100.62
290.679	92.62
290.91	84.62
291.141	81.62
291.371	90.62
291.602	92.62
291.833	93.62
292.064	92.62
292.295	80.62
292.526	86.62
292.757	96.62
292.987	78.62
293.218	93.62
293.449	89.62
293.68	73.62
293.91	80.62
294.141	91.62
294.372	78.62
294.603	92.62
294.833	91.62
295.064	101.62
295.295	71.62
295.525	89.62
295.756	71.62
295.987	82.62
296.217	84.62
296.448	73.62
296.679	80.62
296.909	92.62
297.14	96.62
297.37	85.62
297.601	93.62
297.831	79.62
298.062	93.62
298.292	92.62
298.523	95.62
298.753	97.62
298.984	84.62
299.214	101.62
299.445	89.62
299.675	93.62
299.905	86.62
300.136	98.62
300.366	96.62
300.597	100.62
300.827	84.62
301.057	85.62
301.288	81.62
301.518	86.62
301.748	72.62
301.979	93.62
302.209	86.62
302.439	91.62
302.669	98.62
302.9	95.62
303.13	92.62
303.36	99.62
303.59	87.62
303.82	89.62
304.051	88.62
304.281	95.62
304.511	102.62
304.741	81.62
304.971	75.62
305.201	97.62
305.431	80.62
305.661	84.62
305.891	92.62
306.121	91.62
306.352	90.62
306.582	95.62
306.812	90.62
307.042	88.62
307.272	78.62
307.502	95.62
307.731	91.62
307.961	113.62
308.191	105.62
308.421	99.62
308.651	96.62
308.881	87.62
309.111	96.62
309.341	110.62
309.571	116.62
309.8	98.62
310.03	90.62
310.26	105.62
310.49	81.62
310.72	82.62
310.949	90.62
311.179	81.62
311.409	70.62
311.639	93.62
311.868	104.62
312.098	88.62
312.328	90.62
312.557	92.62
312.787	80.62
313.017	69.62
313.246	82.62
313.476	84.62
313.706	84.62
313.935	78.62
314.165	88.62
314.394	80.62
314.624	91.62
314.853	83.62
315.083	74.62
315.312	78.62
315.542	81.62
315.771	95.62
316.001	88.62
316.23	91.62
316.46	92.62
316.689	75.62
316.919	75.62
317.148	86.62
317.377	72.62
317.607	89.62
317.836	94.62
318.065	92.62
318.295	88.62
318.524	94.62
318.753	105.62
318.983	80.62
319.212	103.62
319.441	94.62
319.67	82.62
319.9	84.62
320.129	90.62
320.358	86.62
320.587	91.62
320.816	87.62
321.046	84.62
321.275	88.62
321.504	94.62
321.733	108.62
321.962	99.62
322.191	78.62
322.42	78.62
322.649	86.62
322.878	88.62
323.108	83.62
323.337	76.62
323.566	76.62
323.795	85.62
324.024	81.62
324.253	86.62
324.482	92.62
324.71	92.62
324.939	95.62
325.168	74.62
325.397	88.62
325.626	79.62
325.855	86.62
326.084	92.62
326.313	78.62
326.542	89.62
326.77	83.62
326.999	90.62
327.228	84.62
327.457	92.62
327.686	88.62
327.914	101.62
328.143	99.62
328.372	85.62
328.6	89.62
328.829	75.62
329.058	91.62
329.287	103.62
329.515	85.62
329.744	93.62
329.972	88.62
330.201	100.62
330.43	87.62
330.658	88.62
330.887	83.62
331.115	86.62
331.344	77.62
331.572	82.62
331.801	67.62
332.03	72.62
332.258	84.62
332.486	83.62
332.715	84.62
332.943	85.62
333.172	90.62
333.4	96.62
333.629	75.62
333.857	99.62
334.085	82.62
334.314	76.62
334.542	94.62
334.771	84.62
334.999	88.62
335.227	89.62
335.455	81.62
335.684	91.62
335.912	98.62
336.14	92.62
336.369	92.62
336.597	83.62
336.825	96.62
337.053	90.62
337.281	96.62
337.51	82.62
337.738	100.62
337.966	104.62
338.194	75.62
338.422	95.62
338.65	84.62
338.878	110.62
339.106	90.62
339.334	93.62
339.562	99.62
339.79	92.62
340.018	80.62
340.246	80.62
340.474	87.62
340.702	79.62
340.93	96.62
341.158	88.62
341.386	92.62
341.614	93.62
341.842	79.62
342.07	77.62
342.298	96.62
342.526	78.62
342.754	87.62
342.981	88.62
343.209	89.62
343.437	89.62
343.665	103.62
343.893	91.62
344.12	94.62
344.348	92.62
344.576	88.62
344.804	98.62
345.031	87.62
345.259	75.62
345.487	82.62
345.714	96.62
345.942	88.62
346.17	90.62
346.397	95.62
346.625	96.62
346.853	84.62
347.08	83.62
347.308	88.62
347.535	84.62
347.763	98.62
347.99	79.62
348.218	82.62
348.445	80.62
348.673	85.62
348.9	90.62
349.128	100.62
349.355	93.62
349.583	76.62
349.81	93.62
350.037	87.62
350.265	88.62
350.492	99.62
350.72	75.62
350.947	85.62
351.174	84.62
351.402	86.62
351.629	81.62
351.856	78.62
352.083	78.62
352.311	86.62
352.538	87.62
352.765	92.62
352.992	87.62
353.22	87.62
353.447	86.62
353.674	80.62
353.901	97.62
354.128	98.62
354.355	105.62
354.583	74.62
354.81	86.62
355.037	83.62
355.264	85.62
355.491	96.62
355.718	97.62
355.945	94.62
356.172	88.62
356.399	94.62
356.626	96.62
356.853	100.62
357.08	105.62
357.307	99.62
357.534	81.62
357.761	84.62
357.988	108.62
358.215	97.62
358.441	112.62
358.668	101.62
358.895	94.62
359.122	83.62
359.349	90.62
359.576	92.62
359.802	87.62
360.029	89.62
360.256	78.62
360.483	90.62
360.709	98.62
360.936	109.62
361.163	100.62
361.39	108.62
361.616	86.62
361.843	107.62
362.07	123.62
362.296	109.62
362.523	102.62
362.749	105.62
362.976	106.62
363.203	124.62
363.429	101.62
363.656	80.62
363.882	101.62
364.109	128.62
364.335	113.62
364.562	122.62
364.788	108.62
365.015	96.62
365.241	98.62
365.468	88.62
365.694	94.62
365.92	103.62
366.147	83.62
366.373	85.62
366.599	86.62
366.826	95.62
367.052	79.62
367.278	92.62
367.505	85.62
367.731	114.62
367.957	92.62
368.184	94.62
368.41	85.62
368.636	94.62
368.862	92.62
369.089	84.62
369.315	75.62
369.541	83.62
369.767	96.62
369.993	80.62
370.219	82.62
370.445	87.62
370.672	102.62
370.898	93.62
371.124	97.62
371.35	84.62
371.576	94.62
371.802	96.62
372.028	112.62
372.254	104.62
372.48	92.62
372.706	95.62
372.932	97.62
373.158	100.62
373.384	122.62
373.61	124.62
373.835	136.62
374.061	101.62
374.287	97.62
374.513	127.62
374.739	114.62
374.965	124.62
375.191	100.62
375.416	86.62
375.642	97.62
375.868	93.62
376.094	114.62
376.319	96.62
376.545	101.62
376.771	95.62
376.997	84.62
377.222	101.62
377.448	80.62
377.674	96.62
377.899	89.62
378.125	99.62
378.35	84.62
378.576	85.62
378.802	86.62
379.027	94.62
379.253	100.62
379.478	92.62
379.704	87.62
379.929	98.62
380.155	86.62
380.38	74.62
380.606	92.62
380.831	98.62
381.057	93.62
381.282	86.62
381.507	108.62
381.733	96.62
381.958	93.62
382.184	117.62
382.409	124.62
382.634	121.62
382.86	132.62
383.085	131.62
383.31	126.62
383.535	125.62
383.761	136.62
383.986	138.62
384.211	121.62
384.436	101.62
384.662	103.62
384.887	89.62
385.112	76.62
385.337	95.62
385.562	78.62
385.787	104.62
386.013	119.62
386.238	103.62
386.463	88.62
386.688	105.62
386.913	93.62
387.138	98.62
387.363	102.62
387.588	100.62
387.813	116.62
388.038	108.62
388.263	104.62
388.488	80.62
388.713	101.62
388.938	83.62
389.163	104.62
389.387	100.62
389.612	84.62
389.837	97.62
390.062	89.62
390.287	94.62
390.512	97.62
390.736	93.62
390.961	82.62
391.186	81.62
391.411	73.62
391.636	83.62
391.86	82.62
392.085	104.62
392.31	104.62
392.534	111.62
392.759	113.62
392.984	153.62
393.208	240.62
393.433	332.62
393.658	282.62
393.882	128.62
394.107	111.62
394.331	146.62
394.556	166.62
394.78	124.62
395.005	97.62
395.229	87.62
395.454	80.62
395.678	105.62
395.903	115.62
396.127	180.62
396.352	195.62
396.576	171.62
396.801	252.62
397.025	298.62
397.249	169.62
397.474	118.62
397.698	86.62
397.922	93.62
398.147	82.62
398.371	96.62
398.595	100.62
398.82	84.62
399.044	92.62
399.268	92.62
399.492	85.62
399.717	92.62
399.941	82.62
400.165	95.62
400.389	99.62
400.613	89.62
400.837	76.62
401.062	88.62
401.286	89.62
401.51	89.62
401.734	90.62
401.958	83.62
402.182	84.62
402.406	95.62
402.63	96.62
402.854	79.62
403.078	116.62
403.302	97.62
403.526	97.62
403.75	96.62
403.974	83.62
404.198	114.62
404.422	173.62
404.645	174.62
404.869	149.62
405.093	106.62
405.317	103.62
405.541	74.62
405.765	77.62
405.988	88.62
406.212	92.62
406.436	96.62
406.66	94.62
406.883	108.62
407.107	100.62
407.331	81.62
407.555	101.62
407.778	94.62
408.002	97.62
408.226	84.62
408.449	73.62
408.673	98.62
408.896	78.62
409.12	89.62
409.344	89.62
409.567	94.62
409.791	98.62
410.014	72.62
410.238	91.62
410.461	80.62
410.685	85.62
410.908	96.62
411.132	88.62
411.355	87.62
411.578	82.62
411.802	89.62
412.025	90.62
412.249	85.62
412.472	74.62
412.695	71.62
412.919	92.62
413.142	93.62
413.365	81.62
413.589	88.62
413.812	96.62
414.035	85.62
414.258	91.62
414.482	88.62
414.705	94.62
414.928	93.62
415.151	84.62
415.374	91.62
415.597	76.62
415.821	94.62
416.044	81.62
416.267	98.62
416.49	94.62
416.713	92.62
416.936	90.62
417.159	80.62
417.382	87.62
417.605	87.62
417.828	89.62
418.051	88.62
418.274	89.62
418.497	86.62
418.72	76.62
418.943	93.62
419.166	86.62
419.389	85.62
419.611	95.62
419.834	86.62
420.057	88.62
420.28	90.62
420.503	81.62
420.726	85.62
420.948	104.62
421.171	93.62
421.394	87.62
421.617	109.62
421.839	101.62
422.062	109.62
422.285	161.62
422.507	331.62
422.73	498.62
422.953	458.62
423.175	195.62
423.398	138.62
423.621	105.62
423.843	106.62
424.066	96.62
424.288	93.62
424.511	92.62
424.733	86.62
424.956	92.62
425.178	84.62
425.401	84.62
425.623	92.62
425.846	87.62
426.068	77.62
426.291	93.62
426.513	85.62
426.735	69.62
426.958	86.62
427.18	97.62
427.402	97.62
427.625	94.62
427.847	93.62
428.069	96.62
428.292	134.62
428.514	134.62
428.736	128.62
428.958	158.62
429.181	147.62
429.403	116.62
429.625	102.62
429.847	119.62
430.069	177.62
430.292	205.62
430.514	186.62
430.736	133.62
430.958	160.62
431.18	93.62
431.402	89.62
431.624	105.62
431.846	141.62
432.068	149.62
432.29	109.62
432.512	96.62
432.734	101.62
432.956	99.62
433.178	87.62
433.4	86.62
433.622	100.62
433.844	95.62
434.066	80.62
434.287	88.62
434.509	85.62
434.731	78.62
434.953	82.62
435.175	78.62
435.397	95.62
435.618	97.62
435.84	97.62
436.062	89.62
436.284	82.62
436.505	81.62
436.727	85.62
436.949	81.62
437.17	83.62
437.392	88.62
437.614	89.62
437.835	83.62
438.057	81.62
438.278	105.62
438.5	114.62
438.721	86.62
438.943	100.62
439.165	102.62
439.386	89.62
439.608	91.62
439.829	74.62
440.05	88.62
440.272	85.62
440.493	99.62
440.715	96.62
440.936	96.62
441.158	82.62
441.379	83.62
441.6	92.62
441.822	87.62
442.043	89.62
442.264	95.62
442.486	126.62
442.707	184.62
442.928	132.62
443.149	110.62
443.371	151.62
443.592	265.62
443.813	229.62
444.034	104.62
444.255	78.62
444.476	89.62
444.698	82.62
444.919	107.62
445.14	188.62
445.361	204.62
445.582	315.62
445.803	280.62
446.024	123.62
446.245	111.62
446.466	90.62
446.687	96.62
446.908	105.62
447.129	89.62
447.35	84.62
447.571	81.62
447.792	85.62
448.013	85.62
448.234	87.62
448.455	77.62
448.675	88.62
448.896	83.62
449.117	80.62
449.338	79.62
449.559	85.62
449.779	89.62
450	83.62
450.221	81.62
450.442	80.62
450.662	82.62
450.883	89.62
451.104	89.62
451.324	98.62
451.545	110.62
451.766	94.62
451.986	93.62
452.207	79.62
452.428	90.62
452.648	98.62
452.869	98.62
453.089	87.62
453.31	86.62
453.53	97.62
453.751	100.62
453.971	93.62
454.192	78.62
454.412	73.62
454.633	81.62
454.853	78.62
455.073	87.62
455.294	98.62
455.514	96.62
455.734	94.62
455.955	82.62
456.175	79.62
456.395	74.62
456.616	86.62
456.836	89.62
457.056	82.62
457.276	79.62
457.497	87.62
457.717	93.62
457.937	100.62
458.157	114.62
458.377	125.62
458.598	130.62
458.818	104.62
459.038	94.62
459.258	83.62
459.478	105.62
459.698	76.62
459.918	84.62
460.138	97.62
460.358	73.62
460.578	105.62
460.798	121.62
461.018	118.62
461.238	97.62
461.458	90.62
461.678	80.62
461.898	93.62
462.118	94.62
462.338	88.62
462.558	92.62
462.777	73.62
462.997	96.62
463.217	77.62
463.437	90.62
463.657	78.62
463.876	92.62
464.096	82.62
464.316	84.62
464.536	90.62
464.755	92.62
464.975	91.62
465.195	88.62
465.414	84.62
465.634	90.62
465.854	78.62
466.073	83.62
466.293	82.62
466.512	86.62
466.732	95.62
466.951	83.62
467.171	92.62
467.391	86.62
467.61	92.62
467.829	83.62
468.049	91.62
468.268	76.62
468.488	93.62
468.707	84.62
468.927	95.62
469.146	101.62
469.365	88.62
469.585	88.62
469.804	81.62
470.023	84.62
470.243	72.62
470.462	92.62
470.681	93.62
470.901	85.62
471.12	88.62
471.339	79.62
471.558	87.62
471.777	76.62
471.997	78.62
472.216	94.62
472.435	95.62
472.654	90.62
472.873	88.62
473.092	81.62
473.311	82.62
473.53	79.62
473.749	85.62
473.968	94.62
474.187	90.62
474.406	89.62
474.625	99.62
474.844	98.62
475.063	93.62
475.282	98.62
475.501	96.62
475.72	87.62
475.939	84.62
476.158	83.62
476.377	91.62
476.596	84.62
476.814	94.62
477.033	78.62
477.252	93.62
477.471	98.62
477.69	98.62
477.908	88.62
478.127	100.62
478.346	94.62
478.564	93.62
478.783	84.62
479.002	77.62
479.22	96.62
479.439	97.62
479.658	72.62
479.876	84.62
480.095	90.62
480.313	80.62
480.532	97.62
480.751	77.62
480.969	82.62
481.188	73.62
481.406	88.62
481.624	73.62
481.843	91.62
482.061	88.62
482.28	96.62
482.498	81.62
482.717	96.62
482.935	80.62
483.153	87.62
483.372	75.62
483.59	87.62
483.808	86.62
484.027	86.62
484.245	88.62
484.463	100.62
484.681	111.62
484.9	82.62
485.118	98.62
485.336	88.62
485.554	98.62
485.772	86.62
485.99	96.62
486.209	92.62
486.427	80.62
486.645	95.62
486.863	87.62
487.081	81.62
487.299	98.62
487.517	93.62
487.735	104.62
487.953	164.62
488.171	131.62
488.389	102.62
488.607	90.62
488.825	73.62
489.043	93.62
489.261	104.62
489.479	97.62
489.696	102.62
489.914	84.62
490.132	92.62
490.35	89.62
490.568	91.62
490.786	75.62
491.003	90.62
491.221	94.62
491.439	95.62
491.657	100.62
491.874	97.62
492.092	104.62
492.31	100.62
492.527	94.62
492.745	87.62
492.963	99.62
493.18	80.62
493.398	96.62
493.615	96.62
493.833	96.62
494.05	92.62
494.268	80.62
494.485	82.62
494.703	92.62
494.92	93.62
495.138	84.62
495.355	95.62
495.573	100.62
495.79	99.62
496.008	96.62
496.225	79.62
496.442	100.62
496.66	100.62
496.877	85.62
497.094	94.62
497.312	82.62
497.529	93.62
497.746	82.62
497.963	82.62
498.181	92.62
498.398	105.62
498.615	97.62
498.832	106.62
499.049	91.62
499.267	102.62
499.484	106.62
499.701	84.62
499.918	85.62
500.135	104.62
500.352	90.62
500.569	86.62
500.786	96.62
501.003	114.62
501.22	92.62
501.437	94.62
501.654	97.62
501.871	94.62
502.088	90.62
502.305	91.62
502.522	88.62
502.739	95.62
502.956	84.62
503.172	86.62
503.389	97.62
503.606	89.62
503.823	121.62
504.04	117.62
504.256	127.62
504.473	115.62
504.69	83.62
504.907	95.62
505.123	113.62
505.34	94.62
505.557	82.62
505.773	96.62
505.99	80.62
506.207	86.62
506.423	82.62
506.64	94.62
506.856	95.62
507.073	91.62
507.289	71.62
507.506	88.62
507.722	101.62
507.939	86.62
508.155	90.62
508.372	83.62
508.588	89.62
508.805	87.62
509.021	86.62
509.238	95.62
509.454	98.62
509.67	96.62
509.887	79.62
510.103	85.62
510.319	80.62
510.536	93.62
510.752	92.62
510.968	100.62
511.184	91.62
511.401	87.62
511.617	88.62
511.833	83.62
512.049	102.62
512.265	89.62
512.481	88.62
512.698	74.62
512.914	84.62
513.13	84.62
513.346	95.62
513.562	82.62
513.778	82.62
513.994	95.62
514.21	88.62
514.426	105.62
514.642	95.62
514.858	97.62
515.074	101.62
515.29	94.62
515.506	90.62
515.721	93.62
515.937	108.62
516.153	82.62
516.369	76.62
516.585	92.62
516.801	75.62
517.016	118.62
517.232	104.62
