Data from 1600_2_HRD10591_00005.txt Node
Date: Mon Jan 19 13:53:43 EST 2026
User: Yrep
Spectrometer: HR+D1059
Trigger mode: 1
Integration Time (sec): 1.000000E-1
Scans to average: 1
Electric dark correction enabled: true
Nonlinearity correction enabled: false
Boxcar width: 0
XAxis mode: Wavelengths
Number of Pixels in Spectrum: 2048
>>>>>Begin Spectral Data<<<<<
223.165	-24.06
223.4	-24.06
223.635	-24.06
223.869	-25.06
224.104	-32.06
224.338	-14.06
224.573	-3.06
224.808	-8.06
225.042	-16.06
225.277	-3.06
225.511	-12.06
225.746	6.94
225.98	-0.06
226.215	9.94
226.449	13.94
226.683	32.94
226.918	25.94
227.152	47.94
227.387	37.94
227.621	28.94
227.856	51.94
228.09	28.94
228.324	39.94
228.559	56.94
228.793	47.94
229.027	51.94
229.262	64.94
229.496	67.94
229.73	63.94
229.964	70.94
230.199	68.94
230.433	70.94
230.667	76.94
230.901	79.94
231.136	67.94
231.37	82.94
231.604	79.94
231.838	71.94
232.072	67.94
232.306	76.94
232.541	63.94
232.775	73.94
233.009	73.94
233.243	87.94
233.477	82.94
233.711	69.94
233.945	81.94
234.179	69.94
234.413	89.94
234.647	67.94
234.881	87.94
235.115	77.94
235.349	78.94
235.583	80.94
235.817	82.94
236.051	72.94
236.285	69.94
236.519	72.94
236.753	79.94
236.987	82.94
237.221	73.94
237.455	76.94
237.689	78.94
237.922	77.94
238.156	77.94
238.39	79.94
238.624	64.94
238.858	68.94
239.091	84.94
239.325	69.94
239.559	81.94
239.793	72.94
240.027	81.94
240.26	74.94
240.494	77.94
240.728	68.94
240.961	71.94
241.195	65.94
241.429	84.94
241.662	77.94
241.896	81.94
242.13	78.94
242.363	68.94
242.597	78.94
242.83	70.94
243.064	81.94
243.298	85.94
243.531	71.94
243.765	68.94
243.998	55.94
244.232	72.94
244.465	77.94
244.699	67.94
244.932	73.94
245.166	70.94
245.399	85.94
245.633	87.94
245.866	77.94
246.099	79.94
246.333	86.94
246.566	74.94
246.8	78.94
247.033	73.94
247.266	67.94
247.5	71.94
247.733	83.94
247.966	82.94
248.2	77.94
248.433	77.94
248.666	62.94
248.899	81.94
249.133	81.94
249.366	83.94
249.599	74.94
249.832	72.94
250.066	80.94
250.299	67.94
250.532	79.94
250.765	77.94
250.998	82.94
251.231	73.94
251.465	65.94
251.698	78.94
251.931	74.94
252.164	86.94
252.397	81.94
252.63	83.94
252.863	88.94
253.096	72.94
253.329	70.94
253.562	81.94
253.795	76.94
254.028	61.94
254.261	74.94
254.494	73.94
254.727	63.94
254.96	81.94
255.193	76.94
255.426	79.94
255.659	88.94
255.892	92.94
256.124	94.94
256.357	77.94
256.59	87.94
256.823	76.94
257.056	75.94
257.289	73.94
257.521	83.94
257.754	62.94
257.987	66.94
258.22	76.94
258.452	72.94
258.685	87.94
258.918	54.94
259.151	83.94
259.383	83.94
259.616	70.94
259.849	69.94
260.081	76.94
260.314	67.94
260.547	78.94
260.779	75.94
261.012	73.94
261.244	91.94
261.477	77.94
261.71	91.94
261.942	78.94
262.175	76.94
262.407	83.94
262.64	85.94
262.872	83.94
263.105	81.94
263.337	89.94
263.57	80.94
263.802	79.94
264.035	94.94
264.267	83.94
264.499	77.94
264.732	88.94
264.964	73.94
265.197	68.94
265.429	77.94
265.661	88.94
265.894	77.94
266.126	89.94
266.358	79.94
266.591	77.94
266.823	74.94
267.055	68.94
267.287	77.94
267.52	85.94
267.752	77.94
267.984	71.94
268.216	85.94
268.448	84.94
268.681	76.94
268.913	79.94
269.145	85.94
269.377	82.94
269.609	76.94
269.841	76.94
270.073	74.94
270.306	78.94
270.538	75.94
270.77	65.94
271.002	78.94
271.234	85.94
271.466	83.94
271.698	92.94
271.93	71.94
272.162	79.94
272.394	81.94
272.626	79.94
272.858	67.94
273.09	83.94
273.322	87.94
273.553	79.94
273.785	79.94
274.017	74.94
274.249	93.94
274.481	75.94
274.713	75.94
274.945	70.94
275.176	73.94
275.408	77.94
275.64	87.94
275.872	76.94
276.104	83.94
276.335	83.94
276.567	69.94
276.799	78.94
277.031	86.94
277.262	77.94
277.494	83.94
277.726	77.94
277.957	91.94
278.189	74.94
278.421	87.94
278.652	69.94
278.884	71.94
279.115	88.94
279.347	80.94
279.579	74.94
279.81	68.94
280.042	80.94
280.273	81.94
280.505	88.94
280.736	76.94
280.968	80.94
281.199	84.94
281.431	73.94
281.662	83.94
281.894	77.94
282.125	93.94
282.356	88.94
282.588	86.94
282.819	76.94
283.051	83.94
283.282	80.94
283.513	82.94
283.745	82.94
283.976	88.94
284.207	80.94
284.439	80.94
284.67	92.94
284.901	97.94
285.132	86.94
285.364	73.94
285.595	89.94
285.826	75.94
286.057	74.94
286.288	92.94
286.52	82.94
286.751	104.94
286.982	84.94
287.213	81.94
287.444	65.94
287.675	87.94
287.906	87.94
288.138	79.94
288.369	96.94
288.6	70.94
288.831	83.94
289.062	77.94
289.293	81.94
289.524	80.94
289.755	87.94
289.986	69.94
290.217	84.94
290.448	80.94
290.679	80.94
290.91	91.94
291.141	91.94
291.371	85.94
291.602	84.94
291.833	85.94
292.064	96.94
292.295	91.94
292.526	87.94
292.757	91.94
292.987	85.94
293.218	84.94
293.449	79.94
293.68	82.94
293.91	89.94
294.141	84.94
294.372	81.94
294.603	74.94
294.833	81.94
295.064	100.94
295.295	76.94
295.525	83.94
295.756	86.94
295.987	77.94
296.217	72.94
296.448	99.94
296.679	74.94
296.909	97.94
297.14	73.94
297.37	88.94
297.601	90.94
297.831	93.94
298.062	83.94
298.292	87.94
298.523	77.94
298.753	84.94
298.984	73.94
299.214	75.94
299.445	99.94
299.675	71.94
299.905	87.94
300.136	92.94
300.366	91.94
300.597	92.94
300.827	76.94
301.057	96.94
301.288	78.94
301.518	81.94
301.748	83.94
301.979	94.94
302.209	94.94
302.439	82.94
302.669	86.94
302.9	83.94
303.13	87.94
303.36	77.94
303.59	87.94
303.82	100.94
304.051	74.94
304.281	88.94
304.511	83.94
304.741	87.94
304.971	91.94
305.201	86.94
305.431	78.94
305.661	94.94
305.891	78.94
306.121	98.94
306.352	89.94
306.582	68.94
306.812	78.94
307.042	79.94
307.272	87.94
307.502	95.94
307.731	83.94
307.961	95.94
308.191	97.94
308.421	98.94
308.651	77.94
308.881	91.94
309.111	84.94
309.341	97.94
309.571	78.94
309.8	80.94
310.03	81.94
310.26	85.94
310.49	79.94
310.72	89.94
310.949	71.94
311.179	83.94
311.409	93.94
311.639	73.94
311.868	79.94
312.098	84.94
312.328	80.94
312.557	74.94
312.787	92.94
313.017	72.94
313.246	78.94
313.476	86.94
313.706	79.94
313.935	79.94
314.165	82.94
314.394	87.94
314.624	90.94
314.853	82.94
315.083	95.94
315.312	90.94
315.542	90.94
315.771	96.94
316.001	92.94
316.23	79.94
316.46	78.94
316.689	87.94
316.919	98.94
317.148	85.94
317.377	76.94
317.607	85.94
317.836	68.94
318.065	78.94
318.295	79.94
318.524	83.94
318.753	91.94
318.983	82.94
319.212	98.94
319.441	87.94
319.67	68.94
319.9	72.94
320.129	82.94
320.358	91.94
320.587	86.94
320.816	88.94
321.046	88.94
321.275	83.94
321.504	76.94
321.733	87.94
321.962	91.94
322.191	93.94
322.42	83.94
322.649	89.94
322.878	85.94
323.108	77.94
323.337	88.94
323.566	81.94
323.795	79.94
324.024	89.94
324.253	77.94
324.482	87.94
324.71	96.94
324.939	89.94
325.168	76.94
325.397	91.94
325.626	91.94
325.855	90.94
326.084	80.94
326.313	82.94
326.542	65.94
326.77	79.94
326.999	79.94
327.228	84.94
327.457	87.94
327.686	86.94
327.914	80.94
328.143	89.94
328.372	69.94
328.6	81.94
328.829	85.94
329.058	84.94
329.287	80.94
329.515	77.94
329.744	86.94
329.972	81.94
330.201	84.94
330.43	97.94
330.658	81.94
330.887	95.94
331.115	92.94
331.344	73.94
331.572	79.94
331.801	81.94
332.03	95.94
332.258	77.94
332.486	100.94
332.715	91.94
332.943	87.94
333.172	96.94
333.4	77.94
333.629	85.94
333.857	74.94
334.085	74.94
334.314	70.94
334.542	75.94
334.771	81.94
334.999	72.94
335.227	86.94
335.455	83.94
335.684	71.94
335.912	81.94
336.14	76.94
336.369	96.94
336.597	95.94
336.825	86.94
337.053	83.94
337.281	87.94
337.51	84.94
337.738	95.94
337.966	75.94
338.194	92.94
338.422	76.94
338.65	87.94
338.878	83.94
339.106	95.94
339.334	78.94
339.562	91.94
339.79	85.94
340.018	86.94
340.246	88.94
340.474	87.94
340.702	72.94
340.93	83.94
341.158	74.94
341.386	92.94
341.614	87.94
341.842	100.94
342.07	84.94
342.298	92.94
342.526	80.94
342.754	86.94
342.981	100.94
343.209	87.94
343.437	91.94
343.665	73.94
343.893	82.94
344.12	85.94
344.348	88.94
344.576	83.94
344.804	90.94
345.031	91.94
345.259	95.94
345.487	84.94
345.714	85.94
345.942	66.94
346.17	74.94
346.397	73.94
346.625	83.94
346.853	73.94
347.08	82.94
347.308	93.94
347.535	87.94
347.763	80.94
347.99	89.94
348.218	86.94
348.445	72.94
348.673	80.94
348.9	87.94
349.128	85.94
349.355	88.94
349.583	78.94
349.81	87.94
350.037	72.94
350.265	67.94
350.492	87.94
350.72	69.94
350.947	85.94
351.174	94.94
351.402	79.94
351.629	86.94
351.856	91.94
352.083	76.94
352.311	81.94
352.538	82.94
352.765	89.94
352.992	87.94
353.22	104.94
353.447	86.94
353.674	88.94
353.901	88.94
354.128	91.94
354.355	87.94
354.583	85.94
354.81	79.94
355.037	95.94
355.264	88.94
355.491	96.94
355.718	83.94
355.945	73.94
356.172	89.94
356.399	78.94
356.626	79.94
356.853	74.94
357.08	89.94
357.307	92.94
357.534	77.94
357.761	91.94
357.988	77.94
358.215	77.94
358.441	84.94
358.668	83.94
358.895	84.94
359.122	81.94
359.349	88.94
359.576	91.94
359.802	91.94
360.029	85.94
360.256	88.94
360.483	80.94
360.709	77.94
360.936	98.94
361.163	91.94
361.39	74.94
361.616	65.94
361.843	83.94
362.07	92.94
362.296	77.94
362.523	74.94
362.749	88.94
362.976	77.94
363.203	109.94
363.429	92.94
363.656	81.94
363.882	84.94
364.109	102.94
364.335	108.94
364.562	95.94
364.788	89.94
365.015	89.94
365.241	83.94
365.468	73.94
365.694	79.94
365.92	90.94
366.147	96.94
366.373	77.94
366.599	73.94
366.826	71.94
367.052	89.94
367.278	72.94
367.505	93.94
367.731	95.94
367.957	78.94
368.184	85.94
368.41	79.94
368.636	94.94
368.862	86.94
369.089	92.94
369.315	87.94
369.541	87.94
369.767	70.94
369.993	75.94
370.219	82.94
370.445	79.94
370.672	71.94
370.898	88.94
371.124	74.94
371.35	80.94
371.576	70.94
371.802	73.94
372.028	80.94
372.254	77.94
372.48	82.94
372.706	89.94
372.932	71.94
373.158	89.94
373.384	101.94
373.61	99.94
373.835	97.94
374.061	93.94
374.287	88.94
374.513	88.94
374.739	92.94
374.965	93.94
375.191	96.94
375.416	84.94
375.642	74.94
375.868	79.94
376.094	91.94
376.319	83.94
376.545	70.94
376.771	79.94
376.997	75.94
377.222	78.94
377.448	77.94
377.674	86.94
377.899	76.94
378.125	81.94
378.35	86.94
378.576	75.94
378.802	86.94
379.027	93.94
379.253	91.94
379.478	72.94
379.704	85.94
379.929	82.94
380.155	71.94
380.38	80.94
380.606	83.94
380.831	86.94
381.057	102.94
381.282	84.94
381.507	94.94
381.733	86.94
381.958	85.94
382.184	95.94
382.409	88.94
382.634	95.94
382.86	96.94
383.085	87.94
383.31	80.94
383.535	93.94
383.761	97.94
383.986	92.94
384.211	93.94
384.436	84.94
384.662	90.94
384.887	88.94
385.112	99.94
385.337	77.94
385.562	92.94
385.787	80.94
386.013	96.94
386.238	102.94
386.463	90.94
386.688	91.94
386.913	84.94
387.138	85.94
387.363	76.94
387.588	67.94
387.813	85.94
388.038	101.94
388.263	88.94
388.488	73.94
388.713	91.94
388.938	88.94
389.163	87.94
389.387	73.94
389.612	79.94
389.837	83.94
390.062	90.94
390.287	84.94
390.512	82.94
390.736	86.94
390.961	75.94
391.186	83.94
391.411	82.94
391.636	100.94
391.86	92.94
392.085	87.94
392.31	96.94
392.534	90.94
392.759	78.94
392.984	85.94
393.208	109.94
393.433	115.94
393.658	113.94
393.882	100.94
394.107	91.94
394.331	100.94
394.556	117.94
394.78	98.94
395.005	81.94
395.229	86.94
395.454	61.94
395.678	91.94
395.903	99.94
396.127	116.94
396.352	121.94
396.576	96.94
396.801	123.94
397.025	116.94
397.249	89.94
397.474	76.94
397.698	91.94
397.922	83.94
398.147	76.94
398.371	100.94
398.595	91.94
398.82	80.94
399.044	88.94
399.268	84.94
399.492	74.94
399.717	83.94
399.941	97.94
400.165	86.94
400.389	83.94
400.613	87.94
400.837	88.94
401.062	85.94
401.286	98.94
401.51	85.94
401.734	79.94
401.958	73.94
402.182	80.94
402.406	100.94
402.63	64.94
402.854	84.94
403.078	93.94
403.302	88.94
403.526	83.94
403.75	91.94
403.974	87.94
404.198	109.94
404.422	148.94
404.645	167.94
404.869	132.94
405.093	99.94
405.317	77.94
405.541	83.94
405.765	85.94
405.988	83.94
406.212	85.94
406.436	86.94
406.66	73.94
406.883	101.94
407.107	93.94
407.331	91.94
407.555	83.94
407.778	76.94
408.002	81.94
408.226	77.94
408.449	95.94
408.673	79.94
408.896	78.94
409.12	89.94
409.344	83.94
409.567	69.94
409.791	94.94
410.014	74.94
410.238	80.94
410.461	67.94
410.685	92.94
410.908	79.94
411.132	91.94
411.355	74.94
411.578	93.94
411.802	90.94
412.025	80.94
412.249	77.94
412.472	91.94
412.695	58.94
412.919	79.94
413.142	79.94
413.365	94.94
413.589	71.94
413.812	86.94
414.035	75.94
414.258	71.94
414.482	71.94
414.705	79.94
414.928	85.94
415.151	79.94
415.374	82.94
415.597	71.94
415.821	81.94
416.044	77.94
416.267	88.94
416.49	77.94
416.713	82.94
416.936	79.94
417.159	79.94
417.382	72.94
417.605	80.94
417.828	69.94
418.051	81.94
418.274	91.94
418.497	77.94
418.72	74.94
418.943	81.94
419.166	77.94
419.389	81.94
419.611	84.94
419.834	77.94
420.057	88.94
420.28	81.94
420.503	84.94
420.726	74.94
420.948	87.94
421.171	86.94
421.394	79.94
421.617	85.94
421.839	78.94
422.062	104.94
422.285	114.94
422.507	171.94
422.73	217.94
422.953	212.94
423.175	131.94
423.398	104.94
423.621	96.94
423.843	89.94
424.066	93.94
424.288	92.94
424.511	81.94
424.733	83.94
424.956	91.94
425.178	100.94
425.401	85.94
425.623	79.94
425.846	92.94
426.068	74.94
426.291	78.94
426.513	73.94
426.735	87.94
426.958	89.94
427.18	85.94
427.402	96.94
427.625	89.94
427.847	71.94
428.069	77.94
428.292	97.94
428.514	94.94
428.736	80.94
428.958	111.94
429.181	115.94
429.403	90.94
429.625	88.94
429.847	91.94
430.069	109.94
430.292	121.94
430.514	120.94
430.736	107.94
430.958	113.94
431.18	95.94
431.402	95.94
431.624	77.94
431.846	89.94
432.068	94.94
432.29	81.94
432.512	91.94
432.734	84.94
432.956	89.94
433.178	72.94
433.4	79.94
433.622	85.94
433.844	83.94
434.066	89.94
434.287	89.94
434.509	90.94
434.731	79.94
434.953	87.94
435.175	89.94
435.397	74.94
435.618	80.94
435.84	95.94
436.062	85.94
436.284	72.94
436.505	84.94
436.727	85.94
436.949	88.94
437.17	84.94
437.392	87.94
437.614	96.94
437.835	83.94
438.057	86.94
438.278	83.94
438.5	95.94
438.721	92.94
438.943	88.94
439.165	77.94
439.386	82.94
439.608	95.94
439.829	72.94
440.05	85.94
440.272	79.94
440.493	84.94
440.715	85.94
440.936	84.94
441.158	73.94
441.379	76.94
441.6	79.94
441.822	79.94
442.043	81.94
442.264	81.94
442.486	85.94
442.707	104.94
442.928	90.94
443.149	79.94
443.371	103.94
443.592	151.94
443.813	116.94
444.034	86.94
444.255	82.94
444.476	90.94
444.698	97.94
444.919	94.94
445.14	165.94
445.361	153.94
445.582	165.94
445.803	135.94
446.024	85.94
446.245	74.94
446.466	60.94
446.687	87.94
446.908	81.94
447.129	88.94
447.35	98.94
447.571	95.94
447.792	96.94
448.013	78.94
448.234	98.94
448.455	75.94
448.675	70.94
448.896	90.94
449.117	84.94
449.338	76.94
449.559	87.94
449.779	89.94
450	82.94
450.221	74.94
450.442	85.94
450.662	80.94
450.883	82.94
451.104	74.94
451.324	63.94
451.545	72.94
451.766	97.94
451.986	81.94
452.207	90.94
452.428	85.94
452.648	85.94
452.869	84.94
453.089	83.94
453.31	78.94
453.53	93.94
453.751	81.94
453.971	66.94
454.192	77.94
454.412	87.94
454.633	75.94
454.853	80.94
455.073	83.94
455.294	81.94
455.514	63.94
455.734	78.94
455.955	92.94
456.175	90.94
456.395	96.94
456.616	93.94
456.836	80.94
457.056	86.94
457.276	73.94
457.497	81.94
457.717	83.94
457.937	79.94
458.157	70.94
458.377	93.94
458.598	82.94
458.818	90.94
459.038	68.94
459.258	101.94
459.478	97.94
459.698	77.94
459.918	70.94
460.138	97.94
460.358	77.94
460.578	98.94
460.798	107.94
461.018	112.94
461.238	88.94
461.458	79.94
461.678	76.94
461.898	80.94
462.118	72.94
462.338	84.94
462.558	79.94
462.777	79.94
462.997	91.94
463.217	86.94
463.437	65.94
463.657	79.94
463.876	92.94
464.096	96.94
464.316	72.94
464.536	70.94
464.755	96.94
464.975	93.94
465.195	74.94
465.414	88.94
465.634	79.94
465.854	87.94
466.073	89.94
466.293	83.94
466.512	90.94
466.732	78.94
466.951	77.94
467.171	93.94
467.391	82.94
467.61	73.94
467.829	73.94
468.049	86.94
468.268	70.94
468.488	80.94
468.707	84.94
468.927	80.94
469.146	77.94
469.365	81.94
469.585	88.94
469.804	101.94
470.023	79.94
470.243	74.94
470.462	83.94
470.681	76.94
470.901	83.94
471.12	81.94
471.339	93.94
471.558	84.94
471.777	85.94
471.997	89.94
472.216	82.94
472.435	88.94
472.654	82.94
472.873	87.94
473.092	100.94
473.311	85.94
473.53	77.94
473.749	92.94
473.968	94.94
474.187	80.94
474.406	82.94
474.625	86.94
474.844	86.94
475.063	84.94
475.282	67.94
475.501	73.94
475.72	85.94
475.939	88.94
476.158	87.94
476.377	75.94
476.596	76.94
476.814	79.94
477.033	85.94
477.252	78.94
477.471	77.94
477.69	91.94
477.908	72.94
478.127	87.94
478.346	85.94
478.564	81.94
478.783	79.94
479.002	80.94
479.22	85.94
479.439	82.94
479.658	92.94
479.876	83.94
480.095	76.94
480.313	83.94
480.532	100.94
480.751	84.94
480.969	93.94
481.188	69.94
481.406	85.94
481.624	97.94
481.843	82.94
482.061	115.94
482.28	93.94
482.498	99.94
482.717	80.94
482.935	85.94
483.153	86.94
483.372	89.94
483.59	94.94
483.808	80.94
484.027	81.94
484.245	73.94
484.463	83.94
484.681	93.94
484.9	80.94
485.118	93.94
485.336	77.94
485.554	79.94
485.772	77.94
485.99	85.94
486.209	80.94
486.427	74.94
486.645	83.94
486.863	98.94
487.081	96.94
487.299	95.94
487.517	91.94
487.735	85.94
487.953	90.94
488.171	90.94
488.389	76.94
488.607	82.94
488.825	90.94
489.043	84.94
489.261	89.94
489.479	92.94
489.696	87.94
489.914	82.94
490.132	79.94
490.35	77.94
490.568	85.94
490.786	91.94
491.003	95.94
491.221	85.94
491.439	84.94
491.657	82.94
491.874	84.94
492.092	90.94
492.31	99.94
492.527	80.94
492.745	75.94
492.963	85.94
493.18	91.94
493.398	77.94
493.615	95.94
493.833	90.94
494.05	77.94
494.268	92.94
494.485	79.94
494.703	89.94
494.92	77.94
495.138	93.94
495.355	81.94
495.573	81.94
495.79	101.94
496.008	83.94
496.225	74.94
496.442	85.94
496.66	78.94
496.877	102.94
497.094	77.94
497.312	82.94
497.529	88.94
497.746	78.94
497.963	77.94
498.181	99.94
498.398	83.94
498.615	85.94
498.832	77.94
499.049	87.94
499.267	83.94
499.484	83.94
499.701	72.94
499.918	101.94
500.135	105.94
500.352	87.94
500.569	90.94
500.786	89.94
501.003	78.94
501.22	87.94
501.437	106.94
501.654	81.94
501.871	87.94
502.088	92.94
502.305	72.94
502.522	85.94
502.739	87.94
502.956	85.94
503.172	80.94
503.389	100.94
503.606	87.94
503.823	97.94
504.04	92.94
504.256	89.94
504.473	88.94
504.69	79.94
504.907	86.94
505.123	80.94
505.34	79.94
505.557	89.94
505.773	95.94
505.99	89.94
506.207	81.94
506.423	76.94
506.64	89.94
506.856	95.94
507.073	90.94
507.289	88.94
507.506	87.94
507.722	90.94
507.939	83.94
508.155	89.94
508.372	83.94
508.588	81.94
508.805	91.94
509.021	93.94
509.238	76.94
509.454	89.94
509.67	87.94
509.887	78.94
510.103	86.94
510.319	87.94
510.536	91.94
510.752	84.94
510.968	79.94
511.184	85.94
511.401	83.94
511.617	99.94
511.833	88.94
512.049	84.94
512.265	81.94
512.481	65.94
512.698	95.94
512.914	80.94
513.13	70.94
513.346	80.94
513.562	85.94
513.778	84.94
513.994	88.94
514.21	94.94
514.426	80.94
514.642	104.94
514.858	82.94
515.074	95.94
515.29	94.94
515.506	87.94
515.721	87.94
515.937	86.94
516.153	93.94
516.369	77.94
516.585	90.94
516.801	89.94
517.016	88.94
517.232	88.94
517.448	109.94
517.664	87.94
517.879	91.94
518.095	83.94
518.311	86.94
518.527	109.94
518.742	101.94
518.958	85.94
519.173	80.94
