Data from 1600_2_HRD10591_00046.txt Node
Date: Mon Jan 19 13:54:04 EST 2026
User: Yrep
Spectrometer: HR+D1059
Trigger mode: 1
Integration Time (sec): 1.000000E-1
Scans to average: 1
Electric dark correction enabled: true
Nonlinearity correction enabled: false
Boxcar width: 0
XAxis mode: Wavelengths
Number of Pixels in Spectrum: 2048
>>>>>Begin Spectral Data<<<<<
223.165	-19.88
223.4	-19.88
223.635	-19.88
223.869	-20.88
224.104	-10.88
224.338	-24.88
224.573	-20.88
224.808	-18.88
225.042	0.12
225.277	-8.88
225.511	1.12
225.746	15.12
225.98	4.12
226.215	9.12
226.449	19.12
226.683	21.12
226.918	19.12
227.152	36.12
227.387	36.12
227.621	51.12
227.856	49.12
228.09	54.12
228.324	64.12
228.559	66.12
228.793	63.12
229.027	65.12
229.262	50.12
229.496	69.12
229.73	93.12
229.964	88.12
230.199	77.12
230.433	79.12
230.667	80.12
230.901	77.12
231.136	73.12
231.37	107.12
231.604	91.12
231.838	92.12
232.072	66.12
232.306	76.12
232.541	101.12
232.775	76.12
233.009	71.12
233.243	88.12
233.477	83.12
233.711	77.12
233.945	79.12
234.179	71.12
234.413	79.12
234.647	95.12
234.881	75.12
235.115	78.12
235.349	80.12
235.583	68.12
235.817	89.12
236.051	73.12
236.285	67.12
236.519	84.12
236.753	81.12
236.987	73.12
237.221	83.12
237.455	76.12
237.689	69.12
237.922	64.12
238.156	62.12
238.39	67.12
238.624	84.12
238.858	79.12
239.091	77.12
239.325	81.12
239.559	79.12
239.793	80.12
240.027	80.12
240.26	87.12
240.494	77.12
240.728	87.12
240.961	78.12
241.195	76.12
241.429	76.12
241.662	82.12
241.896	78.12
242.13	87.12
242.363	79.12
242.597	83.12
242.83	77.12
243.064	87.12
243.298	82.12
243.531	95.12
243.765	63.12
243.998	81.12
244.232	82.12
244.465	61.12
244.699	80.12
244.932	61.12
245.166	73.12
245.399	83.12
245.633	87.12
245.866	67.12
246.099	67.12
246.333	83.12
246.566	74.12
246.8	77.12
247.033	86.12
247.266	72.12
247.5	85.12
247.733	83.12
247.966	78.12
248.2	74.12
248.433	74.12
248.666	71.12
248.899	73.12
249.133	75.12
249.366	91.12
249.599	78.12
249.832	84.12
250.066	77.12
250.299	77.12
250.532	85.12
250.765	84.12
250.998	72.12
251.231	88.12
251.465	77.12
251.698	75.12
251.931	74.12
252.164	86.12
252.397	83.12
252.63	87.12
252.863	80.12
253.096	69.12
253.329	80.12
253.562	73.12
253.795	85.12
254.028	72.12
254.261	85.12
254.494	93.12
254.727	84.12
254.96	71.12
255.193	85.12
255.426	85.12
255.659	76.12
255.892	76.12
256.124	73.12
256.357	59.12
256.59	79.12
256.823	87.12
257.056	80.12
257.289	76.12
257.521	80.12
257.754	71.12
257.987	85.12
258.22	81.12
258.452	76.12
258.685	74.12
258.918	81.12
259.151	83.12
259.383	86.12
259.616	73.12
259.849	71.12
260.081	83.12
260.314	82.12
260.547	82.12
260.779	87.12
261.012	97.12
261.244	66.12
261.477	99.12
261.71	84.12
261.942	93.12
262.175	91.12
262.407	84.12
262.64	80.12
262.872	71.12
263.105	68.12
263.337	84.12
263.57	68.12
263.802	85.12
264.035	73.12
264.267	87.12
264.499	68.12
264.732	70.12
264.964	67.12
265.197	75.12
265.429	82.12
265.661	76.12
265.894	73.12
266.126	104.12
266.358	89.12
266.591	85.12
266.823	80.12
267.055	75.12
267.287	87.12
267.52	76.12
267.752	79.12
267.984	80.12
268.216	78.12
268.448	85.12
268.681	89.12
268.913	92.12
269.145	77.12
269.377	87.12
269.609	66.12
269.841	92.12
270.073	90.12
270.306	86.12
270.538	71.12
270.77	92.12
271.002	87.12
271.234	95.12
271.466	75.12
271.698	89.12
271.93	69.12
272.162	95.12
272.394	93.12
272.626	86.12
272.858	85.12
273.09	96.12
273.322	79.12
273.553	81.12
273.785	81.12
274.017	86.12
274.249	95.12
274.481	87.12
274.713	73.12
274.945	97.12
275.176	83.12
275.408	79.12
275.64	85.12
275.872	89.12
276.104	78.12
276.335	75.12
276.567	72.12
276.799	91.12
277.031	83.12
277.262	74.12
277.494	104.12
277.726	78.12
277.957	95.12
278.189	76.12
278.421	77.12
278.652	87.12
278.884	89.12
279.115	97.12
279.347	79.12
279.579	83.12
279.81	85.12
280.042	84.12
280.273	92.12
280.505	67.12
280.736	82.12
280.968	95.12
281.199	84.12
281.431	89.12
281.662	85.12
281.894	77.12
282.125	86.12
282.356	88.12
282.588	83.12
282.819	79.12
283.051	74.12
283.282	71.12
283.513	81.12
283.745	81.12
283.976	84.12
284.207	68.12
284.439	91.12
284.67	84.12
284.901	83.12
285.132	96.12
285.364	93.12
285.595	90.12
285.826	83.12
286.057	76.12
286.288	77.12
286.52	88.12
286.751	84.12
286.982	108.12
287.213	88.12
287.444	80.12
287.675	97.12
287.906	89.12
288.138	87.12
288.369	73.12
288.6	76.12
288.831	88.12
289.062	80.12
289.293	81.12
289.524	83.12
289.755	85.12
289.986	85.12
290.217	90.12
290.448	83.12
290.679	79.12
290.91	80.12
291.141	90.12
291.371	93.12
291.602	85.12
291.833	89.12
292.064	93.12
292.295	95.12
292.526	81.12
292.757	94.12
292.987	83.12
293.218	93.12
293.449	84.12
293.68	101.12
293.91	97.12
294.141	96.12
294.372	80.12
294.603	79.12
294.833	91.12
295.064	87.12
295.295	76.12
295.525	83.12
295.756	93.12
295.987	84.12
296.217	76.12
296.448	87.12
296.679	98.12
296.909	95.12
297.14	102.12
297.37	81.12
297.601	90.12
297.831	83.12
298.062	93.12
298.292	81.12
298.523	90.12
298.753	90.12
298.984	91.12
299.214	95.12
299.445	80.12
299.675	81.12
299.905	84.12
300.136	72.12
300.366	83.12
300.597	81.12
300.827	97.12
301.057	90.12
301.288	96.12
301.518	87.12
301.748	82.12
301.979	95.12
302.209	89.12
302.439	87.12
302.669	88.12
302.9	101.12
303.13	86.12
303.36	99.12
303.59	97.12
303.82	102.12
304.051	83.12
304.281	81.12
304.511	90.12
304.741	93.12
304.971	96.12
305.201	99.12
305.431	86.12
305.661	85.12
305.891	85.12
306.121	81.12
306.352	85.12
306.582	82.12
306.812	93.12
307.042	87.12
307.272	83.12
307.502	82.12
307.731	97.12
307.961	85.12
308.191	83.12
308.421	96.12
308.651	88.12
308.881	87.12
309.111	88.12
309.341	88.12
309.571	82.12
309.8	88.12
310.03	79.12
310.26	90.12
310.49	91.12
310.72	107.12
310.949	97.12
311.179	79.12
311.409	75.12
311.639	80.12
311.868	89.12
312.098	87.12
312.328	66.12
312.557	86.12
312.787	83.12
313.017	90.12
313.246	95.12
313.476	95.12
313.706	91.12
313.935	79.12
314.165	78.12
314.394	83.12
314.624	86.12
314.853	86.12
315.083	87.12
315.312	87.12
315.542	84.12
315.771	97.12
316.001	85.12
316.23	87.12
316.46	77.12
316.689	94.12
316.919	89.12
317.148	84.12
317.377	102.12
317.607	83.12
317.836	79.12
318.065	86.12
318.295	89.12
318.524	91.12
318.753	83.12
318.983	81.12
319.212	96.12
319.441	93.12
319.67	91.12
319.9	85.12
320.129	92.12
320.358	80.12
320.587	81.12
320.816	91.12
321.046	86.12
321.275	91.12
321.504	78.12
321.733	79.12
321.962	80.12
322.191	101.12
322.42	93.12
322.649	91.12
322.878	78.12
323.108	73.12
323.337	83.12
323.566	91.12
323.795	87.12
324.024	73.12
324.253	92.12
324.482	85.12
324.71	86.12
324.939	86.12
325.168	93.12
325.397	85.12
325.626	72.12
325.855	71.12
326.084	75.12
326.313	72.12
326.542	85.12
326.77	81.12
326.999	94.12
327.228	86.12
327.457	87.12
327.686	105.12
327.914	72.12
328.143	83.12
328.372	85.12
328.6	84.12
328.829	91.12
329.058	75.12
329.287	81.12
329.515	80.12
329.744	95.12
329.972	88.12
330.201	72.12
330.43	82.12
330.658	87.12
330.887	91.12
331.115	88.12
331.344	85.12
331.572	92.12
331.801	92.12
332.03	87.12
332.258	83.12
332.486	72.12
332.715	72.12
332.943	72.12
333.172	84.12
333.4	88.12
333.629	93.12
333.857	86.12
334.085	81.12
334.314	95.12
334.542	96.12
334.771	85.12
334.999	89.12
335.227	79.12
335.455	85.12
335.684	73.12
335.912	73.12
336.14	98.12
336.369	74.12
336.597	87.12
336.825	83.12
337.053	91.12
337.281	82.12
337.51	80.12
337.738	75.12
337.966	83.12
338.194	78.12
338.422	111.12
338.65	83.12
338.878	83.12
339.106	93.12
339.334	100.12
339.562	87.12
339.79	81.12
340.018	89.12
340.246	87.12
340.474	83.12
340.702	96.12
340.93	92.12
341.158	80.12
341.386	89.12
341.614	89.12
341.842	86.12
342.07	87.12
342.298	87.12
342.526	93.12
342.754	86.12
342.981	97.12
343.209	78.12
343.437	91.12
343.665	67.12
343.893	85.12
344.12	87.12
344.348	90.12
344.576	86.12
344.804	93.12
345.031	87.12
345.259	87.12
345.487	86.12
345.714	86.12
345.942	89.12
346.17	86.12
346.397	87.12
346.625	85.12
346.853	92.12
347.08	92.12
347.308	84.12
347.535	89.12
347.763	86.12
347.99	70.12
348.218	75.12
348.445	89.12
348.673	87.12
348.9	98.12
349.128	90.12
349.355	78.12
349.583	78.12
349.81	93.12
350.037	99.12
350.265	79.12
350.492	80.12
350.72	78.12
350.947	78.12
351.174	80.12
351.402	81.12
351.629	84.12
351.856	86.12
352.083	79.12
352.311	89.12
352.538	95.12
352.765	88.12
352.992	77.12
353.22	86.12
353.447	92.12
353.674	85.12
353.901	83.12
354.128	88.12
354.355	73.12
354.583	69.12
354.81	97.12
355.037	79.12
355.264	81.12
355.491	92.12
355.718	88.12
355.945	76.12
356.172	98.12
356.399	86.12
356.626	81.12
356.853	95.12
357.08	77.12
357.307	75.12
357.534	95.12
357.761	79.12
357.988	88.12
358.215	93.12
358.441	79.12
358.668	87.12
358.895	78.12
359.122	86.12
359.349	96.12
359.576	98.12
359.802	93.12
360.029	75.12
360.256	85.12
360.483	85.12
360.709	82.12
360.936	86.12
361.163	80.12
361.39	88.12
361.616	84.12
361.843	71.12
362.07	86.12
362.296	99.12
362.523	81.12
362.749	85.12
362.976	91.12
363.203	87.12
363.429	83.12
363.656	93.12
363.882	86.12
364.109	85.12
364.335	100.12
364.562	96.12
364.788	82.12
365.015	92.12
365.241	100.12
365.468	84.12
365.694	94.12
365.92	72.12
366.147	83.12
366.373	93.12
366.599	88.12
366.826	87.12
367.052	79.12
367.278	73.12
367.505	69.12
367.731	86.12
367.957	80.12
368.184	69.12
368.41	98.12
368.636	83.12
368.862	89.12
369.089	84.12
369.315	75.12
369.541	79.12
369.767	76.12
369.993	91.12
370.219	69.12
370.445	88.12
370.672	74.12
370.898	89.12
371.124	99.12
371.35	84.12
371.576	91.12
371.802	91.12
372.028	91.12
372.254	85.12
372.48	94.12
372.706	95.12
372.932	83.12
373.158	87.12
373.384	107.12
373.61	89.12
373.835	80.12
374.061	92.12
374.287	78.12
374.513	95.12
374.739	80.12
374.965	85.12
375.191	99.12
375.416	89.12
375.642	79.12
375.868	82.12
376.094	91.12
376.319	79.12
376.545	87.12
376.771	94.12
376.997	93.12
377.222	83.12
377.448	87.12
377.674	84.12
377.899	90.12
378.125	77.12
378.35	91.12
378.576	89.12
378.802	81.12
379.027	73.12
379.253	99.12
379.478	81.12
379.704	87.12
379.929	79.12
380.155	89.12
380.38	86.12
380.606	78.12
380.831	82.12
381.057	91.12
381.282	93.12
381.507	86.12
381.733	94.12
381.958	86.12
382.184	80.12
382.409	85.12
382.634	86.12
382.86	80.12
383.085	82.12
383.31	93.12
383.535	99.12
383.761	86.12
383.986	90.12
384.211	81.12
384.436	87.12
384.662	78.12
384.887	89.12
385.112	80.12
385.337	79.12
385.562	92.12
385.787	79.12
386.013	96.12
386.238	80.12
386.463	79.12
386.688	86.12
386.913	92.12
387.138	86.12
387.363	83.12
387.588	74.12
387.813	87.12
388.038	91.12
388.263	68.12
388.488	103.12
388.713	87.12
388.938	76.12
389.163	100.12
389.387	80.12
389.612	87.12
389.837	85.12
390.062	79.12
390.287	90.12
390.512	76.12
390.736	69.12
390.961	79.12
391.186	89.12
391.411	81.12
391.636	66.12
391.86	81.12
392.085	62.12
392.31	72.12
392.534	87.12
392.759	82.12
392.984	97.12
393.208	110.12
393.433	140.12
393.658	132.12
393.882	95.12
394.107	83.12
394.331	102.12
394.556	92.12
394.78	94.12
395.005	93.12
395.229	98.12
395.454	79.12
395.678	96.12
395.903	104.12
396.127	106.12
396.352	101.12
396.576	103.12
396.801	128.12
397.025	124.12
397.249	110.12
397.474	83.12
397.698	73.12
397.922	82.12
398.147	93.12
398.371	79.12
398.595	77.12
398.82	86.12
399.044	87.12
399.268	80.12
399.492	81.12
399.717	89.12
399.941	80.12
400.165	84.12
400.389	86.12
400.613	84.12
400.837	75.12
401.062	83.12
401.286	99.12
401.51	80.12
401.734	77.12
401.958	75.12
402.182	88.12
402.406	65.12
402.63	76.12
402.854	67.12
403.078	69.12
403.302	93.12
403.526	82.12
403.75	80.12
403.974	81.12
404.198	98.12
404.422	101.12
404.645	116.12
404.869	92.12
405.093	86.12
405.317	95.12
405.541	102.12
405.765	83.12
405.988	98.12
406.212	89.12
406.436	79.12
406.66	95.12
406.883	84.12
407.107	72.12
407.331	93.12
407.555	84.12
407.778	97.12
408.002	107.12
408.226	101.12
408.449	77.12
408.673	67.12
408.896	74.12
409.12	77.12
409.344	72.12
409.567	77.12
409.791	85.12
410.014	87.12
410.238	78.12
410.461	94.12
410.685	98.12
410.908	85.12
411.132	77.12
411.355	85.12
411.578	86.12
411.802	90.12
412.025	79.12
412.249	77.12
412.472	90.12
412.695	84.12
412.919	84.12
413.142	78.12
413.365	73.12
413.589	86.12
413.812	81.12
414.035	75.12
414.258	80.12
414.482	76.12
414.705	79.12
414.928	74.12
415.151	80.12
415.374	77.12
415.597	79.12
415.821	83.12
416.044	71.12
416.267	74.12
416.49	87.12
416.713	79.12
416.936	79.12
417.159	96.12
417.382	83.12
417.605	93.12
417.828	80.12
418.051	69.12
418.274	83.12
418.497	83.12
418.72	70.12
418.943	86.12
419.166	91.12
419.389	85.12
419.611	87.12
419.834	73.12
420.057	91.12
420.28	87.12
420.503	86.12
420.726	77.12
420.948	89.12
421.171	83.12
421.394	81.12
421.617	79.12
421.839	85.12
422.062	80.12
422.285	100.12
422.507	136.12
422.73	177.12
422.953	195.12
423.175	111.12
423.398	85.12
423.621	87.12
423.843	75.12
424.066	89.12
424.288	74.12
424.511	70.12
424.733	78.12
424.956	80.12
425.178	78.12
425.401	84.12
425.623	67.12
425.846	81.12
426.068	75.12
426.291	77.12
426.513	86.12
426.735	81.12
426.958	87.12
427.18	93.12
427.402	78.12
427.625	84.12
427.847	77.12
428.069	93.12
428.292	92.12
428.514	95.12
428.736	88.12
428.958	93.12
429.181	99.12
429.403	87.12
429.625	84.12
429.847	94.12
430.069	81.12
430.292	116.12
430.514	102.12
430.736	91.12
430.958	97.12
431.18	78.12
431.402	95.12
431.624	88.12
431.846	100.12
432.068	90.12
432.29	85.12
432.512	86.12
432.734	77.12
432.956	90.12
433.178	95.12
433.4	89.12
433.622	86.12
433.844	80.12
434.066	82.12
434.287	79.12
434.509	80.12
434.731	89.12
434.953	91.12
435.175	77.12
435.397	84.12
435.618	77.12
435.84	73.12
436.062	75.12
436.284	95.12
436.505	74.12
436.727	73.12
436.949	71.12
437.17	76.12
437.392	81.12
437.614	57.12
437.835	91.12
438.057	84.12
438.278	77.12
438.5	77.12
438.721	72.12
438.943	81.12
439.165	81.12
439.386	79.12
439.608	79.12
439.829	85.12
440.05	93.12
440.272	82.12
440.493	92.12
440.715	82.12
440.936	85.12
441.158	97.12
441.379	89.12
441.6	70.12
441.822	89.12
442.043	89.12
442.264	70.12
442.486	99.12
442.707	95.12
442.928	89.12
443.149	86.12
443.371	98.12
443.592	127.12
443.813	111.12
444.034	90.12
444.255	92.12
444.476	82.12
444.698	75.12
444.919	85.12
445.14	154.12
445.361	143.12
445.582	128.12
445.803	132.12
446.024	79.12
446.245	83.12
446.466	86.12
446.687	74.12
446.908	59.12
447.129	83.12
447.35	77.12
447.571	75.12
447.792	80.12
448.013	73.12
448.234	73.12
448.455	81.12
448.675	87.12
448.896	85.12
449.117	87.12
449.338	68.12
449.559	78.12
449.779	88.12
450	88.12
450.221	69.12
450.442	87.12
450.662	80.12
450.883	80.12
451.104	90.12
451.324	84.12
451.545	83.12
451.766	95.12
451.986	82.12
452.207	78.12
452.428	83.12
452.648	88.12
452.869	86.12
453.089	87.12
453.31	83.12
453.53	80.12
453.751	86.12
453.971	80.12
454.192	81.12
454.412	90.12
454.633	81.12
454.853	95.12
455.073	79.12
455.294	89.12
455.514	67.12
455.734	67.12
455.955	83.12
456.175	79.12
456.395	91.12
456.616	82.12
456.836	83.12
457.056	81.12
457.276	75.12
457.497	80.12
457.717	85.12
457.937	92.12
458.157	83.12
458.377	95.12
458.598	80.12
458.818	89.12
459.038	86.12
459.258	75.12
459.478	87.12
459.698	89.12
459.918	92.12
460.138	85.12
460.358	80.12
460.578	80.12
460.798	88.12
461.018	85.12
461.238	96.12
461.458	84.12
461.678	88.12
461.898	80.12
462.118	91.12
462.338	90.12
462.558	80.12
462.777	69.12
462.997	94.12
463.217	85.12
463.437	91.12
463.657	82.12
463.876	84.12
464.096	85.12
464.316	84.12
464.536	85.12
464.755	80.12
464.975	75.12
465.195	63.12
465.414	81.12
465.634	83.12
465.854	70.12
466.073	85.12
466.293	86.12
466.512	59.12
466.732	87.12
466.951	81.12
467.171	75.12
467.391	89.12
467.61	82.12
467.829	82.12
468.049	74.12
468.268	107.12
468.488	77.12
468.707	94.12
468.927	83.12
469.146	67.12
469.365	70.12
469.585	82.12
469.804	71.12
470.023	72.12
470.243	85.12
470.462	85.12
470.681	86.12
470.901	94.12
471.12	94.12
471.339	66.12
471.558	93.12
471.777	71.12
471.997	81.12
472.216	92.12
472.435	84.12
472.654	88.12
472.873	88.12
473.092	75.12
473.311	78.12
473.53	79.12
473.749	93.12
473.968	54.12
474.187	79.12
474.406	89.12
474.625	86.12
474.844	81.12
475.063	79.12
475.282	87.12
475.501	79.12
475.72	91.12
475.939	86.12
476.158	81.12
476.377	95.12
476.596	87.12
476.814	82.12
477.033	80.12
477.252	71.12
477.471	79.12
477.69	77.12
477.908	92.12
478.127	93.12
478.346	92.12
478.564	81.12
478.783	83.12
479.002	80.12
479.22	91.12
479.439	75.12
479.658	79.12
479.876	91.12
480.095	66.12
480.313	84.12
480.532	91.12
480.751	83.12
480.969	83.12
481.188	85.12
481.406	76.12
481.624	77.12
481.843	78.12
482.061	87.12
482.28	81.12
482.498	77.12
482.717	85.12
482.935	83.12
483.153	83.12
483.372	79.12
483.59	76.12
483.808	89.12
484.027	88.12
484.245	87.12
484.463	79.12
484.681	88.12
484.9	79.12
485.118	86.12
485.336	72.12
485.554	89.12
485.772	81.12
485.99	101.12
486.209	82.12
486.427	84.12
486.645	99.12
486.863	73.12
487.081	87.12
487.299	86.12
487.517	73.12
487.735	77.12
487.953	88.12
488.171	94.12
488.389	82.12
488.607	76.12
488.825	74.12
489.043	89.12
489.261	76.12
489.479	73.12
489.696	71.12
489.914	82.12
490.132	75.12
490.35	80.12
490.568	92.12
490.786	78.12
491.003	95.12
491.221	77.12
491.439	88.12
491.657	93.12
491.874	83.12
492.092	89.12
492.31	78.12
492.527	91.12
492.745	79.12
492.963	92.12
493.18	79.12
493.398	89.12
493.615	87.12
493.833	87.12
494.05	86.12
494.268	84.12
494.485	95.12
494.703	80.12
494.92	82.12
495.138	74.12
495.355	83.12
495.573	92.12
495.79	83.12
496.008	87.12
496.225	79.12
496.442	86.12
496.66	103.12
496.877	73.12
497.094	82.12
497.312	83.12
497.529	84.12
497.746	96.12
497.963	82.12
498.181	82.12
498.398	80.12
498.615	89.12
498.832	91.12
499.049	85.12
499.267	87.12
499.484	88.12
499.701	93.12
499.918	79.12
500.135	85.12
500.352	76.12
500.569	88.12
500.786	84.12
501.003	94.12
501.22	99.12
501.437	77.12
501.654	86.12
501.871	70.12
502.088	87.12
502.305	83.12
502.522	83.12
502.739	84.12
502.956	79.12
503.172	84.12
503.389	87.12
503.606	76.12
503.823	93.12
504.04	73.12
504.256	81.12
504.473	93.12
504.69	89.12
504.907	79.12
505.123	94.12
505.34	87.12
505.557	71.12
505.773	77.12
505.99	87.12
506.207	79.12
506.423	91.12
506.64	88.12
506.856	67.12
507.073	94.12
507.289	82.12
507.506	97.12
507.722	94.12
507.939	69.12
508.155	82.12
508.372	78.12
508.588	96.12
508.805	88.12
509.021	77.12
509.238	82.12
509.454	87.12
509.67	86.12
509.887	83.12
510.103	93.12
510.319	74.12
510.536	80.12
510.752	84.12
510.968	85.12
511.184	85.12
511.401	67.12
511.617	99.12
511.833	85.12
512.049	90.12
512.265	77.12
512.481	91.12
512.698	77.12
512.914	84.12
513.13	95.12
513.346	79.12
513.562	84.12
513.778	72.12
513.994	88.12
514.21	83.12
514.426	79.12
514.642	85.12
514.858	98.12
515.074	85.12
515.29	94.12
515.506	99.12
515.721	93.12
515.937	86.12
516.153	95.12
516.369	82.12
516.585	85.12
516.801	90.12
517.016	85.12
517.232	85.12
517.448	92.12
517.664	95.12
517.879	85.12
518.095	77.12
518.311	80.12
518.527	99.12
518.742	79.12
518.958	101.12
519.173	103.12
519.389	75.12
519.605	89.12
