Data from 1600_2_HRD10591_00038.txt Node
Date: Mon Jan 19 13:54:00 EST 2026
User: Yrep
Spectrometer: HR+D1059
Trigger mode: 1
Integration Time (sec): 1.000000E-1
Scans to average: 1
Electric dark correction enabled: true
Nonlinearity correction enabled: false
Boxcar width: 0
XAxis mode: Wavelengths
Number of Pixels in Spectrum: 2048
>>>>>Begin Spectral Data<<<<<
223.165	-18.5
223.4	-18.5
223.635	-18.5
223.869	-21.5
224.104	-26.5
224.338	-12.5
224.573	-19.5
224.808	-20.5
225.042	6.5
225.277	-8.5
225.511	11.5
225.746	-1.5
225.98	5.5
226.215	6.5
226.449	13.5
226.683	16.5
226.918	34.5
227.152	34.5
227.387	32.5
227.621	39.5
227.856	50.5
228.09	44.5
228.324	39.5
228.559	52.5
228.793	41.5
229.027	56.5
229.262	75.5
229.496	75.5
229.73	78.5
229.964	74.5
230.199	57.5
230.433	64.5
230.667	63.5
230.901	61.5
231.136	65.5
231.37	70.5
231.604	84.5
231.838	75.5
232.072	70.5
232.306	77.5
232.541	77.5
232.775	81.5
233.009	79.5
233.243	85.5
233.477	81.5
233.711	70.5
233.945	78.5
234.179	75.5
234.413	80.5
234.647	88.5
234.881	84.5
235.115	70.5
235.349	82.5
235.583	80.5
235.817	72.5
236.051	79.5
236.285	65.5
236.519	70.5
236.753	70.5
236.987	71.5
237.221	57.5
237.455	91.5
237.689	83.5
237.922	69.5
238.156	102.5
238.39	71.5
238.624	85.5
238.858	85.5
239.091	80.5
239.325	79.5
239.559	69.5
239.793	73.5
240.027	73.5
240.26	71.5
240.494	73.5
240.728	66.5
240.961	75.5
241.195	65.5
241.429	79.5
241.662	97.5
241.896	78.5
242.13	87.5
242.363	65.5
242.597	67.5
242.83	78.5
243.064	63.5
243.298	69.5
243.531	81.5
243.765	74.5
243.998	82.5
244.232	74.5
244.465	71.5
244.699	75.5
244.932	73.5
245.166	75.5
245.399	74.5
245.633	67.5
245.866	67.5
246.099	69.5
246.333	79.5
246.566	83.5
246.8	63.5
247.033	76.5
247.266	82.5
247.5	72.5
247.733	78.5
247.966	89.5
248.2	81.5
248.433	66.5
248.666	76.5
248.899	77.5
249.133	85.5
249.366	79.5
249.599	81.5
249.832	85.5
250.066	86.5
250.299	72.5
250.532	65.5
250.765	72.5
250.998	66.5
251.231	70.5
251.465	57.5
251.698	84.5
251.931	74.5
252.164	77.5
252.397	79.5
252.63	67.5
252.863	79.5
253.096	75.5
253.329	75.5
253.562	78.5
253.795	73.5
254.028	89.5
254.261	70.5
254.494	90.5
254.727	76.5
254.96	70.5
255.193	80.5
255.426	75.5
255.659	61.5
255.892	77.5
256.124	80.5
256.357	77.5
256.59	90.5
256.823	86.5
257.056	57.5
257.289	59.5
257.521	70.5
257.754	77.5
257.987	74.5
258.22	78.5
258.452	83.5
258.685	65.5
258.918	81.5
259.151	69.5
259.383	67.5
259.616	74.5
259.849	80.5
260.081	86.5
260.314	87.5
260.547	74.5
260.779	62.5
261.012	83.5
261.244	80.5
261.477	73.5
261.71	82.5
261.942	75.5
262.175	81.5
262.407	79.5
262.64	75.5
262.872	78.5
263.105	70.5
263.337	77.5
263.57	71.5
263.802	76.5
264.035	92.5
264.267	92.5
264.499	70.5
264.732	79.5
264.964	70.5
265.197	74.5
265.429	75.5
265.661	86.5
265.894	82.5
266.126	91.5
266.358	78.5
266.591	78.5
266.823	79.5
267.055	90.5
267.287	90.5
267.52	72.5
267.752	85.5
267.984	63.5
268.216	69.5
268.448	71.5
268.681	92.5
268.913	84.5
269.145	65.5
269.377	81.5
269.609	71.5
269.841	83.5
270.073	83.5
270.306	75.5
270.538	76.5
270.77	74.5
271.002	91.5
271.234	86.5
271.466	74.5
271.698	80.5
271.93	72.5
272.162	84.5
272.394	90.5
272.626	81.5
272.858	79.5
273.09	86.5
273.322	67.5
273.553	83.5
273.785	78.5
274.017	81.5
274.249	83.5
274.481	77.5
274.713	67.5
274.945	74.5
275.176	57.5
275.408	80.5
275.64	72.5
275.872	76.5
276.104	76.5
276.335	78.5
276.567	69.5
276.799	85.5
277.031	75.5
277.262	83.5
277.494	73.5
277.726	85.5
277.957	89.5
278.189	71.5
278.421	75.5
278.652	89.5
278.884	71.5
279.115	79.5
279.347	89.5
279.579	86.5
279.81	84.5
280.042	72.5
280.273	81.5
280.505	73.5
280.736	75.5
280.968	87.5
281.199	83.5
281.431	79.5
281.662	78.5
281.894	79.5
282.125	79.5
282.356	81.5
282.588	75.5
282.819	85.5
283.051	81.5
283.282	80.5
283.513	91.5
283.745	87.5
283.976	94.5
284.207	93.5
284.439	83.5
284.67	80.5
284.901	73.5
285.132	82.5
285.364	66.5
285.595	83.5
285.826	79.5
286.057	80.5
286.288	72.5
286.52	70.5
286.751	80.5
286.982	70.5
287.213	65.5
287.444	81.5
287.675	90.5
287.906	78.5
288.138	111.5
288.369	74.5
288.6	92.5
288.831	83.5
289.062	83.5
289.293	90.5
289.524	77.5
289.755	85.5
289.986	83.5
290.217	73.5
290.448	79.5
290.679	66.5
290.91	92.5
291.141	77.5
291.371	84.5
291.602	93.5
291.833	74.5
292.064	83.5
292.295	76.5
292.526	65.5
292.757	83.5
292.987	81.5
293.218	94.5
293.449	85.5
293.68	93.5
293.91	76.5
294.141	78.5
294.372	87.5
294.603	93.5
294.833	79.5
295.064	86.5
295.295	68.5
295.525	79.5
295.756	82.5
295.987	79.5
296.217	85.5
296.448	83.5
296.679	82.5
296.909	92.5
297.14	84.5
297.37	86.5
297.601	75.5
297.831	90.5
298.062	84.5
298.292	75.5
298.523	93.5
298.753	85.5
298.984	82.5
299.214	84.5
299.445	85.5
299.675	81.5
299.905	87.5
300.136	92.5
300.366	88.5
300.597	85.5
300.827	83.5
301.057	89.5
301.288	82.5
301.518	70.5
301.748	90.5
301.979	96.5
302.209	83.5
302.439	77.5
302.669	78.5
302.9	91.5
303.13	98.5
303.36	88.5
303.59	82.5
303.82	99.5
304.051	86.5
304.281	82.5
304.511	85.5
304.741	79.5
304.971	81.5
305.201	82.5
305.431	87.5
305.661	83.5
305.891	89.5
306.121	91.5
306.352	78.5
306.582	82.5
306.812	82.5
307.042	75.5
307.272	69.5
307.502	80.5
307.731	95.5
307.961	80.5
308.191	74.5
308.421	90.5
308.651	66.5
308.881	83.5
309.111	83.5
309.341	88.5
309.571	82.5
309.8	76.5
310.03	90.5
310.26	85.5
310.49	81.5
310.72	67.5
310.949	71.5
311.179	82.5
311.409	81.5
311.639	82.5
311.868	93.5
312.098	93.5
312.328	78.5
312.557	93.5
312.787	91.5
313.017	87.5
313.246	79.5
313.476	83.5
313.706	79.5
313.935	68.5
314.165	89.5
314.394	92.5
314.624	72.5
314.853	82.5
315.083	90.5
315.312	77.5
315.542	76.5
315.771	84.5
316.001	77.5
316.23	88.5
316.46	78.5
316.689	89.5
316.919	84.5
317.148	89.5
317.377	82.5
317.607	105.5
317.836	86.5
318.065	79.5
318.295	62.5
318.524	75.5
318.753	83.5
318.983	81.5
319.212	76.5
319.441	81.5
319.67	75.5
319.9	78.5
320.129	85.5
320.358	89.5
320.587	78.5
320.816	79.5
321.046	86.5
321.275	76.5
321.504	80.5
321.733	84.5
321.962	81.5
322.191	80.5
322.42	80.5
322.649	79.5
322.878	77.5
323.108	69.5
323.337	77.5
323.566	86.5
323.795	92.5
324.024	78.5
324.253	87.5
324.482	92.5
324.71	87.5
324.939	76.5
325.168	75.5
325.397	88.5
325.626	78.5
325.855	85.5
326.084	76.5
326.313	69.5
326.542	68.5
326.77	70.5
326.999	94.5
327.228	86.5
327.457	98.5
327.686	87.5
327.914	83.5
328.143	98.5
328.372	85.5
328.6	77.5
328.829	75.5
329.058	83.5
329.287	92.5
329.515	79.5
329.744	84.5
329.972	78.5
330.201	80.5
330.43	89.5
330.658	86.5
330.887	87.5
331.115	82.5
331.344	83.5
331.572	86.5
331.801	77.5
332.03	82.5
332.258	80.5
332.486	80.5
332.715	79.5
332.943	89.5
333.172	87.5
333.4	84.5
333.629	77.5
333.857	82.5
334.085	70.5
334.314	90.5
334.542	98.5
334.771	73.5
334.999	70.5
335.227	79.5
335.455	78.5
335.684	74.5
335.912	84.5
336.14	78.5
336.369	75.5
336.597	88.5
336.825	72.5
337.053	72.5
337.281	83.5
337.51	78.5
337.738	91.5
337.966	64.5
338.194	85.5
338.422	85.5
338.65	91.5
338.878	86.5
339.106	77.5
339.334	70.5
339.562	78.5
339.79	77.5
340.018	73.5
340.246	86.5
340.474	82.5
340.702	86.5
340.93	79.5
341.158	72.5
341.386	80.5
341.614	74.5
341.842	81.5
342.07	79.5
342.298	70.5
342.526	79.5
342.754	102.5
342.981	92.5
343.209	90.5
343.437	93.5
343.665	87.5
343.893	87.5
344.12	92.5
344.348	100.5
344.576	88.5
344.804	90.5
345.031	69.5
345.259	82.5
345.487	84.5
345.714	85.5
345.942	72.5
346.17	82.5
346.397	83.5
346.625	87.5
346.853	80.5
347.08	73.5
347.308	75.5
347.535	73.5
347.763	81.5
347.99	89.5
348.218	81.5
348.445	78.5
348.673	71.5
348.9	89.5
349.128	86.5
349.355	79.5
349.583	87.5
349.81	82.5
350.037	78.5
350.265	80.5
350.492	70.5
350.72	86.5
350.947	81.5
351.174	85.5
351.402	75.5
351.629	80.5
351.856	67.5
352.083	69.5
352.311	86.5
352.538	70.5
352.765	89.5
352.992	92.5
353.22	92.5
353.447	75.5
353.674	93.5
353.901	79.5
354.128	75.5
354.355	87.5
354.583	79.5
354.81	94.5
355.037	80.5
355.264	78.5
355.491	84.5
355.718	78.5
355.945	84.5
356.172	85.5
356.399	90.5
356.626	82.5
356.853	82.5
357.08	79.5
357.307	77.5
357.534	83.5
357.761	78.5
357.988	93.5
358.215	91.5
358.441	80.5
358.668	89.5
358.895	87.5
359.122	91.5
359.349	75.5
359.576	71.5
359.802	79.5
360.029	86.5
360.256	75.5
360.483	78.5
360.709	79.5
360.936	88.5
361.163	87.5
361.39	78.5
361.616	74.5
361.843	96.5
362.07	101.5
362.296	88.5
362.523	96.5
362.749	72.5
362.976	83.5
363.203	73.5
363.429	58.5
363.656	74.5
363.882	90.5
364.109	86.5
364.335	92.5
364.562	79.5
364.788	85.5
365.015	81.5
365.241	93.5
365.468	93.5
365.694	70.5
365.92	77.5
366.147	73.5
366.373	91.5
366.599	82.5
366.826	79.5
367.052	73.5
367.278	79.5
367.505	93.5
367.731	95.5
367.957	85.5
368.184	86.5
368.41	82.5
368.636	99.5
368.862	94.5
369.089	87.5
369.315	89.5
369.541	83.5
369.767	72.5
369.993	74.5
370.219	75.5
370.445	83.5
370.672	60.5
370.898	76.5
371.124	79.5
371.35	77.5
371.576	71.5
371.802	85.5
372.028	72.5
372.254	78.5
372.48	79.5
372.706	84.5
372.932	96.5
373.158	84.5
373.384	92.5
373.61	84.5
373.835	81.5
374.061	93.5
374.287	67.5
374.513	90.5
374.739	89.5
374.965	86.5
375.191	91.5
375.416	76.5
375.642	91.5
375.868	81.5
376.094	86.5
376.319	72.5
376.545	80.5
376.771	78.5
376.997	81.5
377.222	84.5
377.448	87.5
377.674	77.5
377.899	69.5
378.125	67.5
378.35	81.5
378.576	79.5
378.802	94.5
379.027	89.5
379.253	99.5
379.478	90.5
379.704	67.5
379.929	77.5
380.155	81.5
380.38	76.5
380.606	77.5
380.831	64.5
381.057	92.5
381.282	87.5
381.507	90.5
381.733	86.5
381.958	98.5
382.184	91.5
382.409	76.5
382.634	82.5
382.86	85.5
383.085	86.5
383.31	91.5
383.535	82.5
383.761	82.5
383.986	79.5
384.211	92.5
384.436	79.5
384.662	81.5
384.887	78.5
385.112	85.5
385.337	85.5
385.562	79.5
385.787	86.5
386.013	97.5
386.238	83.5
386.463	78.5
386.688	93.5
386.913	83.5
387.138	97.5
387.363	74.5
387.588	78.5
387.813	81.5
388.038	83.5
388.263	92.5
388.488	67.5
388.713	87.5
388.938	77.5
389.163	76.5
389.387	82.5
389.612	95.5
389.837	79.5
390.062	79.5
390.287	78.5
390.512	89.5
390.736	65.5
390.961	75.5
391.186	75.5
391.411	79.5
391.636	83.5
391.86	84.5
392.085	82.5
392.31	79.5
392.534	84.5
392.759	91.5
392.984	80.5
393.208	131.5
393.433	156.5
393.658	119.5
393.882	101.5
394.107	87.5
394.331	97.5
394.556	113.5
394.78	87.5
395.005	76.5
395.229	86.5
395.454	89.5
395.678	95.5
395.903	88.5
396.127	103.5
396.352	106.5
396.576	106.5
396.801	131.5
397.025	137.5
397.249	114.5
397.474	83.5
397.698	91.5
397.922	79.5
398.147	76.5
398.371	67.5
398.595	79.5
398.82	80.5
399.044	77.5
399.268	85.5
399.492	87.5
399.717	82.5
399.941	87.5
400.165	85.5
400.389	71.5
400.613	77.5
400.837	89.5
401.062	65.5
401.286	85.5
401.51	72.5
401.734	70.5
401.958	76.5
402.182	75.5
402.406	85.5
402.63	73.5
402.854	78.5
403.078	63.5
403.302	96.5
403.526	96.5
403.75	79.5
403.974	81.5
404.198	93.5
404.422	91.5
404.645	90.5
404.869	80.5
405.093	65.5
405.317	83.5
405.541	83.5
405.765	69.5
405.988	79.5
406.212	92.5
406.436	70.5
406.66	100.5
406.883	65.5
407.107	62.5
407.331	92.5
407.555	83.5
407.778	86.5
408.002	96.5
408.226	89.5
408.449	64.5
408.673	76.5
408.896	78.5
409.12	80.5
409.344	78.5
409.567	80.5
409.791	81.5
410.014	83.5
410.238	79.5
410.461	83.5
410.685	79.5
410.908	85.5
411.132	82.5
411.355	77.5
411.578	72.5
411.802	83.5
412.025	86.5
412.249	71.5
412.472	75.5
412.695	79.5
412.919	75.5
413.142	77.5
413.365	81.5
413.589	76.5
413.812	80.5
414.035	75.5
414.258	79.5
414.482	81.5
414.705	76.5
414.928	78.5
415.151	87.5
415.374	86.5
415.597	66.5
415.821	75.5
416.044	75.5
416.267	75.5
416.49	64.5
416.713	83.5
416.936	87.5
417.159	70.5
417.382	77.5
417.605	75.5
417.828	69.5
418.051	81.5
418.274	82.5
418.497	75.5
418.72	89.5
418.943	77.5
419.166	72.5
419.389	91.5
419.611	79.5
419.834	82.5
420.057	80.5
420.28	68.5
420.503	70.5
420.726	69.5
420.948	75.5
421.171	70.5
421.394	73.5
421.617	93.5
421.839	83.5
422.062	79.5
422.285	84.5
422.507	125.5
422.73	185.5
422.953	167.5
423.175	89.5
423.398	75.5
423.621	77.5
423.843	61.5
424.066	83.5
424.288	73.5
424.511	77.5
424.733	70.5
424.956	79.5
425.178	77.5
425.401	79.5
425.623	69.5
425.846	78.5
426.068	79.5
426.291	76.5
426.513	84.5
426.735	86.5
426.958	78.5
427.18	83.5
427.402	78.5
427.625	69.5
427.847	81.5
428.069	66.5
428.292	86.5
428.514	92.5
428.736	84.5
428.958	67.5
429.181	91.5
429.403	81.5
429.625	70.5
429.847	90.5
430.069	111.5
430.292	102.5
430.514	85.5
430.736	100.5
430.958	99.5
431.18	92.5
431.402	91.5
431.624	86.5
431.846	95.5
432.068	103.5
432.29	92.5
432.512	90.5
432.734	92.5
432.956	85.5
433.178	91.5
433.4	81.5
433.622	76.5
433.844	95.5
434.066	77.5
434.287	77.5
434.509	80.5
434.731	87.5
434.953	81.5
435.175	83.5
435.397	72.5
435.618	78.5
435.84	77.5
436.062	78.5
436.284	89.5
436.505	77.5
436.727	89.5
436.949	85.5
437.17	66.5
437.392	69.5
437.614	79.5
437.835	83.5
438.057	89.5
438.278	89.5
438.5	87.5
438.721	87.5
438.943	87.5
439.165	84.5
439.386	73.5
439.608	75.5
439.829	78.5
440.05	75.5
440.272	72.5
440.493	85.5
440.715	73.5
440.936	71.5
441.158	90.5
441.379	79.5
441.6	67.5
441.822	64.5
442.043	86.5
442.264	82.5
442.486	80.5
442.707	77.5
442.928	90.5
443.149	67.5
443.371	99.5
443.592	101.5
443.813	96.5
444.034	79.5
444.255	78.5
444.476	89.5
444.698	83.5
444.919	87.5
445.14	158.5
445.361	133.5
445.582	113.5
445.803	109.5
446.024	82.5
446.245	78.5
446.466	65.5
446.687	75.5
446.908	83.5
447.129	85.5
447.35	71.5
447.571	69.5
447.792	77.5
448.013	81.5
448.234	67.5
448.455	86.5
448.675	71.5
448.896	66.5
449.117	78.5
449.338	78.5
449.559	76.5
449.779	79.5
450	75.5
450.221	94.5
450.442	88.5
450.662	79.5
450.883	83.5
451.104	84.5
451.324	78.5
451.545	90.5
451.766	91.5
451.986	72.5
452.207	83.5
452.428	87.5
452.648	83.5
452.869	78.5
453.089	88.5
453.31	98.5
453.53	71.5
453.751	66.5
453.971	69.5
454.192	71.5
454.412	73.5
454.633	75.5
454.853	90.5
455.073	85.5
455.294	83.5
455.514	77.5
455.734	70.5
455.955	75.5
456.175	77.5
456.395	67.5
456.616	75.5
456.836	88.5
457.056	68.5
457.276	69.5
457.497	60.5
457.717	84.5
457.937	79.5
458.157	77.5
458.377	76.5
458.598	87.5
458.818	78.5
459.038	84.5
459.258	91.5
459.478	79.5
459.698	84.5
459.918	74.5
460.138	70.5
460.358	71.5
460.578	74.5
460.798	86.5
461.018	89.5
461.238	67.5
461.458	69.5
461.678	82.5
461.898	79.5
462.118	77.5
462.338	77.5
462.558	82.5
462.777	95.5
462.997	63.5
463.217	67.5
463.437	72.5
463.657	75.5
463.876	94.5
464.096	79.5
464.316	79.5
464.536	83.5
464.755	87.5
464.975	84.5
465.195	70.5
465.414	88.5
465.634	83.5
465.854	73.5
466.073	62.5
466.293	77.5
466.512	68.5
466.732	61.5
466.951	80.5
467.171	83.5
467.391	84.5
467.61	65.5
467.829	84.5
468.049	61.5
468.268	75.5
468.488	68.5
468.707	77.5
468.927	85.5
469.146	77.5
469.365	73.5
469.585	85.5
469.804	72.5
470.023	85.5
470.243	58.5
470.462	65.5
470.681	75.5
470.901	69.5
471.12	55.5
471.339	81.5
471.558	70.5
471.777	76.5
471.997	70.5
472.216	82.5
472.435	76.5
472.654	79.5
472.873	75.5
473.092	70.5
473.311	85.5
473.53	86.5
473.749	90.5
473.968	77.5
474.187	79.5
474.406	80.5
474.625	73.5
474.844	72.5
475.063	70.5
475.282	80.5
475.501	69.5
475.72	87.5
475.939	75.5
476.158	70.5
476.377	86.5
476.596	77.5
476.814	74.5
477.033	75.5
477.252	76.5
477.471	91.5
477.69	70.5
477.908	75.5
478.127	77.5
478.346	80.5
478.564	75.5
478.783	89.5
479.002	84.5
479.22	79.5
479.439	81.5
479.658	71.5
479.876	78.5
480.095	79.5
480.313	79.5
480.532	74.5
480.751	78.5
480.969	85.5
481.188	84.5
481.406	84.5
481.624	89.5
481.843	75.5
482.061	77.5
482.28	80.5
482.498	67.5
482.717	69.5
482.935	59.5
483.153	77.5
483.372	68.5
483.59	80.5
483.808	77.5
484.027	85.5
484.245	67.5
484.463	71.5
484.681	76.5
484.9	78.5
485.118	77.5
485.336	76.5
485.554	70.5
485.772	94.5
485.99	87.5
486.209	77.5
486.427	85.5
486.645	81.5
486.863	79.5
487.081	74.5
487.299	87.5
487.517	93.5
487.735	77.5
487.953	61.5
488.171	89.5
488.389	76.5
488.607	78.5
488.825	66.5
489.043	81.5
489.261	88.5
489.479	101.5
489.696	71.5
489.914	83.5
490.132	85.5
490.35	87.5
490.568	85.5
490.786	87.5
491.003	77.5
491.221	83.5
491.439	79.5
491.657	77.5
491.874	79.5
492.092	85.5
492.31	82.5
492.527	93.5
492.745	79.5
492.963	92.5
493.18	83.5
493.398	75.5
493.615	84.5
493.833	67.5
494.05	83.5
494.268	62.5
494.485	81.5
494.703	65.5
494.92	89.5
495.138	79.5
495.355	85.5
495.573	74.5
495.79	75.5
496.008	90.5
496.225	82.5
496.442	82.5
496.66	82.5
496.877	85.5
497.094	85.5
497.312	81.5
497.529	80.5
497.746	87.5
497.963	96.5
498.181	92.5
498.398	76.5
498.615	77.5
498.832	98.5
499.049	78.5
499.267	76.5
499.484	74.5
499.701	83.5
499.918	80.5
500.135	79.5
500.352	86.5
500.569	83.5
500.786	86.5
501.003	69.5
501.22	77.5
501.437	74.5
501.654	76.5
501.871	82.5
502.088	87.5
502.305	89.5
502.522	90.5
502.739	80.5
502.956	82.5
503.172	88.5
503.389	85.5
503.606	60.5
503.823	98.5
504.04	91.5
504.256	91.5
504.473	75.5
504.69	93.5
504.907	99.5
505.123	81.5
505.34	72.5
505.557	89.5
505.773	92.5
505.99	66.5
506.207	69.5
506.423	74.5
506.64	87.5
506.856	87.5
507.073	82.5
507.289	98.5
507.506	67.5
507.722	82.5
507.939	79.5
508.155	87.5
508.372	76.5
508.588	96.5
508.805	92.5
509.021	77.5
509.238	99.5
509.454	77.5
509.67	91.5
509.887	82.5
510.103	88.5
510.319	83.5
510.536	92.5
510.752	75.5
510.968	89.5
511.184	78.5
511.401	80.5
511.617	78.5
511.833	84.5
512.049	75.5
512.265	94.5
512.481	80.5
512.698	86.5
512.914	92.5
513.13	89.5
513.346	68.5
513.562	66.5
513.778	81.5
513.994	79.5
514.21	81.5
514.426	81.5
514.642	79.5
514.858	81.5
515.074	78.5
515.29	89.5
515.506	68.5
515.721	77.5
515.937	84.5
516.153	82.5
516.369	100.5
516.585	85.5
516.801	92.5
517.016	88.5
517.232	97.5
517.448	92.5
517.664	78.5
517.879	87.5
518.095	85.5
518.311	90.5
518.527	89.5
518.742	81.5
518.958	86.5
519.173	81.5
519.389	68.5
519.605	85.5
519.82	64.5
520.036	91.5
520.251	75.5
520.467	84.5
520.682	76.5
520.898	69.5
521.113	83.5
521.329	79.5
521.544	77.5
521.76	93.5
521.975	83.5
522.19	71.5
522.406	69.5
522.621	76.5
522.836	88.5
523.052	81.5
523.267	71.5
523.482	71.5
523.698	80.5
523.913	91.5
524.128	86.5
524.343	89.5
524.559	91.5
524.774	75.5
524.989	82.5
525.204	92.5
525.419	91.5
525.634	73.5
525.849	86.5
526.064	81.5
526.28	101.5
526.495	98.5
526.71	110.5
526.925	89.5
527.14	113.5
527.355	95.5
527.57	92.5
527.785	71.5
527.999	77.5
528.214	85.5
528.429	81.5
528.644	83.5
528.859	77.5
529.074	74.5
529.289	83.5
529.503	83.5
529.718	67.5
529.933	87.5
530.148	89.5
530.363	101.5
530.577	80.5
530.792	83.5
531.007	77.5
531.221	80.5
531.436	87.5
531.651	79.5
531.865	77.5
532.08	97.5
532.295	83.5
532.509	78.5
532.724	79.5
532.938	103.5
533.153	80.5
533.367	80.5
533.582	82.5
533.796	90.5
534.011	85.5
534.225	81.5
534.44	79.5
534.654	78.5
534.868	83.5
535.083	78.5
535.297	94.5
535.511	89.5
535.726	86.5
535.94	90.5
536.154	85.5
536.369	83.5
536.583	69.5
536.797	83.5
537.011	84.5
537.225	73.5
537.44	83.5
537.654	96.5
537.868	92.5
538.082	91.5
538.296	90.5
538.51	90.5
538.724	83.5
538.938	87.5
539.153	81.5
539.367	102.5
539.581	81.5
539.795	86.5
540.009	78.5
540.222	85.5
