Data from 1600_2_HRD10591_00044.txt Node
Date: Mon Jan 19 13:54:03 EST 2026
User: Yrep
Spectrometer: HR+D1059
Trigger mode: 1
Integration Time (sec): 1.000000E-1
Scans to average: 1
Electric dark correction enabled: true
Nonlinearity correction enabled: false
Boxcar width: 0
XAxis mode: Wavelengths
Number of Pixels in Spectrum: 2048
>>>>>Begin Spectral Data<<<<<
223.165	-6.38
223.4	-6.38
223.635	-6.38
223.869	-16.38
224.104	-18.38
224.338	-22.38
224.573	-6.38
224.808	-10.38
225.042	-14.38
225.277	-5.38
225.511	-18.38
225.746	-4.38
225.98	7.62
226.215	17.62
226.449	11.62
226.683	28.62
226.918	20.62
227.152	36.62
227.387	39.62
227.621	45.62
227.856	45.62
228.09	44.62
228.324	41.62
228.559	45.62
228.793	57.62
229.027	61.62
229.262	53.62
229.496	63.62
229.73	80.62
229.964	73.62
230.199	78.62
230.433	69.62
230.667	90.62
230.901	83.62
231.136	72.62
231.37	82.62
231.604	71.62
231.838	86.62
232.072	73.62
232.306	82.62
232.541	79.62
232.775	77.62
233.009	77.62
233.243	74.62
233.477	71.62
233.711	76.62
233.945	71.62
234.179	72.62
234.413	78.62
234.647	77.62
234.881	81.62
235.115	67.62
235.349	74.62
235.583	75.62
235.817	68.62
236.051	69.62
236.285	76.62
236.519	71.62
236.753	72.62
236.987	80.62
237.221	75.62
237.455	68.62
237.689	72.62
237.922	74.62
238.156	72.62
238.39	84.62
238.624	97.62
238.858	70.62
239.091	72.62
239.325	63.62
239.559	77.62
239.793	75.62
240.027	75.62
240.26	75.62
240.494	77.62
240.728	66.62
240.961	77.62
241.195	69.62
241.429	76.62
241.662	79.62
241.896	73.62
242.13	71.62
242.363	68.62
242.597	71.62
242.83	83.62
243.064	67.62
243.298	56.62
243.531	65.62
243.765	75.62
243.998	79.62
244.232	83.62
244.465	85.62
244.699	86.62
244.932	70.62
245.166	78.62
245.399	78.62
245.633	85.62
245.866	70.62
246.099	74.62
246.333	87.62
246.566	65.62
246.8	85.62
247.033	91.62
247.266	60.62
247.5	78.62
247.733	61.62
247.966	84.62
248.2	77.62
248.433	75.62
248.666	73.62
248.899	76.62
249.133	81.62
249.366	79.62
249.599	77.62
249.832	62.62
250.066	67.62
250.299	73.62
250.532	65.62
250.765	72.62
250.998	82.62
251.231	70.62
251.465	54.62
251.698	68.62
251.931	62.62
252.164	73.62
252.397	73.62
252.63	79.62
252.863	68.62
253.096	80.62
253.329	63.62
253.562	59.62
253.795	70.62
254.028	78.62
254.261	86.62
254.494	83.62
254.727	72.62
254.96	74.62
255.193	75.62
255.426	72.62
255.659	79.62
255.892	79.62
256.124	72.62
256.357	77.62
256.59	77.62
256.823	58.62
257.056	80.62
257.289	78.62
257.521	71.62
257.754	85.62
257.987	74.62
258.22	83.62
258.452	82.62
258.685	69.62
258.918	70.62
259.151	78.62
259.383	73.62
259.616	63.62
259.849	76.62
260.081	75.62
260.314	76.62
260.547	82.62
260.779	75.62
261.012	85.62
261.244	81.62
261.477	81.62
261.71	83.62
261.942	65.62
262.175	79.62
262.407	80.62
262.64	77.62
262.872	71.62
263.105	66.62
263.337	74.62
263.57	65.62
263.802	71.62
264.035	82.62
264.267	74.62
264.499	73.62
264.732	69.62
264.964	74.62
265.197	80.62
265.429	85.62
265.661	74.62
265.894	72.62
266.126	76.62
266.358	87.62
266.591	89.62
266.823	87.62
267.055	62.62
267.287	73.62
267.52	74.62
267.752	67.62
267.984	79.62
268.216	82.62
268.448	80.62
268.681	71.62
268.913	89.62
269.145	81.62
269.377	86.62
269.609	79.62
269.841	77.62
270.073	82.62
270.306	94.62
270.538	80.62
270.77	74.62
271.002	71.62
271.234	88.62
271.466	75.62
271.698	80.62
271.93	75.62
272.162	86.62
272.394	96.62
272.626	78.62
272.858	69.62
273.09	93.62
273.322	79.62
273.553	85.62
273.785	77.62
274.017	82.62
274.249	94.62
274.481	85.62
274.713	85.62
274.945	79.62
275.176	77.62
275.408	76.62
275.64	77.62
275.872	92.62
276.104	85.62
276.335	81.62
276.567	74.62
276.799	77.62
277.031	91.62
277.262	79.62
277.494	79.62
277.726	84.62
277.957	92.62
278.189	89.62
278.421	85.62
278.652	86.62
278.884	91.62
279.115	94.62
279.347	88.62
279.579	87.62
279.81	87.62
280.042	84.62
280.273	75.62
280.505	84.62
280.736	73.62
280.968	80.62
281.199	87.62
281.431	68.62
281.662	82.62
281.894	86.62
282.125	92.62
282.356	82.62
282.588	77.62
282.819	79.62
283.051	78.62
283.282	57.62
283.513	79.62
283.745	63.62
283.976	82.62
284.207	84.62
284.439	83.62
284.67	87.62
284.901	82.62
285.132	87.62
285.364	81.62
285.595	75.62
285.826	69.62
286.057	64.62
286.288	80.62
286.52	89.62
286.751	76.62
286.982	89.62
287.213	86.62
287.444	79.62
287.675	86.62
287.906	64.62
288.138	70.62
288.369	87.62
288.6	82.62
288.831	70.62
289.062	85.62
289.293	74.62
289.524	80.62
289.755	81.62
289.986	79.62
290.217	86.62
290.448	81.62
290.679	87.62
290.91	81.62
291.141	73.62
291.371	65.62
291.602	74.62
291.833	80.62
292.064	66.62
292.295	95.62
292.526	85.62
292.757	58.62
292.987	75.62
293.218	90.62
293.449	72.62
293.68	96.62
293.91	81.62
294.141	78.62
294.372	85.62
294.603	89.62
294.833	75.62
295.064	87.62
295.295	72.62
295.525	86.62
295.756	80.62
295.987	89.62
296.217	75.62
296.448	82.62
296.679	103.62
296.909	90.62
297.14	95.62
297.37	89.62
297.601	72.62
297.831	75.62
298.062	83.62
298.292	87.62
298.523	85.62
298.753	87.62
298.984	80.62
299.214	83.62
299.445	69.62
299.675	93.62
299.905	80.62
300.136	77.62
300.366	67.62
300.597	90.62
300.827	79.62
301.057	84.62
301.288	67.62
301.518	92.62
301.748	75.62
301.979	106.62
302.209	91.62
302.439	77.62
302.669	80.62
302.9	73.62
303.13	96.62
303.36	97.62
303.59	93.62
303.82	90.62
304.051	91.62
304.281	79.62
304.511	90.62
304.741	87.62
304.971	84.62
305.201	77.62
305.431	77.62
305.661	85.62
305.891	84.62
306.121	78.62
306.352	86.62
306.582	79.62
306.812	80.62
307.042	81.62
307.272	82.62
307.502	82.62
307.731	73.62
307.961	81.62
308.191	81.62
308.421	94.62
308.651	81.62
308.881	84.62
309.111	77.62
309.341	100.62
309.571	76.62
309.8	93.62
310.03	78.62
310.26	85.62
310.49	67.62
310.72	90.62
310.949	83.62
311.179	79.62
311.409	86.62
311.639	84.62
311.868	79.62
312.098	90.62
312.328	70.62
312.557	81.62
312.787	73.62
313.017	83.62
313.246	90.62
313.476	86.62
313.706	93.62
313.935	79.62
314.165	80.62
314.394	89.62
314.624	71.62
314.853	64.62
315.083	77.62
315.312	91.62
315.542	99.62
315.771	79.62
316.001	79.62
316.23	84.62
316.46	87.62
316.689	70.62
316.919	81.62
317.148	76.62
317.377	72.62
317.607	75.62
317.836	94.62
318.065	86.62
318.295	82.62
318.524	78.62
318.753	78.62
318.983	88.62
319.212	75.62
319.441	82.62
319.67	81.62
319.9	82.62
320.129	72.62
320.358	86.62
320.587	87.62
320.816	86.62
321.046	90.62
321.275	80.62
321.504	83.62
321.733	83.62
321.962	81.62
322.191	78.62
322.42	70.62
322.649	79.62
322.878	75.62
323.108	89.62
323.337	103.62
323.566	86.62
323.795	75.62
324.024	87.62
324.253	91.62
324.482	87.62
324.71	82.62
324.939	81.62
325.168	75.62
325.397	77.62
325.626	70.62
325.855	76.62
326.084	83.62
326.313	80.62
326.542	94.62
326.77	77.62
326.999	79.62
327.228	85.62
327.457	86.62
327.686	69.62
327.914	89.62
328.143	85.62
328.372	98.62
328.6	85.62
328.829	81.62
329.058	78.62
329.287	71.62
329.515	84.62
329.744	80.62
329.972	88.62
330.201	84.62
330.43	88.62
330.658	81.62
330.887	79.62
331.115	77.62
331.344	61.62
331.572	81.62
331.801	82.62
332.03	89.62
332.258	82.62
332.486	83.62
332.715	83.62
332.943	69.62
333.172	79.62
333.4	80.62
333.629	78.62
333.857	84.62
334.085	96.62
334.314	83.62
334.542	76.62
334.771	77.62
334.999	74.62
335.227	85.62
335.455	77.62
335.684	88.62
335.912	63.62
336.14	78.62
336.369	78.62
336.597	78.62
336.825	81.62
337.053	91.62
337.281	90.62
337.51	81.62
337.738	71.62
337.966	90.62
338.194	93.62
338.422	79.62
338.65	91.62
338.878	93.62
339.106	91.62
339.334	85.62
339.562	78.62
339.79	90.62
340.018	82.62
340.246	88.62
340.474	79.62
340.702	70.62
340.93	81.62
341.158	81.62
341.386	89.62
341.614	90.62
341.842	76.62
342.07	87.62
342.298	82.62
342.526	85.62
342.754	87.62
342.981	91.62
343.209	82.62
343.437	90.62
343.665	85.62
343.893	77.62
344.12	75.62
344.348	70.62
344.576	87.62
344.804	76.62
345.031	82.62
345.259	105.62
345.487	65.62
345.714	77.62
345.942	74.62
346.17	81.62
346.397	72.62
346.625	80.62
346.853	76.62
347.08	75.62
347.308	97.62
347.535	89.62
347.763	89.62
347.99	79.62
348.218	85.62
348.445	79.62
348.673	81.62
348.9	100.62
349.128	87.62
349.355	86.62
349.583	86.62
349.81	69.62
350.037	89.62
350.265	79.62
350.492	79.62
350.72	81.62
350.947	62.62
351.174	79.62
351.402	78.62
351.629	93.62
351.856	78.62
352.083	91.62
352.311	85.62
352.538	75.62
352.765	71.62
352.992	91.62
353.22	93.62
353.447	81.62
353.674	85.62
353.901	89.62
354.128	87.62
354.355	83.62
354.583	94.62
354.81	91.62
355.037	95.62
355.264	81.62
355.491	81.62
355.718	68.62
355.945	83.62
356.172	81.62
356.399	76.62
356.626	87.62
356.853	93.62
357.08	93.62
357.307	83.62
357.534	78.62
357.761	78.62
357.988	72.62
358.215	80.62
358.441	90.62
358.668	87.62
358.895	85.62
359.122	83.62
359.349	89.62
359.576	99.62
359.802	91.62
360.029	80.62
360.256	74.62
360.483	77.62
360.709	75.62
360.936	78.62
361.163	87.62
361.39	79.62
361.616	90.62
361.843	88.62
362.07	78.62
362.296	82.62
362.523	76.62
362.749	72.62
362.976	89.62
363.203	93.62
363.429	84.62
363.656	92.62
363.882	78.62
364.109	90.62
364.335	78.62
364.562	78.62
364.788	76.62
365.015	85.62
365.241	76.62
365.468	82.62
365.694	81.62
365.92	81.62
366.147	71.62
366.373	93.62
366.599	70.62
366.826	82.62
367.052	72.62
367.278	89.62
367.505	67.62
367.731	89.62
367.957	84.62
368.184	83.62
368.41	85.62
368.636	83.62
368.862	89.62
369.089	76.62
369.315	79.62
369.541	85.62
369.767	87.62
369.993	71.62
370.219	78.62
370.445	93.62
370.672	84.62
370.898	78.62
371.124	64.62
371.35	81.62
371.576	81.62
371.802	78.62
372.028	81.62
372.254	73.62
372.48	89.62
372.706	84.62
372.932	83.62
373.158	83.62
373.384	87.62
373.61	84.62
373.835	83.62
374.061	72.62
374.287	77.62
374.513	85.62
374.739	82.62
374.965	69.62
375.191	93.62
375.416	90.62
375.642	85.62
375.868	75.62
376.094	71.62
376.319	78.62
376.545	89.62
376.771	88.62
376.997	77.62
377.222	86.62
377.448	91.62
377.674	84.62
377.899	82.62
378.125	87.62
378.35	82.62
378.576	82.62
378.802	78.62
379.027	89.62
379.253	59.62
379.478	74.62
379.704	74.62
379.929	63.62
380.155	78.62
380.38	65.62
380.606	81.62
380.831	91.62
381.057	92.62
381.282	81.62
381.507	85.62
381.733	93.62
381.958	77.62
382.184	88.62
382.409	79.62
382.634	93.62
382.86	77.62
383.085	78.62
383.31	71.62
383.535	84.62
383.761	90.62
383.986	89.62
384.211	90.62
384.436	75.62
384.662	80.62
384.887	82.62
385.112	85.62
385.337	85.62
385.562	90.62
385.787	85.62
386.013	87.62
386.238	86.62
386.463	86.62
386.688	89.62
386.913	85.62
387.138	69.62
387.363	75.62
387.588	90.62
387.813	99.62
388.038	91.62
388.263	84.62
388.488	80.62
388.713	90.62
388.938	73.62
389.163	68.62
389.387	73.62
389.612	77.62
389.837	95.62
390.062	83.62
390.287	87.62
390.512	76.62
390.736	89.62
390.961	78.62
391.186	87.62
391.411	77.62
391.636	88.62
391.86	60.62
392.085	77.62
392.31	71.62
392.534	82.62
392.759	81.62
392.984	90.62
393.208	110.62
393.433	122.62
393.658	100.62
393.882	79.62
394.107	88.62
394.331	81.62
394.556	88.62
394.78	88.62
395.005	89.62
395.229	84.62
395.454	72.62
395.678	77.62
395.903	72.62
396.127	95.62
396.352	102.62
396.576	93.62
396.801	118.62
397.025	121.62
397.249	93.62
397.474	93.62
397.698	92.62
397.922	82.62
398.147	91.62
398.371	78.62
398.595	82.62
398.82	84.62
399.044	90.62
399.268	78.62
399.492	83.62
399.717	80.62
399.941	81.62
400.165	80.62
400.389	94.62
400.613	87.62
400.837	74.62
401.062	71.62
401.286	92.62
401.51	87.62
401.734	75.62
401.958	79.62
402.182	92.62
402.406	80.62
402.63	85.62
402.854	86.62
403.078	84.62
403.302	88.62
403.526	72.62
403.75	90.62
403.974	86.62
404.198	87.62
404.422	91.62
404.645	89.62
404.869	90.62
405.093	84.62
405.317	78.62
405.541	84.62
405.765	86.62
405.988	71.62
406.212	87.62
406.436	77.62
406.66	87.62
406.883	94.62
407.107	78.62
407.331	68.62
407.555	78.62
407.778	87.62
408.002	80.62
408.226	86.62
408.449	70.62
408.673	84.62
408.896	97.62
409.12	71.62
409.344	90.62
409.567	86.62
409.791	88.62
410.014	81.62
410.238	76.62
410.461	77.62
410.685	90.62
410.908	84.62
411.132	78.62
411.355	79.62
411.578	64.62
411.802	81.62
412.025	74.62
412.249	96.62
412.472	78.62
412.695	73.62
412.919	92.62
413.142	85.62
413.365	87.62
413.589	82.62
413.812	81.62
414.035	68.62
414.258	81.62
414.482	83.62
414.705	64.62
414.928	82.62
415.151	85.62
415.374	95.62
415.597	85.62
415.821	76.62
416.044	72.62
416.267	77.62
416.49	80.62
416.713	79.62
416.936	70.62
417.159	74.62
417.382	76.62
417.605	77.62
417.828	84.62
418.051	61.62
418.274	80.62
418.497	75.62
418.72	85.62
418.943	86.62
419.166	84.62
419.389	78.62
419.611	79.62
419.834	80.62
420.057	85.62
420.28	63.62
420.503	89.62
420.726	76.62
420.948	92.62
421.171	93.62
421.394	77.62
421.617	108.62
421.839	83.62
422.062	69.62
422.285	93.62
422.507	128.62
422.73	166.62
422.953	146.62
423.175	90.62
423.398	74.62
423.621	86.62
423.843	89.62
424.066	69.62
424.288	73.62
424.511	84.62
424.733	81.62
424.956	82.62
425.178	77.62
425.401	84.62
425.623	87.62
425.846	83.62
426.068	85.62
426.291	67.62
426.513	62.62
426.735	72.62
426.958	88.62
427.18	87.62
427.402	90.62
427.625	96.62
427.847	68.62
428.069	93.62
428.292	91.62
428.514	80.62
428.736	76.62
428.958	94.62
429.181	83.62
429.403	80.62
429.625	67.62
429.847	68.62
430.069	83.62
430.292	106.62
430.514	91.62
430.736	86.62
430.958	87.62
431.18	76.62
431.402	79.62
431.624	99.62
431.846	74.62
432.068	98.62
432.29	76.62
432.512	90.62
432.734	71.62
432.956	85.62
433.178	70.62
433.4	70.62
433.622	85.62
433.844	96.62
434.066	76.62
434.287	85.62
434.509	61.62
434.731	95.62
434.953	79.62
435.175	75.62
435.397	75.62
435.618	72.62
435.84	79.62
436.062	71.62
436.284	77.62
436.505	79.62
436.727	78.62
436.949	86.62
437.17	91.62
437.392	77.62
437.614	89.62
437.835	81.62
438.057	78.62
438.278	85.62
438.5	81.62
438.721	77.62
438.943	74.62
439.165	60.62
439.386	89.62
439.608	85.62
439.829	85.62
440.05	77.62
440.272	80.62
440.493	72.62
440.715	78.62
440.936	83.62
441.158	78.62
441.379	81.62
441.6	90.62
441.822	76.62
442.043	101.62
442.264	80.62
442.486	93.62
442.707	93.62
442.928	83.62
443.149	85.62
443.371	86.62
443.592	95.62
443.813	100.62
444.034	79.62
444.255	97.62
444.476	84.62
444.698	75.62
444.919	98.62
445.14	162.62
445.361	133.62
445.582	123.62
445.803	95.62
446.024	90.62
446.245	90.62
446.466	70.62
446.687	69.62
446.908	73.62
447.129	73.62
447.35	79.62
447.571	75.62
447.792	81.62
448.013	86.62
448.234	91.62
448.455	60.62
448.675	76.62
448.896	82.62
449.117	84.62
449.338	79.62
449.559	88.62
449.779	71.62
450	71.62
450.221	86.62
450.442	78.62
450.662	84.62
450.883	80.62
451.104	79.62
451.324	86.62
451.545	72.62
451.766	89.62
451.986	83.62
452.207	77.62
452.428	90.62
452.648	75.62
452.869	88.62
453.089	73.62
453.31	84.62
453.53	81.62
453.751	75.62
453.971	88.62
454.192	67.62
454.412	77.62
454.633	85.62
454.853	83.62
455.073	78.62
455.294	80.62
455.514	76.62
455.734	89.62
455.955	67.62
456.175	61.62
456.395	69.62
456.616	80.62
456.836	82.62
457.056	69.62
457.276	74.62
457.497	79.62
457.717	64.62
457.937	84.62
458.157	85.62
458.377	87.62
458.598	78.62
458.818	95.62
459.038	80.62
459.258	91.62
459.478	81.62
459.698	85.62
459.918	82.62
460.138	81.62
460.358	74.62
460.578	101.62
460.798	70.62
461.018	80.62
461.238	83.62
461.458	92.62
461.678	71.62
461.898	88.62
462.118	87.62
462.338	63.62
462.558	76.62
462.777	70.62
462.997	86.62
463.217	75.62
463.437	81.62
463.657	89.62
463.876	79.62
464.096	81.62
464.316	73.62
464.536	72.62
464.755	93.62
464.975	68.62
465.195	88.62
465.414	85.62
465.634	69.62
465.854	81.62
466.073	69.62
466.293	75.62
466.512	76.62
466.732	70.62
466.951	80.62
467.171	90.62
467.391	81.62
467.61	84.62
467.829	78.62
468.049	89.62
468.268	79.62
468.488	78.62
468.707	81.62
468.927	59.62
469.146	83.62
469.365	81.62
469.585	85.62
469.804	97.62
470.023	82.62
470.243	83.62
470.462	76.62
470.681	91.62
470.901	55.62
471.12	101.62
471.339	73.62
471.558	77.62
471.777	85.62
471.997	71.62
472.216	83.62
472.435	77.62
472.654	83.62
472.873	97.62
473.092	87.62
473.311	75.62
473.53	91.62
473.749	80.62
473.968	85.62
474.187	77.62
474.406	94.62
474.625	77.62
474.844	60.62
475.063	77.62
475.282	69.62
475.501	86.62
475.72	83.62
475.939	79.62
476.158	83.62
476.377	66.62
476.596	84.62
476.814	76.62
477.033	87.62
477.252	83.62
477.471	72.62
477.69	66.62
477.908	83.62
478.127	91.62
478.346	77.62
478.564	66.62
478.783	83.62
479.002	81.62
479.22	85.62
479.439	95.62
479.658	85.62
479.876	76.62
480.095	81.62
480.313	85.62
480.532	84.62
480.751	85.62
480.969	86.62
481.188	90.62
481.406	71.62
481.624	93.62
481.843	63.62
482.061	86.62
482.28	85.62
482.498	87.62
482.717	87.62
482.935	83.62
483.153	85.62
483.372	85.62
483.59	86.62
483.808	72.62
484.027	87.62
484.245	86.62
484.463	85.62
484.681	86.62
484.9	95.62
485.118	76.62
485.336	73.62
485.554	80.62
485.772	79.62
485.99	67.62
486.209	87.62
486.427	91.62
486.645	87.62
486.863	95.62
487.081	86.62
487.299	84.62
487.517	91.62
487.735	96.62
487.953	89.62
488.171	87.62
488.389	63.62
488.607	78.62
488.825	74.62
489.043	80.62
489.261	75.62
489.479	81.62
489.696	87.62
489.914	78.62
490.132	97.62
490.35	80.62
490.568	75.62
490.786	61.62
491.003	90.62
491.221	92.62
491.439	85.62
491.657	77.62
491.874	86.62
492.092	77.62
492.31	72.62
492.527	74.62
492.745	77.62
492.963	71.62
493.18	67.62
493.398	84.62
493.615	84.62
493.833	84.62
494.05	71.62
494.268	73.62
494.485	75.62
494.703	92.62
494.92	78.62
495.138	92.62
495.355	77.62
495.573	75.62
495.79	86.62
496.008	74.62
496.225	84.62
496.442	87.62
496.66	78.62
496.877	80.62
497.094	63.62
497.312	86.62
497.529	81.62
497.746	89.62
497.963	87.62
498.181	86.62
498.398	98.62
498.615	89.62
498.832	80.62
499.049	78.62
499.267	98.62
499.484	82.62
499.701	77.62
499.918	73.62
500.135	78.62
500.352	91.62
500.569	67.62
500.786	77.62
501.003	83.62
501.22	76.62
501.437	94.62
501.654	79.62
501.871	79.62
502.088	74.62
502.305	85.62
502.522	73.62
502.739	81.62
502.956	83.62
503.172	83.62
503.389	79.62
503.606	81.62
503.823	89.62
504.04	76.62
504.256	97.62
504.473	92.62
504.69	78.62
504.907	89.62
505.123	76.62
505.34	82.62
505.557	88.62
505.773	82.62
505.99	74.62
506.207	84.62
506.423	73.62
506.64	80.62
506.856	74.62
507.073	76.62
507.289	81.62
507.506	81.62
507.722	78.62
507.939	85.62
508.155	87.62
508.372	77.62
508.588	81.62
508.805	85.62
509.021	74.62
509.238	68.62
509.454	81.62
509.67	81.62
509.887	72.62
510.103	96.62
510.319	98.62
510.536	90.62
510.752	78.62
510.968	76.62
511.184	80.62
511.401	79.62
511.617	83.62
511.833	79.62
512.049	81.62
512.265	83.62
512.481	86.62
512.698	83.62
512.914	72.62
513.13	83.62
513.346	78.62
513.562	76.62
513.778	71.62
513.994	85.62
514.21	87.62
514.426	74.62
514.642	93.62
514.858	83.62
515.074	87.62
515.29	74.62
515.506	88.62
515.721	74.62
515.937	83.62
516.153	76.62
516.369	77.62
516.585	82.62
516.801	74.62
517.016	89.62
517.232	77.62
517.448	96.62
517.664	76.62
517.879	83.62
518.095	74.62
518.311	71.62
518.527	90.62
518.742	88.62
518.958	69.62
519.173	81.62
519.389	87.62
519.605	76.62
519.82	76.62
520.036	80.62
