Data from 1600_2_HRD10591_00009.txt Node
Date: Mon Jan 19 13:53:45 EST 2026
User: Yrep
Spectrometer: HR+D1059
Trigger mode: 1
Integration Time (sec): 1.000000E-1
Scans to average: 1
Electric dark correction enabled: true
Nonlinearity correction enabled: false
Boxcar width: 0
XAxis mode: Wavelengths
Number of Pixels in Spectrum: 2048
>>>>>Begin Spectral Data<<<<<
223.165	-29.94
223.4	-29.94
223.635	-29.94
223.869	-16.94
224.104	-6.94
224.338	-15.94
224.573	-8.94
224.808	-19.94
225.042	-15.94
225.277	-8.94
225.511	-11.94
225.746	4.06
225.98	3.06
226.215	12.06
226.449	25.06
226.683	29.06
226.918	25.06
227.152	37.06
227.387	50.06
227.621	39.06
227.856	41.06
228.09	41.06
228.324	52.06
228.559	57.06
228.793	59.06
229.027	51.06
229.262	68.06
229.496	75.06
229.73	78.06
229.964	81.06
230.199	71.06
230.433	74.06
230.667	87.06
230.901	72.06
231.136	74.06
231.37	80.06
231.604	92.06
231.838	95.06
232.072	82.06
232.306	74.06
232.541	91.06
232.775	70.06
233.009	79.06
233.243	72.06
233.477	84.06
233.711	90.06
233.945	73.06
234.179	75.06
234.413	85.06
234.647	88.06
234.881	83.06
235.115	67.06
235.349	91.06
235.583	77.06
235.817	72.06
236.051	69.06
236.285	84.06
236.519	83.06
236.753	70.06
236.987	86.06
237.221	60.06
237.455	76.06
237.689	81.06
237.922	76.06
238.156	78.06
238.39	80.06
238.624	71.06
238.858	81.06
239.091	74.06
239.325	69.06
239.559	63.06
239.793	76.06
240.027	75.06
240.26	81.06
240.494	77.06
240.728	72.06
240.961	83.06
241.195	75.06
241.429	85.06
241.662	71.06
241.896	78.06
242.13	71.06
242.363	76.06
242.597	85.06
242.83	72.06
243.064	89.06
243.298	81.06
243.531	71.06
243.765	71.06
243.998	67.06
244.232	75.06
244.465	75.06
244.699	72.06
244.932	65.06
245.166	69.06
245.399	72.06
245.633	70.06
245.866	84.06
246.099	82.06
246.333	76.06
246.566	85.06
246.8	68.06
247.033	85.06
247.266	81.06
247.5	82.06
247.733	75.06
247.966	67.06
248.2	56.06
248.433	79.06
248.666	74.06
248.899	74.06
249.133	85.06
249.366	95.06
249.599	63.06
249.832	67.06
250.066	73.06
250.299	70.06
250.532	93.06
250.765	82.06
250.998	96.06
251.231	83.06
251.465	82.06
251.698	87.06
251.931	85.06
252.164	82.06
252.397	72.06
252.63	74.06
252.863	78.06
253.096	82.06
253.329	77.06
253.562	74.06
253.795	78.06
254.028	83.06
254.261	78.06
254.494	76.06
254.727	79.06
254.96	80.06
255.193	78.06
255.426	85.06
255.659	92.06
255.892	74.06
256.124	89.06
256.357	83.06
256.59	65.06
256.823	84.06
257.056	74.06
257.289	77.06
257.521	95.06
257.754	81.06
257.987	84.06
258.22	67.06
258.452	79.06
258.685	49.06
258.918	71.06
259.151	80.06
259.383	87.06
259.616	63.06
259.849	72.06
260.081	76.06
260.314	83.06
260.547	78.06
260.779	80.06
261.012	85.06
261.244	79.06
261.477	88.06
261.71	83.06
261.942	63.06
262.175	97.06
262.407	89.06
262.64	86.06
262.872	74.06
263.105	80.06
263.337	87.06
263.57	77.06
263.802	84.06
264.035	68.06
264.267	73.06
264.499	82.06
264.732	83.06
264.964	76.06
265.197	87.06
265.429	65.06
265.661	71.06
265.894	86.06
266.126	75.06
266.358	77.06
266.591	92.06
266.823	79.06
267.055	80.06
267.287	70.06
267.52	93.06
267.752	77.06
267.984	86.06
268.216	94.06
268.448	103.06
268.681	92.06
268.913	73.06
269.145	80.06
269.377	71.06
269.609	81.06
269.841	95.06
270.073	75.06
270.306	90.06
270.538	88.06
270.77	87.06
271.002	80.06
271.234	74.06
271.466	89.06
271.698	85.06
271.93	90.06
272.162	81.06
272.394	77.06
272.626	92.06
272.858	76.06
273.09	96.06
273.322	81.06
273.553	69.06
273.785	77.06
274.017	87.06
274.249	76.06
274.481	87.06
274.713	77.06
274.945	87.06
275.176	85.06
275.408	89.06
275.64	74.06
275.872	75.06
276.104	79.06
276.335	77.06
276.567	71.06
276.799	82.06
277.031	78.06
277.262	84.06
277.494	75.06
277.726	84.06
277.957	72.06
278.189	67.06
278.421	75.06
278.652	91.06
278.884	72.06
279.115	96.06
279.347	79.06
279.579	93.06
279.81	99.06
280.042	80.06
280.273	71.06
280.505	90.06
280.736	77.06
280.968	86.06
281.199	98.06
281.431	82.06
281.662	79.06
281.894	74.06
282.125	78.06
282.356	87.06
282.588	83.06
282.819	67.06
283.051	68.06
283.282	62.06
283.513	89.06
283.745	78.06
283.976	76.06
284.207	88.06
284.439	87.06
284.67	92.06
284.901	88.06
285.132	96.06
285.364	98.06
285.595	101.06
285.826	84.06
286.057	84.06
286.288	73.06
286.52	87.06
286.751	97.06
286.982	97.06
287.213	79.06
287.444	85.06
287.675	96.06
287.906	74.06
288.138	89.06
288.369	70.06
288.6	63.06
288.831	75.06
289.062	93.06
289.293	83.06
289.524	84.06
289.755	86.06
289.986	81.06
290.217	80.06
290.448	92.06
290.679	91.06
290.91	104.06
291.141	85.06
291.371	73.06
291.602	81.06
291.833	83.06
292.064	83.06
292.295	81.06
292.526	78.06
292.757	103.06
292.987	95.06
293.218	79.06
293.449	93.06
293.68	81.06
293.91	87.06
294.141	89.06
294.372	75.06
294.603	94.06
294.833	79.06
295.064	86.06
295.295	93.06
295.525	81.06
295.756	74.06
295.987	94.06
296.217	80.06
296.448	98.06
296.679	81.06
296.909	94.06
297.14	84.06
297.37	75.06
297.601	83.06
297.831	81.06
298.062	80.06
298.292	93.06
298.523	76.06
298.753	83.06
298.984	83.06
299.214	88.06
299.445	79.06
299.675	93.06
299.905	84.06
300.136	90.06
300.366	81.06
300.597	92.06
300.827	76.06
301.057	88.06
301.288	83.06
301.518	86.06
301.748	87.06
301.979	100.06
302.209	92.06
302.439	83.06
302.669	83.06
302.9	88.06
303.13	70.06
303.36	67.06
303.59	78.06
303.82	84.06
304.051	97.06
304.281	77.06
304.511	87.06
304.741	84.06
304.971	68.06
305.201	95.06
305.431	86.06
305.661	74.06
305.891	87.06
306.121	85.06
306.352	80.06
306.582	86.06
306.812	95.06
307.042	92.06
307.272	74.06
307.502	95.06
307.731	80.06
307.961	94.06
308.191	77.06
308.421	91.06
308.651	87.06
308.881	84.06
309.111	87.06
309.341	88.06
309.571	86.06
309.8	82.06
310.03	86.06
310.26	78.06
310.49	89.06
310.72	87.06
310.949	79.06
311.179	86.06
311.409	93.06
311.639	81.06
311.868	84.06
312.098	91.06
312.328	78.06
312.557	86.06
312.787	76.06
313.017	78.06
313.246	79.06
313.476	84.06
313.706	93.06
313.935	79.06
314.165	82.06
314.394	87.06
314.624	61.06
314.853	94.06
315.083	89.06
315.312	94.06
315.542	87.06
315.771	83.06
316.001	86.06
316.23	93.06
316.46	76.06
316.689	83.06
316.919	73.06
317.148	87.06
317.377	82.06
317.607	95.06
317.836	80.06
318.065	81.06
318.295	83.06
318.524	82.06
318.753	89.06
318.983	79.06
319.212	85.06
319.441	80.06
319.67	78.06
319.9	89.06
320.129	86.06
320.358	76.06
320.587	93.06
320.816	84.06
321.046	77.06
321.275	85.06
321.504	80.06
321.733	85.06
321.962	76.06
322.191	73.06
322.42	90.06
322.649	83.06
322.878	85.06
323.108	78.06
323.337	99.06
323.566	88.06
323.795	71.06
324.024	82.06
324.253	85.06
324.482	83.06
324.71	84.06
324.939	72.06
325.168	94.06
325.397	77.06
325.626	99.06
325.855	83.06
326.084	84.06
326.313	75.06
326.542	78.06
326.77	83.06
326.999	84.06
327.228	80.06
327.457	80.06
327.686	80.06
327.914	99.06
328.143	83.06
328.372	84.06
328.6	74.06
328.829	85.06
329.058	74.06
329.287	97.06
329.515	80.06
329.744	83.06
329.972	72.06
330.201	85.06
330.43	82.06
330.658	94.06
330.887	79.06
331.115	72.06
331.344	81.06
331.572	90.06
331.801	76.06
332.03	81.06
332.258	72.06
332.486	85.06
332.715	79.06
332.943	73.06
333.172	82.06
333.4	71.06
333.629	90.06
333.857	91.06
334.085	93.06
334.314	76.06
334.542	84.06
334.771	94.06
334.999	77.06
335.227	73.06
335.455	68.06
335.684	83.06
335.912	79.06
336.14	69.06
336.369	90.06
336.597	84.06
336.825	81.06
337.053	89.06
337.281	83.06
337.51	103.06
337.738	87.06
337.966	76.06
338.194	85.06
338.422	73.06
338.65	89.06
338.878	88.06
339.106	84.06
339.334	80.06
339.562	86.06
339.79	74.06
340.018	74.06
340.246	82.06
340.474	86.06
340.702	76.06
340.93	95.06
341.158	86.06
341.386	81.06
341.614	71.06
341.842	80.06
342.07	99.06
342.298	93.06
342.526	76.06
342.754	69.06
342.981	93.06
343.209	88.06
343.437	89.06
343.665	83.06
343.893	86.06
344.12	79.06
344.348	88.06
344.576	81.06
344.804	89.06
345.031	93.06
345.259	93.06
345.487	94.06
345.714	96.06
345.942	77.06
346.17	91.06
346.397	87.06
346.625	86.06
346.853	85.06
347.08	79.06
347.308	89.06
347.535	105.06
347.763	90.06
347.99	84.06
348.218	99.06
348.445	82.06
348.673	88.06
348.9	86.06
349.128	84.06
349.355	77.06
349.583	83.06
349.81	88.06
350.037	91.06
350.265	85.06
350.492	84.06
350.72	80.06
350.947	88.06
351.174	74.06
351.402	78.06
351.629	93.06
351.856	80.06
352.083	97.06
352.311	87.06
352.538	80.06
352.765	73.06
352.992	100.06
353.22	92.06
353.447	87.06
353.674	88.06
353.901	70.06
354.128	75.06
354.355	75.06
354.583	79.06
354.81	100.06
355.037	87.06
355.264	83.06
355.491	75.06
355.718	85.06
355.945	85.06
356.172	88.06
356.399	84.06
356.626	83.06
356.853	87.06
357.08	86.06
357.307	95.06
357.534	79.06
357.761	80.06
357.988	79.06
358.215	80.06
358.441	98.06
358.668	88.06
358.895	85.06
359.122	87.06
359.349	85.06
359.576	81.06
359.802	70.06
360.029	75.06
360.256	72.06
360.483	91.06
360.709	85.06
360.936	84.06
361.163	90.06
361.39	86.06
361.616	83.06
361.843	77.06
362.07	84.06
362.296	67.06
362.523	91.06
362.749	86.06
362.976	94.06
363.203	105.06
363.429	101.06
363.656	85.06
363.882	93.06
364.109	100.06
364.335	109.06
364.562	94.06
364.788	99.06
365.015	81.06
365.241	83.06
365.468	75.06
365.694	79.06
365.92	78.06
366.147	69.06
366.373	85.06
366.599	81.06
366.826	79.06
367.052	88.06
367.278	63.06
367.505	86.06
367.731	86.06
367.957	78.06
368.184	73.06
368.41	88.06
368.636	85.06
368.862	91.06
369.089	76.06
369.315	65.06
369.541	80.06
369.767	78.06
369.993	71.06
370.219	92.06
370.445	79.06
370.672	70.06
370.898	87.06
371.124	75.06
371.35	82.06
371.576	91.06
371.802	80.06
372.028	93.06
372.254	103.06
372.48	94.06
372.706	87.06
372.932	83.06
373.158	77.06
373.384	98.06
373.61	100.06
373.835	102.06
374.061	80.06
374.287	84.06
374.513	87.06
374.739	103.06
374.965	95.06
375.191	96.06
375.416	81.06
375.642	87.06
375.868	97.06
376.094	76.06
376.319	76.06
376.545	86.06
376.771	72.06
376.997	79.06
377.222	81.06
377.448	87.06
377.674	75.06
377.899	78.06
378.125	85.06
378.35	81.06
378.576	81.06
378.802	92.06
379.027	84.06
379.253	87.06
379.478	82.06
379.704	55.06
379.929	80.06
380.155	71.06
380.38	85.06
380.606	75.06
380.831	76.06
381.057	81.06
381.282	84.06
381.507	91.06
381.733	88.06
381.958	89.06
382.184	84.06
382.409	101.06
382.634	100.06
382.86	93.06
383.085	110.06
383.31	96.06
383.535	101.06
383.761	96.06
383.986	111.06
384.211	85.06
384.436	91.06
384.662	76.06
384.887	84.06
385.112	89.06
385.337	98.06
385.562	88.06
385.787	91.06
386.013	91.06
386.238	85.06
386.463	80.06
386.688	102.06
386.913	82.06
387.138	97.06
387.363	91.06
387.588	91.06
387.813	79.06
388.038	83.06
388.263	94.06
388.488	82.06
388.713	81.06
388.938	95.06
389.163	78.06
389.387	84.06
389.612	83.06
389.837	91.06
390.062	96.06
390.287	73.06
390.512	71.06
390.736	87.06
390.961	79.06
391.186	92.06
391.411	81.06
391.636	97.06
391.86	80.06
392.085	77.06
392.31	83.06
392.534	78.06
392.759	88.06
392.984	109.06
393.208	129.06
393.433	154.06
393.658	135.06
393.882	100.06
394.107	82.06
394.331	95.06
394.556	97.06
394.78	92.06
395.005	83.06
395.229	78.06
395.454	86.06
395.678	92.06
395.903	94.06
396.127	112.06
396.352	109.06
396.576	101.06
396.801	128.06
397.025	127.06
397.249	114.06
397.474	95.06
397.698	81.06
397.922	82.06
398.147	75.06
398.371	83.06
398.595	76.06
398.82	83.06
399.044	89.06
399.268	88.06
399.492	84.06
399.717	91.06
399.941	74.06
400.165	92.06
400.389	78.06
400.613	81.06
400.837	77.06
401.062	75.06
401.286	66.06
401.51	73.06
401.734	78.06
401.958	67.06
402.182	67.06
402.406	79.06
402.63	84.06
402.854	90.06
403.078	93.06
403.302	96.06
403.526	96.06
403.75	79.06
403.974	70.06
404.198	79.06
404.422	95.06
404.645	98.06
404.869	99.06
405.093	86.06
405.317	88.06
405.541	86.06
405.765	71.06
405.988	78.06
406.212	99.06
406.436	81.06
406.66	90.06
406.883	86.06
407.107	76.06
407.331	86.06
407.555	85.06
407.778	91.06
408.002	73.06
408.226	79.06
408.449	73.06
408.673	99.06
408.896	77.06
409.12	78.06
409.344	82.06
409.567	87.06
409.791	84.06
410.014	80.06
410.238	74.06
410.461	64.06
410.685	74.06
410.908	70.06
411.132	78.06
411.355	90.06
411.578	83.06
411.802	87.06
412.025	88.06
412.249	84.06
412.472	73.06
412.695	89.06
412.919	73.06
413.142	80.06
413.365	94.06
413.589	79.06
413.812	79.06
414.035	69.06
414.258	89.06
414.482	83.06
414.705	68.06
414.928	77.06
415.151	95.06
415.374	72.06
415.597	86.06
415.821	71.06
416.044	81.06
416.267	61.06
416.49	74.06
416.713	85.06
416.936	72.06
417.159	70.06
417.382	79.06
417.605	66.06
417.828	68.06
418.051	89.06
418.274	79.06
418.497	67.06
418.72	75.06
418.943	74.06
419.166	85.06
419.389	64.06
419.611	76.06
419.834	80.06
420.057	84.06
420.28	85.06
420.503	77.06
420.726	80.06
420.948	86.06
421.171	83.06
421.394	74.06
421.617	91.06
421.839	88.06
422.062	99.06
422.285	98.06
422.507	144.06
422.73	195.06
422.953	172.06
423.175	107.06
423.398	95.06
423.621	95.06
423.843	74.06
424.066	84.06
424.288	95.06
424.511	82.06
424.733	89.06
424.956	74.06
425.178	101.06
425.401	76.06
425.623	97.06
425.846	74.06
426.068	77.06
426.291	87.06
426.513	67.06
426.735	71.06
426.958	72.06
427.18	102.06
427.402	93.06
427.625	69.06
427.847	79.06
428.069	102.06
428.292	95.06
428.514	110.06
428.736	100.06
428.958	97.06
429.181	93.06
429.403	85.06
429.625	81.06
429.847	94.06
430.069	101.06
430.292	117.06
430.514	96.06
430.736	99.06
430.958	97.06
431.18	87.06
431.402	74.06
431.624	75.06
431.846	94.06
432.068	92.06
432.29	92.06
432.512	79.06
432.734	101.06
432.956	94.06
433.178	75.06
433.4	81.06
433.622	89.06
433.844	84.06
434.066	66.06
434.287	77.06
434.509	88.06
434.731	70.06
434.953	81.06
435.175	91.06
435.397	85.06
435.618	87.06
435.84	71.06
436.062	79.06
436.284	100.06
436.505	79.06
436.727	80.06
436.949	76.06
437.17	81.06
437.392	75.06
437.614	81.06
437.835	97.06
438.057	80.06
438.278	87.06
438.5	76.06
438.721	88.06
438.943	88.06
439.165	96.06
439.386	87.06
439.608	87.06
439.829	83.06
440.05	87.06
440.272	78.06
440.493	77.06
440.715	79.06
440.936	81.06
441.158	83.06
441.379	76.06
441.6	88.06
441.822	95.06
442.043	80.06
442.264	71.06
442.486	79.06
442.707	95.06
442.928	112.06
443.149	96.06
443.371	95.06
443.592	129.06
443.813	104.06
444.034	95.06
444.255	86.06
444.476	91.06
444.698	75.06
444.919	80.06
445.14	174.06
445.361	135.06
445.582	152.06
445.803	148.06
446.024	92.06
446.245	97.06
446.466	103.06
446.687	85.06
446.908	85.06
447.129	79.06
447.35	83.06
447.571	60.06
447.792	91.06
448.013	72.06
448.234	79.06
448.455	70.06
448.675	75.06
448.896	73.06
449.117	79.06
449.338	71.06
449.559	82.06
449.779	88.06
450	79.06
450.221	79.06
450.442	75.06
450.662	91.06
450.883	86.06
451.104	77.06
451.324	91.06
451.545	87.06
451.766	87.06
451.986	79.06
452.207	82.06
452.428	99.06
452.648	89.06
452.869	71.06
453.089	95.06
453.31	76.06
453.53	99.06
453.751	91.06
453.971	85.06
454.192	79.06
454.412	70.06
454.633	82.06
454.853	78.06
455.073	80.06
455.294	79.06
455.514	90.06
455.734	83.06
455.955	83.06
456.175	61.06
456.395	91.06
456.616	78.06
456.836	88.06
457.056	83.06
457.276	84.06
457.497	85.06
457.717	72.06
457.937	92.06
458.157	73.06
458.377	80.06
458.598	88.06
458.818	85.06
459.038	91.06
459.258	73.06
459.478	81.06
459.698	70.06
459.918	79.06
460.138	83.06
460.358	74.06
460.578	79.06
460.798	85.06
461.018	93.06
461.238	76.06
461.458	69.06
461.678	83.06
461.898	83.06
462.118	83.06
462.338	82.06
462.558	87.06
462.777	78.06
462.997	82.06
463.217	78.06
463.437	84.06
463.657	71.06
463.876	81.06
464.096	83.06
464.316	93.06
464.536	85.06
464.755	74.06
464.975	80.06
465.195	91.06
465.414	90.06
465.634	74.06
465.854	68.06
466.073	73.06
466.293	94.06
466.512	80.06
466.732	76.06
466.951	70.06
467.171	79.06
467.391	81.06
467.61	99.06
467.829	89.06
468.049	84.06
468.268	87.06
468.488	93.06
468.707	92.06
468.927	85.06
469.146	92.06
469.365	70.06
469.585	86.06
469.804	69.06
470.023	79.06
470.243	77.06
470.462	72.06
470.681	81.06
470.901	78.06
471.12	73.06
471.339	79.06
471.558	86.06
471.777	73.06
471.997	87.06
472.216	73.06
472.435	70.06
472.654	71.06
472.873	96.06
473.092	71.06
473.311	68.06
473.53	100.06
473.749	89.06
473.968	97.06
474.187	92.06
474.406	89.06
474.625	89.06
474.844	93.06
475.063	79.06
475.282	84.06
475.501	81.06
475.72	89.06
475.939	81.06
476.158	82.06
476.377	94.06
476.596	73.06
476.814	80.06
477.033	77.06
477.252	88.06
477.471	82.06
477.69	91.06
477.908	84.06
478.127	83.06
478.346	80.06
478.564	80.06
478.783	89.06
479.002	99.06
479.22	83.06
479.439	99.06
479.658	85.06
479.876	89.06
480.095	92.06
480.313	87.06
480.532	72.06
480.751	84.06
480.969	66.06
481.188	72.06
481.406	86.06
481.624	77.06
481.843	84.06
482.061	89.06
482.28	84.06
482.498	84.06
482.717	80.06
482.935	81.06
483.153	80.06
483.372	88.06
483.59	63.06
483.808	73.06
484.027	80.06
484.245	87.06
484.463	88.06
484.681	84.06
484.9	74.06
485.118	84.06
485.336	95.06
485.554	87.06
485.772	93.06
485.99	71.06
486.209	72.06
486.427	68.06
486.645	94.06
486.863	97.06
487.081	77.06
487.299	95.06
487.517	88.06
487.735	93.06
487.953	111.06
488.171	99.06
488.389	85.06
488.607	90.06
488.825	83.06
489.043	74.06
489.261	89.06
489.479	82.06
489.696	81.06
489.914	73.06
490.132	75.06
490.35	88.06
490.568	68.06
490.786	76.06
491.003	79.06
491.221	87.06
491.439	77.06
491.657	70.06
491.874	84.06
492.092	85.06
492.31	91.06
492.527	85.06
492.745	89.06
492.963	86.06
493.18	98.06
493.398	88.06
493.615	74.06
493.833	91.06
494.05	80.06
494.268	71.06
494.485	95.06
494.703	90.06
494.92	86.06
495.138	85.06
495.355	94.06
495.573	82.06
495.79	92.06
496.008	92.06
496.225	90.06
496.442	79.06
496.66	80.06
496.877	89.06
497.094	83.06
497.312	85.06
497.529	82.06
497.746	88.06
497.963	83.06
498.181	94.06
498.398	97.06
498.615	86.06
498.832	90.06
499.049	88.06
499.267	96.06
499.484	87.06
499.701	91.06
499.918	86.06
500.135	78.06
500.352	75.06
500.569	84.06
500.786	90.06
501.003	101.06
501.22	80.06
501.437	88.06
501.654	84.06
501.871	77.06
502.088	77.06
502.305	88.06
502.522	79.06
502.739	90.06
502.956	89.06
503.172	84.06
503.389	84.06
503.606	81.06
503.823	77.06
504.04	95.06
504.256	88.06
504.473	79.06
504.69	85.06
504.907	105.06
505.123	85.06
505.34	78.06
505.557	71.06
505.773	91.06
505.99	86.06
506.207	80.06
506.423	79.06
506.64	79.06
506.856	86.06
507.073	93.06
507.289	78.06
507.506	69.06
507.722	72.06
507.939	77.06
508.155	81.06
508.372	84.06
508.588	78.06
508.805	91.06
509.021	82.06
509.238	85.06
509.454	76.06
509.67	91.06
509.887	88.06
510.103	85.06
510.319	84.06
510.536	102.06
510.752	83.06
510.968	82.06
511.184	85.06
511.401	92.06
511.617	79.06
511.833	89.06
512.049	91.06
512.265	80.06
512.481	93.06
512.698	86.06
512.914	86.06
513.13	97.06
513.346	88.06
513.562	96.06
513.778	85.06
513.994	87.06
514.21	91.06
514.426	89.06
514.642	89.06
514.858	92.06
515.074	80.06
515.29	91.06
515.506	82.06
515.721	95.06
515.937	77.06
516.153	80.06
516.369	96.06
516.585	91.06
516.801	89.06
517.016	104.06
517.232	81.06
517.448	102.06
517.664	95.06
517.879	82.06
518.095	75.06
518.311	94.06
518.527	121.06
518.742	96.06
518.958	88.06
519.173	89.06
519.389	100.06
