Data from 1600_2_HRD10591_00002.txt Node
Date: Mon Jan 19 13:53:42 EST 2026
User: Yrep
Spectrometer: HR+D1059
Trigger mode: 1
Integration Time (sec): 1.000000E-1
Scans to average: 1
Electric dark correction enabled: true
Nonlinearity correction enabled: false
Boxcar width: 0
XAxis mode: Wavelengths
Number of Pixels in Spectrum: 2048
>>>>>Begin Spectral Data<<<<<
223.165	-17.44
223.4	-17.44
223.635	-17.44
223.869	-20.44
224.104	-25.44
224.338	-21.44
224.573	-13.44
224.808	-12.44
225.042	-0.44
225.277	-11.44
225.511	-13.44
225.746	2.56
225.98	8.56
226.215	6.56
226.449	16.56
226.683	30.56
226.918	28.56
227.152	42.56
227.387	21.56
227.621	44.56
227.856	47.56
228.09	52.56
228.324	54.56
228.559	53.56
228.793	58.56
229.027	47.56
229.262	67.56
229.496	66.56
229.73	67.56
229.964	65.56
230.199	64.56
230.433	76.56
230.667	78.56
230.901	71.56
231.136	81.56
231.37	76.56
231.604	86.56
231.838	81.56
232.072	88.56
232.306	85.56
232.541	85.56
232.775	87.56
233.009	89.56
233.243	76.56
233.477	64.56
233.711	80.56
233.945	72.56
234.179	80.56
234.413	92.56
234.647	83.56
234.881	79.56
235.115	88.56
235.349	78.56
235.583	58.56
235.817	90.56
236.051	60.56
236.285	84.56
236.519	60.56
236.753	82.56
236.987	77.56
237.221	80.56
237.455	80.56
237.689	69.56
237.922	80.56
238.156	71.56
238.39	71.56
238.624	69.56
238.858	72.56
239.091	78.56
239.325	68.56
239.559	57.56
239.793	66.56
240.027	80.56
240.26	65.56
240.494	68.56
240.728	75.56
240.961	69.56
241.195	83.56
241.429	76.56
241.662	71.56
241.896	73.56
242.13	62.56
242.363	69.56
242.597	62.56
242.83	60.56
243.064	70.56
243.298	58.56
243.531	82.56
243.765	71.56
243.998	75.56
244.232	83.56
244.465	93.56
244.699	62.56
244.932	76.56
245.166	76.56
245.399	79.56
245.633	85.56
245.866	76.56
246.099	66.56
246.333	81.56
246.566	71.56
246.8	76.56
247.033	77.56
247.266	74.56
247.5	83.56
247.733	72.56
247.966	76.56
248.2	82.56
248.433	82.56
248.666	63.56
248.899	82.56
249.133	76.56
249.366	78.56
249.599	79.56
249.832	79.56
250.066	77.56
250.299	76.56
250.532	80.56
250.765	65.56
250.998	84.56
251.231	76.56
251.465	94.56
251.698	74.56
251.931	76.56
252.164	68.56
252.397	76.56
252.63	70.56
252.863	64.56
253.096	61.56
253.329	88.56
253.562	84.56
253.795	87.56
254.028	78.56
254.261	67.56
254.494	72.56
254.727	73.56
254.96	72.56
255.193	80.56
255.426	66.56
255.659	79.56
255.892	66.56
256.124	68.56
256.357	75.56
256.59	74.56
256.823	80.56
257.056	81.56
257.289	72.56
257.521	80.56
257.754	81.56
257.987	80.56
258.22	82.56
258.452	80.56
258.685	72.56
258.918	95.56
259.151	77.56
259.383	80.56
259.616	94.56
259.849	79.56
260.081	69.56
260.314	73.56
260.547	76.56
260.779	69.56
261.012	82.56
261.244	68.56
261.477	68.56
261.71	79.56
261.942	76.56
262.175	75.56
262.407	78.56
262.64	76.56
262.872	84.56
263.105	88.56
263.337	71.56
263.57	81.56
263.802	78.56
264.035	73.56
264.267	77.56
264.499	86.56
264.732	84.56
264.964	80.56
265.197	89.56
265.429	80.56
265.661	74.56
265.894	99.56
266.126	73.56
266.358	81.56
266.591	80.56
266.823	76.56
267.055	85.56
267.287	80.56
267.52	66.56
267.752	74.56
267.984	85.56
268.216	75.56
268.448	84.56
268.681	87.56
268.913	78.56
269.145	82.56
269.377	78.56
269.609	84.56
269.841	82.56
270.073	75.56
270.306	78.56
270.538	93.56
270.77	70.56
271.002	68.56
271.234	82.56
271.466	100.56
271.698	84.56
271.93	66.56
272.162	78.56
272.394	94.56
272.626	81.56
272.858	76.56
273.09	73.56
273.322	86.56
273.553	70.56
273.785	72.56
274.017	60.56
274.249	92.56
274.481	63.56
274.713	78.56
274.945	85.56
275.176	86.56
275.408	77.56
275.64	78.56
275.872	82.56
276.104	79.56
276.335	67.56
276.567	88.56
276.799	84.56
277.031	87.56
277.262	73.56
277.494	94.56
277.726	83.56
277.957	80.56
278.189	75.56
278.421	82.56
278.652	86.56
278.884	72.56
279.115	98.56
279.347	71.56
279.579	86.56
279.81	69.56
280.042	76.56
280.273	73.56
280.505	77.56
280.736	86.56
280.968	70.56
281.199	71.56
281.431	75.56
281.662	69.56
281.894	73.56
282.125	68.56
282.356	69.56
282.588	74.56
282.819	74.56
283.051	87.56
283.282	85.56
283.513	84.56
283.745	78.56
283.976	77.56
284.207	74.56
284.439	74.56
284.67	83.56
284.901	76.56
285.132	78.56
285.364	84.56
285.595	87.56
285.826	84.56
286.057	80.56
286.288	68.56
286.52	83.56
286.751	78.56
286.982	87.56
287.213	83.56
287.444	73.56
287.675	77.56
287.906	86.56
288.138	88.56
288.369	98.56
288.6	78.56
288.831	76.56
289.062	80.56
289.293	79.56
289.524	88.56
289.755	91.56
289.986	84.56
290.217	77.56
290.448	69.56
290.679	81.56
290.91	78.56
291.141	72.56
291.371	89.56
291.602	78.56
291.833	63.56
292.064	85.56
292.295	83.56
292.526	79.56
292.757	78.56
292.987	76.56
293.218	76.56
293.449	79.56
293.68	93.56
293.91	81.56
294.141	86.56
294.372	96.56
294.603	87.56
294.833	82.56
295.064	81.56
295.295	78.56
295.525	85.56
295.756	87.56
295.987	67.56
296.217	78.56
296.448	89.56
296.679	98.56
296.909	84.56
297.14	85.56
297.37	61.56
297.601	86.56
297.831	80.56
298.062	81.56
298.292	81.56
298.523	90.56
298.753	75.56
298.984	91.56
299.214	74.56
299.445	80.56
299.675	92.56
299.905	78.56
300.136	90.56
300.366	75.56
300.597	82.56
300.827	82.56
301.057	84.56
301.288	79.56
301.518	69.56
301.748	84.56
301.979	105.56
302.209	92.56
302.439	76.56
302.669	81.56
302.9	82.56
303.13	77.56
303.36	73.56
303.59	85.56
303.82	86.56
304.051	75.56
304.281	86.56
304.511	86.56
304.741	79.56
304.971	89.56
305.201	81.56
305.431	88.56
305.661	84.56
305.891	89.56
306.121	83.56
306.352	79.56
306.582	88.56
306.812	81.56
307.042	80.56
307.272	78.56
307.502	69.56
307.731	92.56
307.961	88.56
308.191	80.56
308.421	91.56
308.651	80.56
308.881	85.56
309.111	88.56
309.341	96.56
309.571	83.56
309.8	76.56
310.03	87.56
310.26	74.56
310.49	79.56
310.72	82.56
310.949	72.56
311.179	102.56
311.409	83.56
311.639	78.56
311.868	84.56
312.098	80.56
312.328	84.56
312.557	78.56
312.787	92.56
313.017	95.56
313.246	85.56
313.476	78.56
313.706	71.56
313.935	63.56
314.165	77.56
314.394	76.56
314.624	93.56
314.853	82.56
315.083	85.56
315.312	83.56
315.542	80.56
315.771	79.56
316.001	95.56
316.23	76.56
316.46	87.56
316.689	83.56
316.919	86.56
317.148	81.56
317.377	83.56
317.607	78.56
317.836	84.56
318.065	76.56
318.295	76.56
318.524	77.56
318.753	88.56
318.983	94.56
319.212	91.56
319.441	102.56
319.67	88.56
319.9	93.56
320.129	84.56
320.358	90.56
320.587	78.56
320.816	91.56
321.046	96.56
321.275	87.56
321.504	73.56
321.733	103.56
321.962	91.56
322.191	102.56
322.42	94.56
322.649	77.56
322.878	91.56
323.108	94.56
323.337	82.56
323.566	66.56
323.795	71.56
324.024	89.56
324.253	79.56
324.482	90.56
324.71	73.56
324.939	87.56
325.168	90.56
325.397	93.56
325.626	88.56
325.855	90.56
326.084	81.56
326.313	67.56
326.542	83.56
326.77	76.56
326.999	78.56
327.228	94.56
327.457	90.56
327.686	87.56
327.914	88.56
328.143	87.56
328.372	92.56
328.6	69.56
328.829	91.56
329.058	88.56
329.287	82.56
329.515	82.56
329.744	88.56
329.972	83.56
330.201	60.56
330.43	83.56
330.658	70.56
330.887	91.56
331.115	92.56
331.344	88.56
331.572	80.56
331.801	87.56
332.03	76.56
332.258	87.56
332.486	86.56
332.715	78.56
332.943	84.56
333.172	90.56
333.4	98.56
333.629	83.56
333.857	90.56
334.085	88.56
334.314	81.56
334.542	79.56
334.771	83.56
334.999	76.56
335.227	76.56
335.455	86.56
335.684	82.56
335.912	76.56
336.14	95.56
336.369	78.56
336.597	84.56
336.825	68.56
337.053	81.56
337.281	83.56
337.51	77.56
337.738	95.56
337.966	77.56
338.194	85.56
338.422	76.56
338.65	81.56
338.878	84.56
339.106	86.56
339.334	100.56
339.562	81.56
339.79	80.56
340.018	79.56
340.246	92.56
340.474	82.56
340.702	77.56
340.93	97.56
341.158	76.56
341.386	79.56
341.614	72.56
341.842	83.56
342.07	83.56
342.298	83.56
342.526	87.56
342.754	73.56
342.981	92.56
343.209	88.56
343.437	86.56
343.665	77.56
343.893	82.56
344.12	92.56
344.348	87.56
344.576	78.56
344.804	95.56
345.031	72.56
345.259	78.56
345.487	86.56
345.714	86.56
345.942	80.56
346.17	73.56
346.397	70.56
346.625	79.56
346.853	94.56
347.08	84.56
347.308	76.56
347.535	83.56
347.763	85.56
347.99	95.56
348.218	98.56
348.445	73.56
348.673	66.56
348.9	95.56
349.128	87.56
349.355	74.56
349.583	85.56
349.81	94.56
350.037	86.56
350.265	84.56
350.492	71.56
350.72	78.56
350.947	85.56
351.174	80.56
351.402	69.56
351.629	88.56
351.856	83.56
352.083	67.56
352.311	73.56
352.538	85.56
352.765	79.56
352.992	74.56
353.22	96.56
353.447	83.56
353.674	78.56
353.901	69.56
354.128	76.56
354.355	86.56
354.583	84.56
354.81	75.56
355.037	67.56
355.264	97.56
355.491	82.56
355.718	84.56
355.945	81.56
356.172	86.56
356.399	93.56
356.626	88.56
356.853	88.56
357.08	78.56
357.307	98.56
357.534	84.56
357.761	98.56
357.988	96.56
358.215	101.56
358.441	88.56
358.668	82.56
358.895	80.56
359.122	95.56
359.349	87.56
359.576	66.56
359.802	81.56
360.029	88.56
360.256	82.56
360.483	69.56
360.709	81.56
360.936	99.56
361.163	86.56
361.39	88.56
361.616	73.56
361.843	82.56
362.07	96.56
362.296	99.56
362.523	97.56
362.749	93.56
362.976	91.56
363.203	96.56
363.429	85.56
363.656	88.56
363.882	90.56
364.109	88.56
364.335	96.56
364.562	82.56
364.788	78.56
365.015	95.56
365.241	94.56
365.468	86.56
365.694	85.56
365.92	74.56
366.147	79.56
366.373	78.56
366.599	80.56
366.826	83.56
367.052	90.56
367.278	88.56
367.505	84.56
367.731	86.56
367.957	80.56
368.184	90.56
368.41	89.56
368.636	85.56
368.862	101.56
369.089	82.56
369.315	73.56
369.541	84.56
369.767	97.56
369.993	68.56
370.219	86.56
370.445	86.56
370.672	92.56
370.898	83.56
371.124	86.56
371.35	80.56
371.576	69.56
371.802	116.56
372.028	92.56
372.254	84.56
372.48	85.56
372.706	76.56
372.932	80.56
373.158	96.56
373.384	102.56
373.61	76.56
373.835	90.56
374.061	83.56
374.287	93.56
374.513	88.56
374.739	95.56
374.965	83.56
375.191	81.56
375.416	93.56
375.642	87.56
375.868	99.56
376.094	82.56
376.319	90.56
376.545	95.56
376.771	93.56
376.997	83.56
377.222	76.56
377.448	78.56
377.674	82.56
377.899	80.56
378.125	75.56
378.35	85.56
378.576	82.56
378.802	73.56
379.027	77.56
379.253	96.56
379.478	83.56
379.704	92.56
379.929	78.56
380.155	90.56
380.38	81.56
380.606	85.56
380.831	75.56
381.057	69.56
381.282	82.56
381.507	91.56
381.733	84.56
381.958	91.56
382.184	94.56
382.409	99.56
382.634	100.56
382.86	106.56
383.085	83.56
383.31	94.56
383.535	100.56
383.761	95.56
383.986	106.56
384.211	82.56
384.436	83.56
384.662	80.56
384.887	93.56
385.112	88.56
385.337	83.56
385.562	90.56
385.787	78.56
386.013	84.56
386.238	88.56
386.463	90.56
386.688	95.56
386.913	81.56
387.138	68.56
387.363	89.56
387.588	84.56
387.813	82.56
388.038	75.56
388.263	82.56
388.488	84.56
388.713	95.56
388.938	91.56
389.163	100.56
389.387	80.56
389.612	85.56
389.837	73.56
390.062	87.56
390.287	80.56
390.512	94.56
390.736	80.56
390.961	77.56
391.186	79.56
391.411	80.56
391.636	83.56
391.86	72.56
392.085	76.56
392.31	80.56
392.534	88.56
392.759	84.56
392.984	90.56
393.208	119.56
393.433	154.56
393.658	131.56
393.882	87.56
394.107	84.56
394.331	85.56
394.556	114.56
394.78	95.56
395.005	76.56
395.229	95.56
395.454	101.56
395.678	94.56
395.903	91.56
396.127	110.56
396.352	110.56
396.576	96.56
396.801	126.56
397.025	132.56
397.249	114.56
397.474	96.56
397.698	82.56
397.922	63.56
398.147	64.56
398.371	93.56
398.595	85.56
398.82	82.56
399.044	87.56
399.268	99.56
399.492	86.56
399.717	86.56
399.941	68.56
400.165	88.56
400.389	84.56
400.613	88.56
400.837	96.56
401.062	85.56
401.286	84.56
401.51	76.56
401.734	78.56
401.958	76.56
402.182	88.56
402.406	70.56
402.63	71.56
402.854	87.56
403.078	88.56
403.302	83.56
403.526	87.56
403.75	83.56
403.974	82.56
404.198	86.56
404.422	100.56
404.645	102.56
404.869	92.56
405.093	94.56
405.317	74.56
405.541	71.56
405.765	85.56
405.988	66.56
406.212	84.56
406.436	69.56
406.66	76.56
406.883	93.56
407.107	78.56
407.331	77.56
407.555	87.56
407.778	79.56
408.002	86.56
408.226	83.56
408.449	77.56
408.673	86.56
408.896	81.56
409.12	87.56
409.344	86.56
409.567	92.56
409.791	76.56
410.014	85.56
410.238	87.56
410.461	94.56
410.685	80.56
410.908	77.56
411.132	65.56
411.355	73.56
411.578	100.56
411.802	83.56
412.025	90.56
412.249	80.56
412.472	76.56
412.695	75.56
412.919	80.56
413.142	70.56
413.365	86.56
413.589	79.56
413.812	88.56
414.035	71.56
414.258	74.56
414.482	72.56
414.705	74.56
414.928	89.56
415.151	84.56
415.374	70.56
415.597	81.56
415.821	90.56
416.044	64.56
416.267	79.56
416.49	83.56
416.713	66.56
416.936	70.56
417.159	76.56
417.382	80.56
417.605	82.56
417.828	87.56
418.051	74.56
418.274	82.56
418.497	81.56
418.72	81.56
418.943	82.56
419.166	86.56
419.389	93.56
419.611	86.56
419.834	94.56
420.057	66.56
420.28	82.56
420.503	77.56
420.726	92.56
420.948	78.56
421.171	81.56
421.394	99.56
421.617	83.56
421.839	96.56
422.062	95.56
422.285	100.56
422.507	142.56
422.73	196.56
422.953	176.56
423.175	125.56
423.398	101.56
423.621	89.56
423.843	78.56
424.066	81.56
424.288	78.56
424.511	83.56
424.733	75.56
424.956	72.56
425.178	79.56
425.401	93.56
425.623	77.56
425.846	84.56
426.068	80.56
426.291	66.56
426.513	72.56
426.735	79.56
426.958	87.56
427.18	86.56
427.402	87.56
427.625	86.56
427.847	86.56
428.069	70.56
428.292	102.56
428.514	99.56
428.736	90.56
428.958	103.56
429.181	101.56
429.403	88.56
429.625	90.56
429.847	89.56
430.069	104.56
430.292	112.56
430.514	116.56
430.736	103.56
430.958	112.56
431.18	97.56
431.402	84.56
431.624	85.56
431.846	89.56
432.068	98.56
432.29	73.56
432.512	77.56
432.734	78.56
432.956	70.56
433.178	84.56
433.4	94.56
433.622	81.56
433.844	81.56
434.066	77.56
434.287	87.56
434.509	80.56
434.731	93.56
434.953	84.56
435.175	86.56
435.397	89.56
435.618	90.56
435.84	80.56
436.062	90.56
436.284	74.56
436.505	63.56
436.727	84.56
436.949	77.56
437.17	70.56
437.392	79.56
437.614	68.56
437.835	67.56
438.057	85.56
438.278	75.56
438.5	90.56
438.721	94.56
438.943	83.56
439.165	82.56
439.386	82.56
439.608	90.56
439.829	84.56
440.05	80.56
440.272	83.56
440.493	72.56
440.715	83.56
440.936	82.56
441.158	84.56
441.379	92.56
441.6	75.56
441.822	79.56
442.043	85.56
442.264	87.56
442.486	94.56
442.707	107.56
442.928	95.56
443.149	86.56
443.371	113.56
443.592	137.56
443.813	135.56
444.034	92.56
444.255	86.56
444.476	82.56
444.698	90.56
444.919	84.56
445.14	171.56
445.361	164.56
445.582	154.56
445.803	131.56
446.024	80.56
446.245	70.56
446.466	79.56
446.687	75.56
446.908	78.56
447.129	81.56
447.35	78.56
447.571	76.56
447.792	76.56
448.013	77.56
448.234	86.56
448.455	90.56
448.675	94.56
448.896	89.56
449.117	86.56
449.338	70.56
449.559	94.56
449.779	84.56
450	86.56
450.221	78.56
450.442	78.56
450.662	70.56
450.883	77.56
451.104	80.56
451.324	83.56
451.545	80.56
451.766	78.56
451.986	86.56
452.207	94.56
452.428	86.56
452.648	84.56
452.869	87.56
453.089	91.56
453.31	87.56
453.53	95.56
453.751	94.56
453.971	78.56
454.192	84.56
454.412	96.56
454.633	99.56
454.853	68.56
455.073	90.56
455.294	71.56
455.514	98.56
455.734	93.56
455.955	94.56
456.175	86.56
456.395	74.56
456.616	80.56
456.836	76.56
457.056	95.56
457.276	78.56
457.497	86.56
457.717	98.56
457.937	94.56
458.157	84.56
458.377	92.56
458.598	78.56
458.818	97.56
459.038	82.56
459.258	76.56
459.478	84.56
459.698	68.56
459.918	85.56
460.138	72.56
460.358	85.56
460.578	90.56
460.798	76.56
461.018	91.56
461.238	69.56
461.458	77.56
461.678	84.56
461.898	87.56
462.118	89.56
462.338	80.56
462.558	83.56
462.777	90.56
462.997	86.56
463.217	77.56
463.437	79.56
463.657	84.56
463.876	83.56
464.096	93.56
464.316	75.56
464.536	82.56
464.755	76.56
464.975	82.56
465.195	97.56
465.414	88.56
465.634	90.56
465.854	73.56
466.073	92.56
466.293	98.56
466.512	93.56
466.732	80.56
466.951	81.56
467.171	90.56
467.391	87.56
467.61	78.56
467.829	82.56
468.049	75.56
468.268	85.56
468.488	75.56
468.707	96.56
468.927	89.56
469.146	91.56
469.365	92.56
469.585	85.56
469.804	90.56
470.023	77.56
470.243	86.56
470.462	75.56
470.681	82.56
470.901	80.56
471.12	58.56
471.339	85.56
471.558	72.56
471.777	77.56
471.997	74.56
472.216	72.56
472.435	78.56
472.654	79.56
472.873	80.56
473.092	84.56
473.311	85.56
473.53	90.56
473.749	85.56
473.968	74.56
474.187	82.56
474.406	79.56
474.625	86.56
474.844	74.56
475.063	83.56
475.282	70.56
475.501	85.56
475.72	84.56
475.939	84.56
476.158	87.56
476.377	81.56
476.596	90.56
476.814	90.56
477.033	71.56
477.252	68.56
477.471	78.56
477.69	82.56
477.908	68.56
478.127	94.56
478.346	67.56
478.564	64.56
478.783	76.56
479.002	70.56
479.22	68.56
479.439	86.56
479.658	85.56
479.876	83.56
480.095	85.56
480.313	105.56
480.532	84.56
480.751	88.56
480.969	81.56
481.188	79.56
481.406	83.56
481.624	80.56
481.843	87.56
482.061	75.56
482.28	86.56
482.498	95.56
482.717	79.56
482.935	79.56
483.153	75.56
483.372	84.56
483.59	88.56
483.808	93.56
484.027	95.56
484.245	80.56
484.463	78.56
484.681	86.56
484.9	67.56
485.118	88.56
485.336	83.56
485.554	96.56
485.772	80.56
485.99	67.56
486.209	85.56
486.427	85.56
486.645	82.56
486.863	74.56
487.081	86.56
487.299	75.56
487.517	79.56
487.735	80.56
487.953	103.56
488.171	108.56
488.389	84.56
488.607	86.56
488.825	81.56
489.043	80.56
489.261	76.56
489.479	96.56
489.696	82.56
489.914	74.56
490.132	86.56
490.35	84.56
490.568	94.56
490.786	89.56
491.003	72.56
491.221	85.56
491.439	90.56
491.657	82.56
491.874	90.56
492.092	93.56
492.31	84.56
492.527	96.56
492.745	70.56
492.963	77.56
493.18	84.56
493.398	91.56
493.615	94.56
493.833	78.56
494.05	81.56
494.268	76.56
494.485	75.56
494.703	69.56
494.92	80.56
495.138	77.56
495.355	74.56
495.573	93.56
495.79	78.56
496.008	89.56
496.225	88.56
496.442	82.56
496.66	70.56
496.877	91.56
497.094	74.56
497.312	73.56
497.529	90.56
497.746	90.56
497.963	83.56
498.181	85.56
498.398	82.56
498.615	90.56
498.832	80.56
499.049	80.56
499.267	88.56
499.484	96.56
499.701	78.56
499.918	99.56
500.135	87.56
500.352	89.56
500.569	83.56
500.786	82.56
501.003	71.56
501.22	66.56
501.437	82.56
501.654	89.56
501.871	81.56
502.088	88.56
502.305	84.56
502.522	70.56
502.739	89.56
502.956	92.56
503.172	78.56
503.389	90.56
503.606	90.56
503.823	79.56
504.04	74.56
504.256	85.56
504.473	89.56
504.69	71.56
504.907	90.56
505.123	82.56
505.34	95.56
505.557	70.56
505.773	71.56
505.99	70.56
506.207	84.56
506.423	66.56
506.64	99.56
506.856	82.56
507.073	80.56
507.289	82.56
507.506	84.56
507.722	92.56
507.939	93.56
508.155	90.56
508.372	94.56
508.588	84.56
508.805	83.56
509.021	90.56
509.238	90.56
509.454	92.56
509.67	83.56
509.887	95.56
510.103	82.56
510.319	81.56
510.536	88.56
510.752	91.56
510.968	71.56
511.184	97.56
511.401	91.56
511.617	78.56
511.833	85.56
512.049	72.56
512.265	84.56
512.481	89.56
512.698	78.56
512.914	84.56
513.13	96.56
513.346	77.56
513.562	70.56
513.778	76.56
513.994	82.56
514.21	80.56
514.426	85.56
514.642	89.56
514.858	86.56
515.074	84.56
515.29	98.56
515.506	62.56
515.721	81.56
515.937	82.56
516.153	66.56
516.369	88.56
516.585	79.56
516.801	93.56
517.016	99.56
517.232	103.56
517.448	87.56
517.664	92.56
517.879	85.56
518.095	79.56
518.311	90.56
518.527	97.56
518.742	109.56
518.958	82.56
519.173	81.56
519.389	92.56
