Data from 1600_2_HRD10591_00015.txt Node
Date: Mon Jan 19 13:53:48 EST 2026
User: Yrep
Spectrometer: HR+D1059
Trigger mode: 1
Integration Time (sec): 1.000000E-1
Scans to average: 1
Electric dark correction enabled: true
Nonlinearity correction enabled: false
Boxcar width: 0
XAxis mode: Wavelengths
Number of Pixels in Spectrum: 2048
>>>>>Begin Spectral Data<<<<<
223.165	-16.81
223.4	-16.81
223.635	-16.81
223.869	-24.81
224.104	-13.81
224.338	-27.81
224.573	-25.81
224.808	-4.81
225.042	10.19
225.277	-16.81
225.511	-7.81
225.746	15.19
225.98	5.19
226.215	17.19
226.449	25.19
226.683	21.19
226.918	16.19
227.152	28.19
227.387	35.19
227.621	22.19
227.856	37.19
228.09	58.19
228.324	52.19
228.559	58.19
228.793	58.19
229.027	68.19
229.262	57.19
229.496	58.19
229.73	77.19
229.964	68.19
230.199	74.19
230.433	90.19
230.667	73.19
230.901	86.19
231.136	77.19
231.37	82.19
231.604	76.19
231.838	79.19
232.072	66.19
232.306	94.19
232.541	84.19
232.775	94.19
233.009	89.19
233.243	76.19
233.477	88.19
233.711	80.19
233.945	77.19
234.179	84.19
234.413	76.19
234.647	80.19
234.881	83.19
235.115	81.19
235.349	82.19
235.583	81.19
235.817	85.19
236.051	85.19
236.285	84.19
236.519	77.19
236.753	77.19
236.987	69.19
237.221	78.19
237.455	86.19
237.689	63.19
237.922	79.19
238.156	68.19
238.39	67.19
238.624	57.19
238.858	73.19
239.091	78.19
239.325	84.19
239.559	59.19
239.793	66.19
240.027	86.19
240.26	86.19
240.494	90.19
240.728	67.19
240.961	67.19
241.195	84.19
241.429	87.19
241.662	75.19
241.896	75.19
242.13	72.19
242.363	69.19
242.597	78.19
242.83	79.19
243.064	62.19
243.298	77.19
243.531	76.19
243.765	81.19
243.998	81.19
244.232	66.19
244.465	94.19
244.699	92.19
244.932	78.19
245.166	82.19
245.399	70.19
245.633	96.19
245.866	98.19
246.099	75.19
246.333	73.19
246.566	76.19
246.8	86.19
247.033	67.19
247.266	88.19
247.5	86.19
247.733	77.19
247.966	76.19
248.2	70.19
248.433	73.19
248.666	72.19
248.899	81.19
249.133	68.19
249.366	88.19
249.599	79.19
249.832	82.19
250.066	88.19
250.299	94.19
250.532	71.19
250.765	75.19
250.998	75.19
251.231	89.19
251.465	75.19
251.698	74.19
251.931	91.19
252.164	92.19
252.397	92.19
252.63	88.19
252.863	84.19
253.096	76.19
253.329	76.19
253.562	94.19
253.795	78.19
254.028	84.19
254.261	83.19
254.494	76.19
254.727	82.19
254.96	92.19
255.193	82.19
255.426	86.19
255.659	78.19
255.892	84.19
256.124	86.19
256.357	75.19
256.59	78.19
256.823	72.19
257.056	78.19
257.289	76.19
257.521	87.19
257.754	67.19
257.987	60.19
258.22	84.19
258.452	77.19
258.685	90.19
258.918	86.19
259.151	84.19
259.383	81.19
259.616	104.19
259.849	82.19
260.081	76.19
260.314	81.19
260.547	87.19
260.779	95.19
261.012	87.19
261.244	84.19
261.477	79.19
261.71	81.19
261.942	83.19
262.175	88.19
262.407	86.19
262.64	84.19
262.872	82.19
263.105	89.19
263.337	76.19
263.57	94.19
263.802	73.19
264.035	82.19
264.267	82.19
264.499	81.19
264.732	90.19
264.964	77.19
265.197	82.19
265.429	85.19
265.661	71.19
265.894	86.19
266.126	92.19
266.358	81.19
266.591	102.19
266.823	76.19
267.055	74.19
267.287	100.19
267.52	80.19
267.752	83.19
267.984	90.19
268.216	77.19
268.448	81.19
268.681	93.19
268.913	88.19
269.145	83.19
269.377	88.19
269.609	79.19
269.841	83.19
270.073	84.19
270.306	87.19
270.538	77.19
270.77	75.19
271.002	77.19
271.234	89.19
271.466	88.19
271.698	94.19
271.93	88.19
272.162	94.19
272.394	89.19
272.626	83.19
272.858	83.19
273.09	82.19
273.322	82.19
273.553	93.19
273.785	101.19
274.017	77.19
274.249	88.19
274.481	96.19
274.713	74.19
274.945	84.19
275.176	75.19
275.408	88.19
275.64	80.19
275.872	79.19
276.104	74.19
276.335	91.19
276.567	87.19
276.799	80.19
277.031	84.19
277.262	80.19
277.494	75.19
277.726	70.19
277.957	92.19
278.189	76.19
278.421	88.19
278.652	85.19
278.884	80.19
279.115	89.19
279.347	79.19
279.579	84.19
279.81	91.19
280.042	94.19
280.273	77.19
280.505	87.19
280.736	95.19
280.968	86.19
281.199	85.19
281.431	76.19
281.662	89.19
281.894	93.19
282.125	82.19
282.356	91.19
282.588	83.19
282.819	85.19
283.051	88.19
283.282	98.19
283.513	82.19
283.745	91.19
283.976	98.19
284.207	81.19
284.439	96.19
284.67	99.19
284.901	83.19
285.132	89.19
285.364	102.19
285.595	91.19
285.826	89.19
286.057	93.19
286.288	105.19
286.52	79.19
286.751	102.19
286.982	80.19
287.213	89.19
287.444	94.19
287.675	75.19
287.906	83.19
288.138	91.19
288.369	106.19
288.6	88.19
288.831	86.19
289.062	87.19
289.293	73.19
289.524	82.19
289.755	95.19
289.986	103.19
290.217	89.19
290.448	86.19
290.679	88.19
290.91	96.19
291.141	84.19
291.371	86.19
291.602	84.19
291.833	82.19
292.064	88.19
292.295	84.19
292.526	89.19
292.757	85.19
292.987	86.19
293.218	96.19
293.449	87.19
293.68	92.19
293.91	80.19
294.141	94.19
294.372	95.19
294.603	90.19
294.833	100.19
295.064	77.19
295.295	102.19
295.525	76.19
295.756	89.19
295.987	88.19
296.217	77.19
296.448	82.19
296.679	84.19
296.909	94.19
297.14	87.19
297.37	81.19
297.601	85.19
297.831	76.19
298.062	90.19
298.292	101.19
298.523	101.19
298.753	91.19
298.984	91.19
299.214	90.19
299.445	95.19
299.675	109.19
299.905	97.19
300.136	85.19
300.366	97.19
300.597	82.19
300.827	98.19
301.057	94.19
301.288	95.19
301.518	95.19
301.748	86.19
301.979	106.19
302.209	90.19
302.439	93.19
302.669	87.19
302.9	90.19
303.13	80.19
303.36	93.19
303.59	86.19
303.82	94.19
304.051	73.19
304.281	76.19
304.511	94.19
304.741	84.19
304.971	89.19
305.201	86.19
305.431	86.19
305.661	88.19
305.891	95.19
306.121	90.19
306.352	66.19
306.582	84.19
306.812	88.19
307.042	90.19
307.272	82.19
307.502	89.19
307.731	102.19
307.961	78.19
308.191	86.19
308.421	89.19
308.651	88.19
308.881	88.19
309.111	95.19
309.341	99.19
309.571	97.19
309.8	92.19
310.03	88.19
310.26	93.19
310.49	82.19
310.72	91.19
310.949	74.19
311.179	99.19
311.409	75.19
311.639	92.19
311.868	80.19
312.098	96.19
312.328	91.19
312.557	77.19
312.787	79.19
313.017	87.19
313.246	104.19
313.476	96.19
313.706	71.19
313.935	84.19
314.165	90.19
314.394	95.19
314.624	91.19
314.853	96.19
315.083	77.19
315.312	86.19
315.542	101.19
315.771	94.19
316.001	93.19
316.23	87.19
316.46	92.19
316.689	77.19
316.919	79.19
317.148	94.19
317.377	106.19
317.607	87.19
317.836	95.19
318.065	87.19
318.295	93.19
318.524	96.19
318.753	99.19
318.983	99.19
319.212	84.19
319.441	81.19
319.67	82.19
319.9	84.19
320.129	79.19
320.358	87.19
320.587	94.19
320.816	97.19
321.046	85.19
321.275	84.19
321.504	73.19
321.733	78.19
321.962	89.19
322.191	88.19
322.42	81.19
322.649	105.19
322.878	97.19
323.108	95.19
323.337	78.19
323.566	81.19
323.795	91.19
324.024	80.19
324.253	89.19
324.482	96.19
324.71	105.19
324.939	88.19
325.168	92.19
325.397	82.19
325.626	98.19
325.855	93.19
326.084	90.19
326.313	72.19
326.542	85.19
326.77	77.19
326.999	97.19
327.228	87.19
327.457	84.19
327.686	80.19
327.914	97.19
328.143	90.19
328.372	97.19
328.6	106.19
328.829	61.19
329.058	98.19
329.287	84.19
329.515	82.19
329.744	89.19
329.972	95.19
330.201	98.19
330.43	81.19
330.658	83.19
330.887	98.19
331.115	94.19
331.344	86.19
331.572	80.19
331.801	87.19
332.03	86.19
332.258	85.19
332.486	73.19
332.715	97.19
332.943	96.19
333.172	99.19
333.4	94.19
333.629	81.19
333.857	89.19
334.085	86.19
334.314	92.19
334.542	96.19
334.771	97.19
334.999	90.19
335.227	91.19
335.455	94.19
335.684	82.19
335.912	94.19
336.14	88.19
336.369	98.19
336.597	103.19
336.825	100.19
337.053	79.19
337.281	94.19
337.51	85.19
337.738	90.19
337.966	88.19
338.194	100.19
338.422	87.19
338.65	93.19
338.878	91.19
339.106	87.19
339.334	84.19
339.562	70.19
339.79	74.19
340.018	74.19
340.246	91.19
340.474	90.19
340.702	85.19
340.93	89.19
341.158	79.19
341.386	90.19
341.614	82.19
341.842	103.19
342.07	85.19
342.298	81.19
342.526	92.19
342.754	70.19
342.981	86.19
343.209	90.19
343.437	102.19
343.665	82.19
343.893	98.19
344.12	107.19
344.348	106.19
344.576	110.19
344.804	94.19
345.031	74.19
345.259	90.19
345.487	84.19
345.714	89.19
345.942	96.19
346.17	96.19
346.397	76.19
346.625	83.19
346.853	81.19
347.08	94.19
347.308	101.19
347.535	96.19
347.763	83.19
347.99	90.19
348.218	91.19
348.445	90.19
348.673	102.19
348.9	99.19
349.128	99.19
349.355	90.19
349.583	90.19
349.81	86.19
350.037	104.19
350.265	86.19
350.492	92.19
350.72	87.19
350.947	100.19
351.174	74.19
351.402	80.19
351.629	103.19
351.856	90.19
352.083	92.19
352.311	86.19
352.538	74.19
352.765	84.19
352.992	94.19
353.22	91.19
353.447	81.19
353.674	74.19
353.901	82.19
354.128	78.19
354.355	90.19
354.583	105.19
354.81	91.19
355.037	84.19
355.264	73.19
355.491	92.19
355.718	82.19
355.945	100.19
356.172	82.19
356.399	96.19
356.626	85.19
356.853	94.19
357.08	93.19
357.307	88.19
357.534	81.19
357.761	99.19
357.988	94.19
358.215	86.19
358.441	94.19
358.668	81.19
358.895	89.19
359.122	90.19
359.349	90.19
359.576	80.19
359.802	79.19
360.029	85.19
360.256	86.19
360.483	88.19
360.709	79.19
360.936	108.19
361.163	94.19
361.39	89.19
361.616	89.19
361.843	89.19
362.07	96.19
362.296	98.19
362.523	93.19
362.749	89.19
362.976	94.19
363.203	103.19
363.429	94.19
363.656	97.19
363.882	91.19
364.109	87.19
364.335	98.19
364.562	113.19
364.788	99.19
365.015	88.19
365.241	86.19
365.468	99.19
365.694	98.19
365.92	90.19
366.147	76.19
366.373	82.19
366.599	81.19
366.826	75.19
367.052	100.19
367.278	79.19
367.505	87.19
367.731	92.19
367.957	94.19
368.184	80.19
368.41	83.19
368.636	85.19
368.862	95.19
369.089	80.19
369.315	73.19
369.541	100.19
369.767	99.19
369.993	102.19
370.219	78.19
370.445	97.19
370.672	93.19
370.898	73.19
371.124	79.19
371.35	90.19
371.576	97.19
371.802	108.19
372.028	95.19
372.254	91.19
372.48	103.19
372.706	96.19
372.932	91.19
373.158	90.19
373.384	112.19
373.61	126.19
373.835	96.19
374.061	97.19
374.287	100.19
374.513	86.19
374.739	90.19
374.965	97.19
375.191	84.19
375.416	90.19
375.642	95.19
375.868	90.19
376.094	89.19
376.319	87.19
376.545	96.19
376.771	101.19
376.997	97.19
377.222	95.19
377.448	102.19
377.674	73.19
377.899	81.19
378.125	80.19
378.35	95.19
378.576	84.19
378.802	88.19
379.027	82.19
379.253	106.19
379.478	95.19
379.704	95.19
379.929	95.19
380.155	98.19
380.38	84.19
380.606	75.19
380.831	86.19
381.057	89.19
381.282	88.19
381.507	103.19
381.733	111.19
381.958	90.19
382.184	104.19
382.409	91.19
382.634	104.19
382.86	110.19
383.085	96.19
383.31	107.19
383.535	99.19
383.761	111.19
383.986	105.19
384.211	98.19
384.436	96.19
384.662	112.19
384.887	86.19
385.112	82.19
385.337	96.19
385.562	91.19
385.787	88.19
386.013	104.19
386.238	110.19
386.463	95.19
386.688	98.19
386.913	77.19
387.138	86.19
387.363	87.19
387.588	86.19
387.813	94.19
388.038	99.19
388.263	95.19
388.488	99.19
388.713	99.19
388.938	100.19
389.163	95.19
389.387	85.19
389.612	82.19
389.837	98.19
390.062	102.19
390.287	83.19
390.512	97.19
390.736	88.19
390.961	82.19
391.186	78.19
391.411	98.19
391.636	91.19
391.86	91.19
392.085	79.19
392.31	95.19
392.534	103.19
392.759	111.19
392.984	140.19
393.208	202.19
393.433	258.19
393.658	212.19
393.882	105.19
394.107	98.19
394.331	104.19
394.556	127.19
394.78	103.19
395.005	86.19
395.229	85.19
395.454	102.19
395.678	93.19
395.903	112.19
396.127	134.19
396.352	152.19
396.576	143.19
396.801	187.19
397.025	215.19
397.249	135.19
397.474	101.19
397.698	95.19
397.922	85.19
398.147	93.19
398.371	90.19
398.595	90.19
398.82	89.19
399.044	78.19
399.268	75.19
399.492	94.19
399.717	90.19
399.941	87.19
400.165	78.19
400.389	85.19
400.613	95.19
400.837	91.19
401.062	87.19
401.286	89.19
401.51	91.19
401.734	73.19
401.958	88.19
402.182	95.19
402.406	103.19
402.63	87.19
402.854	112.19
403.078	102.19
403.302	88.19
403.526	98.19
403.75	104.19
403.974	104.19
404.198	104.19
404.422	123.19
404.645	121.19
404.869	133.19
405.093	100.19
405.317	91.19
405.541	105.19
405.765	97.19
405.988	87.19
406.212	82.19
406.436	84.19
406.66	90.19
406.883	88.19
407.107	84.19
407.331	94.19
407.555	87.19
407.778	89.19
408.002	88.19
408.226	84.19
408.449	79.19
408.673	83.19
408.896	99.19
409.12	62.19
409.344	82.19
409.567	93.19
409.791	90.19
410.014	94.19
410.238	93.19
410.461	94.19
410.685	84.19
410.908	76.19
411.132	94.19
411.355	89.19
411.578	80.19
411.802	83.19
412.025	96.19
412.249	104.19
412.472	98.19
412.695	77.19
412.919	80.19
413.142	97.19
413.365	100.19
413.589	87.19
413.812	82.19
414.035	73.19
414.258	84.19
414.482	84.19
414.705	92.19
414.928	91.19
415.151	70.19
415.374	83.19
415.597	89.19
415.821	80.19
416.044	76.19
416.267	81.19
416.49	87.19
416.713	81.19
416.936	81.19
417.159	79.19
417.382	71.19
417.605	84.19
417.828	83.19
418.051	66.19
418.274	88.19
418.497	95.19
418.72	91.19
418.943	89.19
419.166	90.19
419.389	83.19
419.611	100.19
419.834	87.19
420.057	82.19
420.28	86.19
420.503	81.19
420.726	87.19
420.948	77.19
421.171	88.19
421.394	96.19
421.617	103.19
421.839	98.19
422.062	114.19
422.285	127.19
422.507	218.19
422.73	315.19
422.953	283.19
423.175	147.19
423.398	96.19
423.621	102.19
423.843	89.19
424.066	88.19
424.288	96.19
424.511	70.19
424.733	89.19
424.956	86.19
425.178	89.19
425.401	83.19
425.623	95.19
425.846	84.19
426.068	90.19
426.291	100.19
426.513	94.19
426.735	92.19
426.958	94.19
427.18	75.19
427.402	77.19
427.625	90.19
427.847	85.19
428.069	99.19
428.292	127.19
428.514	118.19
428.736	102.19
428.958	110.19
429.181	122.19
429.403	88.19
429.625	102.19
429.847	118.19
430.069	135.19
430.292	153.19
430.514	157.19
430.736	113.19
430.958	135.19
431.18	104.19
431.402	88.19
431.624	93.19
431.846	121.19
432.068	124.19
432.29	94.19
432.512	92.19
432.734	92.19
432.956	96.19
433.178	90.19
433.4	85.19
433.622	100.19
433.844	96.19
434.066	74.19
434.287	85.19
434.509	92.19
434.731	95.19
434.953	86.19
435.175	84.19
435.397	76.19
435.618	80.19
435.84	94.19
436.062	98.19
436.284	82.19
436.505	93.19
436.727	79.19
436.949	86.19
437.17	86.19
437.392	82.19
437.614	80.19
437.835	72.19
438.057	92.19
438.278	99.19
438.5	99.19
438.721	91.19
438.943	91.19
439.165	89.19
439.386	86.19
439.608	99.19
439.829	76.19
440.05	92.19
440.272	92.19
440.493	82.19
440.715	83.19
440.936	84.19
441.158	80.19
441.379	93.19
441.6	82.19
441.822	84.19
442.043	88.19
442.264	98.19
442.486	103.19
442.707	122.19
442.928	106.19
443.149	85.19
443.371	132.19
443.592	182.19
443.813	154.19
444.034	98.19
444.255	90.19
444.476	75.19
444.698	76.19
444.919	86.19
445.14	177.19
445.361	178.19
445.582	223.19
445.803	184.19
446.024	113.19
446.245	84.19
446.466	82.19
446.687	100.19
446.908	82.19
447.129	111.19
447.35	83.19
447.571	92.19
447.792	67.19
448.013	80.19
448.234	77.19
448.455	85.19
448.675	89.19
448.896	83.19
449.117	75.19
449.338	81.19
449.559	75.19
449.779	89.19
450	88.19
450.221	90.19
450.442	89.19
450.662	81.19
450.883	83.19
451.104	94.19
451.324	104.19
451.545	82.19
451.766	82.19
451.986	74.19
452.207	79.19
452.428	98.19
452.648	96.19
452.869	99.19
453.089	100.19
453.31	85.19
453.53	78.19
453.751	101.19
453.971	99.19
454.192	87.19
454.412	74.19
454.633	87.19
454.853	90.19
455.073	82.19
455.294	83.19
455.514	92.19
455.734	75.19
455.955	97.19
456.175	83.19
456.395	99.19
456.616	77.19
456.836	88.19
457.056	104.19
457.276	75.19
457.497	77.19
457.717	102.19
457.937	84.19
458.157	104.19
458.377	98.19
458.598	94.19
458.818	95.19
459.038	83.19
459.258	92.19
459.478	80.19
459.698	83.19
459.918	96.19
460.138	83.19
460.358	87.19
460.578	76.19
460.798	104.19
461.018	100.19
461.238	89.19
461.458	87.19
461.678	72.19
461.898	80.19
462.118	75.19
462.338	92.19
462.558	94.19
462.777	73.19
462.997	78.19
463.217	87.19
463.437	94.19
463.657	83.19
463.876	86.19
464.096	70.19
464.316	87.19
464.536	84.19
464.755	84.19
464.975	87.19
465.195	79.19
465.414	76.19
465.634	86.19
465.854	82.19
466.073	92.19
466.293	82.19
466.512	83.19
466.732	84.19
466.951	92.19
467.171	90.19
467.391	75.19
467.61	97.19
467.829	87.19
468.049	94.19
468.268	85.19
468.488	83.19
468.707	92.19
468.927	81.19
469.146	80.19
469.365	73.19
469.585	80.19
469.804	99.19
470.023	86.19
470.243	76.19
470.462	94.19
470.681	89.19
470.901	102.19
471.12	83.19
471.339	90.19
471.558	81.19
471.777	88.19
471.997	90.19
472.216	72.19
472.435	71.19
472.654	79.19
472.873	91.19
473.092	84.19
473.311	93.19
473.53	83.19
473.749	89.19
473.968	85.19
474.187	75.19
474.406	89.19
474.625	86.19
474.844	77.19
475.063	77.19
475.282	95.19
475.501	99.19
475.72	106.19
475.939	79.19
476.158	90.19
476.377	86.19
476.596	91.19
476.814	95.19
477.033	97.19
477.252	75.19
477.471	91.19
477.69	80.19
477.908	90.19
478.127	92.19
478.346	89.19
478.564	92.19
478.783	71.19
479.002	80.19
479.22	84.19
479.439	82.19
479.658	85.19
479.876	83.19
480.095	70.19
480.313	94.19
480.532	100.19
480.751	97.19
480.969	96.19
481.188	91.19
481.406	90.19
481.624	86.19
481.843	86.19
482.061	85.19
482.28	93.19
482.498	70.19
482.717	74.19
482.935	87.19
483.153	82.19
483.372	79.19
483.59	91.19
483.808	90.19
484.027	99.19
484.245	91.19
484.463	85.19
484.681	89.19
484.9	94.19
485.118	87.19
485.336	77.19
485.554	88.19
485.772	81.19
485.99	68.19
486.209	82.19
486.427	69.19
486.645	92.19
486.863	86.19
487.081	103.19
487.299	102.19
487.517	105.19
487.735	95.19
487.953	130.19
488.171	114.19
488.389	104.19
488.607	85.19
488.825	90.19
489.043	81.19
489.261	97.19
489.479	97.19
489.696	85.19
489.914	86.19
490.132	86.19
490.35	103.19
490.568	80.19
490.786	82.19
491.003	87.19
491.221	94.19
491.439	93.19
491.657	91.19
491.874	96.19
492.092	103.19
492.31	103.19
492.527	98.19
492.745	91.19
492.963	82.19
493.18	86.19
493.398	94.19
493.615	82.19
493.833	101.19
494.05	86.19
494.268	82.19
494.485	86.19
494.703	99.19
494.92	87.19
495.138	77.19
495.355	80.19
495.573	89.19
495.79	101.19
496.008	101.19
496.225	95.19
496.442	102.19
496.66	80.19
496.877	98.19
497.094	109.19
497.312	104.19
497.529	87.19
497.746	94.19
497.963	82.19
498.181	89.19
498.398	85.19
498.615	82.19
498.832	96.19
499.049	75.19
499.267	89.19
499.484	95.19
499.701	87.19
499.918	86.19
500.135	99.19
500.352	84.19
500.569	92.19
500.786	99.19
501.003	106.19
501.22	107.19
501.437	91.19
501.654	101.19
501.871	65.19
502.088	88.19
502.305	84.19
502.522	96.19
502.739	89.19
502.956	72.19
503.172	84.19
503.389	96.19
503.606	88.19
503.823	85.19
504.04	98.19
504.256	95.19
504.473	105.19
504.69	83.19
504.907	92.19
505.123	95.19
505.34	86.19
505.557	86.19
505.773	85.19
505.99	81.19
506.207	87.19
506.423	79.19
506.64	96.19
506.856	98.19
507.073	83.19
507.289	97.19
507.506	84.19
507.722	90.19
507.939	88.19
508.155	92.19
508.372	96.19
508.588	111.19
508.805	88.19
509.021	84.19
509.238	76.19
509.454	96.19
509.67	77.19
509.887	84.19
510.103	98.19
510.319	98.19
510.536	96.19
510.752	90.19
510.968	86.19
511.184	91.19
511.401	96.19
511.617	91.19
511.833	95.19
512.049	101.19
512.265	82.19
512.481	98.19
512.698	78.19
512.914	96.19
513.13	97.19
513.346	86.19
513.562	87.19
513.778	102.19
513.994	68.19
514.21	92.19
514.426	90.19
514.642	88.19
514.858	97.19
515.074	92.19
515.29	88.19
515.506	96.19
515.721	83.19
515.937	82.19
516.153	96.19
516.369	104.19
516.585	88.19
516.801	83.19
517.016	94.19
517.232	81.19
517.448	105.19
517.664	94.19
517.879	89.19
