Data from 1600_2_HRD10591_00022.txt Node
Date: Mon Jan 19 13:53:52 EST 2026
User: Yrep
Spectrometer: HR+D1059
Trigger mode: 1
Integration Time (sec): 1.000000E-1
Scans to average: 1
Electric dark correction enabled: true
Nonlinearity correction enabled: false
Boxcar width: 0
XAxis mode: Wavelengths
Number of Pixels in Spectrum: 2048
>>>>>Begin Spectral Data<<<<<
223.165	-26.88
223.4	-26.88
223.635	-26.88
223.869	-3.88
224.104	-25.88
224.338	-3.88
224.573	-11.88
224.808	-4.88
225.042	-0.88
225.277	-15.88
225.511	-10.88
225.746	-2.88
225.98	11.12
226.215	23.12
226.449	20.12
226.683	12.12
226.918	18.12
227.152	23.12
227.387	19.12
227.621	38.12
227.856	48.12
228.09	41.12
228.324	52.12
228.559	55.12
228.793	70.12
229.027	63.12
229.262	62.12
229.496	82.12
229.73	78.12
229.964	79.12
230.199	75.12
230.433	74.12
230.667	66.12
230.901	82.12
231.136	74.12
231.37	71.12
231.604	81.12
231.838	88.12
232.072	76.12
232.306	80.12
232.541	86.12
232.775	88.12
233.009	87.12
233.243	80.12
233.477	93.12
233.711	92.12
233.945	82.12
234.179	72.12
234.413	87.12
234.647	70.12
234.881	80.12
235.115	87.12
235.349	81.12
235.583	68.12
235.817	87.12
236.051	80.12
236.285	75.12
236.519	82.12
236.753	76.12
236.987	77.12
237.221	84.12
237.455	73.12
237.689	80.12
237.922	63.12
238.156	81.12
238.39	72.12
238.624	70.12
238.858	76.12
239.091	76.12
239.325	80.12
239.559	84.12
239.793	69.12
240.027	83.12
240.26	72.12
240.494	80.12
240.728	89.12
240.961	69.12
241.195	88.12
241.429	71.12
241.662	69.12
241.896	72.12
242.13	69.12
242.363	82.12
242.597	76.12
242.83	74.12
243.064	74.12
243.298	86.12
243.531	80.12
243.765	79.12
243.998	80.12
244.232	78.12
244.465	73.12
244.699	73.12
244.932	92.12
245.166	80.12
245.399	81.12
245.633	79.12
245.866	93.12
246.099	94.12
246.333	71.12
246.566	87.12
246.8	82.12
247.033	75.12
247.266	81.12
247.5	69.12
247.733	62.12
247.966	93.12
248.2	76.12
248.433	72.12
248.666	81.12
248.899	83.12
249.133	80.12
249.366	89.12
249.599	87.12
249.832	91.12
250.066	85.12
250.299	83.12
250.532	75.12
250.765	75.12
250.998	82.12
251.231	77.12
251.465	75.12
251.698	78.12
251.931	82.12
252.164	85.12
252.397	86.12
252.63	96.12
252.863	85.12
253.096	79.12
253.329	68.12
253.562	85.12
253.795	76.12
254.028	88.12
254.261	89.12
254.494	91.12
254.727	86.12
254.96	89.12
255.193	80.12
255.426	92.12
255.659	89.12
255.892	72.12
256.124	71.12
256.357	103.12
256.59	71.12
256.823	88.12
257.056	92.12
257.289	89.12
257.521	81.12
257.754	80.12
257.987	86.12
258.22	82.12
258.452	66.12
258.685	70.12
258.918	88.12
259.151	72.12
259.383	75.12
259.616	88.12
259.849	94.12
260.081	69.12
260.314	86.12
260.547	87.12
260.779	80.12
261.012	75.12
261.244	94.12
261.477	83.12
261.71	78.12
261.942	76.12
262.175	87.12
262.407	86.12
262.64	65.12
262.872	86.12
263.105	86.12
263.337	89.12
263.57	69.12
263.802	74.12
264.035	88.12
264.267	67.12
264.499	77.12
264.732	65.12
264.964	83.12
265.197	87.12
265.429	74.12
265.661	73.12
265.894	86.12
266.126	89.12
266.358	75.12
266.591	74.12
266.823	78.12
267.055	84.12
267.287	87.12
267.52	74.12
267.752	86.12
267.984	92.12
268.216	101.12
268.448	87.12
268.681	93.12
268.913	92.12
269.145	80.12
269.377	83.12
269.609	93.12
269.841	80.12
270.073	70.12
270.306	75.12
270.538	69.12
270.77	93.12
271.002	105.12
271.234	76.12
271.466	82.12
271.698	72.12
271.93	93.12
272.162	86.12
272.394	84.12
272.626	83.12
272.858	96.12
273.09	87.12
273.322	83.12
273.553	90.12
273.785	86.12
274.017	83.12
274.249	88.12
274.481	88.12
274.713	75.12
274.945	77.12
275.176	70.12
275.408	94.12
275.64	94.12
275.872	81.12
276.104	92.12
276.335	82.12
276.567	80.12
276.799	74.12
277.031	77.12
277.262	92.12
277.494	102.12
277.726	96.12
277.957	88.12
278.189	95.12
278.421	92.12
278.652	71.12
278.884	86.12
279.115	79.12
279.347	84.12
279.579	86.12
279.81	89.12
280.042	82.12
280.273	89.12
280.505	77.12
280.736	76.12
280.968	81.12
281.199	89.12
281.431	80.12
281.662	76.12
281.894	81.12
282.125	78.12
282.356	75.12
282.588	84.12
282.819	78.12
283.051	78.12
283.282	84.12
283.513	88.12
283.745	78.12
283.976	93.12
284.207	81.12
284.439	93.12
284.67	101.12
284.901	64.12
285.132	96.12
285.364	94.12
285.595	81.12
285.826	86.12
286.057	95.12
286.288	88.12
286.52	86.12
286.751	87.12
286.982	90.12
287.213	80.12
287.444	89.12
287.675	82.12
287.906	94.12
288.138	85.12
288.369	87.12
288.6	88.12
288.831	82.12
289.062	93.12
289.293	82.12
289.524	75.12
289.755	90.12
289.986	94.12
290.217	84.12
290.448	89.12
290.679	89.12
290.91	83.12
291.141	87.12
291.371	96.12
291.602	74.12
291.833	82.12
292.064	94.12
292.295	87.12
292.526	94.12
292.757	95.12
292.987	99.12
293.218	93.12
293.449	85.12
293.68	92.12
293.91	80.12
294.141	89.12
294.372	101.12
294.603	88.12
294.833	88.12
295.064	86.12
295.295	88.12
295.525	94.12
295.756	97.12
295.987	84.12
296.217	84.12
296.448	74.12
296.679	90.12
296.909	93.12
297.14	82.12
297.37	73.12
297.601	72.12
297.831	88.12
298.062	94.12
298.292	87.12
298.523	90.12
298.753	93.12
298.984	93.12
299.214	90.12
299.445	92.12
299.675	83.12
299.905	89.12
300.136	89.12
300.366	75.12
300.597	95.12
300.827	96.12
301.057	76.12
301.288	76.12
301.518	88.12
301.748	84.12
301.979	98.12
302.209	88.12
302.439	83.12
302.669	93.12
302.9	89.12
303.13	89.12
303.36	90.12
303.59	81.12
303.82	95.12
304.051	85.12
304.281	89.12
304.511	85.12
304.741	86.12
304.971	88.12
305.201	94.12
305.431	88.12
305.661	81.12
305.891	95.12
306.121	89.12
306.352	85.12
306.582	81.12
306.812	67.12
307.042	81.12
307.272	83.12
307.502	84.12
307.731	92.12
307.961	82.12
308.191	94.12
308.421	91.12
308.651	96.12
308.881	87.12
309.111	108.12
309.341	102.12
309.571	79.12
309.8	73.12
310.03	102.12
310.26	78.12
310.49	75.12
310.72	87.12
310.949	86.12
311.179	93.12
311.409	87.12
311.639	95.12
311.868	80.12
312.098	77.12
312.328	80.12
312.557	86.12
312.787	82.12
313.017	86.12
313.246	77.12
313.476	88.12
313.706	78.12
313.935	92.12
314.165	72.12
314.394	89.12
314.624	84.12
314.853	94.12
315.083	84.12
315.312	76.12
315.542	85.12
315.771	75.12
316.001	81.12
316.23	87.12
316.46	93.12
316.689	84.12
316.919	88.12
317.148	87.12
317.377	95.12
317.607	100.12
317.836	80.12
318.065	85.12
318.295	70.12
318.524	88.12
318.753	78.12
318.983	82.12
319.212	80.12
319.441	78.12
319.67	90.12
319.9	91.12
320.129	91.12
320.358	90.12
320.587	87.12
320.816	79.12
321.046	94.12
321.275	86.12
321.504	73.12
321.733	80.12
321.962	88.12
322.191	89.12
322.42	80.12
322.649	81.12
322.878	84.12
323.108	103.12
323.337	94.12
323.566	88.12
323.795	88.12
324.024	80.12
324.253	80.12
324.482	68.12
324.71	78.12
324.939	78.12
325.168	81.12
325.397	72.12
325.626	78.12
325.855	85.12
326.084	73.12
326.313	87.12
326.542	87.12
326.77	92.12
326.999	75.12
327.228	81.12
327.457	84.12
327.686	87.12
327.914	88.12
328.143	89.12
328.372	81.12
328.6	75.12
328.829	73.12
329.058	82.12
329.287	81.12
329.515	79.12
329.744	73.12
329.972	79.12
330.201	88.12
330.43	88.12
330.658	89.12
330.887	94.12
331.115	88.12
331.344	81.12
331.572	90.12
331.801	84.12
332.03	85.12
332.258	89.12
332.486	76.12
332.715	89.12
332.943	90.12
333.172	88.12
333.4	85.12
333.629	74.12
333.857	76.12
334.085	83.12
334.314	80.12
334.542	82.12
334.771	78.12
334.999	82.12
335.227	90.12
335.455	81.12
335.684	85.12
335.912	91.12
336.14	77.12
336.369	75.12
336.597	74.12
336.825	96.12
337.053	64.12
337.281	86.12
337.51	91.12
337.738	100.12
337.966	88.12
338.194	94.12
338.422	86.12
338.65	93.12
338.878	83.12
339.106	82.12
339.334	88.12
339.562	80.12
339.79	93.12
340.018	63.12
340.246	85.12
340.474	90.12
340.702	83.12
340.93	86.12
341.158	80.12
341.386	88.12
341.614	77.12
341.842	84.12
342.07	74.12
342.298	84.12
342.526	70.12
342.754	78.12
342.981	90.12
343.209	70.12
343.437	86.12
343.665	78.12
343.893	86.12
344.12	91.12
344.348	88.12
344.576	86.12
344.804	96.12
345.031	84.12
345.259	80.12
345.487	89.12
345.714	81.12
345.942	81.12
346.17	90.12
346.397	87.12
346.625	87.12
346.853	88.12
347.08	85.12
347.308	88.12
347.535	85.12
347.763	92.12
347.99	84.12
348.218	89.12
348.445	86.12
348.673	89.12
348.9	84.12
349.128	86.12
349.355	77.12
349.583	73.12
349.81	78.12
350.037	99.12
350.265	86.12
350.492	79.12
350.72	89.12
350.947	98.12
351.174	99.12
351.402	88.12
351.629	84.12
351.856	95.12
352.083	91.12
352.311	101.12
352.538	80.12
352.765	96.12
352.992	89.12
353.22	90.12
353.447	88.12
353.674	79.12
353.901	81.12
354.128	84.12
354.355	82.12
354.583	88.12
354.81	85.12
355.037	88.12
355.264	94.12
355.491	97.12
355.718	95.12
355.945	94.12
356.172	80.12
356.399	84.12
356.626	90.12
356.853	92.12
357.08	97.12
357.307	89.12
357.534	83.12
357.761	84.12
357.988	94.12
358.215	98.12
358.441	95.12
358.668	84.12
358.895	83.12
359.122	86.12
359.349	88.12
359.576	82.12
359.802	84.12
360.029	92.12
360.256	77.12
360.483	89.12
360.709	85.12
360.936	83.12
361.163	91.12
361.39	85.12
361.616	82.12
361.843	94.12
362.07	97.12
362.296	96.12
362.523	88.12
362.749	85.12
362.976	92.12
363.203	103.12
363.429	97.12
363.656	91.12
363.882	80.12
364.109	84.12
364.335	93.12
364.562	88.12
364.788	95.12
365.015	81.12
365.241	99.12
365.468	76.12
365.694	78.12
365.92	89.12
366.147	74.12
366.373	84.12
366.599	86.12
366.826	83.12
367.052	90.12
367.278	89.12
367.505	85.12
367.731	89.12
367.957	98.12
368.184	74.12
368.41	85.12
368.636	86.12
368.862	91.12
369.089	93.12
369.315	93.12
369.541	89.12
369.767	83.12
369.993	74.12
370.219	89.12
370.445	78.12
370.672	83.12
370.898	75.12
371.124	88.12
371.35	87.12
371.576	68.12
371.802	98.12
372.028	88.12
372.254	85.12
372.48	98.12
372.706	76.12
372.932	86.12
373.158	102.12
373.384	89.12
373.61	84.12
373.835	92.12
374.061	78.12
374.287	82.12
374.513	93.12
374.739	96.12
374.965	101.12
375.191	107.12
375.416	88.12
375.642	91.12
375.868	80.12
376.094	84.12
376.319	79.12
376.545	81.12
376.771	91.12
376.997	88.12
377.222	90.12
377.448	86.12
377.674	92.12
377.899	83.12
378.125	81.12
378.35	77.12
378.576	81.12
378.802	73.12
379.027	78.12
379.253	86.12
379.478	75.12
379.704	80.12
379.929	96.12
380.155	83.12
380.38	63.12
380.606	76.12
380.831	90.12
381.057	84.12
381.282	80.12
381.507	84.12
381.733	83.12
381.958	77.12
382.184	88.12
382.409	96.12
382.634	90.12
382.86	103.12
383.085	85.12
383.31	105.12
383.535	92.12
383.761	85.12
383.986	96.12
384.211	81.12
384.436	81.12
384.662	74.12
384.887	93.12
385.112	74.12
385.337	92.12
385.562	80.12
385.787	96.12
386.013	93.12
386.238	98.12
386.463	77.12
386.688	96.12
386.913	92.12
387.138	80.12
387.363	97.12
387.588	100.12
387.813	85.12
388.038	84.12
388.263	98.12
388.488	96.12
388.713	84.12
388.938	96.12
389.163	89.12
389.387	77.12
389.612	80.12
389.837	80.12
390.062	77.12
390.287	78.12
390.512	93.12
390.736	90.12
390.961	84.12
391.186	80.12
391.411	92.12
391.636	90.12
391.86	77.12
392.085	83.12
392.31	87.12
392.534	81.12
392.759	90.12
392.984	104.12
393.208	128.12
393.433	159.12
393.658	143.12
393.882	100.12
394.107	92.12
394.331	120.12
394.556	99.12
394.78	75.12
395.005	92.12
395.229	82.12
395.454	98.12
395.678	90.12
395.903	103.12
396.127	116.12
396.352	113.12
396.576	116.12
396.801	133.12
397.025	141.12
397.249	97.12
397.474	91.12
397.698	90.12
397.922	94.12
398.147	83.12
398.371	106.12
398.595	76.12
398.82	84.12
399.044	75.12
399.268	94.12
399.492	95.12
399.717	70.12
399.941	78.12
400.165	87.12
400.389	73.12
400.613	64.12
400.837	81.12
401.062	72.12
401.286	90.12
401.51	79.12
401.734	77.12
401.958	86.12
402.182	86.12
402.406	80.12
402.63	83.12
402.854	73.12
403.078	77.12
403.302	83.12
403.526	75.12
403.75	81.12
403.974	85.12
404.198	95.12
404.422	112.12
404.645	120.12
404.869	113.12
405.093	94.12
405.317	91.12
405.541	71.12
405.765	78.12
405.988	85.12
406.212	92.12
406.436	83.12
406.66	84.12
406.883	81.12
407.107	89.12
407.331	88.12
407.555	85.12
407.778	79.12
408.002	98.12
408.226	91.12
408.449	88.12
408.673	80.12
408.896	79.12
409.12	77.12
409.344	83.12
409.567	85.12
409.791	89.12
410.014	82.12
410.238	82.12
410.461	78.12
410.685	95.12
410.908	69.12
411.132	87.12
411.355	96.12
411.578	89.12
411.802	79.12
412.025	73.12
412.249	82.12
412.472	78.12
412.695	82.12
412.919	82.12
413.142	87.12
413.365	88.12
413.589	78.12
413.812	86.12
414.035	71.12
414.258	92.12
414.482	90.12
414.705	92.12
414.928	81.12
415.151	78.12
415.374	71.12
415.597	72.12
415.821	84.12
416.044	68.12
416.267	72.12
416.49	74.12
416.713	86.12
416.936	74.12
417.159	87.12
417.382	72.12
417.605	77.12
417.828	80.12
418.051	88.12
418.274	89.12
418.497	77.12
418.72	77.12
418.943	78.12
419.166	87.12
419.389	73.12
419.611	78.12
419.834	92.12
420.057	91.12
420.28	93.12
420.503	72.12
420.726	74.12
420.948	90.12
421.171	83.12
421.394	86.12
421.617	89.12
421.839	100.12
422.062	96.12
422.285	121.12
422.507	167.12
422.73	227.12
422.953	207.12
423.175	93.12
423.398	100.12
423.621	84.12
423.843	82.12
424.066	75.12
424.288	76.12
424.511	84.12
424.733	88.12
424.956	76.12
425.178	78.12
425.401	96.12
425.623	83.12
425.846	80.12
426.068	84.12
426.291	86.12
426.513	85.12
426.735	84.12
426.958	84.12
427.18	97.12
427.402	74.12
427.625	84.12
427.847	95.12
428.069	88.12
428.292	88.12
428.514	96.12
428.736	83.12
428.958	94.12
429.181	103.12
429.403	94.12
429.625	96.12
429.847	95.12
430.069	122.12
430.292	113.12
430.514	120.12
430.736	104.12
430.958	88.12
431.18	83.12
431.402	104.12
431.624	86.12
431.846	98.12
432.068	103.12
432.29	100.12
432.512	81.12
432.734	79.12
432.956	83.12
433.178	85.12
433.4	88.12
433.622	76.12
433.844	76.12
434.066	83.12
434.287	79.12
434.509	86.12
434.731	84.12
434.953	86.12
435.175	69.12
435.397	100.12
435.618	84.12
435.84	83.12
436.062	73.12
436.284	80.12
436.505	80.12
436.727	89.12
436.949	83.12
437.17	83.12
437.392	87.12
437.614	85.12
437.835	81.12
438.057	78.12
438.278	87.12
438.5	84.12
438.721	95.12
438.943	86.12
439.165	76.12
439.386	78.12
439.608	79.12
439.829	75.12
440.05	80.12
440.272	89.12
440.493	82.12
440.715	86.12
440.936	81.12
441.158	70.12
441.379	95.12
441.6	79.12
441.822	83.12
442.043	80.12
442.264	86.12
442.486	105.12
442.707	116.12
442.928	76.12
443.149	86.12
443.371	115.12
443.592	120.12
443.813	113.12
444.034	84.12
444.255	76.12
444.476	75.12
444.698	85.12
444.919	86.12
445.14	170.12
445.361	144.12
445.582	158.12
445.803	135.12
446.024	90.12
446.245	85.12
446.466	102.12
446.687	74.12
446.908	91.12
447.129	89.12
447.35	89.12
447.571	94.12
447.792	81.12
448.013	84.12
448.234	83.12
448.455	87.12
448.675	81.12
448.896	84.12
449.117	78.12
449.338	76.12
449.559	73.12
449.779	91.12
450	70.12
450.221	85.12
450.442	87.12
450.662	84.12
450.883	78.12
451.104	80.12
451.324	80.12
451.545	81.12
451.766	92.12
451.986	83.12
452.207	85.12
452.428	87.12
452.648	86.12
452.869	86.12
453.089	86.12
453.31	73.12
453.53	84.12
453.751	78.12
453.971	61.12
454.192	80.12
454.412	69.12
454.633	86.12
454.853	74.12
455.073	94.12
455.294	87.12
455.514	83.12
455.734	78.12
455.955	80.12
456.175	83.12
456.395	88.12
456.616	84.12
456.836	68.12
457.056	79.12
457.276	91.12
457.497	89.12
457.717	90.12
457.937	68.12
458.157	87.12
458.377	102.12
458.598	74.12
458.818	79.12
459.038	73.12
459.258	82.12
459.478	72.12
459.698	88.12
459.918	88.12
460.138	85.12
460.358	94.12
460.578	78.12
460.798	94.12
461.018	92.12
461.238	62.12
461.458	81.12
461.678	81.12
461.898	85.12
462.118	87.12
462.338	94.12
462.558	87.12
462.777	86.12
462.997	83.12
463.217	82.12
463.437	72.12
463.657	75.12
463.876	82.12
464.096	87.12
464.316	89.12
464.536	64.12
464.755	78.12
464.975	93.12
465.195	73.12
465.414	78.12
465.634	76.12
465.854	81.12
466.073	83.12
466.293	86.12
466.512	74.12
466.732	93.12
466.951	72.12
467.171	72.12
467.391	87.12
467.61	82.12
467.829	81.12
468.049	86.12
468.268	87.12
468.488	79.12
468.707	94.12
468.927	88.12
469.146	96.12
469.365	79.12
469.585	78.12
469.804	93.12
470.023	86.12
470.243	89.12
470.462	82.12
470.681	79.12
470.901	84.12
471.12	81.12
471.339	78.12
471.558	84.12
471.777	88.12
471.997	80.12
472.216	92.12
472.435	88.12
472.654	78.12
472.873	97.12
473.092	81.12
473.311	97.12
473.53	82.12
473.749	79.12
473.968	86.12
474.187	92.12
474.406	92.12
474.625	82.12
474.844	80.12
475.063	84.12
475.282	71.12
475.501	95.12
475.72	91.12
475.939	96.12
476.158	81.12
476.377	58.12
476.596	79.12
476.814	94.12
477.033	97.12
477.252	86.12
477.471	88.12
477.69	77.12
477.908	84.12
478.127	80.12
478.346	78.12
478.564	68.12
478.783	84.12
479.002	73.12
479.22	72.12
479.439	83.12
479.658	78.12
479.876	83.12
480.095	85.12
480.313	87.12
480.532	87.12
480.751	78.12
480.969	89.12
481.188	84.12
481.406	91.12
481.624	74.12
481.843	83.12
482.061	88.12
482.28	87.12
482.498	78.12
482.717	98.12
482.935	96.12
483.153	80.12
483.372	87.12
483.59	102.12
483.808	95.12
484.027	87.12
484.245	97.12
484.463	93.12
484.681	85.12
484.9	91.12
485.118	72.12
485.336	68.12
485.554	90.12
485.772	76.12
485.99	88.12
486.209	86.12
486.427	82.12
486.645	97.12
486.863	80.12
487.081	78.12
487.299	74.12
487.517	79.12
487.735	87.12
487.953	99.12
488.171	96.12
488.389	85.12
488.607	84.12
488.825	82.12
489.043	86.12
489.261	90.12
489.479	71.12
489.696	82.12
489.914	81.12
490.132	72.12
490.35	63.12
490.568	90.12
490.786	96.12
491.003	75.12
491.221	90.12
491.439	81.12
491.657	71.12
491.874	89.12
492.092	86.12
492.31	84.12
492.527	85.12
492.745	101.12
492.963	83.12
493.18	96.12
493.398	74.12
493.615	88.12
493.833	92.12
494.05	87.12
494.268	70.12
494.485	95.12
494.703	94.12
494.92	86.12
495.138	89.12
495.355	74.12
495.573	76.12
495.79	92.12
496.008	85.12
496.225	89.12
496.442	87.12
496.66	96.12
496.877	95.12
497.094	91.12
497.312	84.12
497.529	85.12
497.746	84.12
497.963	91.12
498.181	79.12
498.398	101.12
498.615	78.12
498.832	78.12
499.049	81.12
499.267	68.12
499.484	90.12
499.701	109.12
499.918	96.12
500.135	100.12
500.352	81.12
500.569	85.12
500.786	101.12
501.003	81.12
501.22	81.12
501.437	72.12
501.654	86.12
501.871	79.12
502.088	76.12
502.305	75.12
502.522	85.12
502.739	85.12
502.956	95.12
503.172	74.12
503.389	79.12
503.606	87.12
503.823	84.12
504.04	86.12
504.256	95.12
504.473	102.12
504.69	88.12
504.907	91.12
505.123	80.12
505.34	96.12
505.557	90.12
505.773	94.12
505.99	72.12
506.207	97.12
506.423	96.12
506.64	86.12
506.856	88.12
507.073	86.12
507.289	98.12
507.506	71.12
507.722	86.12
507.939	74.12
508.155	80.12
508.372	95.12
508.588	78.12
508.805	71.12
509.021	76.12
509.238	85.12
509.454	87.12
509.67	88.12
509.887	99.12
510.103	86.12
510.319	87.12
510.536	90.12
510.752	85.12
510.968	74.12
511.184	76.12
511.401	75.12
511.617	87.12
511.833	92.12
512.049	88.12
512.265	80.12
512.481	93.12
512.698	100.12
512.914	77.12
513.13	88.12
513.346	96.12
513.562	85.12
513.778	94.12
513.994	94.12
514.21	89.12
514.426	77.12
514.642	86.12
514.858	82.12
515.074	84.12
515.29	87.12
515.506	88.12
515.721	87.12
515.937	88.12
516.153	85.12
516.369	92.12
516.585	90.12
516.801	87.12
517.016	88.12
517.232	97.12
517.448	92.12
517.664	99.12
517.879	91.12
518.095	90.12
518.311	104.12
518.527	89.12
518.742	89.12
518.958	98.12
519.173	102.12
