Data from 1600_2_HRD10591_00018.txt Node
Date: Mon Jan 19 13:53:50 EST 2026
User: Yrep
Spectrometer: HR+D1059
Trigger mode: 1
Integration Time (sec): 1.000000E-1
Scans to average: 1
Electric dark correction enabled: true
Nonlinearity correction enabled: false
Boxcar width: 0
XAxis mode: Wavelengths
Number of Pixels in Spectrum: 2048
>>>>>Begin Spectral Data<<<<<
223.165	-28.19
223.4	-28.19
223.635	-28.19
223.869	-23.19
224.104	-18.19
224.338	-17.19
224.573	-5.19
224.808	-15.19
225.042	-18.19
225.277	-9.19
225.511	-2.19
225.746	0.81
225.98	10.81
226.215	9.81
226.449	31.81
226.683	19.81
226.918	30.81
227.152	32.81
227.387	60.81
227.621	32.81
227.856	42.81
228.09	57.81
228.324	45.81
228.559	58.81
228.793	59.81
229.027	65.81
229.262	67.81
229.496	65.81
229.73	76.81
229.964	67.81
230.199	77.81
230.433	67.81
230.667	79.81
230.901	73.81
231.136	72.81
231.37	73.81
231.604	74.81
231.838	93.81
232.072	82.81
232.306	70.81
232.541	68.81
232.775	81.81
233.009	79.81
233.243	89.81
233.477	86.81
233.711	91.81
233.945	89.81
234.179	93.81
234.413	78.81
234.647	81.81
234.881	75.81
235.115	73.81
235.349	79.81
235.583	59.81
235.817	89.81
236.051	94.81
236.285	81.81
236.519	75.81
236.753	75.81
236.987	96.81
237.221	77.81
237.455	62.81
237.689	82.81
237.922	67.81
238.156	66.81
238.39	69.81
238.624	77.81
238.858	81.81
239.091	62.81
239.325	73.81
239.559	81.81
239.793	75.81
240.027	96.81
240.26	74.81
240.494	71.81
240.728	78.81
240.961	89.81
241.195	74.81
241.429	85.81
241.662	68.81
241.896	79.81
242.13	89.81
242.363	86.81
242.597	71.81
242.83	72.81
243.064	82.81
243.298	80.81
243.531	70.81
243.765	68.81
243.998	63.81
244.232	73.81
244.465	77.81
244.699	87.81
244.932	78.81
245.166	74.81
245.399	97.81
245.633	86.81
245.866	79.81
246.099	73.81
246.333	75.81
246.566	76.81
246.8	77.81
247.033	72.81
247.266	79.81
247.5	67.81
247.733	76.81
247.966	77.81
248.2	79.81
248.433	86.81
248.666	70.81
248.899	88.81
249.133	85.81
249.366	85.81
249.599	84.81
249.832	88.81
250.066	73.81
250.299	79.81
250.532	85.81
250.765	86.81
250.998	76.81
251.231	79.81
251.465	75.81
251.698	73.81
251.931	82.81
252.164	79.81
252.397	74.81
252.63	82.81
252.863	75.81
253.096	88.81
253.329	81.81
253.562	86.81
253.795	89.81
254.028	73.81
254.261	68.81
254.494	85.81
254.727	76.81
254.96	76.81
255.193	78.81
255.426	80.81
255.659	83.81
255.892	73.81
256.124	81.81
256.357	76.81
256.59	79.81
256.823	79.81
257.056	85.81
257.289	72.81
257.521	76.81
257.754	83.81
257.987	75.81
258.22	87.81
258.452	81.81
258.685	96.81
258.918	82.81
259.151	87.81
259.383	81.81
259.616	74.81
259.849	89.81
260.081	86.81
260.314	75.81
260.547	89.81
260.779	81.81
261.012	91.81
261.244	72.81
261.477	90.81
261.71	86.81
261.942	79.81
262.175	91.81
262.407	63.81
262.64	86.81
262.872	102.81
263.105	73.81
263.337	85.81
263.57	84.81
263.802	78.81
264.035	96.81
264.267	86.81
264.499	69.81
264.732	98.81
264.964	80.81
265.197	69.81
265.429	85.81
265.661	89.81
265.894	86.81
266.126	82.81
266.358	91.81
266.591	91.81
266.823	86.81
267.055	78.81
267.287	72.81
267.52	79.81
267.752	89.81
267.984	77.81
268.216	95.81
268.448	84.81
268.681	87.81
268.913	84.81
269.145	90.81
269.377	81.81
269.609	84.81
269.841	77.81
270.073	73.81
270.306	82.81
270.538	81.81
270.77	83.81
271.002	71.81
271.234	79.81
271.466	86.81
271.698	91.81
271.93	94.81
272.162	84.81
272.394	72.81
272.626	84.81
272.858	78.81
273.09	93.81
273.322	72.81
273.553	102.81
273.785	76.81
274.017	81.81
274.249	71.81
274.481	83.81
274.713	98.81
274.945	101.81
275.176	85.81
275.408	90.81
275.64	80.81
275.872	76.81
276.104	76.81
276.335	73.81
276.567	81.81
276.799	87.81
277.031	95.81
277.262	90.81
277.494	77.81
277.726	93.81
277.957	84.81
278.189	85.81
278.421	80.81
278.652	94.81
278.884	81.81
279.115	82.81
279.347	96.81
279.579	84.81
279.81	81.81
280.042	102.81
280.273	83.81
280.505	81.81
280.736	83.81
280.968	105.81
281.199	79.81
281.431	81.81
281.662	91.81
281.894	91.81
282.125	77.81
282.356	85.81
282.588	78.81
282.819	71.81
283.051	79.81
283.282	86.81
283.513	81.81
283.745	94.81
283.976	83.81
284.207	88.81
284.439	93.81
284.67	86.81
284.901	86.81
285.132	89.81
285.364	87.81
285.595	100.81
285.826	89.81
286.057	97.81
286.288	102.81
286.52	84.81
286.751	81.81
286.982	74.81
287.213	75.81
287.444	95.81
287.675	83.81
287.906	90.81
288.138	101.81
288.369	103.81
288.6	82.81
288.831	79.81
289.062	96.81
289.293	87.81
289.524	73.81
289.755	97.81
289.986	88.81
290.217	87.81
290.448	81.81
290.679	95.81
290.91	82.81
291.141	95.81
291.371	81.81
291.602	83.81
291.833	87.81
292.064	69.81
292.295	100.81
292.526	98.81
292.757	90.81
292.987	78.81
293.218	83.81
293.449	94.81
293.68	89.81
293.91	77.81
294.141	96.81
294.372	95.81
294.603	93.81
294.833	95.81
295.064	89.81
295.295	84.81
295.525	85.81
295.756	72.81
295.987	91.81
296.217	96.81
296.448	87.81
296.679	95.81
296.909	84.81
297.14	88.81
297.37	98.81
297.601	102.81
297.831	79.81
298.062	95.81
298.292	86.81
298.523	79.81
298.753	83.81
298.984	80.81
299.214	90.81
299.445	83.81
299.675	95.81
299.905	85.81
300.136	88.81
300.366	88.81
300.597	87.81
300.827	95.81
301.057	82.81
301.288	91.81
301.518	85.81
301.748	90.81
301.979	104.81
302.209	105.81
302.439	80.81
302.669	75.81
302.9	101.81
303.13	81.81
303.36	75.81
303.59	84.81
303.82	95.81
304.051	86.81
304.281	86.81
304.511	86.81
304.741	87.81
304.971	84.81
305.201	94.81
305.431	95.81
305.661	89.81
305.891	88.81
306.121	86.81
306.352	90.81
306.582	80.81
306.812	82.81
307.042	94.81
307.272	99.81
307.502	94.81
307.731	86.81
307.961	91.81
308.191	83.81
308.421	97.81
308.651	89.81
308.881	76.81
309.111	94.81
309.341	115.81
309.571	100.81
309.8	87.81
310.03	81.81
310.26	96.81
310.49	79.81
310.72	81.81
310.949	86.81
311.179	94.81
311.409	90.81
311.639	81.81
311.868	83.81
312.098	94.81
312.328	86.81
312.557	95.81
312.787	79.81
313.017	83.81
313.246	91.81
313.476	96.81
313.706	85.81
313.935	97.81
314.165	91.81
314.394	85.81
314.624	76.81
314.853	85.81
315.083	87.81
315.312	94.81
315.542	75.81
315.771	89.81
316.001	97.81
316.23	90.81
316.46	84.81
316.689	89.81
316.919	91.81
317.148	90.81
317.377	94.81
317.607	95.81
317.836	88.81
318.065	99.81
318.295	89.81
318.524	82.81
318.753	80.81
318.983	82.81
319.212	98.81
319.441	83.81
319.67	95.81
319.9	83.81
320.129	91.81
320.358	85.81
320.587	91.81
320.816	66.81
321.046	79.81
321.275	91.81
321.504	98.81
321.733	86.81
321.962	78.81
322.191	89.81
322.42	88.81
322.649	92.81
322.878	89.81
323.108	91.81
323.337	71.81
323.566	88.81
323.795	89.81
324.024	89.81
324.253	86.81
324.482	97.81
324.71	100.81
324.939	85.81
325.168	91.81
325.397	91.81
325.626	86.81
325.855	88.81
326.084	90.81
326.313	103.81
326.542	84.81
326.77	94.81
326.999	82.81
327.228	68.81
327.457	95.81
327.686	96.81
327.914	89.81
328.143	99.81
328.372	88.81
328.6	75.81
328.829	92.81
329.058	100.81
329.287	84.81
329.515	96.81
329.744	83.81
329.972	96.81
330.201	93.81
330.43	77.81
330.658	97.81
330.887	78.81
331.115	76.81
331.344	87.81
331.572	81.81
331.801	94.81
332.03	96.81
332.258	95.81
332.486	79.81
332.715	81.81
332.943	95.81
333.172	94.81
333.4	88.81
333.629	97.81
333.857	87.81
334.085	83.81
334.314	102.81
334.542	75.81
334.771	83.81
334.999	86.81
335.227	84.81
335.455	82.81
335.684	85.81
335.912	73.81
336.14	81.81
336.369	91.81
336.597	89.81
336.825	91.81
337.053	78.81
337.281	86.81
337.51	94.81
337.738	86.81
337.966	81.81
338.194	84.81
338.422	95.81
338.65	83.81
338.878	78.81
339.106	98.81
339.334	83.81
339.562	71.81
339.79	84.81
340.018	82.81
340.246	80.81
340.474	89.81
340.702	91.81
340.93	90.81
341.158	80.81
341.386	86.81
341.614	75.81
341.842	91.81
342.07	91.81
342.298	74.81
342.526	80.81
342.754	89.81
342.981	87.81
343.209	88.81
343.437	99.81
343.665	73.81
343.893	100.81
344.12	103.81
344.348	95.81
344.576	94.81
344.804	87.81
345.031	79.81
345.259	92.81
345.487	86.81
345.714	77.81
345.942	83.81
346.17	86.81
346.397	86.81
346.625	88.81
346.853	88.81
347.08	93.81
347.308	93.81
347.535	81.81
347.763	98.81
347.99	85.81
348.218	90.81
348.445	83.81
348.673	89.81
348.9	84.81
349.128	93.81
349.355	93.81
349.583	86.81
349.81	76.81
350.037	89.81
350.265	73.81
350.492	90.81
350.72	81.81
350.947	79.81
351.174	98.81
351.402	96.81
351.629	81.81
351.856	83.81
352.083	91.81
352.311	86.81
352.538	72.81
352.765	91.81
352.992	82.81
353.22	86.81
353.447	73.81
353.674	79.81
353.901	93.81
354.128	100.81
354.355	76.81
354.583	91.81
354.81	96.81
355.037	81.81
355.264	75.81
355.491	77.81
355.718	100.81
355.945	85.81
356.172	88.81
356.399	81.81
356.626	93.81
356.853	104.81
357.08	106.81
357.307	95.81
357.534	89.81
357.761	89.81
357.988	94.81
358.215	95.81
358.441	89.81
358.668	86.81
358.895	95.81
359.122	91.81
359.349	90.81
359.576	91.81
359.802	79.81
360.029	89.81
360.256	75.81
360.483	87.81
360.709	81.81
360.936	89.81
361.163	83.81
361.39	83.81
361.616	87.81
361.843	89.81
362.07	88.81
362.296	96.81
362.523	103.81
362.749	105.81
362.976	99.81
363.203	106.81
363.429	95.81
363.656	95.81
363.882	91.81
364.109	76.81
364.335	99.81
364.562	91.81
364.788	91.81
365.015	99.81
365.241	93.81
365.468	90.81
365.694	81.81
365.92	93.81
366.147	83.81
366.373	71.81
366.599	76.81
366.826	77.81
367.052	100.81
367.278	97.81
367.505	86.81
367.731	89.81
367.957	84.81
368.184	96.81
368.41	90.81
368.636	87.81
368.862	103.81
369.089	90.81
369.315	89.81
369.541	98.81
369.767	101.81
369.993	98.81
370.219	96.81
370.445	83.81
370.672	93.81
370.898	85.81
371.124	76.81
371.35	90.81
371.576	73.81
371.802	93.81
372.028	88.81
372.254	100.81
372.48	109.81
372.706	85.81
372.932	90.81
373.158	91.81
373.384	116.81
373.61	111.81
373.835	102.81
374.061	99.81
374.287	101.81
374.513	112.81
374.739	85.81
374.965	115.81
375.191	99.81
375.416	91.81
375.642	105.81
375.868	85.81
376.094	94.81
376.319	93.81
376.545	97.81
376.771	95.81
376.997	97.81
377.222	85.81
377.448	88.81
377.674	94.81
377.899	82.81
378.125	88.81
378.35	82.81
378.576	81.81
378.802	71.81
379.027	81.81
379.253	88.81
379.478	109.81
379.704	96.81
379.929	94.81
380.155	98.81
380.38	77.81
380.606	84.81
380.831	79.81
381.057	103.81
381.282	102.81
381.507	106.81
381.733	96.81
381.958	104.81
382.184	98.81
382.409	115.81
382.634	95.81
382.86	112.81
383.085	112.81
383.31	105.81
383.535	117.81
383.761	106.81
383.986	126.81
384.211	82.81
384.436	89.81
384.662	88.81
384.887	91.81
385.112	92.81
385.337	88.81
385.562	105.81
385.787	101.81
386.013	106.81
386.238	90.81
386.463	93.81
386.688	97.81
386.913	101.81
387.138	89.81
387.363	78.81
387.588	87.81
387.813	90.81
388.038	95.81
388.263	83.81
388.488	90.81
388.713	89.81
388.938	82.81
389.163	87.81
389.387	85.81
389.612	96.81
389.837	94.81
390.062	94.81
390.287	87.81
390.512	109.81
390.736	88.81
390.961	90.81
391.186	88.81
391.411	82.81
391.636	91.81
391.86	86.81
392.085	76.81
392.31	84.81
392.534	105.81
392.759	89.81
392.984	118.81
393.208	194.81
393.433	250.81
393.658	192.81
393.882	109.81
394.107	103.81
394.331	111.81
394.556	131.81
394.78	100.81
395.005	91.81
395.229	85.81
395.454	98.81
395.678	103.81
395.903	110.81
396.127	153.81
396.352	153.81
396.576	138.81
396.801	187.81
397.025	193.81
397.249	130.81
397.474	97.81
397.698	107.81
397.922	84.81
398.147	103.81
398.371	80.81
398.595	75.81
398.82	79.81
399.044	82.81
399.268	83.81
399.492	81.81
399.717	94.81
399.941	98.81
400.165	84.81
400.389	94.81
400.613	82.81
400.837	91.81
401.062	82.81
401.286	79.81
401.51	82.81
401.734	87.81
401.958	70.81
402.182	96.81
402.406	85.81
402.63	61.81
402.854	81.81
403.078	90.81
403.302	88.81
403.526	114.81
403.75	85.81
403.974	85.81
404.198	97.81
404.422	124.81
404.645	126.81
404.869	104.81
405.093	89.81
405.317	79.81
405.541	82.81
405.765	85.81
405.988	78.81
406.212	91.81
406.436	89.81
406.66	78.81
406.883	88.81
407.107	96.81
407.331	100.81
407.555	81.81
407.778	106.81
408.002	111.81
408.226	79.81
408.449	76.81
408.673	97.81
408.896	91.81
409.12	81.81
409.344	85.81
409.567	89.81
409.791	88.81
410.014	75.81
410.238	103.81
410.461	77.81
410.685	97.81
410.908	79.81
411.132	95.81
411.355	106.81
411.578	88.81
411.802	85.81
412.025	77.81
412.249	87.81
412.472	86.81
412.695	86.81
412.919	84.81
413.142	88.81
413.365	93.81
413.589	75.81
413.812	78.81
414.035	93.81
414.258	80.81
414.482	97.81
414.705	87.81
414.928	86.81
415.151	86.81
415.374	72.81
415.597	81.81
415.821	88.81
416.044	89.81
416.267	87.81
416.49	79.81
416.713	83.81
416.936	79.81
417.159	71.81
417.382	76.81
417.605	78.81
417.828	90.81
418.051	69.81
418.274	82.81
418.497	98.81
418.72	88.81
418.943	82.81
419.166	96.81
419.389	89.81
419.611	81.81
419.834	90.81
420.057	87.81
420.28	74.81
420.503	91.81
420.726	84.81
420.948	76.81
421.171	86.81
421.394	93.81
421.617	113.81
421.839	80.81
422.062	98.81
422.285	131.81
422.507	205.81
422.73	309.81
422.953	270.81
423.175	143.81
423.398	98.81
423.621	104.81
423.843	93.81
424.066	89.81
424.288	90.81
424.511	78.81
424.733	94.81
424.956	91.81
425.178	96.81
425.401	88.81
425.623	84.81
425.846	83.81
426.068	77.81
426.291	87.81
426.513	88.81
426.735	89.81
426.958	72.81
427.18	91.81
427.402	85.81
427.625	86.81
427.847	99.81
428.069	99.81
428.292	116.81
428.514	114.81
428.736	104.81
428.958	117.81
429.181	123.81
429.403	81.81
429.625	90.81
429.847	104.81
430.069	119.81
430.292	138.81
430.514	145.81
430.736	123.81
430.958	116.81
431.18	93.81
431.402	84.81
431.624	99.81
431.846	106.81
432.068	117.81
432.29	86.81
432.512	98.81
432.734	91.81
432.956	91.81
433.178	87.81
433.4	72.81
433.622	78.81
433.844	70.81
434.066	82.81
434.287	95.81
434.509	81.81
434.731	83.81
434.953	83.81
435.175	88.81
435.397	74.81
435.618	88.81
435.84	86.81
436.062	100.81
436.284	80.81
436.505	91.81
436.727	93.81
436.949	96.81
437.17	85.81
437.392	96.81
437.614	88.81
437.835	92.81
438.057	72.81
438.278	88.81
438.5	101.81
438.721	93.81
438.943	70.81
439.165	86.81
439.386	74.81
439.608	85.81
439.829	89.81
440.05	90.81
440.272	93.81
440.493	82.81
440.715	89.81
440.936	94.81
441.158	89.81
441.379	93.81
441.6	86.81
441.822	94.81
442.043	72.81
442.264	87.81
442.486	97.81
442.707	131.81
442.928	88.81
443.149	93.81
443.371	125.81
443.592	159.81
443.813	159.81
444.034	83.81
444.255	81.81
444.476	96.81
444.698	97.81
444.919	89.81
445.14	181.81
445.361	174.81
445.582	203.81
445.803	164.81
446.024	109.81
446.245	86.81
446.466	84.81
446.687	85.81
446.908	89.81
447.129	89.81
447.35	87.81
447.571	87.81
447.792	81.81
448.013	75.81
448.234	86.81
448.455	86.81
448.675	89.81
448.896	90.81
449.117	86.81
449.338	77.81
449.559	71.81
449.779	81.81
450	71.81
450.221	84.81
450.442	81.81
450.662	102.81
450.883	93.81
451.104	98.81
451.324	85.81
451.545	91.81
451.766	89.81
451.986	79.81
452.207	83.81
452.428	88.81
452.648	91.81
452.869	99.81
453.089	85.81
453.31	75.81
453.53	88.81
453.751	82.81
453.971	72.81
454.192	73.81
454.412	93.81
454.633	91.81
454.853	92.81
455.073	76.81
455.294	82.81
455.514	96.81
455.734	88.81
455.955	70.81
456.175	80.81
456.395	85.81
456.616	87.81
456.836	64.81
457.056	94.81
457.276	84.81
457.497	87.81
457.717	65.81
457.937	87.81
458.157	90.81
458.377	98.81
458.598	82.81
458.818	81.81
459.038	93.81
459.258	92.81
459.478	86.81
459.698	83.81
459.918	81.81
460.138	80.81
460.358	89.81
460.578	89.81
460.798	99.81
461.018	99.81
461.238	89.81
461.458	74.81
461.678	86.81
461.898	82.81
462.118	90.81
462.338	81.81
462.558	78.81
462.777	90.81
462.997	80.81
463.217	92.81
463.437	90.81
463.657	86.81
463.876	70.81
464.096	83.81
464.316	89.81
464.536	75.81
464.755	86.81
464.975	88.81
465.195	90.81
465.414	84.81
465.634	92.81
465.854	103.81
466.073	83.81
466.293	78.81
466.512	83.81
466.732	92.81
466.951	81.81
467.171	86.81
467.391	89.81
467.61	89.81
467.829	80.81
468.049	85.81
468.268	81.81
468.488	89.81
468.707	88.81
468.927	87.81
469.146	69.81
469.365	101.81
469.585	85.81
469.804	94.81
470.023	55.81
470.243	75.81
470.462	85.81
470.681	94.81
470.901	75.81
471.12	88.81
471.339	87.81
471.558	85.81
471.777	70.81
471.997	69.81
472.216	82.81
472.435	97.81
472.654	90.81
472.873	91.81
473.092	88.81
473.311	79.81
473.53	87.81
473.749	80.81
473.968	94.81
474.187	89.81
474.406	81.81
474.625	83.81
474.844	76.81
475.063	75.81
475.282	89.81
475.501	86.81
475.72	74.81
475.939	91.81
476.158	82.81
476.377	87.81
476.596	65.81
476.814	83.81
477.033	72.81
477.252	75.81
477.471	79.81
477.69	87.81
477.908	84.81
478.127	89.81
478.346	84.81
478.564	88.81
478.783	88.81
479.002	90.81
479.22	97.81
479.439	91.81
479.658	78.81
479.876	95.81
480.095	77.81
480.313	74.81
480.532	86.81
480.751	93.81
480.969	81.81
481.188	75.81
481.406	81.81
481.624	88.81
481.843	82.81
482.061	101.81
482.28	76.81
482.498	83.81
482.717	93.81
482.935	86.81
483.153	81.81
483.372	91.81
483.59	84.81
483.808	96.81
484.027	83.81
484.245	94.81
484.463	85.81
484.681	85.81
484.9	91.81
485.118	75.81
485.336	84.81
485.554	100.81
485.772	91.81
485.99	74.81
486.209	84.81
486.427	89.81
486.645	82.81
486.863	101.81
487.081	88.81
487.299	76.81
487.517	91.81
487.735	96.81
487.953	108.81
488.171	111.81
488.389	83.81
488.607	81.81
488.825	83.81
489.043	95.81
489.261	104.81
489.479	79.81
489.696	74.81
489.914	95.81
490.132	90.81
490.35	79.81
490.568	77.81
490.786	86.81
491.003	81.81
491.221	77.81
491.439	99.81
491.657	86.81
491.874	90.81
492.092	82.81
492.31	86.81
492.527	74.81
492.745	91.81
492.963	86.81
493.18	82.81
493.398	81.81
493.615	87.81
493.833	75.81
494.05	79.81
494.268	88.81
494.485	93.81
494.703	86.81
494.92	95.81
495.138	83.81
495.355	104.81
495.573	93.81
495.79	89.81
496.008	101.81
496.225	90.81
496.442	89.81
496.66	95.81
496.877	90.81
497.094	88.81
497.312	82.81
497.529	92.81
497.746	84.81
497.963	67.81
498.181	74.81
498.398	75.81
498.615	86.81
498.832	89.81
499.049	88.81
499.267	96.81
499.484	79.81
499.701	92.81
499.918	76.81
500.135	95.81
500.352	86.81
500.569	80.81
500.786	100.81
501.003	85.81
501.22	80.81
501.437	93.81
501.654	93.81
501.871	79.81
502.088	89.81
502.305	94.81
502.522	89.81
502.739	86.81
502.956	78.81
503.172	95.81
503.389	87.81
503.606	89.81
503.823	89.81
504.04	81.81
504.256	102.81
504.473	116.81
504.69	85.81
504.907	82.81
505.123	97.81
505.34	82.81
505.557	82.81
505.773	79.81
505.99	89.81
506.207	84.81
506.423	78.81
506.64	87.81
506.856	75.81
507.073	110.81
507.289	88.81
507.506	101.81
507.722	88.81
507.939	81.81
508.155	91.81
508.372	95.81
508.588	85.81
508.805	82.81
509.021	90.81
509.238	86.81
509.454	92.81
509.67	77.81
509.887	80.81
510.103	95.81
510.319	90.81
510.536	96.81
510.752	91.81
510.968	91.81
511.184	89.81
511.401	84.81
511.617	85.81
511.833	86.81
512.049	87.81
512.265	78.81
512.481	79.81
512.698	98.81
512.914	94.81
513.13	81.81
513.346	82.81
513.562	93.81
513.778	77.81
513.994	86.81
514.21	82.81
514.426	94.81
514.642	80.81
514.858	96.81
515.074	85.81
515.29	80.81
515.506	94.81
515.721	80.81
515.937	91.81
516.153	82.81
516.369	88.81
516.585	99.81
516.801	97.81
517.016	107.81
517.232	94.81
517.448	111.81
517.664	99.81
517.879	84.81
518.095	102.81
518.311	91.81
