Data from 1600_2_HRD10591_00050.txt Node
Date: Mon Jan 19 13:54:06 EST 2026
User: Yrep
Spectrometer: HR+D1059
Trigger mode: 1
Integration Time (sec): 1.000000E-1
Scans to average: 1
Electric dark correction enabled: true
Nonlinearity correction enabled: false
Boxcar width: 0
XAxis mode: Wavelengths
Number of Pixels in Spectrum: 2048
>>>>>Begin Spectral Data<<<<<
223.165	-21.62
223.4	-21.62
223.635	-21.62
223.869	-26.62
224.104	-18.62
224.338	-12.62
224.573	-13.62
224.808	-11.62
225.042	-14.62
225.277	-11.62
225.511	3.38
225.746	-0.62
225.98	10.38
226.215	11.38
226.449	29.38
226.683	18.38
226.918	31.38
227.152	27.38
227.387	25.38
227.621	34.38
227.856	44.38
228.09	41.38
228.324	35.38
228.559	48.38
228.793	53.38
229.027	52.38
229.262	56.38
229.496	75.38
229.73	75.38
229.964	62.38
230.199	70.38
230.433	63.38
230.667	79.38
230.901	67.38
231.136	56.38
231.37	90.38
231.604	90.38
231.838	86.38
232.072	69.38
232.306	67.38
232.541	70.38
232.775	82.38
233.009	79.38
233.243	75.38
233.477	80.38
233.711	92.38
233.945	76.38
234.179	78.38
234.413	74.38
234.647	76.38
234.881	73.38
235.115	87.38
235.349	71.38
235.583	65.38
235.817	65.38
236.051	65.38
236.285	70.38
236.519	67.38
236.753	76.38
236.987	80.38
237.221	75.38
237.455	77.38
237.689	66.38
237.922	66.38
238.156	73.38
238.39	73.38
238.624	75.38
238.858	85.38
239.091	59.38
239.325	47.38
239.559	79.38
239.793	75.38
240.027	79.38
240.26	74.38
240.494	65.38
240.728	71.38
240.961	76.38
241.195	68.38
241.429	65.38
241.662	69.38
241.896	69.38
242.13	79.38
242.363	81.38
242.597	70.38
242.83	76.38
243.064	80.38
243.298	78.38
243.531	79.38
243.765	73.38
243.998	65.38
244.232	89.38
244.465	69.38
244.699	63.38
244.932	68.38
245.166	63.38
245.399	69.38
245.633	83.38
245.866	62.38
246.099	75.38
246.333	77.38
246.566	73.38
246.8	74.38
247.033	75.38
247.266	72.38
247.5	67.38
247.733	64.38
247.966	81.38
248.2	81.38
248.433	63.38
248.666	68.38
248.899	73.38
249.133	75.38
249.366	82.38
249.599	79.38
249.832	86.38
250.066	72.38
250.299	70.38
250.532	91.38
250.765	80.38
250.998	78.38
251.231	74.38
251.465	75.38
251.698	69.38
251.931	57.38
252.164	77.38
252.397	77.38
252.63	79.38
252.863	84.38
253.096	77.38
253.329	74.38
253.562	78.38
253.795	89.38
254.028	69.38
254.261	81.38
254.494	88.38
254.727	84.38
254.96	87.38
255.193	81.38
255.426	81.38
255.659	69.38
255.892	66.38
256.124	77.38
256.357	69.38
256.59	88.38
256.823	70.38
257.056	72.38
257.289	84.38
257.521	67.38
257.754	81.38
257.987	84.38
258.22	83.38
258.452	68.38
258.685	73.38
258.918	76.38
259.151	72.38
259.383	84.38
259.616	82.38
259.849	77.38
260.081	60.38
260.314	85.38
260.547	68.38
260.779	75.38
261.012	60.38
261.244	74.38
261.477	71.38
261.71	82.38
261.942	76.38
262.175	79.38
262.407	73.38
262.64	82.38
262.872	68.38
263.105	62.38
263.337	84.38
263.57	68.38
263.802	78.38
264.035	73.38
264.267	98.38
264.499	82.38
264.732	88.38
264.964	68.38
265.197	74.38
265.429	82.38
265.661	73.38
265.894	91.38
266.126	70.38
266.358	85.38
266.591	73.38
266.823	87.38
267.055	73.38
267.287	70.38
267.52	75.38
267.752	68.38
267.984	69.38
268.216	91.38
268.448	80.38
268.681	69.38
268.913	88.38
269.145	84.38
269.377	81.38
269.609	76.38
269.841	79.38
270.073	69.38
270.306	79.38
270.538	77.38
270.77	84.38
271.002	79.38
271.234	63.38
271.466	78.38
271.698	75.38
271.93	75.38
272.162	79.38
272.394	92.38
272.626	81.38
272.858	75.38
273.09	67.38
273.322	84.38
273.553	89.38
273.785	87.38
274.017	71.38
274.249	90.38
274.481	79.38
274.713	84.38
274.945	67.38
275.176	83.38
275.408	74.38
275.64	73.38
275.872	86.38
276.104	87.38
276.335	73.38
276.567	71.38
276.799	80.38
277.031	87.38
277.262	79.38
277.494	85.38
277.726	64.38
277.957	73.38
278.189	71.38
278.421	98.38
278.652	93.38
278.884	79.38
279.115	85.38
279.347	76.38
279.579	80.38
279.81	67.38
280.042	90.38
280.273	84.38
280.505	94.38
280.736	74.38
280.968	88.38
281.199	65.38
281.431	71.38
281.662	81.38
281.894	83.38
282.125	82.38
282.356	67.38
282.588	69.38
282.819	93.38
283.051	65.38
283.282	96.38
283.513	81.38
283.745	83.38
283.976	66.38
284.207	73.38
284.439	77.38
284.67	81.38
284.901	73.38
285.132	83.38
285.364	87.38
285.595	81.38
285.826	83.38
286.057	77.38
286.288	77.38
286.52	96.38
286.751	81.38
286.982	77.38
287.213	75.38
287.444	83.38
287.675	72.38
287.906	94.38
288.138	84.38
288.369	92.38
288.6	87.38
288.831	79.38
289.062	83.38
289.293	89.38
289.524	99.38
289.755	97.38
289.986	85.38
290.217	83.38
290.448	88.38
290.679	82.38
290.91	74.38
291.141	83.38
291.371	87.38
291.602	75.38
291.833	70.38
292.064	77.38
292.295	90.38
292.526	76.38
292.757	71.38
292.987	88.38
293.218	81.38
293.449	71.38
293.68	84.38
293.91	79.38
294.141	78.38
294.372	83.38
294.603	71.38
294.833	94.38
295.064	73.38
295.295	77.38
295.525	88.38
295.756	100.38
295.987	81.38
296.217	81.38
296.448	80.38
296.679	64.38
296.909	90.38
297.14	92.38
297.37	75.38
297.601	70.38
297.831	82.38
298.062	76.38
298.292	81.38
298.523	85.38
298.753	68.38
298.984	77.38
299.214	69.38
299.445	84.38
299.675	70.38
299.905	78.38
300.136	83.38
300.366	84.38
300.597	79.38
300.827	79.38
301.057	85.38
301.288	79.38
301.518	81.38
301.748	75.38
301.979	91.38
302.209	98.38
302.439	77.38
302.669	83.38
302.9	73.38
303.13	71.38
303.36	83.38
303.59	79.38
303.82	78.38
304.051	82.38
304.281	82.38
304.511	90.38
304.741	89.38
304.971	83.38
305.201	81.38
305.431	83.38
305.661	82.38
305.891	74.38
306.121	82.38
306.352	76.38
306.582	87.38
306.812	79.38
307.042	67.38
307.272	75.38
307.502	69.38
307.731	72.38
307.961	84.38
308.191	83.38
308.421	75.38
308.651	77.38
308.881	76.38
309.111	75.38
309.341	79.38
309.571	90.38
309.8	70.38
310.03	80.38
310.26	89.38
310.49	71.38
310.72	93.38
310.949	76.38
311.179	65.38
311.409	81.38
311.639	83.38
311.868	89.38
312.098	90.38
312.328	78.38
312.557	76.38
312.787	90.38
313.017	75.38
313.246	66.38
313.476	79.38
313.706	77.38
313.935	70.38
314.165	91.38
314.394	80.38
314.624	62.38
314.853	79.38
315.083	72.38
315.312	83.38
315.542	79.38
315.771	89.38
316.001	75.38
316.23	77.38
316.46	81.38
316.689	94.38
316.919	84.38
317.148	97.38
317.377	75.38
317.607	91.38
317.836	78.38
318.065	88.38
318.295	97.38
318.524	80.38
318.753	93.38
318.983	94.38
319.212	81.38
319.441	76.38
319.67	79.38
319.9	99.38
320.129	81.38
320.358	92.38
320.587	75.38
320.816	65.38
321.046	81.38
321.275	86.38
321.504	72.38
321.733	85.38
321.962	82.38
322.191	79.38
322.42	78.38
322.649	92.38
322.878	89.38
323.108	79.38
323.337	68.38
323.566	85.38
323.795	75.38
324.024	86.38
324.253	84.38
324.482	93.38
324.71	90.38
324.939	85.38
325.168	81.38
325.397	84.38
325.626	78.38
325.855	78.38
326.084	70.38
326.313	76.38
326.542	69.38
326.77	77.38
326.999	79.38
327.228	73.38
327.457	95.38
327.686	74.38
327.914	77.38
328.143	79.38
328.372	83.38
328.6	63.38
328.829	76.38
329.058	73.38
329.287	76.38
329.515	73.38
329.744	86.38
329.972	67.38
330.201	91.38
330.43	81.38
330.658	75.38
330.887	69.38
331.115	75.38
331.344	75.38
331.572	86.38
331.801	87.38
332.03	91.38
332.258	80.38
332.486	82.38
332.715	72.38
332.943	75.38
333.172	76.38
333.4	90.38
333.629	78.38
333.857	79.38
334.085	83.38
334.314	80.38
334.542	79.38
334.771	75.38
334.999	96.38
335.227	77.38
335.455	91.38
335.684	82.38
335.912	88.38
336.14	79.38
336.369	62.38
336.597	72.38
336.825	92.38
337.053	81.38
337.281	77.38
337.51	75.38
337.738	91.38
337.966	69.38
338.194	81.38
338.422	71.38
338.65	80.38
338.878	74.38
339.106	82.38
339.334	89.38
339.562	71.38
339.79	74.38
340.018	76.38
340.246	75.38
340.474	73.38
340.702	77.38
340.93	72.38
341.158	75.38
341.386	83.38
341.614	77.38
341.842	80.38
342.07	82.38
342.298	69.38
342.526	76.38
342.754	76.38
342.981	88.38
343.209	88.38
343.437	88.38
343.665	94.38
343.893	83.38
344.12	88.38
344.348	88.38
344.576	74.38
344.804	69.38
345.031	81.38
345.259	84.38
345.487	80.38
345.714	91.38
345.942	92.38
346.17	82.38
346.397	82.38
346.625	70.38
346.853	72.38
347.08	74.38
347.308	83.38
347.535	71.38
347.763	64.38
347.99	83.38
348.218	80.38
348.445	85.38
348.673	74.38
348.9	87.38
349.128	91.38
349.355	73.38
349.583	74.38
349.81	86.38
350.037	80.38
350.265	84.38
350.492	82.38
350.72	62.38
350.947	74.38
351.174	66.38
351.402	69.38
351.629	82.38
351.856	75.38
352.083	77.38
352.311	82.38
352.538	84.38
352.765	71.38
352.992	92.38
353.22	75.38
353.447	83.38
353.674	80.38
353.901	81.38
354.128	81.38
354.355	86.38
354.583	83.38
354.81	82.38
355.037	86.38
355.264	75.38
355.491	89.38
355.718	75.38
355.945	63.38
356.172	79.38
356.399	94.38
356.626	87.38
356.853	87.38
357.08	64.38
357.307	80.38
357.534	79.38
357.761	83.38
357.988	89.38
358.215	73.38
358.441	91.38
358.668	91.38
358.895	83.38
359.122	74.38
359.349	92.38
359.576	66.38
359.802	67.38
360.029	78.38
360.256	69.38
360.483	81.38
360.709	82.38
360.936	83.38
361.163	73.38
361.39	70.38
361.616	83.38
361.843	87.38
362.07	95.38
362.296	94.38
362.523	86.38
362.749	86.38
362.976	84.38
363.203	77.38
363.429	89.38
363.656	81.38
363.882	86.38
364.109	71.38
364.335	81.38
364.562	98.38
364.788	81.38
365.015	90.38
365.241	71.38
365.468	72.38
365.694	77.38
365.92	87.38
366.147	87.38
366.373	88.38
366.599	75.38
366.826	75.38
367.052	83.38
367.278	76.38
367.505	105.38
367.731	81.38
367.957	67.38
368.184	79.38
368.41	85.38
368.636	82.38
368.862	83.38
369.089	70.38
369.315	85.38
369.541	89.38
369.767	84.38
369.993	83.38
370.219	83.38
370.445	89.38
370.672	90.38
370.898	83.38
371.124	74.38
371.35	72.38
371.576	75.38
371.802	89.38
372.028	90.38
372.254	85.38
372.48	73.38
372.706	73.38
372.932	92.38
373.158	86.38
373.384	86.38
373.61	94.38
373.835	99.38
374.061	81.38
374.287	75.38
374.513	87.38
374.739	77.38
374.965	83.38
375.191	88.38
375.416	79.38
375.642	74.38
375.868	77.38
376.094	83.38
376.319	76.38
376.545	83.38
376.771	80.38
376.997	75.38
377.222	74.38
377.448	86.38
377.674	71.38
377.899	74.38
378.125	63.38
378.35	64.38
378.576	85.38
378.802	83.38
379.027	93.38
379.253	80.38
379.478	82.38
379.704	81.38
379.929	80.38
380.155	76.38
380.38	76.38
380.606	75.38
380.831	94.38
381.057	88.38
381.282	82.38
381.507	85.38
381.733	81.38
381.958	87.38
382.184	83.38
382.409	82.38
382.634	90.38
382.86	90.38
383.085	84.38
383.31	93.38
383.535	93.38
383.761	100.38
383.986	105.38
384.211	83.38
384.436	89.38
384.662	70.38
384.887	65.38
385.112	83.38
385.337	87.38
385.562	83.38
385.787	79.38
386.013	86.38
386.238	75.38
386.463	81.38
386.688	101.38
386.913	80.38
387.138	78.38
387.363	74.38
387.588	85.38
387.813	76.38
388.038	85.38
388.263	86.38
388.488	81.38
388.713	67.38
388.938	81.38
389.163	83.38
389.387	88.38
389.612	82.38
389.837	71.38
390.062	73.38
390.287	80.38
390.512	77.38
390.736	85.38
390.961	84.38
391.186	77.38
391.411	86.38
391.636	80.38
391.86	77.38
392.085	94.38
392.31	86.38
392.534	87.38
392.759	89.38
392.984	91.38
393.208	157.38
393.433	200.38
393.658	154.38
393.882	97.38
394.107	89.38
394.331	83.38
394.556	89.38
394.78	99.38
395.005	72.38
395.229	72.38
395.454	86.38
395.678	80.38
395.903	83.38
396.127	99.38
396.352	114.38
396.576	112.38
396.801	150.38
397.025	164.38
397.249	115.38
397.474	102.38
397.698	87.38
397.922	71.38
398.147	81.38
398.371	73.38
398.595	80.38
398.82	82.38
399.044	84.38
399.268	73.38
399.492	87.38
399.717	96.38
399.941	74.38
400.165	68.38
400.389	70.38
400.613	85.38
400.837	77.38
401.062	96.38
401.286	80.38
401.51	76.38
401.734	72.38
401.958	75.38
402.182	75.38
402.406	73.38
402.63	75.38
402.854	92.38
403.078	83.38
403.302	80.38
403.526	82.38
403.75	73.38
403.974	69.38
404.198	87.38
404.422	87.38
404.645	95.38
404.869	79.38
405.093	89.38
405.317	90.38
405.541	76.38
405.765	73.38
405.988	70.38
406.212	80.38
406.436	88.38
406.66	71.38
406.883	79.38
407.107	73.38
407.331	90.38
407.555	79.38
407.778	81.38
408.002	93.38
408.226	71.38
408.449	88.38
408.673	75.38
408.896	77.38
409.12	81.38
409.344	87.38
409.567	83.38
409.791	87.38
410.014	95.38
410.238	83.38
410.461	83.38
410.685	82.38
410.908	83.38
411.132	81.38
411.355	87.38
411.578	73.38
411.802	81.38
412.025	74.38
412.249	82.38
412.472	81.38
412.695	79.38
412.919	72.38
413.142	81.38
413.365	77.38
413.589	89.38
413.812	65.38
414.035	83.38
414.258	73.38
414.482	69.38
414.705	80.38
414.928	81.38
415.151	67.38
415.374	80.38
415.597	83.38
415.821	84.38
416.044	76.38
416.267	84.38
416.49	70.38
416.713	78.38
416.936	78.38
417.159	78.38
417.382	90.38
417.605	79.38
417.828	89.38
418.051	75.38
418.274	91.38
418.497	77.38
418.72	70.38
418.943	73.38
419.166	69.38
419.389	73.38
419.611	76.38
419.834	79.38
420.057	81.38
420.28	69.38
420.503	87.38
420.726	79.38
420.948	73.38
421.171	81.38
421.394	83.38
421.617	87.38
421.839	89.38
422.062	81.38
422.285	107.38
422.507	130.38
422.73	196.38
422.953	193.38
423.175	109.38
423.398	98.38
423.621	83.38
423.843	73.38
424.066	84.38
424.288	73.38
424.511	63.38
424.733	92.38
424.956	80.38
425.178	84.38
425.401	79.38
425.623	81.38
425.846	61.38
426.068	74.38
426.291	73.38
426.513	68.38
426.735	83.38
426.958	69.38
427.18	74.38
427.402	81.38
427.625	66.38
427.847	85.38
428.069	77.38
428.292	99.38
428.514	107.38
428.736	93.38
428.958	75.38
429.181	98.38
429.403	76.38
429.625	84.38
429.847	83.38
430.069	103.38
430.292	114.38
430.514	112.38
430.736	103.38
430.958	86.38
431.18	84.38
431.402	89.38
431.624	83.38
431.846	87.38
432.068	87.38
432.29	76.38
432.512	94.38
432.734	88.38
432.956	86.38
433.178	83.38
433.4	72.38
433.622	77.38
433.844	63.38
434.066	75.38
434.287	78.38
434.509	67.38
434.731	65.38
434.953	73.38
435.175	84.38
435.397	84.38
435.618	78.38
435.84	85.38
436.062	84.38
436.284	71.38
436.505	75.38
436.727	85.38
436.949	80.38
437.17	67.38
437.392	81.38
437.614	80.38
437.835	73.38
438.057	83.38
438.278	80.38
438.5	83.38
438.721	78.38
438.943	76.38
439.165	79.38
439.386	89.38
439.608	89.38
439.829	66.38
440.05	89.38
440.272	73.38
440.493	72.38
440.715	83.38
440.936	91.38
441.158	83.38
441.379	89.38
441.6	73.38
441.822	75.38
442.043	79.38
442.264	78.38
442.486	88.38
442.707	103.38
442.928	92.38
443.149	69.38
443.371	89.38
443.592	117.38
443.813	103.38
444.034	87.38
444.255	67.38
444.476	59.38
444.698	75.38
444.919	70.38
445.14	160.38
445.361	131.38
445.582	140.38
445.803	116.38
446.024	82.38
446.245	72.38
446.466	84.38
446.687	76.38
446.908	81.38
447.129	77.38
447.35	69.38
447.571	71.38
447.792	87.38
448.013	79.38
448.234	88.38
448.455	72.38
448.675	92.38
448.896	63.38
449.117	75.38
449.338	76.38
449.559	76.38
449.779	83.38
450	69.38
450.221	67.38
450.442	78.38
450.662	76.38
450.883	68.38
451.104	78.38
451.324	79.38
451.545	75.38
451.766	79.38
451.986	79.38
452.207	82.38
452.428	80.38
452.648	75.38
452.869	63.38
453.089	61.38
453.31	64.38
453.53	70.38
453.751	80.38
453.971	84.38
454.192	78.38
454.412	84.38
454.633	76.38
454.853	72.38
455.073	71.38
455.294	70.38
455.514	70.38
455.734	73.38
455.955	76.38
456.175	79.38
456.395	66.38
456.616	66.38
456.836	78.38
457.056	81.38
457.276	84.38
457.497	82.38
457.717	87.38
457.937	69.38
458.157	82.38
458.377	92.38
458.598	71.38
458.818	77.38
459.038	88.38
459.258	74.38
459.478	77.38
459.698	70.38
459.918	83.38
460.138	79.38
460.358	65.38
460.578	69.38
460.798	82.38
461.018	85.38
461.238	77.38
461.458	96.38
461.678	84.38
461.898	72.38
462.118	75.38
462.338	84.38
462.558	69.38
462.777	75.38
462.997	95.38
463.217	72.38
463.437	73.38
463.657	83.38
463.876	68.38
464.096	75.38
464.316	75.38
464.536	73.38
464.755	85.38
464.975	85.38
465.195	76.38
465.414	80.38
465.634	79.38
465.854	65.38
466.073	67.38
466.293	74.38
466.512	82.38
466.732	75.38
466.951	79.38
467.171	73.38
467.391	73.38
467.61	98.38
467.829	73.38
468.049	74.38
468.268	77.38
468.488	75.38
468.707	77.38
468.927	76.38
469.146	67.38
469.365	76.38
469.585	79.38
469.804	91.38
470.023	70.38
470.243	83.38
470.462	77.38
470.681	73.38
470.901	87.38
471.12	77.38
471.339	76.38
471.558	71.38
471.777	69.38
471.997	79.38
472.216	83.38
472.435	84.38
472.654	82.38
472.873	79.38
473.092	78.38
473.311	68.38
473.53	88.38
473.749	76.38
473.968	90.38
474.187	82.38
474.406	76.38
474.625	76.38
474.844	83.38
475.063	73.38
475.282	72.38
475.501	72.38
475.72	77.38
475.939	73.38
476.158	95.38
476.377	67.38
476.596	87.38
476.814	90.38
477.033	90.38
477.252	80.38
477.471	84.38
477.69	81.38
477.908	77.38
478.127	87.38
478.346	66.38
478.564	67.38
478.783	79.38
479.002	67.38
479.22	82.38
479.439	77.38
479.658	83.38
479.876	83.38
480.095	74.38
480.313	83.38
480.532	88.38
480.751	81.38
480.969	70.38
481.188	72.38
481.406	84.38
481.624	81.38
481.843	77.38
482.061	85.38
482.28	93.38
482.498	86.38
482.717	75.38
482.935	88.38
483.153	76.38
483.372	92.38
483.59	88.38
483.808	81.38
484.027	81.38
484.245	86.38
484.463	75.38
484.681	90.38
484.9	75.38
485.118	89.38
485.336	81.38
485.554	85.38
485.772	75.38
485.99	79.38
486.209	69.38
486.427	83.38
486.645	83.38
486.863	83.38
487.081	88.38
487.299	75.38
487.517	79.38
487.735	83.38
487.953	104.38
488.171	83.38
488.389	77.38
488.607	79.38
488.825	87.38
489.043	77.38
489.261	80.38
489.479	75.38
489.696	79.38
489.914	92.38
490.132	97.38
490.35	79.38
490.568	90.38
490.786	65.38
491.003	79.38
491.221	70.38
491.439	86.38
491.657	78.38
491.874	78.38
492.092	86.38
492.31	69.38
492.527	91.38
492.745	83.38
492.963	76.38
493.18	83.38
493.398	91.38
493.615	85.38
493.833	80.38
494.05	82.38
494.268	79.38
494.485	81.38
494.703	77.38
494.92	82.38
495.138	81.38
495.355	79.38
495.573	65.38
495.79	73.38
496.008	79.38
496.225	86.38
496.442	92.38
496.66	72.38
496.877	77.38
497.094	90.38
497.312	87.38
497.529	99.38
497.746	91.38
497.963	82.38
498.181	83.38
498.398	82.38
498.615	76.38
498.832	74.38
499.049	79.38
499.267	80.38
499.484	83.38
499.701	84.38
499.918	83.38
500.135	88.38
500.352	79.38
500.569	66.38
500.786	83.38
501.003	83.38
501.22	82.38
501.437	87.38
501.654	80.38
501.871	85.38
502.088	79.38
502.305	79.38
502.522	84.38
502.739	84.38
502.956	91.38
503.172	94.38
503.389	83.38
503.606	78.38
503.823	85.38
504.04	87.38
504.256	88.38
504.473	76.38
504.69	83.38
504.907	87.38
505.123	83.38
505.34	83.38
505.557	86.38
505.773	84.38
505.99	77.38
506.207	86.38
506.423	81.38
506.64	91.38
506.856	84.38
507.073	63.38
507.289	83.38
507.506	73.38
507.722	76.38
507.939	66.38
508.155	87.38
508.372	63.38
508.588	81.38
508.805	81.38
509.021	84.38
509.238	73.38
509.454	67.38
509.67	72.38
509.887	79.38
510.103	79.38
510.319	89.38
510.536	81.38
510.752	69.38
510.968	89.38
511.184	80.38
511.401	83.38
511.617	87.38
511.833	92.38
512.049	91.38
512.265	80.38
512.481	82.38
512.698	75.38
512.914	82.38
513.13	83.38
513.346	81.38
513.562	73.38
513.778	80.38
513.994	84.38
514.21	83.38
514.426	75.38
514.642	88.38
514.858	77.38
515.074	87.38
515.29	89.38
515.506	86.38
515.721	85.38
515.937	83.38
516.153	78.38
516.369	86.38
516.585	85.38
516.801	70.38
517.016	96.38
517.232	80.38
517.448	94.38
517.664	83.38
517.879	84.38
518.095	84.38
518.311	76.38
518.527	97.38
518.742	100.38
518.958	84.38
519.173	81.38
519.389	87.38
519.605	75.38
519.82	89.38
