Data from 1600_2_HRD10591_00007.txt Node
Date: Mon Jan 19 13:53:44 EST 2026
User: Yrep
Spectrometer: HR+D1059
Trigger mode: 1
Integration Time (sec): 1.000000E-1
Scans to average: 1
Electric dark correction enabled: true
Nonlinearity correction enabled: false
Boxcar width: 0
XAxis mode: Wavelengths
Number of Pixels in Spectrum: 2048
>>>>>Begin Spectral Data<<<<<
223.165	-25.31
223.4	-25.31
223.635	-25.31
223.869	-21.31
224.104	-13.31
224.338	-30.31
224.573	-17.31
224.808	-2.31
225.042	-18.31
225.277	2.69
225.511	5.69
225.746	11.69
225.98	13.69
226.215	9.69
226.449	12.69
226.683	30.69
226.918	20.69
227.152	20.69
227.387	13.69
227.621	36.69
227.856	43.69
228.09	54.69
228.324	55.69
228.559	53.69
228.793	49.69
229.027	66.69
229.262	53.69
229.496	57.69
229.73	60.69
229.964	67.69
230.199	71.69
230.433	59.69
230.667	76.69
230.901	89.69
231.136	73.69
231.37	90.69
231.604	74.69
231.838	80.69
232.072	76.69
232.306	83.69
232.541	84.69
232.775	74.69
233.009	80.69
233.243	78.69
233.477	78.69
233.711	87.69
233.945	68.69
234.179	85.69
234.413	83.69
234.647	91.69
234.881	84.69
235.115	67.69
235.349	81.69
235.583	78.69
235.817	77.69
236.051	85.69
236.285	55.69
236.519	66.69
236.753	82.69
236.987	72.69
237.221	70.69
237.455	72.69
237.689	78.69
237.922	72.69
238.156	64.69
238.39	81.69
238.624	73.69
238.858	76.69
239.091	55.69
239.325	78.69
239.559	89.69
239.793	69.69
240.027	74.69
240.26	71.69
240.494	73.69
240.728	87.69
240.961	70.69
241.195	79.69
241.429	94.69
241.662	61.69
241.896	77.69
242.13	58.69
242.363	75.69
242.597	83.69
242.83	70.69
243.064	65.69
243.298	71.69
243.531	61.69
243.765	64.69
243.998	72.69
244.232	76.69
244.465	59.69
244.699	71.69
244.932	66.69
245.166	78.69
245.399	77.69
245.633	54.69
245.866	81.69
246.099	77.69
246.333	93.69
246.566	77.69
246.8	78.69
247.033	78.69
247.266	76.69
247.5	71.69
247.733	55.69
247.966	82.69
248.2	90.69
248.433	86.69
248.666	67.69
248.899	72.69
249.133	70.69
249.366	73.69
249.599	77.69
249.832	79.69
250.066	83.69
250.299	85.69
250.532	77.69
250.765	94.69
250.998	86.69
251.231	84.69
251.465	81.69
251.698	87.69
251.931	87.69
252.164	86.69
252.397	70.69
252.63	69.69
252.863	81.69
253.096	70.69
253.329	63.69
253.562	73.69
253.795	79.69
254.028	75.69
254.261	72.69
254.494	78.69
254.727	77.69
254.96	88.69
255.193	65.69
255.426	63.69
255.659	87.69
255.892	81.69
256.124	66.69
256.357	59.69
256.59	69.69
256.823	77.69
257.056	74.69
257.289	70.69
257.521	79.69
257.754	76.69
257.987	82.69
258.22	79.69
258.452	83.69
258.685	71.69
258.918	93.69
259.151	78.69
259.383	86.69
259.616	70.69
259.849	86.69
260.081	77.69
260.314	75.69
260.547	70.69
260.779	87.69
261.012	87.69
261.244	70.69
261.477	74.69
261.71	66.69
261.942	79.69
262.175	86.69
262.407	69.69
262.64	82.69
262.872	82.69
263.105	85.69
263.337	78.69
263.57	79.69
263.802	91.69
264.035	92.69
264.267	73.69
264.499	77.69
264.732	87.69
264.964	74.69
265.197	77.69
265.429	89.69
265.661	77.69
265.894	66.69
266.126	85.69
266.358	80.69
266.591	67.69
266.823	83.69
267.055	73.69
267.287	81.69
267.52	62.69
267.752	82.69
267.984	62.69
268.216	79.69
268.448	63.69
268.681	90.69
268.913	87.69
269.145	92.69
269.377	85.69
269.609	78.69
269.841	77.69
270.073	83.69
270.306	75.69
270.538	69.69
270.77	74.69
271.002	87.69
271.234	77.69
271.466	92.69
271.698	76.69
271.93	85.69
272.162	78.69
272.394	72.69
272.626	71.69
272.858	90.69
273.09	98.69
273.322	83.69
273.553	89.69
273.785	83.69
274.017	90.69
274.249	95.69
274.481	75.69
274.713	82.69
274.945	82.69
275.176	84.69
275.408	91.69
275.64	81.69
275.872	76.69
276.104	87.69
276.335	90.69
276.567	81.69
276.799	82.69
277.031	85.69
277.262	82.69
277.494	68.69
277.726	77.69
277.957	86.69
278.189	81.69
278.421	75.69
278.652	89.69
278.884	81.69
279.115	81.69
279.347	99.69
279.579	98.69
279.81	106.69
280.042	83.69
280.273	74.69
280.505	89.69
280.736	87.69
280.968	72.69
281.199	69.69
281.431	75.69
281.662	75.69
281.894	79.69
282.125	85.69
282.356	75.69
282.588	77.69
282.819	88.69
283.051	81.69
283.282	86.69
283.513	81.69
283.745	64.69
283.976	90.69
284.207	78.69
284.439	81.69
284.67	89.69
284.901	81.69
285.132	81.69
285.364	100.69
285.595	82.69
285.826	76.69
286.057	88.69
286.288	79.69
286.52	79.69
286.751	78.69
286.982	82.69
287.213	100.69
287.444	87.69
287.675	79.69
287.906	80.69
288.138	100.69
288.369	92.69
288.6	78.69
288.831	77.69
289.062	80.69
289.293	83.69
289.524	86.69
289.755	70.69
289.986	85.69
290.217	80.69
290.448	75.69
290.679	94.69
290.91	100.69
291.141	94.69
291.371	79.69
291.602	92.69
291.833	78.69
292.064	76.69
292.295	69.69
292.526	70.69
292.757	77.69
292.987	76.69
293.218	81.69
293.449	72.69
293.68	91.69
293.91	86.69
294.141	85.69
294.372	84.69
294.603	82.69
294.833	84.69
295.064	82.69
295.295	78.69
295.525	89.69
295.756	90.69
295.987	80.69
296.217	89.69
296.448	86.69
296.679	82.69
296.909	74.69
297.14	90.69
297.37	82.69
297.601	70.69
297.831	84.69
298.062	87.69
298.292	89.69
298.523	80.69
298.753	77.69
298.984	85.69
299.214	89.69
299.445	77.69
299.675	81.69
299.905	85.69
300.136	70.69
300.366	93.69
300.597	79.69
300.827	81.69
301.057	85.69
301.288	76.69
301.518	89.69
301.748	72.69
301.979	90.69
302.209	86.69
302.439	83.69
302.669	80.69
302.9	83.69
303.13	92.69
303.36	77.69
303.59	90.69
303.82	94.69
304.051	87.69
304.281	87.69
304.511	89.69
304.741	72.69
304.971	84.69
305.201	86.69
305.431	75.69
305.661	90.69
305.891	87.69
306.121	89.69
306.352	84.69
306.582	85.69
306.812	84.69
307.042	98.69
307.272	89.69
307.502	75.69
307.731	98.69
307.961	95.69
308.191	99.69
308.421	86.69
308.651	106.69
308.881	91.69
309.111	78.69
309.341	91.69
309.571	91.69
309.8	83.69
310.03	70.69
310.26	93.69
310.49	81.69
310.72	93.69
310.949	96.69
311.179	73.69
311.409	76.69
311.639	78.69
311.868	72.69
312.098	74.69
312.328	69.69
312.557	68.69
312.787	78.69
313.017	95.69
313.246	91.69
313.476	76.69
313.706	79.69
313.935	79.69
314.165	75.69
314.394	86.69
314.624	91.69
314.853	82.69
315.083	79.69
315.312	76.69
315.542	98.69
315.771	80.69
316.001	87.69
316.23	85.69
316.46	87.69
316.689	82.69
316.919	78.69
317.148	71.69
317.377	86.69
317.607	97.69
317.836	84.69
318.065	75.69
318.295	89.69
318.524	82.69
318.753	103.69
318.983	78.69
319.212	71.69
319.441	86.69
319.67	89.69
319.9	82.69
320.129	82.69
320.358	94.69
320.587	93.69
320.816	82.69
321.046	83.69
321.275	77.69
321.504	90.69
321.733	84.69
321.962	93.69
322.191	82.69
322.42	95.69
322.649	95.69
322.878	83.69
323.108	87.69
323.337	92.69
323.566	75.69
323.795	99.69
324.024	91.69
324.253	71.69
324.482	99.69
324.71	90.69
324.939	87.69
325.168	85.69
325.397	78.69
325.626	77.69
325.855	69.69
326.084	69.69
326.313	90.69
326.542	73.69
326.77	89.69
326.999	74.69
327.228	82.69
327.457	82.69
327.686	74.69
327.914	86.69
328.143	79.69
328.372	76.69
328.6	75.69
328.829	78.69
329.058	71.69
329.287	87.69
329.515	69.69
329.744	99.69
329.972	87.69
330.201	91.69
330.43	87.69
330.658	81.69
330.887	82.69
331.115	83.69
331.344	85.69
331.572	85.69
331.801	85.69
332.03	83.69
332.258	89.69
332.486	93.69
332.715	72.69
332.943	85.69
333.172	81.69
333.4	85.69
333.629	76.69
333.857	69.69
334.085	85.69
334.314	89.69
334.542	82.69
334.771	85.69
334.999	84.69
335.227	88.69
335.455	79.69
335.684	88.69
335.912	74.69
336.14	89.69
336.369	86.69
336.597	83.69
336.825	94.69
337.053	79.69
337.281	77.69
337.51	93.69
337.738	87.69
337.966	77.69
338.194	94.69
338.422	87.69
338.65	93.69
338.878	84.69
339.106	94.69
339.334	90.69
339.562	86.69
339.79	62.69
340.018	71.69
340.246	77.69
340.474	76.69
340.702	89.69
340.93	90.69
341.158	80.69
341.386	81.69
341.614	93.69
341.842	88.69
342.07	91.69
342.298	82.69
342.526	71.69
342.754	65.69
342.981	95.69
343.209	83.69
343.437	107.69
343.665	84.69
343.893	81.69
344.12	86.69
344.348	85.69
344.576	77.69
344.804	79.69
345.031	89.69
345.259	86.69
345.487	67.69
345.714	91.69
345.942	78.69
346.17	87.69
346.397	88.69
346.625	83.69
346.853	79.69
347.08	84.69
347.308	71.69
347.535	91.69
347.763	85.69
347.99	77.69
348.218	78.69
348.445	72.69
348.673	88.69
348.9	89.69
349.128	70.69
349.355	87.69
349.583	74.69
349.81	72.69
350.037	79.69
350.265	78.69
350.492	87.69
350.72	84.69
350.947	81.69
351.174	83.69
351.402	87.69
351.629	79.69
351.856	94.69
352.083	80.69
352.311	83.69
352.538	85.69
352.765	81.69
352.992	87.69
353.22	78.69
353.447	76.69
353.674	83.69
353.901	106.69
354.128	79.69
354.355	87.69
354.583	87.69
354.81	81.69
355.037	91.69
355.264	73.69
355.491	83.69
355.718	82.69
355.945	86.69
356.172	89.69
356.399	85.69
356.626	81.69
356.853	90.69
357.08	94.69
357.307	95.69
357.534	84.69
357.761	96.69
357.988	89.69
358.215	81.69
358.441	90.69
358.668	77.69
358.895	70.69
359.122	66.69
359.349	73.69
359.576	81.69
359.802	82.69
360.029	83.69
360.256	88.69
360.483	89.69
360.709	91.69
360.936	89.69
361.163	86.69
361.39	85.69
361.616	92.69
361.843	83.69
362.07	95.69
362.296	92.69
362.523	91.69
362.749	78.69
362.976	89.69
363.203	100.69
363.429	85.69
363.656	98.69
363.882	73.69
364.109	100.69
364.335	86.69
364.562	101.69
364.788	102.69
365.015	89.69
365.241	93.69
365.468	98.69
365.694	81.69
365.92	84.69
366.147	87.69
366.373	86.69
366.599	91.69
366.826	85.69
367.052	75.69
367.278	89.69
367.505	88.69
367.731	78.69
367.957	85.69
368.184	77.69
368.41	78.69
368.636	78.69
368.862	93.69
369.089	89.69
369.315	79.69
369.541	82.69
369.767	97.69
369.993	87.69
370.219	88.69
370.445	82.69
370.672	74.69
370.898	93.69
371.124	87.69
371.35	100.69
371.576	87.69
371.802	83.69
372.028	94.69
372.254	84.69
372.48	81.69
372.706	97.69
372.932	89.69
373.158	75.69
373.384	101.69
373.61	108.69
373.835	105.69
374.061	94.69
374.287	88.69
374.513	90.69
374.739	95.69
374.965	101.69
375.191	85.69
375.416	97.69
375.642	86.69
375.868	89.69
376.094	93.69
376.319	82.69
376.545	79.69
376.771	93.69
376.997	85.69
377.222	75.69
377.448	77.69
377.674	77.69
377.899	83.69
378.125	89.69
378.35	84.69
378.576	92.69
378.802	82.69
379.027	87.69
379.253	95.69
379.478	95.69
379.704	83.69
379.929	85.69
380.155	94.69
380.38	79.69
380.606	88.69
380.831	82.69
381.057	95.69
381.282	73.69
381.507	88.69
381.733	91.69
381.958	99.69
382.184	103.69
382.409	100.69
382.634	109.69
382.86	110.69
383.085	121.69
383.31	114.69
383.535	98.69
383.761	113.69
383.986	131.69
384.211	98.69
384.436	93.69
384.662	91.69
384.887	83.69
385.112	76.69
385.337	81.69
385.562	75.69
385.787	115.69
386.013	92.69
386.238	96.69
386.463	87.69
386.688	90.69
386.913	87.69
387.138	77.69
387.363	81.69
387.588	90.69
387.813	102.69
388.038	102.69
388.263	76.69
388.488	81.69
388.713	82.69
388.938	71.69
389.163	84.69
389.387	84.69
389.612	75.69
389.837	81.69
390.062	91.69
390.287	90.69
390.512	93.69
390.736	85.69
390.961	71.69
391.186	97.69
391.411	89.69
391.636	78.69
391.86	83.69
392.085	91.69
392.31	101.69
392.534	88.69
392.759	107.69
392.984	110.69
393.208	150.69
393.433	214.69
393.658	150.69
393.882	91.69
394.107	91.69
394.331	101.69
394.556	119.69
394.78	96.69
395.005	106.69
395.229	81.69
395.454	87.69
395.678	91.69
395.903	100.69
396.127	123.69
396.352	137.69
396.576	130.69
396.801	160.69
397.025	189.69
397.249	123.69
397.474	98.69
397.698	94.69
397.922	85.69
398.147	89.69
398.371	89.69
398.595	98.69
398.82	86.69
399.044	81.69
399.268	83.69
399.492	67.69
399.717	96.69
399.941	82.69
400.165	86.69
400.389	82.69
400.613	91.69
400.837	83.69
401.062	86.69
401.286	87.69
401.51	71.69
401.734	77.69
401.958	67.69
402.182	77.69
402.406	79.69
402.63	87.69
402.854	78.69
403.078	77.69
403.302	71.69
403.526	85.69
403.75	86.69
403.974	91.69
404.198	98.69
404.422	106.69
404.645	128.69
404.869	109.69
405.093	73.69
405.317	83.69
405.541	83.69
405.765	74.69
405.988	63.69
406.212	75.69
406.436	85.69
406.66	82.69
406.883	80.69
407.107	87.69
407.331	82.69
407.555	85.69
407.778	96.69
408.002	85.69
408.226	86.69
408.449	81.69
408.673	77.69
408.896	90.69
409.12	78.69
409.344	85.69
409.567	76.69
409.791	70.69
410.014	79.69
410.238	81.69
410.461	89.69
410.685	66.69
410.908	78.69
411.132	79.69
411.355	85.69
411.578	77.69
411.802	82.69
412.025	83.69
412.249	87.69
412.472	95.69
412.695	84.69
412.919	62.69
413.142	82.69
413.365	97.69
413.589	81.69
413.812	84.69
414.035	60.69
414.258	81.69
414.482	75.69
414.705	82.69
414.928	98.69
415.151	80.69
415.374	85.69
415.597	85.69
415.821	68.69
416.044	76.69
416.267	76.69
416.49	87.69
416.713	73.69
416.936	83.69
417.159	79.69
417.382	87.69
417.605	69.69
417.828	77.69
418.051	77.69
418.274	75.69
418.497	75.69
418.72	89.69
418.943	91.69
419.166	90.69
419.389	74.69
419.611	95.69
419.834	89.69
420.057	86.69
420.28	91.69
420.503	87.69
420.726	89.69
420.948	87.69
421.171	86.69
421.394	82.69
421.617	82.69
421.839	96.69
422.062	89.69
422.285	111.69
422.507	174.69
422.73	233.69
422.953	202.69
423.175	124.69
423.398	97.69
423.621	94.69
423.843	81.69
424.066	91.69
424.288	70.69
424.511	87.69
424.733	78.69
424.956	89.69
425.178	82.69
425.401	77.69
425.623	86.69
425.846	82.69
426.068	86.69
426.291	67.69
426.513	70.69
426.735	80.69
426.958	88.69
427.18	82.69
427.402	87.69
427.625	80.69
427.847	93.69
428.069	79.69
428.292	113.69
428.514	103.69
428.736	103.69
428.958	108.69
429.181	101.69
429.403	93.69
429.625	83.69
429.847	93.69
430.069	122.69
430.292	137.69
430.514	123.69
430.736	112.69
430.958	105.69
431.18	85.69
431.402	80.69
431.624	85.69
431.846	96.69
432.068	95.69
432.29	79.69
432.512	84.69
432.734	90.69
432.956	79.69
433.178	79.69
433.4	89.69
433.622	89.69
433.844	73.69
434.066	81.69
434.287	77.69
434.509	75.69
434.731	66.69
434.953	81.69
435.175	74.69
435.397	77.69
435.618	70.69
435.84	81.69
436.062	71.69
436.284	85.69
436.505	87.69
436.727	75.69
436.949	77.69
437.17	79.69
437.392	93.69
437.614	71.69
437.835	74.69
438.057	87.69
438.278	97.69
438.5	100.69
438.721	91.69
438.943	85.69
439.165	81.69
439.386	77.69
439.608	82.69
439.829	69.69
440.05	93.69
440.272	73.69
440.493	70.69
440.715	92.69
440.936	91.69
441.158	78.69
441.379	78.69
441.6	74.69
441.822	85.69
442.043	85.69
442.264	89.69
442.486	97.69
442.707	117.69
442.928	89.69
443.149	95.69
443.371	123.69
443.592	179.69
443.813	141.69
444.034	105.69
444.255	89.69
444.476	84.69
444.698	89.69
444.919	109.69
445.14	190.69
445.361	168.69
445.582	198.69
445.803	162.69
446.024	96.69
446.245	97.69
446.466	87.69
446.687	92.69
446.908	91.69
447.129	76.69
447.35	83.69
447.571	83.69
447.792	86.69
448.013	89.69
448.234	93.69
448.455	76.69
448.675	83.69
448.896	81.69
449.117	83.69
449.338	66.69
449.559	92.69
449.779	61.69
450	86.69
450.221	79.69
450.442	69.69
450.662	74.69
450.883	83.69
451.104	83.69
451.324	90.69
451.545	89.69
451.766	83.69
451.986	83.69
452.207	89.69
452.428	71.69
452.648	81.69
452.869	81.69
453.089	84.69
453.31	79.69
453.53	107.69
453.751	90.69
453.971	79.69
454.192	83.69
454.412	61.69
454.633	82.69
454.853	88.69
455.073	74.69
455.294	101.69
455.514	91.69
455.734	85.69
455.955	77.69
456.175	91.69
456.395	73.69
456.616	77.69
456.836	74.69
457.056	96.69
457.276	91.69
457.497	92.69
457.717	76.69
457.937	89.69
458.157	94.69
458.377	98.69
458.598	99.69
458.818	96.69
459.038	87.69
459.258	77.69
459.478	90.69
459.698	86.69
459.918	66.69
460.138	90.69
460.358	78.69
460.578	92.69
460.798	95.69
461.018	94.69
461.238	80.69
461.458	87.69
461.678	72.69
461.898	73.69
462.118	76.69
462.338	66.69
462.558	92.69
462.777	93.69
462.997	93.69
463.217	77.69
463.437	83.69
463.657	75.69
463.876	83.69
464.096	63.69
464.316	75.69
464.536	85.69
464.755	91.69
464.975	73.69
465.195	69.69
465.414	93.69
465.634	94.69
465.854	74.69
466.073	85.69
466.293	83.69
466.512	96.69
466.732	94.69
466.951	73.69
467.171	81.69
467.391	93.69
467.61	71.69
467.829	89.69
468.049	77.69
468.268	80.69
468.488	83.69
468.707	79.69
468.927	81.69
469.146	72.69
469.365	82.69
469.585	78.69
469.804	79.69
470.023	90.69
470.243	85.69
470.462	77.69
470.681	82.69
470.901	78.69
471.12	65.69
471.339	85.69
471.558	80.69
471.777	89.69
471.997	76.69
472.216	78.69
472.435	79.69
472.654	74.69
472.873	74.69
473.092	72.69
473.311	80.69
473.53	91.69
473.749	75.69
473.968	85.69
474.187	82.69
474.406	76.69
474.625	97.69
474.844	76.69
475.063	71.69
475.282	75.69
475.501	73.69
475.72	95.69
475.939	88.69
476.158	102.69
476.377	81.69
476.596	83.69
476.814	95.69
477.033	83.69
477.252	83.69
477.471	80.69
477.69	79.69
477.908	82.69
478.127	88.69
478.346	83.69
478.564	86.69
478.783	83.69
479.002	81.69
479.22	80.69
479.439	71.69
479.658	83.69
479.876	79.69
480.095	87.69
480.313	91.69
480.532	85.69
480.751	82.69
480.969	85.69
481.188	82.69
481.406	92.69
481.624	72.69
481.843	89.69
482.061	75.69
482.28	85.69
482.498	69.69
482.717	72.69
482.935	72.69
483.153	70.69
483.372	99.69
483.59	90.69
483.808	79.69
484.027	76.69
484.245	93.69
484.463	92.69
484.681	82.69
484.9	92.69
485.118	93.69
485.336	105.69
485.554	95.69
485.772	83.69
485.99	93.69
486.209	85.69
486.427	81.69
486.645	82.69
486.863	88.69
487.081	89.69
487.299	106.69
487.517	85.69
487.735	85.69
487.953	105.69
488.171	109.69
488.389	86.69
488.607	79.69
488.825	86.69
489.043	87.69
489.261	94.69
489.479	83.69
489.696	80.69
489.914	85.69
490.132	90.69
490.35	91.69
490.568	95.69
490.786	92.69
491.003	80.69
491.221	77.69
491.439	91.69
491.657	83.69
491.874	72.69
492.092	83.69
492.31	91.69
492.527	85.69
492.745	90.69
492.963	77.69
493.18	87.69
493.398	91.69
493.615	81.69
493.833	83.69
494.05	64.69
494.268	79.69
494.485	90.69
494.703	92.69
494.92	97.69
495.138	85.69
495.355	84.69
495.573	98.69
495.79	99.69
496.008	97.69
496.225	82.69
496.442	98.69
496.66	86.69
496.877	94.69
497.094	97.69
497.312	82.69
497.529	98.69
497.746	95.69
497.963	84.69
498.181	85.69
498.398	94.69
498.615	80.69
498.832	88.69
499.049	77.69
499.267	107.69
499.484	87.69
499.701	107.69
499.918	94.69
500.135	102.69
500.352	91.69
500.569	94.69
500.786	91.69
501.003	95.69
501.22	83.69
501.437	90.69
501.654	99.69
501.871	81.69
502.088	75.69
502.305	92.69
502.522	89.69
502.739	94.69
502.956	92.69
503.172	86.69
503.389	91.69
503.606	96.69
503.823	95.69
504.04	85.69
504.256	101.69
504.473	102.69
504.69	87.69
504.907	92.69
505.123	99.69
505.34	92.69
505.557	83.69
505.773	91.69
505.99	91.69
506.207	86.69
506.423	85.69
506.64	86.69
506.856	98.69
507.073	91.69
507.289	87.69
507.506	85.69
507.722	71.69
507.939	87.69
508.155	89.69
508.372	77.69
508.588	84.69
508.805	92.69
509.021	88.69
509.238	90.69
509.454	97.69
509.67	91.69
509.887	82.69
510.103	75.69
510.319	83.69
510.536	90.69
510.752	90.69
510.968	96.69
511.184	86.69
511.401	90.69
511.617	91.69
511.833	85.69
512.049	81.69
512.265	69.69
512.481	78.69
512.698	92.69
512.914	97.69
513.13	97.69
513.346	89.69
513.562	76.69
513.778	90.69
513.994	96.69
514.21	77.69
514.426	92.69
514.642	84.69
514.858	98.69
515.074	85.69
515.29	93.69
515.506	84.69
515.721	82.69
515.937	87.69
516.153	87.69
516.369	94.69
516.585	95.69
516.801	102.69
517.016	110.69
517.232	92.69
517.448	121.69
517.664	107.69
517.879	85.69
518.095	91.69
518.311	97.69
518.527	160.69
518.742	115.69
518.958	117.69
