Data from 1600_2_HRD10591_00040.txt Node
Date: Mon Jan 19 13:54:01 EST 2026
User: Yrep
Spectrometer: HR+D1059
Trigger mode: 1
Integration Time (sec): 1.000000E-1
Scans to average: 1
Electric dark correction enabled: true
Nonlinearity correction enabled: false
Boxcar width: 0
XAxis mode: Wavelengths
Number of Pixels in Spectrum: 2048
>>>>>Begin Spectral Data<<<<<
223.165	-3.62
223.4	-3.62
223.635	-3.62
223.869	-16.62
224.104	-10.62
224.338	-27.62
224.573	-18.62
224.808	-9.62
225.042	-15.62
225.277	-1.62
225.511	1.38
225.746	-1.62
225.98	-0.62
226.215	13.38
226.449	20.38
226.683	17.38
226.918	19.38
227.152	34.38
227.387	34.38
227.621	34.38
227.856	44.38
228.09	53.38
228.324	50.38
228.559	46.38
228.793	50.38
229.027	55.38
229.262	65.38
229.496	57.38
229.73	61.38
229.964	60.38
230.199	66.38
230.433	71.38
230.667	76.38
230.901	81.38
231.136	89.38
231.37	64.38
231.604	85.38
231.838	75.38
232.072	91.38
232.306	87.38
232.541	77.38
232.775	89.38
233.009	70.38
233.243	67.38
233.477	71.38
233.711	74.38
233.945	71.38
234.179	88.38
234.413	91.38
234.647	79.38
234.881	79.38
235.115	88.38
235.349	91.38
235.583	79.38
235.817	57.38
236.051	78.38
236.285	68.38
236.519	78.38
236.753	66.38
236.987	72.38
237.221	72.38
237.455	74.38
237.689	64.38
237.922	100.38
238.156	78.38
238.39	72.38
238.624	74.38
238.858	71.38
239.091	77.38
239.325	83.38
239.559	63.38
239.793	61.38
240.027	74.38
240.26	63.38
240.494	73.38
240.728	69.38
240.961	77.38
241.195	70.38
241.429	84.38
241.662	72.38
241.896	82.38
242.13	81.38
242.363	70.38
242.597	77.38
242.83	76.38
243.064	82.38
243.298	81.38
243.531	93.38
243.765	77.38
243.998	69.38
244.232	74.38
244.465	95.38
244.699	71.38
244.932	61.38
245.166	63.38
245.399	70.38
245.633	89.38
245.866	69.38
246.099	70.38
246.333	65.38
246.566	53.38
246.8	75.38
247.033	83.38
247.266	59.38
247.5	72.38
247.733	68.38
247.966	85.38
248.2	86.38
248.433	72.38
248.666	87.38
248.899	79.38
249.133	79.38
249.366	80.38
249.599	66.38
249.832	90.38
250.066	79.38
250.299	64.38
250.532	81.38
250.765	77.38
250.998	69.38
251.231	70.38
251.465	86.38
251.698	66.38
251.931	76.38
252.164	80.38
252.397	77.38
252.63	74.38
252.863	65.38
253.096	79.38
253.329	81.38
253.562	76.38
253.795	91.38
254.028	79.38
254.261	68.38
254.494	77.38
254.727	84.38
254.96	67.38
255.193	85.38
255.426	90.38
255.659	82.38
255.892	81.38
256.124	94.38
256.357	80.38
256.59	81.38
256.823	78.38
257.056	75.38
257.289	71.38
257.521	77.38
257.754	88.38
257.987	74.38
258.22	80.38
258.452	77.38
258.685	65.38
258.918	78.38
259.151	83.38
259.383	76.38
259.616	71.38
259.849	81.38
260.081	62.38
260.314	83.38
260.547	82.38
260.779	90.38
261.012	75.38
261.244	72.38
261.477	89.38
261.71	76.38
261.942	72.38
262.175	69.38
262.407	81.38
262.64	83.38
262.872	78.38
263.105	86.38
263.337	94.38
263.57	71.38
263.802	91.38
264.035	83.38
264.267	85.38
264.499	79.38
264.732	85.38
264.964	80.38
265.197	79.38
265.429	86.38
265.661	74.38
265.894	77.38
266.126	85.38
266.358	82.38
266.591	73.38
266.823	82.38
267.055	68.38
267.287	82.38
267.52	74.38
267.752	81.38
267.984	84.38
268.216	71.38
268.448	83.38
268.681	84.38
268.913	67.38
269.145	82.38
269.377	69.38
269.609	87.38
269.841	89.38
270.073	78.38
270.306	85.38
270.538	77.38
270.77	71.38
271.002	69.38
271.234	83.38
271.466	70.38
271.698	80.38
271.93	66.38
272.162	79.38
272.394	63.38
272.626	77.38
272.858	86.38
273.09	79.38
273.322	91.38
273.553	86.38
273.785	67.38
274.017	87.38
274.249	72.38
274.481	78.38
274.713	70.38
274.945	85.38
275.176	86.38
275.408	82.38
275.64	80.38
275.872	81.38
276.104	88.38
276.335	75.38
276.567	76.38
276.799	67.38
277.031	69.38
277.262	70.38
277.494	78.38
277.726	79.38
277.957	67.38
278.189	86.38
278.421	91.38
278.652	93.38
278.884	89.38
279.115	78.38
279.347	90.38
279.579	85.38
279.81	84.38
280.042	92.38
280.273	78.38
280.505	90.38
280.736	84.38
280.968	75.38
281.199	88.38
281.431	77.38
281.662	75.38
281.894	85.38
282.125	96.38
282.356	86.38
282.588	81.38
282.819	96.38
283.051	87.38
283.282	77.38
283.513	81.38
283.745	96.38
283.976	87.38
284.207	82.38
284.439	89.38
284.67	89.38
284.901	88.38
285.132	99.38
285.364	83.38
285.595	88.38
285.826	83.38
286.057	80.38
286.288	76.38
286.52	91.38
286.751	87.38
286.982	79.38
287.213	69.38
287.444	75.38
287.675	88.38
287.906	69.38
288.138	81.38
288.369	69.38
288.6	87.38
288.831	89.38
289.062	76.38
289.293	73.38
289.524	80.38
289.755	90.38
289.986	91.38
290.217	72.38
290.448	86.38
290.679	88.38
290.91	71.38
291.141	83.38
291.371	91.38
291.602	89.38
291.833	89.38
292.064	80.38
292.295	89.38
292.526	81.38
292.757	83.38
292.987	77.38
293.218	79.38
293.449	67.38
293.68	88.38
293.91	84.38
294.141	97.38
294.372	65.38
294.603	74.38
294.833	81.38
295.064	86.38
295.295	93.38
295.525	83.38
295.756	82.38
295.987	74.38
296.217	89.38
296.448	93.38
296.679	81.38
296.909	83.38
297.14	74.38
297.37	84.38
297.601	73.38
297.831	74.38
298.062	81.38
298.292	84.38
298.523	88.38
298.753	88.38
298.984	80.38
299.214	78.38
299.445	80.38
299.675	85.38
299.905	85.38
300.136	85.38
300.366	99.38
300.597	87.38
300.827	84.38
301.057	85.38
301.288	85.38
301.518	82.38
301.748	81.38
301.979	93.38
302.209	84.38
302.439	92.38
302.669	82.38
302.9	91.38
303.13	95.38
303.36	81.38
303.59	84.38
303.82	78.38
304.051	86.38
304.281	79.38
304.511	71.38
304.741	85.38
304.971	78.38
305.201	83.38
305.431	89.38
305.661	84.38
305.891	91.38
306.121	85.38
306.352	88.38
306.582	81.38
306.812	78.38
307.042	93.38
307.272	81.38
307.502	82.38
307.731	88.38
307.961	87.38
308.191	98.38
308.421	93.38
308.651	78.38
308.881	99.38
309.111	91.38
309.341	91.38
309.571	90.38
309.8	85.38
310.03	87.38
310.26	87.38
310.49	86.38
310.72	85.38
310.949	75.38
311.179	87.38
311.409	82.38
311.639	85.38
311.868	84.38
312.098	93.38
312.328	78.38
312.557	67.38
312.787	87.38
313.017	88.38
313.246	80.38
313.476	83.38
313.706	56.38
313.935	80.38
314.165	75.38
314.394	75.38
314.624	78.38
314.853	90.38
315.083	97.38
315.312	80.38
315.542	83.38
315.771	86.38
316.001	85.38
316.23	90.38
316.46	84.38
316.689	95.38
316.919	86.38
317.148	80.38
317.377	89.38
317.607	84.38
317.836	93.38
318.065	72.38
318.295	87.38
318.524	81.38
318.753	83.38
318.983	67.38
319.212	89.38
319.441	82.38
319.67	75.38
319.9	86.38
320.129	80.38
320.358	70.38
320.587	81.38
320.816	91.38
321.046	86.38
321.275	59.38
321.504	91.38
321.733	93.38
321.962	91.38
322.191	80.38
322.42	89.38
322.649	79.38
322.878	79.38
323.108	89.38
323.337	70.38
323.566	77.38
323.795	82.38
324.024	84.38
324.253	84.38
324.482	98.38
324.71	90.38
324.939	99.38
325.168	82.38
325.397	83.38
325.626	76.38
325.855	86.38
326.084	80.38
326.313	85.38
326.542	78.38
326.77	69.38
326.999	72.38
327.228	83.38
327.457	73.38
327.686	93.38
327.914	97.38
328.143	80.38
328.372	79.38
328.6	89.38
328.829	79.38
329.058	91.38
329.287	84.38
329.515	91.38
329.744	93.38
329.972	85.38
330.201	81.38
330.43	90.38
330.658	82.38
330.887	74.38
331.115	79.38
331.344	90.38
331.572	90.38
331.801	89.38
332.03	70.38
332.258	90.38
332.486	73.38
332.715	82.38
332.943	84.38
333.172	67.38
333.4	74.38
333.629	82.38
333.857	87.38
334.085	82.38
334.314	88.38
334.542	80.38
334.771	96.38
334.999	71.38
335.227	77.38
335.455	86.38
335.684	78.38
335.912	91.38
336.14	82.38
336.369	77.38
336.597	71.38
336.825	82.38
337.053	73.38
337.281	93.38
337.51	87.38
337.738	80.38
337.966	89.38
338.194	90.38
338.422	83.38
338.65	90.38
338.878	93.38
339.106	75.38
339.334	85.38
339.562	85.38
339.79	72.38
340.018	83.38
340.246	90.38
340.474	82.38
340.702	101.38
340.93	98.38
341.158	86.38
341.386	81.38
341.614	80.38
341.842	89.38
342.07	77.38
342.298	82.38
342.526	87.38
342.754	68.38
342.981	78.38
343.209	72.38
343.437	83.38
343.665	68.38
343.893	86.38
344.12	97.38
344.348	94.38
344.576	70.38
344.804	82.38
345.031	81.38
345.259	85.38
345.487	79.38
345.714	85.38
345.942	84.38
346.17	77.38
346.397	92.38
346.625	89.38
346.853	83.38
347.08	90.38
347.308	89.38
347.535	79.38
347.763	81.38
347.99	90.38
348.218	77.38
348.445	89.38
348.673	91.38
348.9	101.38
349.128	83.38
349.355	89.38
349.583	77.38
349.81	80.38
350.037	80.38
350.265	89.38
350.492	99.38
350.72	71.38
350.947	73.38
351.174	77.38
351.402	85.38
351.629	77.38
351.856	82.38
352.083	72.38
352.311	82.38
352.538	78.38
352.765	68.38
352.992	100.38
353.22	82.38
353.447	102.38
353.674	88.38
353.901	80.38
354.128	81.38
354.355	91.38
354.583	84.38
354.81	71.38
355.037	89.38
355.264	85.38
355.491	81.38
355.718	100.38
355.945	74.38
356.172	83.38
356.399	74.38
356.626	77.38
356.853	97.38
357.08	82.38
357.307	81.38
357.534	91.38
357.761	94.38
357.988	98.38
358.215	92.38
358.441	94.38
358.668	77.38
358.895	87.38
359.122	85.38
359.349	86.38
359.576	91.38
359.802	86.38
360.029	87.38
360.256	85.38
360.483	92.38
360.709	81.38
360.936	92.38
361.163	94.38
361.39	86.38
361.616	91.38
361.843	73.38
362.07	90.38
362.296	84.38
362.523	92.38
362.749	86.38
362.976	87.38
363.203	100.38
363.429	70.38
363.656	78.38
363.882	85.38
364.109	83.38
364.335	89.38
364.562	100.38
364.788	83.38
365.015	101.38
365.241	79.38
365.468	86.38
365.694	63.38
365.92	94.38
366.147	75.38
366.373	77.38
366.599	86.38
366.826	79.38
367.052	72.38
367.278	88.38
367.505	89.38
367.731	82.38
367.957	75.38
368.184	77.38
368.41	89.38
368.636	90.38
368.862	92.38
369.089	90.38
369.315	70.38
369.541	87.38
369.767	85.38
369.993	83.38
370.219	87.38
370.445	87.38
370.672	91.38
370.898	91.38
371.124	70.38
371.35	81.38
371.576	66.38
371.802	107.38
372.028	97.38
372.254	90.38
372.48	91.38
372.706	64.38
372.932	79.38
373.158	99.38
373.384	112.38
373.61	105.38
373.835	109.38
374.061	95.38
374.287	96.38
374.513	85.38
374.739	103.38
374.965	97.38
375.191	85.38
375.416	108.38
375.642	98.38
375.868	88.38
376.094	98.38
376.319	98.38
376.545	93.38
376.771	99.38
376.997	94.38
377.222	76.38
377.448	66.38
377.674	75.38
377.899	83.38
378.125	92.38
378.35	82.38
378.576	86.38
378.802	78.38
379.027	76.38
379.253	86.38
379.478	85.38
379.704	95.38
379.929	89.38
380.155	91.38
380.38	70.38
380.606	71.38
380.831	69.38
381.057	85.38
381.282	93.38
381.507	92.38
381.733	97.38
381.958	102.38
382.184	95.38
382.409	84.38
382.634	98.38
382.86	94.38
383.085	91.38
383.31	102.38
383.535	107.38
383.761	103.38
383.986	99.38
384.211	100.38
384.436	87.38
384.662	79.38
384.887	84.38
385.112	72.38
385.337	90.38
385.562	79.38
385.787	83.38
386.013	96.38
386.238	87.38
386.463	69.38
386.688	94.38
386.913	93.38
387.138	90.38
387.363	93.38
387.588	89.38
387.813	84.38
388.038	85.38
388.263	82.38
388.488	97.38
388.713	79.38
388.938	92.38
389.163	89.38
389.387	74.38
389.612	87.38
389.837	99.38
390.062	87.38
390.287	101.38
390.512	87.38
390.736	82.38
390.961	79.38
391.186	73.38
391.411	94.38
391.636	76.38
391.86	83.38
392.085	84.38
392.31	55.38
392.534	92.38
392.759	93.38
392.984	113.38
393.208	155.38
393.433	230.38
393.658	195.38
393.882	116.38
394.107	95.38
394.331	103.38
394.556	106.38
394.78	99.38
395.005	89.38
395.229	89.38
395.454	96.38
395.678	100.38
395.903	110.38
396.127	127.38
396.352	116.38
396.576	123.38
396.801	180.38
397.025	181.38
397.249	132.38
397.474	97.38
397.698	83.38
397.922	93.38
398.147	77.38
398.371	76.38
398.595	98.38
398.82	81.38
399.044	71.38
399.268	88.38
399.492	85.38
399.717	98.38
399.941	75.38
400.165	69.38
400.389	77.38
400.613	73.38
400.837	73.38
401.062	76.38
401.286	82.38
401.51	89.38
401.734	86.38
401.958	69.38
402.182	85.38
402.406	94.38
402.63	78.38
402.854	94.38
403.078	85.38
403.302	80.38
403.526	86.38
403.75	86.38
403.974	86.38
404.198	91.38
404.422	97.38
404.645	118.38
404.869	115.38
405.093	86.38
405.317	84.38
405.541	82.38
405.765	87.38
405.988	81.38
406.212	81.38
406.436	86.38
406.66	79.38
406.883	75.38
407.107	86.38
407.331	98.38
407.555	78.38
407.778	92.38
408.002	98.38
408.226	85.38
408.449	73.38
408.673	90.38
408.896	80.38
409.12	85.38
409.344	71.38
409.567	93.38
409.791	97.38
410.014	90.38
410.238	84.38
410.461	85.38
410.685	92.38
410.908	85.38
411.132	75.38
411.355	83.38
411.578	83.38
411.802	83.38
412.025	75.38
412.249	85.38
412.472	80.38
412.695	69.38
412.919	73.38
413.142	73.38
413.365	75.38
413.589	72.38
413.812	81.38
414.035	88.38
414.258	90.38
414.482	95.38
414.705	94.38
414.928	84.38
415.151	70.38
415.374	86.38
415.597	57.38
415.821	83.38
416.044	85.38
416.267	91.38
416.49	81.38
416.713	85.38
416.936	78.38
417.159	69.38
417.382	81.38
417.605	93.38
417.828	73.38
418.051	75.38
418.274	85.38
418.497	80.38
418.72	84.38
418.943	69.38
419.166	80.38
419.389	84.38
419.611	87.38
419.834	78.38
420.057	93.38
420.28	79.38
420.503	97.38
420.726	81.38
420.948	87.38
421.171	103.38
421.394	85.38
421.617	79.38
421.839	85.38
422.062	93.38
422.285	105.38
422.507	183.38
422.73	325.38
422.953	282.38
423.175	114.38
423.398	96.38
423.621	92.38
423.843	92.38
424.066	87.38
424.288	90.38
424.511	77.38
424.733	84.38
424.956	86.38
425.178	83.38
425.401	80.38
425.623	94.38
425.846	74.38
426.068	91.38
426.291	82.38
426.513	90.38
426.735	95.38
426.958	87.38
427.18	70.38
427.402	93.38
427.625	77.38
427.847	71.38
428.069	85.38
428.292	81.38
428.514	105.38
428.736	90.38
428.958	105.38
429.181	108.38
429.403	92.38
429.625	85.38
429.847	102.38
430.069	118.38
430.292	145.38
430.514	126.38
430.736	123.38
430.958	98.38
431.18	97.38
431.402	83.38
431.624	87.38
431.846	110.38
432.068	116.38
432.29	85.38
432.512	89.38
432.734	84.38
432.956	72.38
433.178	79.38
433.4	75.38
433.622	80.38
433.844	78.38
434.066	78.38
434.287	85.38
434.509	82.38
434.731	75.38
434.953	69.38
435.175	89.38
435.397	90.38
435.618	89.38
435.84	85.38
436.062	73.38
436.284	82.38
436.505	96.38
436.727	92.38
436.949	88.38
437.17	78.38
437.392	76.38
437.614	84.38
437.835	78.38
438.057	84.38
438.278	89.38
438.5	94.38
438.721	79.38
438.943	82.38
439.165	86.38
439.386	71.38
439.608	73.38
439.829	77.38
440.05	75.38
440.272	83.38
440.493	84.38
440.715	86.38
440.936	89.38
441.158	85.38
441.379	80.38
441.6	82.38
441.822	96.38
442.043	101.38
442.264	79.38
442.486	105.38
442.707	122.38
442.928	94.38
443.149	70.38
443.371	111.38
443.592	151.38
443.813	133.38
444.034	86.38
444.255	90.38
444.476	99.38
444.698	94.38
444.919	91.38
445.14	173.38
445.361	147.38
445.582	166.38
445.803	158.38
446.024	109.38
446.245	86.38
446.466	85.38
446.687	85.38
446.908	87.38
447.129	78.38
447.35	62.38
447.571	69.38
447.792	71.38
448.013	75.38
448.234	65.38
448.455	89.38
448.675	91.38
448.896	89.38
449.117	75.38
449.338	83.38
449.559	94.38
449.779	83.38
450	83.38
450.221	74.38
450.442	83.38
450.662	80.38
450.883	61.38
451.104	85.38
451.324	80.38
451.545	81.38
451.766	95.38
451.986	77.38
452.207	85.38
452.428	68.38
452.648	93.38
452.869	83.38
453.089	90.38
453.31	84.38
453.53	74.38
453.751	92.38
453.971	87.38
454.192	77.38
454.412	78.38
454.633	77.38
454.853	81.38
455.073	82.38
455.294	84.38
455.514	78.38
455.734	75.38
455.955	82.38
456.175	89.38
456.395	79.38
456.616	75.38
456.836	76.38
457.056	71.38
457.276	85.38
457.497	79.38
457.717	76.38
457.937	79.38
458.157	90.38
458.377	106.38
458.598	89.38
458.818	77.38
459.038	83.38
459.258	89.38
459.478	85.38
459.698	73.38
459.918	87.38
460.138	86.38
460.358	83.38
460.578	95.38
460.798	111.38
461.018	109.38
461.238	81.38
461.458	78.38
461.678	90.38
461.898	71.38
462.118	96.38
462.338	93.38
462.558	75.38
462.777	92.38
462.997	66.38
463.217	91.38
463.437	81.38
463.657	75.38
463.876	64.38
464.096	85.38
464.316	80.38
464.536	63.38
464.755	70.38
464.975	80.38
465.195	84.38
465.414	76.38
465.634	69.38
465.854	73.38
466.073	79.38
466.293	79.38
466.512	80.38
466.732	91.38
466.951	95.38
467.171	89.38
467.391	83.38
467.61	81.38
467.829	62.38
468.049	90.38
468.268	79.38
468.488	77.38
468.707	85.38
468.927	82.38
469.146	69.38
469.365	64.38
469.585	94.38
469.804	80.38
470.023	81.38
470.243	91.38
470.462	87.38
470.681	81.38
470.901	84.38
471.12	92.38
471.339	84.38
471.558	74.38
471.777	71.38
471.997	84.38
472.216	80.38
472.435	90.38
472.654	83.38
472.873	102.38
473.092	71.38
473.311	89.38
473.53	84.38
473.749	80.38
473.968	77.38
474.187	83.38
474.406	86.38
474.625	85.38
474.844	63.38
475.063	82.38
475.282	71.38
475.501	87.38
475.72	82.38
475.939	86.38
476.158	77.38
476.377	77.38
476.596	87.38
476.814	81.38
477.033	85.38
477.252	90.38
477.471	81.38
477.69	80.38
477.908	72.38
478.127	85.38
478.346	73.38
478.564	75.38
478.783	100.38
479.002	77.38
479.22	71.38
479.439	83.38
479.658	81.38
479.876	89.38
480.095	84.38
480.313	82.38
480.532	86.38
480.751	66.38
480.969	76.38
481.188	80.38
481.406	80.38
481.624	80.38
481.843	84.38
482.061	65.38
482.28	74.38
482.498	84.38
482.717	60.38
482.935	82.38
483.153	88.38
483.372	87.38
483.59	77.38
483.808	90.38
484.027	83.38
484.245	93.38
484.463	90.38
484.681	83.38
484.9	73.38
485.118	96.38
485.336	78.38
485.554	69.38
485.772	106.38
485.99	97.38
486.209	73.38
486.427	94.38
486.645	81.38
486.863	97.38
487.081	81.38
487.299	93.38
487.517	70.38
487.735	86.38
487.953	95.38
488.171	91.38
488.389	102.38
488.607	87.38
488.825	65.38
489.043	92.38
489.261	83.38
489.479	79.38
489.696	95.38
489.914	85.38
490.132	69.38
490.35	89.38
490.568	89.38
490.786	79.38
491.003	79.38
491.221	70.38
491.439	79.38
491.657	77.38
491.874	77.38
492.092	72.38
492.31	89.38
492.527	65.38
492.745	83.38
492.963	74.38
493.18	67.38
493.398	94.38
493.615	85.38
493.833	93.38
494.05	72.38
494.268	78.38
494.485	85.38
494.703	79.38
494.92	82.38
495.138	65.38
495.355	93.38
495.573	88.38
495.79	84.38
496.008	95.38
496.225	77.38
496.442	77.38
496.66	99.38
496.877	93.38
497.094	86.38
497.312	83.38
497.529	78.38
497.746	91.38
497.963	82.38
498.181	87.38
498.398	101.38
498.615	77.38
498.832	78.38
499.049	74.38
499.267	80.38
499.484	93.38
499.701	77.38
499.918	93.38
500.135	94.38
500.352	74.38
500.569	81.38
500.786	86.38
501.003	90.38
501.22	89.38
501.437	93.38
501.654	81.38
501.871	77.38
502.088	80.38
502.305	78.38
502.522	99.38
502.739	77.38
502.956	92.38
503.172	95.38
503.389	78.38
503.606	93.38
503.823	89.38
504.04	95.38
504.256	90.38
504.473	87.38
504.69	97.38
504.907	99.38
505.123	91.38
505.34	90.38
505.557	81.38
505.773	93.38
505.99	93.38
506.207	77.38
506.423	71.38
506.64	88.38
506.856	79.38
507.073	79.38
507.289	70.38
507.506	95.38
507.722	82.38
507.939	93.38
508.155	81.38
508.372	83.38
508.588	83.38
508.805	71.38
509.021	77.38
509.238	98.38
509.454	86.38
509.67	91.38
509.887	81.38
510.103	81.38
510.319	95.38
510.536	82.38
510.752	78.38
510.968	81.38
511.184	82.38
511.401	80.38
511.617	77.38
511.833	92.38
512.049	93.38
512.265	87.38
512.481	87.38
512.698	89.38
512.914	100.38
513.13	85.38
513.346	86.38
513.562	91.38
513.778	100.38
513.994	68.38
514.21	77.38
514.426	92.38
514.642	105.38
514.858	83.38
515.074	77.38
515.29	84.38
515.506	93.38
515.721	88.38
515.937	90.38
516.153	74.38
516.369	78.38
516.585	82.38
516.801	79.38
517.016	85.38
517.232	93.38
517.448	112.38
517.664	100.38
517.879	90.38
518.095	92.38
518.311	97.38
518.527	109.38
518.742	95.38
518.958	93.38
519.173	106.38
