Data from 1600_2_HRD10591_00026.txt Node
Date: Mon Jan 19 13:53:54 EST 2026
User: Yrep
Spectrometer: HR+D1059
Trigger mode: 1
Integration Time (sec): 1.000000E-1
Scans to average: 1
Electric dark correction enabled: true
Nonlinearity correction enabled: false
Boxcar width: 0
XAxis mode: Wavelengths
Number of Pixels in Spectrum: 2048
>>>>>Begin Spectral Data<<<<<
223.165	-13.44
223.4	-13.44
223.635	-13.44
223.869	-23.44
224.104	-28.44
224.338	-8.44
224.573	-18.44
224.808	-13.44
225.042	-20.44
225.277	-10.44
225.511	-1.44
225.746	6.56
225.98	6.56
226.215	16.56
226.449	11.56
226.683	22.56
226.918	33.56
227.152	40.56
227.387	37.56
227.621	24.56
227.856	37.56
228.09	29.56
228.324	46.56
228.559	59.56
228.793	66.56
229.027	61.56
229.262	55.56
229.496	67.56
229.73	75.56
229.964	68.56
230.199	71.56
230.433	71.56
230.667	76.56
230.901	74.56
231.136	91.56
231.37	74.56
231.604	89.56
231.838	75.56
232.072	102.56
232.306	97.56
232.541	83.56
232.775	87.56
233.009	86.56
233.243	79.56
233.477	74.56
233.711	81.56
233.945	78.56
234.179	77.56
234.413	83.56
234.647	98.56
234.881	90.56
235.115	66.56
235.349	89.56
235.583	76.56
235.817	70.56
236.051	83.56
236.285	76.56
236.519	71.56
236.753	75.56
236.987	79.56
237.221	75.56
237.455	90.56
237.689	72.56
237.922	75.56
238.156	79.56
238.39	66.56
238.624	68.56
238.858	82.56
239.091	91.56
239.325	84.56
239.559	70.56
239.793	85.56
240.027	77.56
240.26	65.56
240.494	57.56
240.728	89.56
240.961	69.56
241.195	90.56
241.429	90.56
241.662	80.56
241.896	82.56
242.13	66.56
242.363	79.56
242.597	70.56
242.83	76.56
243.064	79.56
243.298	67.56
243.531	74.56
243.765	77.56
243.998	79.56
244.232	81.56
244.465	76.56
244.699	65.56
244.932	93.56
245.166	73.56
245.399	72.56
245.633	79.56
245.866	67.56
246.099	61.56
246.333	85.56
246.566	79.56
246.8	71.56
247.033	73.56
247.266	83.56
247.5	89.56
247.733	72.56
247.966	73.56
248.2	75.56
248.433	80.56
248.666	69.56
248.899	79.56
249.133	83.56
249.366	93.56
249.599	71.56
249.832	72.56
250.066	91.56
250.299	89.56
250.532	83.56
250.765	87.56
250.998	71.56
251.231	81.56
251.465	87.56
251.698	79.56
251.931	82.56
252.164	76.56
252.397	73.56
252.63	89.56
252.863	65.56
253.096	72.56
253.329	78.56
253.562	81.56
253.795	76.56
254.028	81.56
254.261	78.56
254.494	86.56
254.727	86.56
254.96	92.56
255.193	78.56
255.426	78.56
255.659	69.56
255.892	88.56
256.124	100.56
256.357	85.56
256.59	82.56
256.823	85.56
257.056	73.56
257.289	85.56
257.521	88.56
257.754	82.56
257.987	72.56
258.22	87.56
258.452	89.56
258.685	74.56
258.918	82.56
259.151	75.56
259.383	75.56
259.616	93.56
259.849	87.56
260.081	87.56
260.314	93.56
260.547	86.56
260.779	73.56
261.012	83.56
261.244	69.56
261.477	81.56
261.71	95.56
261.942	77.56
262.175	84.56
262.407	86.56
262.64	77.56
262.872	97.56
263.105	79.56
263.337	71.56
263.57	80.56
263.802	91.56
264.035	85.56
264.267	72.56
264.499	76.56
264.732	92.56
264.964	79.56
265.197	85.56
265.429	86.56
265.661	74.56
265.894	88.56
266.126	93.56
266.358	87.56
266.591	84.56
266.823	104.56
267.055	97.56
267.287	85.56
267.52	84.56
267.752	82.56
267.984	92.56
268.216	84.56
268.448	98.56
268.681	77.56
268.913	68.56
269.145	77.56
269.377	81.56
269.609	63.56
269.841	79.56
270.073	89.56
270.306	84.56
270.538	86.56
270.77	78.56
271.002	97.56
271.234	85.56
271.466	89.56
271.698	98.56
271.93	90.56
272.162	81.56
272.394	84.56
272.626	80.56
272.858	81.56
273.09	80.56
273.322	83.56
273.553	82.56
273.785	87.56
274.017	98.56
274.249	88.56
274.481	78.56
274.713	91.56
274.945	105.56
275.176	92.56
275.408	78.56
275.64	86.56
275.872	77.56
276.104	81.56
276.335	80.56
276.567	80.56
276.799	89.56
277.031	83.56
277.262	90.56
277.494	77.56
277.726	92.56
277.957	83.56
278.189	79.56
278.421	91.56
278.652	81.56
278.884	101.56
279.115	94.56
279.347	82.56
279.579	99.56
279.81	96.56
280.042	90.56
280.273	99.56
280.505	82.56
280.736	74.56
280.968	80.56
281.199	80.56
281.431	83.56
281.662	92.56
281.894	87.56
282.125	72.56
282.356	82.56
282.588	88.56
282.819	81.56
283.051	91.56
283.282	83.56
283.513	109.56
283.745	70.56
283.976	87.56
284.207	75.56
284.439	91.56
284.67	81.56
284.901	80.56
285.132	89.56
285.364	91.56
285.595	85.56
285.826	100.56
286.057	88.56
286.288	96.56
286.52	89.56
286.751	79.56
286.982	78.56
287.213	76.56
287.444	83.56
287.675	86.56
287.906	100.56
288.138	88.56
288.369	100.56
288.6	76.56
288.831	75.56
289.062	83.56
289.293	75.56
289.524	87.56
289.755	96.56
289.986	90.56
290.217	84.56
290.448	80.56
290.679	86.56
290.91	90.56
291.141	68.56
291.371	93.56
291.602	95.56
291.833	75.56
292.064	93.56
292.295	95.56
292.526	93.56
292.757	103.56
292.987	86.56
293.218	90.56
293.449	88.56
293.68	86.56
293.91	81.56
294.141	90.56
294.372	86.56
294.603	89.56
294.833	98.56
295.064	81.56
295.295	85.56
295.525	94.56
295.756	92.56
295.987	88.56
296.217	81.56
296.448	88.56
296.679	95.56
296.909	93.56
297.14	79.56
297.37	69.56
297.601	93.56
297.831	78.56
298.062	93.56
298.292	99.56
298.523	95.56
298.753	70.56
298.984	83.56
299.214	101.56
299.445	72.56
299.675	90.56
299.905	84.56
300.136	83.56
300.366	89.56
300.597	85.56
300.827	98.56
301.057	85.56
301.288	83.56
301.518	81.56
301.748	80.56
301.979	93.56
302.209	96.56
302.439	91.56
302.669	89.56
302.9	75.56
303.13	92.56
303.36	79.56
303.59	87.56
303.82	89.56
304.051	85.56
304.281	84.56
304.511	97.56
304.741	98.56
304.971	94.56
305.201	100.56
305.431	89.56
305.661	84.56
305.891	79.56
306.121	97.56
306.352	91.56
306.582	93.56
306.812	85.56
307.042	89.56
307.272	97.56
307.502	90.56
307.731	95.56
307.961	104.56
308.191	90.56
308.421	97.56
308.651	95.56
308.881	97.56
309.111	101.56
309.341	110.56
309.571	111.56
309.8	87.56
310.03	96.56
310.26	84.56
310.49	86.56
310.72	88.56
310.949	81.56
311.179	98.56
311.409	81.56
311.639	93.56
311.868	99.56
312.098	82.56
312.328	91.56
312.557	70.56
312.787	79.56
313.017	94.56
313.246	92.56
313.476	81.56
313.706	90.56
313.935	97.56
314.165	82.56
314.394	72.56
314.624	86.56
314.853	101.56
315.083	90.56
315.312	69.56
315.542	101.56
315.771	93.56
316.001	83.56
316.23	82.56
316.46	91.56
316.689	85.56
316.919	92.56
317.148	89.56
317.377	89.56
317.607	113.56
317.836	100.56
318.065	95.56
318.295	89.56
318.524	88.56
318.753	72.56
318.983	84.56
319.212	89.56
319.441	84.56
319.67	78.56
319.9	95.56
320.129	97.56
320.358	96.56
320.587	82.56
320.816	91.56
321.046	89.56
321.275	78.56
321.504	83.56
321.733	88.56
321.962	85.56
322.191	85.56
322.42	75.56
322.649	104.56
322.878	103.56
323.108	91.56
323.337	80.56
323.566	87.56
323.795	94.56
324.024	86.56
324.253	85.56
324.482	95.56
324.71	89.56
324.939	103.56
325.168	91.56
325.397	81.56
325.626	97.56
325.855	98.56
326.084	81.56
326.313	85.56
326.542	83.56
326.77	81.56
326.999	83.56
327.228	78.56
327.457	84.56
327.686	87.56
327.914	91.56
328.143	84.56
328.372	106.56
328.6	86.56
328.829	79.56
329.058	81.56
329.287	76.56
329.515	76.56
329.744	96.56
329.972	93.56
330.201	92.56
330.43	99.56
330.658	81.56
330.887	81.56
331.115	81.56
331.344	84.56
331.572	94.56
331.801	80.56
332.03	88.56
332.258	90.56
332.486	97.56
332.715	86.56
332.943	81.56
333.172	91.56
333.4	84.56
333.629	90.56
333.857	101.56
334.085	85.56
334.314	72.56
334.542	95.56
334.771	89.56
334.999	77.56
335.227	84.56
335.455	99.56
335.684	94.56
335.912	88.56
336.14	86.56
336.369	97.56
336.597	83.56
336.825	98.56
337.053	78.56
337.281	99.56
337.51	83.56
337.738	94.56
337.966	94.56
338.194	94.56
338.422	77.56
338.65	94.56
338.878	81.56
339.106	67.56
339.334	96.56
339.562	94.56
339.79	81.56
340.018	94.56
340.246	84.56
340.474	88.56
340.702	78.56
340.93	73.56
341.158	73.56
341.386	86.56
341.614	103.56
341.842	80.56
342.07	82.56
342.298	94.56
342.526	97.56
342.754	85.56
342.981	73.56
343.209	72.56
343.437	94.56
343.665	78.56
343.893	102.56
344.12	93.56
344.348	108.56
344.576	92.56
344.804	105.56
345.031	87.56
345.259	74.56
345.487	83.56
345.714	92.56
345.942	103.56
346.17	91.56
346.397	88.56
346.625	84.56
346.853	102.56
347.08	87.56
347.308	95.56
347.535	91.56
347.763	90.56
347.99	90.56
348.218	94.56
348.445	82.56
348.673	97.56
348.9	84.56
349.128	92.56
349.355	80.56
349.583	95.56
349.81	96.56
350.037	88.56
350.265	94.56
350.492	86.56
350.72	85.56
350.947	92.56
351.174	87.56
351.402	83.56
351.629	90.56
351.856	83.56
352.083	80.56
352.311	90.56
352.538	89.56
352.765	91.56
352.992	79.56
353.22	86.56
353.447	74.56
353.674	80.56
353.901	88.56
354.128	73.56
354.355	72.56
354.583	88.56
354.81	73.56
355.037	91.56
355.264	80.56
355.491	88.56
355.718	87.56
355.945	93.56
356.172	87.56
356.399	83.56
356.626	105.56
356.853	89.56
357.08	103.56
357.307	87.56
357.534	83.56
357.761	99.56
357.988	89.56
358.215	106.56
358.441	111.56
358.668	102.56
358.895	85.56
359.122	79.56
359.349	98.56
359.576	84.56
359.802	88.56
360.029	78.56
360.256	89.56
360.483	100.56
360.709	99.56
360.936	101.56
361.163	103.56
361.39	87.56
361.616	90.56
361.843	103.56
362.07	95.56
362.296	89.56
362.523	75.56
362.749	105.56
362.976	93.56
363.203	101.56
363.429	93.56
363.656	82.56
363.882	92.56
364.109	81.56
364.335	103.56
364.562	96.56
364.788	113.56
365.015	115.56
365.241	102.56
365.468	93.56
365.694	79.56
365.92	79.56
366.147	81.56
366.373	74.56
366.599	80.56
366.826	90.56
367.052	93.56
367.278	95.56
367.505	82.56
367.731	89.56
367.957	81.56
368.184	72.56
368.41	94.56
368.636	98.56
368.862	88.56
369.089	89.56
369.315	89.56
369.541	79.56
369.767	86.56
369.993	82.56
370.219	90.56
370.445	94.56
370.672	105.56
370.898	93.56
371.124	92.56
371.35	91.56
371.576	88.56
371.802	81.56
372.028	106.56
372.254	97.56
372.48	104.56
372.706	101.56
372.932	83.56
373.158	113.56
373.384	118.56
373.61	125.56
373.835	120.56
374.061	107.56
374.287	85.56
374.513	107.56
374.739	103.56
374.965	80.56
375.191	107.56
375.416	102.56
375.642	101.56
375.868	94.56
376.094	90.56
376.319	103.56
376.545	83.56
376.771	95.56
376.997	84.56
377.222	83.56
377.448	86.56
377.674	81.56
377.899	91.56
378.125	86.56
378.35	82.56
378.576	87.56
378.802	90.56
379.027	80.56
379.253	97.56
379.478	102.56
379.704	90.56
379.929	89.56
380.155	75.56
380.38	89.56
380.606	102.56
380.831	86.56
381.057	104.56
381.282	86.56
381.507	90.56
381.733	98.56
381.958	110.56
382.184	94.56
382.409	96.56
382.634	112.56
382.86	114.56
383.085	103.56
383.31	126.56
383.535	121.56
383.761	124.56
383.986	121.56
384.211	102.56
384.436	88.56
384.662	99.56
384.887	78.56
385.112	99.56
385.337	90.56
385.562	98.56
385.787	92.56
386.013	95.56
386.238	96.56
386.463	90.56
386.688	102.56
386.913	86.56
387.138	87.56
387.363	91.56
387.588	93.56
387.813	97.56
388.038	105.56
388.263	97.56
388.488	81.56
388.713	91.56
388.938	75.56
389.163	95.56
389.387	76.56
389.612	98.56
389.837	86.56
390.062	88.56
390.287	89.56
390.512	103.56
390.736	96.56
390.961	79.56
391.186	90.56
391.411	93.56
391.636	74.56
391.86	88.56
392.085	81.56
392.31	99.56
392.534	87.56
392.759	106.56
392.984	126.56
393.208	226.56
393.433	311.56
393.658	233.56
393.882	115.56
394.107	116.56
394.331	125.56
394.556	145.56
394.78	97.56
395.005	101.56
395.229	101.56
395.454	91.56
395.678	117.56
395.903	131.56
396.127	149.56
396.352	173.56
396.576	154.56
396.801	228.56
397.025	262.56
397.249	142.56
397.474	102.56
397.698	94.56
397.922	80.56
398.147	83.56
398.371	85.56
398.595	79.56
398.82	75.56
399.044	81.56
399.268	84.56
399.492	74.56
399.717	91.56
399.941	92.56
400.165	91.56
400.389	81.56
400.613	69.56
400.837	90.56
401.062	98.56
401.286	91.56
401.51	86.56
401.734	80.56
401.958	72.56
402.182	94.56
402.406	73.56
402.63	86.56
402.854	85.56
403.078	82.56
403.302	103.56
403.526	100.56
403.75	93.56
403.974	89.56
404.198	99.56
404.422	151.56
404.645	163.56
404.869	128.56
405.093	108.56
405.317	93.56
405.541	74.56
405.765	84.56
405.988	85.56
406.212	96.56
406.436	107.56
406.66	91.56
406.883	93.56
407.107	85.56
407.331	76.56
407.555	94.56
407.778	97.56
408.002	98.56
408.226	86.56
408.449	81.56
408.673	84.56
408.896	86.56
409.12	84.56
409.344	79.56
409.567	83.56
409.791	104.56
410.014	95.56
410.238	81.56
410.461	93.56
410.685	79.56
410.908	82.56
411.132	77.56
411.355	85.56
411.578	82.56
411.802	89.56
412.025	82.56
412.249	94.56
412.472	97.56
412.695	91.56
412.919	75.56
413.142	89.56
413.365	87.56
413.589	94.56
413.812	87.56
414.035	105.56
414.258	85.56
414.482	91.56
414.705	85.56
414.928	93.56
415.151	80.56
415.374	89.56
415.597	84.56
415.821	84.56
416.044	102.56
416.267	98.56
416.49	80.56
416.713	91.56
416.936	70.56
417.159	73.56
417.382	65.56
417.605	73.56
417.828	80.56
418.051	87.56
418.274	90.56
418.497	95.56
418.72	86.56
418.943	82.56
419.166	81.56
419.389	88.56
419.611	91.56
419.834	80.56
420.057	100.56
420.28	97.56
420.503	81.56
420.726	83.56
420.948	81.56
421.171	75.56
421.394	96.56
421.617	87.56
421.839	97.56
422.062	105.56
422.285	135.56
422.507	233.56
422.73	379.56
422.953	347.56
423.175	149.56
423.398	100.56
423.621	110.56
423.843	87.56
424.066	103.56
424.288	81.56
424.511	88.56
424.733	85.56
424.956	85.56
425.178	87.56
425.401	92.56
425.623	91.56
425.846	85.56
426.068	81.56
426.291	78.56
426.513	99.56
426.735	89.56
426.958	85.56
427.18	95.56
427.402	98.56
427.625	74.56
427.847	88.56
428.069	88.56
428.292	120.56
428.514	126.56
428.736	109.56
428.958	112.56
429.181	99.56
429.403	101.56
429.625	79.56
429.847	118.56
430.069	131.56
430.292	176.56
430.514	174.56
430.736	123.56
430.958	129.56
431.18	104.56
431.402	106.56
431.624	91.56
431.846	111.56
432.068	138.56
432.29	93.56
432.512	74.56
432.734	93.56
432.956	85.56
433.178	82.56
433.4	79.56
433.622	93.56
433.844	82.56
434.066	76.56
434.287	89.56
434.509	80.56
434.731	112.56
434.953	93.56
435.175	89.56
435.397	90.56
435.618	93.56
435.84	77.56
436.062	86.56
436.284	95.56
436.505	78.56
436.727	100.56
436.949	83.56
437.17	90.56
437.392	92.56
437.614	83.56
437.835	84.56
438.057	89.56
438.278	97.56
438.5	95.56
438.721	84.56
438.943	88.56
439.165	86.56
439.386	80.56
439.608	94.56
439.829	85.56
440.05	93.56
440.272	64.56
440.493	81.56
440.715	89.56
440.936	89.56
441.158	86.56
441.379	81.56
441.6	73.56
441.822	99.56
442.043	81.56
442.264	85.56
442.486	100.56
442.707	143.56
442.928	98.56
443.149	106.56
443.371	151.56
443.592	191.56
443.813	179.56
444.034	105.56
444.255	79.56
444.476	94.56
444.698	90.56
444.919	89.56
445.14	168.56
445.361	205.56
445.582	232.56
445.803	187.56
446.024	114.56
446.245	99.56
446.466	81.56
446.687	90.56
446.908	67.56
447.129	84.56
447.35	88.56
447.571	86.56
447.792	89.56
448.013	76.56
448.234	72.56
448.455	96.56
448.675	98.56
448.896	88.56
449.117	76.56
449.338	105.56
449.559	81.56
449.779	89.56
450	81.56
450.221	72.56
450.442	73.56
450.662	95.56
450.883	78.56
451.104	85.56
451.324	97.56
451.545	77.56
451.766	97.56
451.986	82.56
452.207	81.56
452.428	83.56
452.648	97.56
452.869	99.56
453.089	91.56
453.31	84.56
453.53	87.56
453.751	87.56
453.971	90.56
454.192	80.56
454.412	91.56
454.633	87.56
454.853	78.56
455.073	93.56
455.294	83.56
455.514	79.56
455.734	102.56
455.955	89.56
456.175	84.56
456.395	85.56
456.616	93.56
456.836	90.56
457.056	94.56
457.276	80.56
457.497	78.56
457.717	75.56
457.937	81.56
458.157	99.56
458.377	103.56
458.598	105.56
458.818	97.56
459.038	90.56
459.258	85.56
459.478	84.56
459.698	84.56
459.918	87.56
460.138	86.56
460.358	88.56
460.578	93.56
460.798	97.56
461.018	101.56
461.238	102.56
461.458	86.56
461.678	80.56
461.898	84.56
462.118	86.56
462.338	73.56
462.558	82.56
462.777	73.56
462.997	75.56
463.217	93.56
463.437	79.56
463.657	70.56
463.876	82.56
464.096	79.56
464.316	93.56
464.536	99.56
464.755	92.56
464.975	87.56
465.195	74.56
465.414	97.56
465.634	85.56
465.854	85.56
466.073	81.56
466.293	73.56
466.512	90.56
466.732	74.56
466.951	88.56
467.171	86.56
467.391	75.56
467.61	90.56
467.829	100.56
468.049	75.56
468.268	84.56
468.488	82.56
468.707	90.56
468.927	93.56
469.146	89.56
469.365	85.56
469.585	86.56
469.804	85.56
470.023	76.56
470.243	83.56
470.462	83.56
470.681	86.56
470.901	86.56
471.12	86.56
471.339	92.56
471.558	74.56
471.777	72.56
471.997	100.56
472.216	87.56
472.435	83.56
472.654	84.56
472.873	91.56
473.092	91.56
473.311	70.56
473.53	73.56
473.749	85.56
473.968	95.56
474.187	91.56
474.406	86.56
474.625	97.56
474.844	85.56
475.063	87.56
475.282	74.56
475.501	71.56
475.72	96.56
475.939	83.56
476.158	85.56
476.377	86.56
476.596	75.56
476.814	85.56
477.033	85.56
477.252	90.56
477.471	76.56
477.69	82.56
477.908	84.56
478.127	78.56
478.346	73.56
478.564	86.56
478.783	76.56
479.002	90.56
479.22	72.56
479.439	97.56
479.658	73.56
479.876	80.56
480.095	79.56
480.313	86.56
480.532	92.56
480.751	97.56
480.969	98.56
481.188	76.56
481.406	90.56
481.624	81.56
481.843	80.56
482.061	84.56
482.28	92.56
482.498	72.56
482.717	83.56
482.935	86.56
483.153	77.56
483.372	95.56
483.59	76.56
483.808	77.56
484.027	72.56
484.245	87.56
484.463	81.56
484.681	97.56
484.9	74.56
485.118	72.56
485.336	107.56
485.554	85.56
485.772	93.56
485.99	98.56
486.209	90.56
486.427	91.56
486.645	94.56
486.863	76.56
487.081	88.56
487.299	103.56
487.517	100.56
487.735	97.56
487.953	123.56
488.171	128.56
488.389	96.56
488.607	97.56
488.825	74.56
489.043	88.56
489.261	79.56
489.479	85.56
489.696	82.56
489.914	91.56
490.132	92.56
490.35	99.56
490.568	74.56
490.786	93.56
491.003	96.56
491.221	96.56
491.439	70.56
491.657	90.56
491.874	85.56
492.092	92.56
492.31	95.56
492.527	95.56
492.745	70.56
492.963	78.56
493.18	82.56
493.398	88.56
493.615	118.56
493.833	81.56
494.05	73.56
494.268	92.56
494.485	91.56
494.703	91.56
494.92	88.56
495.138	90.56
495.355	75.56
495.573	83.56
495.79	83.56
496.008	101.56
496.225	84.56
496.442	82.56
496.66	82.56
496.877	88.56
497.094	89.56
497.312	92.56
497.529	79.56
497.746	82.56
497.963	77.56
498.181	100.56
498.398	93.56
498.615	96.56
498.832	92.56
499.049	84.56
499.267	91.56
499.484	85.56
499.701	86.56
499.918	80.56
500.135	103.56
500.352	87.56
500.569	97.56
500.786	105.56
501.003	97.56
501.22	91.56
501.437	95.56
501.654	81.56
501.871	71.56
502.088	98.56
502.305	89.56
502.522	89.56
502.739	78.56
502.956	91.56
503.172	83.56
503.389	101.56
503.606	74.56
503.823	93.56
504.04	89.56
504.256	101.56
504.473	99.56
504.69	86.56
504.907	98.56
505.123	88.56
505.34	82.56
505.557	82.56
505.773	81.56
505.99	81.56
506.207	84.56
506.423	85.56
506.64	94.56
506.856	109.56
507.073	86.56
507.289	94.56
507.506	84.56
507.722	83.56
507.939	81.56
508.155	102.56
508.372	89.56
508.588	87.56
508.805	94.56
509.021	88.56
509.238	90.56
509.454	80.56
509.67	91.56
509.887	82.56
510.103	96.56
510.319	100.56
510.536	105.56
510.752	93.56
510.968	78.56
511.184	83.56
511.401	81.56
511.617	91.56
511.833	90.56
512.049	83.56
512.265	81.56
512.481	79.56
512.698	87.56
512.914	82.56
513.13	90.56
513.346	77.56
513.562	82.56
513.778	88.56
513.994	86.56
514.21	96.56
514.426	89.56
514.642	81.56
514.858	83.56
515.074	99.56
515.29	80.56
515.506	75.56
515.721	83.56
515.937	93.56
516.153	89.56
516.369	84.56
516.585	87.56
516.801	98.56
517.016	111.56
517.232	112.56
517.448	126.56
517.664	108.56
517.879	93.56
