Data from 1600_2_HRD10591_00028.txt Node
Date: Mon Jan 19 13:53:55 EST 2026
User: Yrep
Spectrometer: HR+D1059
Trigger mode: 1
Integration Time (sec): 1.000000E-1
Scans to average: 1
Electric dark correction enabled: true
Nonlinearity correction enabled: false
Boxcar width: 0
XAxis mode: Wavelengths
Number of Pixels in Spectrum: 2048
>>>>>Begin Spectral Data<<<<<
223.165	-17.88
223.4	-17.88
223.635	-17.88
223.869	-10.88
224.104	-3.88
224.338	-12.88
224.573	-10.88
224.808	-17.88
225.042	-3.88
225.277	-13.88
225.511	2.12
225.746	-9.88
225.98	-4.88
226.215	15.12
226.449	12.12
226.683	25.12
226.918	28.12
227.152	24.12
227.387	35.12
227.621	44.12
227.856	36.12
228.09	47.12
228.324	44.12
228.559	65.12
228.793	52.12
229.027	68.12
229.262	66.12
229.496	61.12
229.73	61.12
229.964	64.12
230.199	61.12
230.433	75.12
230.667	73.12
230.901	77.12
231.136	63.12
231.37	77.12
231.604	72.12
231.838	77.12
232.072	76.12
232.306	90.12
232.541	86.12
232.775	72.12
233.009	76.12
233.243	75.12
233.477	85.12
233.711	84.12
233.945	81.12
234.179	81.12
234.413	70.12
234.647	69.12
234.881	69.12
235.115	81.12
235.349	73.12
235.583	76.12
235.817	74.12
236.051	80.12
236.285	65.12
236.519	87.12
236.753	73.12
236.987	74.12
237.221	73.12
237.455	76.12
237.689	80.12
237.922	79.12
238.156	76.12
238.39	71.12
238.624	65.12
238.858	81.12
239.091	78.12
239.325	69.12
239.559	66.12
239.793	87.12
240.027	80.12
240.26	65.12
240.494	66.12
240.728	58.12
240.961	71.12
241.195	90.12
241.429	83.12
241.662	73.12
241.896	78.12
242.13	74.12
242.363	53.12
242.597	85.12
242.83	90.12
243.064	68.12
243.298	77.12
243.531	75.12
243.765	71.12
243.998	85.12
244.232	87.12
244.465	98.12
244.699	87.12
244.932	80.12
245.166	79.12
245.399	65.12
245.633	77.12
245.866	70.12
246.099	84.12
246.333	75.12
246.566	74.12
246.8	75.12
247.033	65.12
247.266	71.12
247.5	74.12
247.733	72.12
247.966	61.12
248.2	72.12
248.433	82.12
248.666	87.12
248.899	86.12
249.133	60.12
249.366	73.12
249.599	77.12
249.832	78.12
250.066	81.12
250.299	91.12
250.532	71.12
250.765	67.12
250.998	65.12
251.231	77.12
251.465	80.12
251.698	79.12
251.931	88.12
252.164	77.12
252.397	82.12
252.63	89.12
252.863	73.12
253.096	68.12
253.329	71.12
253.562	72.12
253.795	79.12
254.028	73.12
254.261	81.12
254.494	65.12
254.727	74.12
254.96	75.12
255.193	72.12
255.426	75.12
255.659	76.12
255.892	70.12
256.124	75.12
256.357	68.12
256.59	80.12
256.823	72.12
257.056	74.12
257.289	78.12
257.521	78.12
257.754	72.12
257.987	64.12
258.22	74.12
258.452	65.12
258.685	83.12
258.918	73.12
259.151	63.12
259.383	70.12
259.616	63.12
259.849	78.12
260.081	84.12
260.314	86.12
260.547	81.12
260.779	89.12
261.012	66.12
261.244	82.12
261.477	84.12
261.71	73.12
261.942	77.12
262.175	69.12
262.407	82.12
262.64	79.12
262.872	79.12
263.105	78.12
263.337	75.12
263.57	83.12
263.802	81.12
264.035	67.12
264.267	77.12
264.499	76.12
264.732	75.12
264.964	80.12
265.197	90.12
265.429	84.12
265.661	89.12
265.894	85.12
266.126	76.12
266.358	88.12
266.591	87.12
266.823	90.12
267.055	82.12
267.287	86.12
267.52	87.12
267.752	81.12
267.984	82.12
268.216	74.12
268.448	85.12
268.681	93.12
268.913	93.12
269.145	84.12
269.377	71.12
269.609	75.12
269.841	87.12
270.073	71.12
270.306	86.12
270.538	74.12
270.77	85.12
271.002	77.12
271.234	91.12
271.466	74.12
271.698	80.12
271.93	91.12
272.162	77.12
272.394	72.12
272.626	75.12
272.858	86.12
273.09	79.12
273.322	85.12
273.553	66.12
273.785	71.12
274.017	79.12
274.249	61.12
274.481	83.12
274.713	87.12
274.945	85.12
275.176	90.12
275.408	86.12
275.64	77.12
275.872	76.12
276.104	71.12
276.335	81.12
276.567	84.12
276.799	81.12
277.031	74.12
277.262	74.12
277.494	88.12
277.726	103.12
277.957	85.12
278.189	90.12
278.421	63.12
278.652	86.12
278.884	86.12
279.115	87.12
279.347	95.12
279.579	78.12
279.81	83.12
280.042	93.12
280.273	90.12
280.505	84.12
280.736	86.12
280.968	80.12
281.199	101.12
281.431	83.12
281.662	68.12
281.894	80.12
282.125	84.12
282.356	67.12
282.588	73.12
282.819	73.12
283.051	74.12
283.282	78.12
283.513	99.12
283.745	84.12
283.976	82.12
284.207	93.12
284.439	90.12
284.67	71.12
284.901	84.12
285.132	97.12
285.364	80.12
285.595	89.12
285.826	76.12
286.057	91.12
286.288	79.12
286.52	83.12
286.751	86.12
286.982	81.12
287.213	67.12
287.444	79.12
287.675	87.12
287.906	88.12
288.138	92.12
288.369	89.12
288.6	85.12
288.831	92.12
289.062	81.12
289.293	96.12
289.524	82.12
289.755	86.12
289.986	82.12
290.217	88.12
290.448	85.12
290.679	75.12
290.91	71.12
291.141	77.12
291.371	82.12
291.602	97.12
291.833	79.12
292.064	93.12
292.295	89.12
292.526	91.12
292.757	77.12
292.987	97.12
293.218	86.12
293.449	79.12
293.68	88.12
293.91	87.12
294.141	84.12
294.372	80.12
294.603	83.12
294.833	68.12
295.064	81.12
295.295	81.12
295.525	81.12
295.756	80.12
295.987	96.12
296.217	97.12
296.448	68.12
296.679	83.12
296.909	76.12
297.14	74.12
297.37	81.12
297.601	81.12
297.831	77.12
298.062	78.12
298.292	91.12
298.523	87.12
298.753	95.12
298.984	85.12
299.214	70.12
299.445	58.12
299.675	90.12
299.905	105.12
300.136	90.12
300.366	89.12
300.597	77.12
300.827	76.12
301.057	83.12
301.288	89.12
301.518	86.12
301.748	81.12
301.979	99.12
302.209	77.12
302.439	91.12
302.669	82.12
302.9	83.12
303.13	88.12
303.36	88.12
303.59	71.12
303.82	94.12
304.051	72.12
304.281	78.12
304.511	87.12
304.741	74.12
304.971	82.12
305.201	89.12
305.431	86.12
305.661	91.12
305.891	82.12
306.121	86.12
306.352	97.12
306.582	77.12
306.812	94.12
307.042	81.12
307.272	87.12
307.502	88.12
307.731	76.12
307.961	78.12
308.191	88.12
308.421	89.12
308.651	85.12
308.881	90.12
309.111	89.12
309.341	98.12
309.571	96.12
309.8	85.12
310.03	75.12
310.26	74.12
310.49	70.12
310.72	79.12
310.949	85.12
311.179	85.12
311.409	69.12
311.639	85.12
311.868	79.12
312.098	80.12
312.328	82.12
312.557	66.12
312.787	68.12
313.017	83.12
313.246	82.12
313.476	86.12
313.706	76.12
313.935	85.12
314.165	73.12
314.394	82.12
314.624	87.12
314.853	78.12
315.083	72.12
315.312	73.12
315.542	96.12
315.771	91.12
316.001	82.12
316.23	92.12
316.46	84.12
316.689	72.12
316.919	79.12
317.148	78.12
317.377	85.12
317.607	82.12
317.836	81.12
318.065	79.12
318.295	82.12
318.524	79.12
318.753	85.12
318.983	86.12
319.212	92.12
319.441	90.12
319.67	85.12
319.9	83.12
320.129	79.12
320.358	99.12
320.587	86.12
320.816	76.12
321.046	77.12
321.275	92.12
321.504	90.12
321.733	95.12
321.962	91.12
322.191	90.12
322.42	86.12
322.649	83.12
322.878	82.12
323.108	73.12
323.337	90.12
323.566	92.12
323.795	87.12
324.024	85.12
324.253	86.12
324.482	82.12
324.71	81.12
324.939	83.12
325.168	83.12
325.397	85.12
325.626	85.12
325.855	82.12
326.084	83.12
326.313	77.12
326.542	79.12
326.77	85.12
326.999	85.12
327.228	71.12
327.457	84.12
327.686	70.12
327.914	81.12
328.143	94.12
328.372	93.12
328.6	94.12
328.829	91.12
329.058	97.12
329.287	84.12
329.515	82.12
329.744	94.12
329.972	92.12
330.201	83.12
330.43	93.12
330.658	82.12
330.887	87.12
331.115	78.12
331.344	70.12
331.572	70.12
331.801	75.12
332.03	90.12
332.258	97.12
332.486	84.12
332.715	85.12
332.943	84.12
333.172	75.12
333.4	65.12
333.629	81.12
333.857	89.12
334.085	84.12
334.314	99.12
334.542	87.12
334.771	99.12
334.999	100.12
335.227	85.12
335.455	78.12
335.684	100.12
335.912	87.12
336.14	85.12
336.369	100.12
336.597	81.12
336.825	72.12
337.053	86.12
337.281	80.12
337.51	73.12
337.738	90.12
337.966	102.12
338.194	82.12
338.422	99.12
338.65	82.12
338.878	75.12
339.106	81.12
339.334	95.12
339.562	80.12
339.79	78.12
340.018	74.12
340.246	84.12
340.474	77.12
340.702	79.12
340.93	82.12
341.158	86.12
341.386	90.12
341.614	71.12
341.842	82.12
342.07	95.12
342.298	76.12
342.526	82.12
342.754	80.12
342.981	82.12
343.209	87.12
343.437	86.12
343.665	86.12
343.893	85.12
344.12	84.12
344.348	80.12
344.576	82.12
344.804	84.12
345.031	95.12
345.259	86.12
345.487	85.12
345.714	82.12
345.942	78.12
346.17	95.12
346.397	86.12
346.625	75.12
346.853	92.12
347.08	76.12
347.308	90.12
347.535	91.12
347.763	89.12
347.99	81.12
348.218	81.12
348.445	71.12
348.673	71.12
348.9	90.12
349.128	79.12
349.355	73.12
349.583	81.12
349.81	80.12
350.037	86.12
350.265	87.12
350.492	78.12
350.72	87.12
350.947	72.12
351.174	86.12
351.402	87.12
351.629	85.12
351.856	82.12
352.083	64.12
352.311	81.12
352.538	81.12
352.765	85.12
352.992	82.12
353.22	73.12
353.447	79.12
353.674	67.12
353.901	82.12
354.128	85.12
354.355	75.12
354.583	77.12
354.81	72.12
355.037	77.12
355.264	81.12
355.491	78.12
355.718	92.12
355.945	88.12
356.172	92.12
356.399	91.12
356.626	99.12
356.853	84.12
357.08	92.12
357.307	85.12
357.534	65.12
357.761	87.12
357.988	89.12
358.215	100.12
358.441	87.12
358.668	80.12
358.895	84.12
359.122	73.12
359.349	73.12
359.576	81.12
359.802	71.12
360.029	94.12
360.256	79.12
360.483	82.12
360.709	86.12
360.936	108.12
361.163	93.12
361.39	84.12
361.616	75.12
361.843	90.12
362.07	91.12
362.296	89.12
362.523	87.12
362.749	88.12
362.976	101.12
363.203	109.12
363.429	94.12
363.656	87.12
363.882	74.12
364.109	89.12
364.335	101.12
364.562	99.12
364.788	93.12
365.015	86.12
365.241	102.12
365.468	78.12
365.694	75.12
365.92	77.12
366.147	94.12
366.373	76.12
366.599	76.12
366.826	88.12
367.052	90.12
367.278	77.12
367.505	81.12
367.731	101.12
367.957	84.12
368.184	84.12
368.41	76.12
368.636	84.12
368.862	79.12
369.089	89.12
369.315	76.12
369.541	89.12
369.767	77.12
369.993	88.12
370.219	76.12
370.445	69.12
370.672	95.12
370.898	99.12
371.124	93.12
371.35	78.12
371.576	86.12
371.802	83.12
372.028	90.12
372.254	108.12
372.48	98.12
372.706	79.12
372.932	81.12
373.158	92.12
373.384	105.12
373.61	101.12
373.835	98.12
374.061	85.12
374.287	85.12
374.513	83.12
374.739	110.12
374.965	98.12
375.191	85.12
375.416	73.12
375.642	76.12
375.868	91.12
376.094	77.12
376.319	82.12
376.545	94.12
376.771	75.12
376.997	84.12
377.222	68.12
377.448	83.12
377.674	83.12
377.899	92.12
378.125	85.12
378.35	76.12
378.576	69.12
378.802	82.12
379.027	88.12
379.253	81.12
379.478	81.12
379.704	76.12
379.929	84.12
380.155	97.12
380.38	77.12
380.606	98.12
380.831	77.12
381.057	110.12
381.282	86.12
381.507	77.12
381.733	91.12
381.958	84.12
382.184	85.12
382.409	85.12
382.634	96.12
382.86	92.12
383.085	99.12
383.31	81.12
383.535	103.12
383.761	104.12
383.986	98.12
384.211	78.12
384.436	83.12
384.662	80.12
384.887	87.12
385.112	82.12
385.337	73.12
385.562	88.12
385.787	85.12
386.013	87.12
386.238	98.12
386.463	93.12
386.688	91.12
386.913	84.12
387.138	77.12
387.363	89.12
387.588	94.12
387.813	91.12
388.038	89.12
388.263	87.12
388.488	81.12
388.713	76.12
388.938	86.12
389.163	79.12
389.387	98.12
389.612	77.12
389.837	86.12
390.062	65.12
390.287	83.12
390.512	93.12
390.736	91.12
390.961	81.12
391.186	81.12
391.411	76.12
391.636	84.12
391.86	85.12
392.085	90.12
392.31	85.12
392.534	100.12
392.759	87.12
392.984	125.12
393.208	172.12
393.433	209.12
393.658	184.12
393.882	123.12
394.107	98.12
394.331	111.12
394.556	130.12
394.78	98.12
395.005	86.12
395.229	88.12
395.454	90.12
395.678	89.12
395.903	107.12
396.127	141.12
396.352	140.12
396.576	124.12
396.801	168.12
397.025	177.12
397.249	115.12
397.474	97.12
397.698	89.12
397.922	90.12
398.147	78.12
398.371	84.12
398.595	91.12
398.82	89.12
399.044	86.12
399.268	79.12
399.492	97.12
399.717	81.12
399.941	86.12
400.165	85.12
400.389	86.12
400.613	83.12
400.837	82.12
401.062	81.12
401.286	78.12
401.51	85.12
401.734	82.12
401.958	82.12
402.182	65.12
402.406	81.12
402.63	77.12
402.854	81.12
403.078	79.12
403.302	82.12
403.526	79.12
403.75	97.12
403.974	90.12
404.198	91.12
404.422	143.12
404.645	183.12
404.869	140.12
405.093	101.12
405.317	93.12
405.541	81.12
405.765	82.12
405.988	76.12
406.212	85.12
406.436	89.12
406.66	85.12
406.883	88.12
407.107	73.12
407.331	88.12
407.555	69.12
407.778	83.12
408.002	85.12
408.226	79.12
408.449	81.12
408.673	80.12
408.896	77.12
409.12	84.12
409.344	84.12
409.567	78.12
409.791	91.12
410.014	87.12
410.238	85.12
410.461	76.12
410.685	73.12
410.908	86.12
411.132	83.12
411.355	82.12
411.578	71.12
411.802	72.12
412.025	81.12
412.249	78.12
412.472	72.12
412.695	79.12
412.919	82.12
413.142	67.12
413.365	84.12
413.589	83.12
413.812	85.12
414.035	81.12
414.258	87.12
414.482	75.12
414.705	84.12
414.928	95.12
415.151	96.12
415.374	79.12
415.597	80.12
415.821	79.12
416.044	68.12
416.267	69.12
416.49	66.12
416.713	68.12
416.936	82.12
417.159	93.12
417.382	75.12
417.605	66.12
417.828	95.12
418.051	86.12
418.274	87.12
418.497	82.12
418.72	86.12
418.943	69.12
419.166	82.12
419.389	84.12
419.611	82.12
419.834	72.12
420.057	97.12
420.28	86.12
420.503	87.12
420.726	82.12
420.948	77.12
421.171	85.12
421.394	89.12
421.617	89.12
421.839	75.12
422.062	98.12
422.285	125.12
422.507	207.12
422.73	316.12
422.953	278.12
423.175	150.12
423.398	100.12
423.621	105.12
423.843	81.12
424.066	91.12
424.288	71.12
424.511	74.12
424.733	80.12
424.956	84.12
425.178	82.12
425.401	81.12
425.623	91.12
425.846	100.12
426.068	68.12
426.291	83.12
426.513	84.12
426.735	81.12
426.958	73.12
427.18	94.12
427.402	70.12
427.625	85.12
427.847	75.12
428.069	92.12
428.292	95.12
428.514	115.12
428.736	97.12
428.958	85.12
429.181	108.12
429.403	73.12
429.625	97.12
429.847	98.12
430.069	127.12
430.292	155.12
430.514	125.12
430.736	125.12
430.958	118.12
431.18	103.12
431.402	83.12
431.624	94.12
431.846	98.12
432.068	114.12
432.29	93.12
432.512	73.12
432.734	83.12
432.956	72.12
433.178	88.12
433.4	86.12
433.622	85.12
433.844	80.12
434.066	96.12
434.287	92.12
434.509	78.12
434.731	73.12
434.953	85.12
435.175	81.12
435.397	97.12
435.618	83.12
435.84	92.12
436.062	67.12
436.284	96.12
436.505	75.12
436.727	77.12
436.949	92.12
437.17	75.12
437.392	71.12
437.614	85.12
437.835	90.12
438.057	72.12
438.278	101.12
438.5	107.12
438.721	70.12
438.943	93.12
439.165	84.12
439.386	78.12
439.608	81.12
439.829	79.12
440.05	80.12
440.272	78.12
440.493	93.12
440.715	83.12
440.936	82.12
441.158	70.12
441.379	77.12
441.6	91.12
441.822	89.12
442.043	83.12
442.264	102.12
442.486	109.12
442.707	116.12
442.928	108.12
443.149	105.12
443.371	114.12
443.592	172.12
443.813	151.12
444.034	90.12
444.255	87.12
444.476	81.12
444.698	79.12
444.919	84.12
445.14	187.12
445.361	158.12
445.582	217.12
445.803	175.12
446.024	112.12
446.245	83.12
446.466	91.12
446.687	76.12
446.908	97.12
447.129	75.12
447.35	90.12
447.571	78.12
447.792	66.12
448.013	69.12
448.234	77.12
448.455	65.12
448.675	83.12
448.896	82.12
449.117	71.12
449.338	78.12
449.559	74.12
449.779	86.12
450	73.12
450.221	77.12
450.442	82.12
450.662	85.12
450.883	75.12
451.104	72.12
451.324	82.12
451.545	81.12
451.766	81.12
451.986	66.12
452.207	77.12
452.428	79.12
452.648	87.12
452.869	79.12
453.089	91.12
453.31	101.12
453.53	87.12
453.751	76.12
453.971	89.12
454.192	71.12
454.412	83.12
454.633	88.12
454.853	79.12
455.073	85.12
455.294	84.12
455.514	81.12
455.734	81.12
455.955	66.12
456.175	82.12
456.395	92.12
456.616	71.12
456.836	71.12
457.056	82.12
457.276	79.12
457.497	91.12
457.717	73.12
457.937	90.12
458.157	89.12
458.377	97.12
458.598	96.12
458.818	98.12
459.038	91.12
459.258	90.12
459.478	87.12
459.698	79.12
459.918	85.12
460.138	75.12
460.358	71.12
460.578	86.12
460.798	88.12
461.018	97.12
461.238	83.12
461.458	82.12
461.678	75.12
461.898	79.12
462.118	87.12
462.338	87.12
462.558	82.12
462.777	90.12
462.997	79.12
463.217	88.12
463.437	84.12
463.657	83.12
463.876	81.12
464.096	85.12
464.316	67.12
464.536	61.12
464.755	85.12
464.975	84.12
465.195	78.12
465.414	72.12
465.634	68.12
465.854	72.12
466.073	89.12
466.293	79.12
466.512	92.12
466.732	64.12
466.951	79.12
467.171	77.12
467.391	61.12
467.61	87.12
467.829	81.12
468.049	94.12
468.268	75.12
468.488	71.12
468.707	91.12
468.927	84.12
469.146	85.12
469.365	82.12
469.585	81.12
469.804	79.12
470.023	77.12
470.243	90.12
470.462	99.12
470.681	95.12
470.901	83.12
471.12	79.12
471.339	85.12
471.558	87.12
471.777	94.12
471.997	78.12
472.216	84.12
472.435	93.12
472.654	80.12
472.873	83.12
473.092	81.12
473.311	83.12
473.53	86.12
473.749	74.12
473.968	86.12
474.187	94.12
474.406	96.12
474.625	78.12
474.844	101.12
475.063	87.12
475.282	82.12
475.501	78.12
475.72	87.12
475.939	77.12
476.158	82.12
476.377	83.12
476.596	81.12
476.814	78.12
477.033	85.12
477.252	85.12
477.471	94.12
477.69	78.12
477.908	75.12
478.127	71.12
478.346	90.12
478.564	79.12
478.783	77.12
479.002	76.12
479.22	80.12
479.439	100.12
479.658	96.12
479.876	78.12
480.095	77.12
480.313	82.12
480.532	89.12
480.751	81.12
480.969	79.12
481.188	69.12
481.406	77.12
481.624	87.12
481.843	95.12
482.061	81.12
482.28	87.12
482.498	98.12
482.717	87.12
482.935	80.12
483.153	66.12
483.372	80.12
483.59	98.12
483.808	79.12
484.027	78.12
484.245	75.12
484.463	83.12
484.681	91.12
484.9	86.12
485.118	87.12
485.336	92.12
485.554	84.12
485.772	77.12
485.99	79.12
486.209	74.12
486.427	77.12
486.645	77.12
486.863	90.12
487.081	90.12
487.299	86.12
487.517	92.12
487.735	105.12
487.953	104.12
488.171	100.12
488.389	92.12
488.607	91.12
488.825	83.12
489.043	82.12
489.261	91.12
489.479	85.12
489.696	78.12
489.914	78.12
490.132	75.12
490.35	88.12
490.568	71.12
490.786	83.12
491.003	87.12
491.221	80.12
491.439	97.12
491.657	89.12
491.874	77.12
492.092	78.12
492.31	85.12
492.527	93.12
492.745	71.12
492.963	68.12
493.18	84.12
493.398	78.12
493.615	77.12
493.833	82.12
494.05	78.12
494.268	85.12
494.485	86.12
494.703	86.12
494.92	87.12
495.138	87.12
495.355	93.12
495.573	99.12
495.79	79.12
496.008	85.12
496.225	96.12
496.442	85.12
496.66	99.12
496.877	89.12
497.094	97.12
497.312	72.12
497.529	73.12
497.746	86.12
497.963	91.12
498.181	84.12
498.398	93.12
498.615	84.12
498.832	79.12
499.049	97.12
499.267	87.12
499.484	95.12
499.701	92.12
499.918	90.12
500.135	86.12
500.352	85.12
500.569	81.12
500.786	73.12
501.003	85.12
501.22	89.12
501.437	95.12
501.654	92.12
501.871	81.12
502.088	80.12
502.305	93.12
502.522	78.12
502.739	83.12
502.956	81.12
503.172	78.12
503.389	86.12
503.606	81.12
503.823	91.12
504.04	87.12
504.256	118.12
504.473	91.12
504.69	84.12
504.907	84.12
505.123	80.12
505.34	88.12
505.557	94.12
505.773	94.12
505.99	84.12
506.207	85.12
506.423	76.12
506.64	89.12
506.856	87.12
507.073	77.12
507.289	84.12
507.506	91.12
507.722	89.12
507.939	87.12
508.155	85.12
508.372	91.12
508.588	81.12
508.805	83.12
509.021	94.12
509.238	98.12
509.454	91.12
509.67	75.12
509.887	90.12
510.103	89.12
510.319	81.12
510.536	87.12
510.752	90.12
510.968	77.12
511.184	58.12
511.401	87.12
511.617	89.12
511.833	89.12
512.049	76.12
512.265	91.12
512.481	100.12
512.698	99.12
512.914	95.12
513.13	90.12
513.346	88.12
513.562	77.12
513.778	75.12
513.994	79.12
514.21	72.12
514.426	77.12
514.642	77.12
514.858	66.12
515.074	81.12
515.29	97.12
515.506	84.12
515.721	81.12
515.937	102.12
516.153	81.12
516.369	87.12
516.585	86.12
516.801	105.12
517.016	95.12
517.232	100.12
517.448	105.12
517.664	95.12
517.879	85.12
518.095	89.12
518.311	95.12
518.527	114.12
518.742	105.12
518.958	97.12
