Data from 1600_2_HRD10591_00019.txt Node
Date: Mon Jan 19 13:53:50 EST 2026
User: Yrep
Spectrometer: HR+D1059
Trigger mode: 1
Integration Time (sec): 1.000000E-1
Scans to average: 1
Electric dark correction enabled: true
Nonlinearity correction enabled: false
Boxcar width: 0
XAxis mode: Wavelengths
Number of Pixels in Spectrum: 2048
>>>>>Begin Spectral Data<<<<<
223.165	-25.19
223.4	-25.19
223.635	-25.19
223.869	-16.19
224.104	-34.19
224.338	-24.19
224.573	-6.19
224.808	-11.19
225.042	-9.19
225.277	7.81
225.511	-6.19
225.746	8.81
225.98	1.81
226.215	8.81
226.449	13.81
226.683	22.81
226.918	32.81
227.152	35.81
227.387	24.81
227.621	36.81
227.856	48.81
228.09	52.81
228.324	41.81
228.559	55.81
228.793	63.81
229.027	54.81
229.262	61.81
229.496	68.81
229.73	71.81
229.964	94.81
230.199	92.81
230.433	66.81
230.667	75.81
230.901	66.81
231.136	76.81
231.37	73.81
231.604	81.81
231.838	79.81
232.072	77.81
232.306	86.81
232.541	63.81
232.775	82.81
233.009	77.81
233.243	81.81
233.477	86.81
233.711	74.81
233.945	84.81
234.179	85.81
234.413	72.81
234.647	84.81
234.881	76.81
235.115	79.81
235.349	80.81
235.583	76.81
235.817	81.81
236.051	67.81
236.285	74.81
236.519	81.81
236.753	56.81
236.987	81.81
237.221	76.81
237.455	82.81
237.689	83.81
237.922	83.81
238.156	73.81
238.39	82.81
238.624	81.81
238.858	74.81
239.091	85.81
239.325	68.81
239.559	72.81
239.793	78.81
240.027	77.81
240.26	80.81
240.494	74.81
240.728	83.81
240.961	84.81
241.195	80.81
241.429	81.81
241.662	73.81
241.896	74.81
242.13	58.81
242.363	88.81
242.597	82.81
242.83	83.81
243.064	75.81
243.298	74.81
243.531	79.81
243.765	76.81
243.998	73.81
244.232	81.81
244.465	93.81
244.699	80.81
244.932	81.81
245.166	72.81
245.399	80.81
245.633	65.81
245.866	73.81
246.099	92.81
246.333	60.81
246.566	58.81
246.8	84.81
247.033	80.81
247.266	87.81
247.5	78.81
247.733	70.81
247.966	83.81
248.2	72.81
248.433	70.81
248.666	74.81
248.899	82.81
249.133	81.81
249.366	83.81
249.599	82.81
249.832	92.81
250.066	77.81
250.299	76.81
250.532	95.81
250.765	76.81
250.998	77.81
251.231	84.81
251.465	78.81
251.698	81.81
251.931	86.81
252.164	91.81
252.397	95.81
252.63	71.81
252.863	88.81
253.096	73.81
253.329	90.81
253.562	78.81
253.795	84.81
254.028	79.81
254.261	92.81
254.494	77.81
254.727	73.81
254.96	84.81
255.193	92.81
255.426	81.81
255.659	87.81
255.892	86.81
256.124	77.81
256.357	77.81
256.59	83.81
256.823	81.81
257.056	85.81
257.289	96.81
257.521	88.81
257.754	89.81
257.987	74.81
258.22	76.81
258.452	70.81
258.685	83.81
258.918	83.81
259.151	87.81
259.383	72.81
259.616	72.81
259.849	86.81
260.081	87.81
260.314	95.81
260.547	93.81
260.779	82.81
261.012	92.81
261.244	88.81
261.477	81.81
261.71	83.81
261.942	79.81
262.175	90.81
262.407	85.81
262.64	65.81
262.872	80.81
263.105	78.81
263.337	81.81
263.57	89.81
263.802	74.81
264.035	92.81
264.267	80.81
264.499	89.81
264.732	79.81
264.964	64.81
265.197	73.81
265.429	88.81
265.661	81.81
265.894	70.81
266.126	81.81
266.358	92.81
266.591	93.81
266.823	79.81
267.055	83.81
267.287	69.81
267.52	86.81
267.752	75.81
267.984	71.81
268.216	83.81
268.448	86.81
268.681	78.81
268.913	100.81
269.145	74.81
269.377	81.81
269.609	78.81
269.841	88.81
270.073	66.81
270.306	80.81
270.538	81.81
270.77	77.81
271.002	87.81
271.234	83.81
271.466	91.81
271.698	81.81
271.93	88.81
272.162	60.81
272.394	88.81
272.626	88.81
272.858	87.81
273.09	84.81
273.322	101.81
273.553	87.81
273.785	82.81
274.017	80.81
274.249	75.81
274.481	72.81
274.713	84.81
274.945	85.81
275.176	89.81
275.408	88.81
275.64	87.81
275.872	77.81
276.104	82.81
276.335	95.81
276.567	75.81
276.799	85.81
277.031	87.81
277.262	85.81
277.494	91.81
277.726	82.81
277.957	86.81
278.189	91.81
278.421	89.81
278.652	79.81
278.884	98.81
279.115	80.81
279.347	84.81
279.579	91.81
279.81	94.81
280.042	95.81
280.273	84.81
280.505	88.81
280.736	85.81
280.968	84.81
281.199	94.81
281.431	84.81
281.662	84.81
281.894	85.81
282.125	88.81
282.356	96.81
282.588	76.81
282.819	91.81
283.051	84.81
283.282	79.81
283.513	87.81
283.745	83.81
283.976	82.81
284.207	83.81
284.439	89.81
284.67	96.81
284.901	90.81
285.132	102.81
285.364	98.81
285.595	91.81
285.826	92.81
286.057	86.81
286.288	95.81
286.52	82.81
286.751	89.81
286.982	94.81
287.213	81.81
287.444	98.81
287.675	99.81
287.906	94.81
288.138	92.81
288.369	96.81
288.6	83.81
288.831	97.81
289.062	99.81
289.293	85.81
289.524	78.81
289.755	92.81
289.986	82.81
290.217	70.81
290.448	70.81
290.679	68.81
290.91	77.81
291.141	75.81
291.371	83.81
291.602	79.81
291.833	66.81
292.064	86.81
292.295	86.81
292.526	86.81
292.757	84.81
292.987	72.81
293.218	80.81
293.449	84.81
293.68	80.81
293.91	89.81
294.141	80.81
294.372	96.81
294.603	79.81
294.833	84.81
295.064	98.81
295.295	74.81
295.525	90.81
295.756	90.81
295.987	83.81
296.217	88.81
296.448	93.81
296.679	88.81
296.909	80.81
297.14	99.81
297.37	86.81
297.601	71.81
297.831	74.81
298.062	104.81
298.292	90.81
298.523	86.81
298.753	80.81
298.984	69.81
299.214	81.81
299.445	78.81
299.675	88.81
299.905	86.81
300.136	89.81
300.366	93.81
300.597	84.81
300.827	85.81
301.057	102.81
301.288	98.81
301.518	82.81
301.748	100.81
301.979	102.81
302.209	111.81
302.439	92.81
302.669	85.81
302.9	95.81
303.13	82.81
303.36	82.81
303.59	87.81
303.82	83.81
304.051	88.81
304.281	101.81
304.511	87.81
304.741	88.81
304.971	88.81
305.201	93.81
305.431	80.81
305.661	88.81
305.891	92.81
306.121	94.81
306.352	90.81
306.582	84.81
306.812	84.81
307.042	77.81
307.272	77.81
307.502	79.81
307.731	77.81
307.961	98.81
308.191	97.81
308.421	105.81
308.651	82.81
308.881	113.81
309.111	126.81
309.341	109.81
309.571	108.81
309.8	86.81
310.03	88.81
310.26	79.81
310.49	81.81
310.72	98.81
310.949	96.81
311.179	91.81
311.409	82.81
311.639	74.81
311.868	79.81
312.098	73.81
312.328	87.81
312.557	88.81
312.787	95.81
313.017	89.81
313.246	82.81
313.476	86.81
313.706	72.81
313.935	83.81
314.165	81.81
314.394	88.81
314.624	82.81
314.853	87.81
315.083	94.81
315.312	90.81
315.542	94.81
315.771	77.81
316.001	89.81
316.23	97.81
316.46	102.81
316.689	95.81
316.919	87.81
317.148	92.81
317.377	92.81
317.607	98.81
317.836	86.81
318.065	80.81
318.295	96.81
318.524	93.81
318.753	89.81
318.983	94.81
319.212	95.81
319.441	84.81
319.67	70.81
319.9	93.81
320.129	82.81
320.358	87.81
320.587	87.81
320.816	82.81
321.046	80.81
321.275	83.81
321.504	97.81
321.733	77.81
321.962	81.81
322.191	82.81
322.42	77.81
322.649	85.81
322.878	92.81
323.108	96.81
323.337	87.81
323.566	82.81
323.795	100.81
324.024	86.81
324.253	89.81
324.482	84.81
324.71	77.81
324.939	95.81
325.168	72.81
325.397	72.81
325.626	95.81
325.855	77.81
326.084	81.81
326.313	94.81
326.542	82.81
326.77	84.81
326.999	81.81
327.228	86.81
327.457	92.81
327.686	91.81
327.914	88.81
328.143	94.81
328.372	88.81
328.6	86.81
328.829	90.81
329.058	82.81
329.287	95.81
329.515	97.81
329.744	80.81
329.972	67.81
330.201	79.81
330.43	83.81
330.658	97.81
330.887	96.81
331.115	88.81
331.344	101.81
331.572	91.81
331.801	78.81
332.03	88.81
332.258	87.81
332.486	87.81
332.715	80.81
332.943	68.81
333.172	87.81
333.4	84.81
333.629	94.81
333.857	93.81
334.085	88.81
334.314	74.81
334.542	77.81
334.771	75.81
334.999	86.81
335.227	96.81
335.455	96.81
335.684	92.81
335.912	94.81
336.14	94.81
336.369	91.81
336.597	81.81
336.825	98.81
337.053	92.81
337.281	87.81
337.51	78.81
337.738	82.81
337.966	89.81
338.194	89.81
338.422	88.81
338.65	74.81
338.878	84.81
339.106	83.81
339.334	90.81
339.562	92.81
339.79	95.81
340.018	74.81
340.246	80.81
340.474	75.81
340.702	84.81
340.93	89.81
341.158	74.81
341.386	81.81
341.614	89.81
341.842	89.81
342.07	81.81
342.298	81.81
342.526	95.81
342.754	63.81
342.981	89.81
343.209	77.81
343.437	93.81
343.665	89.81
343.893	81.81
344.12	95.81
344.348	88.81
344.576	98.81
344.804	83.81
345.031	100.81
345.259	85.81
345.487	84.81
345.714	84.81
345.942	73.81
346.17	91.81
346.397	100.81
346.625	93.81
346.853	58.81
347.08	90.81
347.308	89.81
347.535	98.81
347.763	86.81
347.99	82.81
348.218	88.81
348.445	84.81
348.673	84.81
348.9	86.81
349.128	82.81
349.355	75.81
349.583	82.81
349.81	91.81
350.037	94.81
350.265	87.81
350.492	98.81
350.72	87.81
350.947	94.81
351.174	82.81
351.402	78.81
351.629	73.81
351.856	76.81
352.083	72.81
352.311	101.81
352.538	85.81
352.765	91.81
352.992	93.81
353.22	84.81
353.447	87.81
353.674	96.81
353.901	91.81
354.128	90.81
354.355	77.81
354.583	87.81
354.81	84.81
355.037	80.81
355.264	96.81
355.491	89.81
355.718	82.81
355.945	89.81
356.172	86.81
356.399	91.81
356.626	112.81
356.853	100.81
357.08	95.81
357.307	92.81
357.534	86.81
357.761	97.81
357.988	104.81
358.215	96.81
358.441	98.81
358.668	88.81
358.895	83.81
359.122	79.81
359.349	80.81
359.576	90.81
359.802	71.81
360.029	84.81
360.256	86.81
360.483	92.81
360.709	86.81
360.936	98.81
361.163	93.81
361.39	90.81
361.616	93.81
361.843	94.81
362.07	94.81
362.296	92.81
362.523	92.81
362.749	84.81
362.976	103.81
363.203	103.81
363.429	98.81
363.656	89.81
363.882	93.81
364.109	97.81
364.335	103.81
364.562	112.81
364.788	89.81
365.015	110.81
365.241	88.81
365.468	95.81
365.694	99.81
365.92	102.81
366.147	78.81
366.373	94.81
366.599	89.81
366.826	82.81
367.052	88.81
367.278	84.81
367.505	77.81
367.731	101.81
367.957	82.81
368.184	95.81
368.41	89.81
368.636	94.81
368.862	96.81
369.089	94.81
369.315	84.81
369.541	89.81
369.767	81.81
369.993	89.81
370.219	87.81
370.445	81.81
370.672	98.81
370.898	93.81
371.124	85.81
371.35	91.81
371.576	88.81
371.802	89.81
372.028	105.81
372.254	104.81
372.48	100.81
372.706	94.81
372.932	93.81
373.158	103.81
373.384	96.81
373.61	124.81
373.835	102.81
374.061	101.81
374.287	103.81
374.513	105.81
374.739	102.81
374.965	123.81
375.191	108.81
375.416	90.81
375.642	89.81
375.868	93.81
376.094	96.81
376.319	98.81
376.545	97.81
376.771	86.81
376.997	98.81
377.222	101.81
377.448	90.81
377.674	79.81
377.899	84.81
378.125	95.81
378.35	88.81
378.576	87.81
378.802	90.81
379.027	94.81
379.253	86.81
379.478	89.81
379.704	85.81
379.929	89.81
380.155	82.81
380.38	82.81
380.606	72.81
380.831	77.81
381.057	98.81
381.282	89.81
381.507	86.81
381.733	81.81
381.958	96.81
382.184	103.81
382.409	101.81
382.634	111.81
382.86	122.81
383.085	119.81
383.31	100.81
383.535	124.81
383.761	129.81
383.986	132.81
384.211	126.81
384.436	96.81
384.662	92.81
384.887	101.81
385.112	86.81
385.337	85.81
385.562	106.81
385.787	114.81
386.013	91.81
386.238	93.81
386.463	88.81
386.688	82.81
386.913	89.81
387.138	88.81
387.363	105.81
387.588	102.81
387.813	101.81
388.038	101.81
388.263	97.81
388.488	93.81
388.713	115.81
388.938	93.81
389.163	92.81
389.387	98.81
389.612	95.81
389.837	84.81
390.062	73.81
390.287	78.81
390.512	97.81
390.736	89.81
390.961	89.81
391.186	96.81
391.411	74.81
391.636	85.81
391.86	92.81
392.085	90.81
392.31	110.81
392.534	92.81
392.759	111.81
392.984	147.81
393.208	242.81
393.433	345.81
393.658	270.81
393.882	140.81
394.107	99.81
394.331	133.81
394.556	155.81
394.78	113.81
395.005	99.81
395.229	100.81
395.454	88.81
395.678	107.81
395.903	125.81
396.127	157.81
396.352	165.81
396.576	175.81
396.801	244.81
397.025	285.81
397.249	152.81
397.474	101.81
397.698	86.81
397.922	87.81
398.147	84.81
398.371	73.81
398.595	84.81
398.82	80.81
399.044	92.81
399.268	72.81
399.492	91.81
399.717	96.81
399.941	101.81
400.165	86.81
400.389	76.81
400.613	91.81
400.837	86.81
401.062	92.81
401.286	87.81
401.51	91.81
401.734	76.81
401.958	79.81
402.182	72.81
402.406	94.81
402.63	98.81
402.854	83.81
403.078	82.81
403.302	86.81
403.526	100.81
403.75	113.81
403.974	99.81
404.198	117.81
404.422	167.81
404.645	194.81
404.869	145.81
405.093	100.81
405.317	80.81
405.541	93.81
405.765	73.81
405.988	86.81
406.212	85.81
406.436	78.81
406.66	92.81
406.883	91.81
407.107	93.81
407.331	84.81
407.555	90.81
407.778	93.81
408.002	97.81
408.226	88.81
408.449	96.81
408.673	90.81
408.896	92.81
409.12	99.81
409.344	89.81
409.567	99.81
409.791	100.81
410.014	90.81
410.238	84.81
410.461	76.81
410.685	73.81
410.908	78.81
411.132	89.81
411.355	71.81
411.578	76.81
411.802	79.81
412.025	91.81
412.249	85.81
412.472	85.81
412.695	74.81
412.919	92.81
413.142	89.81
413.365	88.81
413.589	84.81
413.812	86.81
414.035	89.81
414.258	78.81
414.482	80.81
414.705	70.81
414.928	85.81
415.151	77.81
415.374	82.81
415.597	72.81
415.821	64.81
416.044	78.81
416.267	71.81
416.49	77.81
416.713	77.81
416.936	90.81
417.159	80.81
417.382	84.81
417.605	95.81
417.828	80.81
418.051	68.81
418.274	87.81
418.497	74.81
418.72	81.81
418.943	78.81
419.166	87.81
419.389	93.81
419.611	94.81
419.834	90.81
420.057	96.81
420.28	81.81
420.503	89.81
420.726	81.81
420.948	97.81
421.171	88.81
421.394	97.81
421.617	92.81
421.839	98.81
422.062	98.81
422.285	148.81
422.507	255.81
422.73	472.81
422.953	409.81
423.175	194.81
423.398	102.81
423.621	95.81
423.843	105.81
424.066	101.81
424.288	95.81
424.511	80.81
424.733	84.81
424.956	94.81
425.178	89.81
425.401	89.81
425.623	83.81
425.846	89.81
426.068	74.81
426.291	80.81
426.513	69.81
426.735	93.81
426.958	73.81
427.18	95.81
427.402	84.81
427.625	84.81
427.847	86.81
428.069	93.81
428.292	132.81
428.514	143.81
428.736	99.81
428.958	120.81
429.181	128.81
429.403	106.81
429.625	99.81
429.847	114.81
430.069	149.81
430.292	196.81
430.514	172.81
430.736	131.81
430.958	140.81
431.18	92.81
431.402	88.81
431.624	88.81
431.846	124.81
432.068	138.81
432.29	90.81
432.512	94.81
432.734	84.81
432.956	89.81
433.178	101.81
433.4	94.81
433.622	69.81
433.844	85.81
434.066	86.81
434.287	70.81
434.509	68.81
434.731	84.81
434.953	96.81
435.175	80.81
435.397	80.81
435.618	81.81
435.84	89.81
436.062	79.81
436.284	85.81
436.505	91.81
436.727	70.81
436.949	80.81
437.17	75.81
437.392	75.81
437.614	87.81
437.835	86.81
438.057	85.81
438.278	98.81
438.5	118.81
438.721	97.81
438.943	84.81
439.165	78.81
439.386	84.81
439.608	95.81
439.829	96.81
440.05	78.81
440.272	80.81
440.493	86.81
440.715	92.81
440.936	97.81
441.158	84.81
441.379	74.81
441.6	86.81
441.822	86.81
442.043	93.81
442.264	104.81
442.486	120.81
442.707	155.81
442.928	108.81
443.149	90.81
443.371	130.81
443.592	223.81
443.813	204.81
444.034	111.81
444.255	88.81
444.476	78.81
444.698	84.81
444.919	82.81
445.14	202.81
445.361	203.81
445.582	273.81
445.803	234.81
446.024	117.81
446.245	92.81
446.466	81.81
446.687	81.81
446.908	88.81
447.129	96.81
447.35	80.81
447.571	85.81
447.792	78.81
448.013	80.81
448.234	92.81
448.455	88.81
448.675	85.81
448.896	87.81
449.117	69.81
449.338	91.81
449.559	99.81
449.779	70.81
450	90.81
450.221	70.81
450.442	76.81
450.662	90.81
450.883	94.81
451.104	96.81
451.324	80.81
451.545	76.81
451.766	84.81
451.986	95.81
452.207	94.81
452.428	79.81
452.648	88.81
452.869	93.81
453.089	84.81
453.31	82.81
453.53	68.81
453.751	76.81
453.971	70.81
454.192	69.81
454.412	83.81
454.633	76.81
454.853	76.81
455.073	93.81
455.294	80.81
455.514	88.81
455.734	76.81
455.955	84.81
456.175	99.81
456.395	76.81
456.616	74.81
456.836	94.81
457.056	74.81
457.276	90.81
457.497	78.81
457.717	96.81
457.937	86.81
458.157	104.81
458.377	112.81
458.598	88.81
458.818	99.81
459.038	92.81
459.258	84.81
459.478	71.81
459.698	86.81
459.918	85.81
460.138	102.81
460.358	86.81
460.578	82.81
460.798	102.81
461.018	100.81
461.238	77.81
461.458	92.81
461.678	91.81
461.898	85.81
462.118	89.81
462.338	88.81
462.558	99.81
462.777	85.81
462.997	87.81
463.217	78.81
463.437	75.81
463.657	78.81
463.876	93.81
464.096	88.81
464.316	81.81
464.536	78.81
464.755	92.81
464.975	96.81
465.195	88.81
465.414	70.81
465.634	78.81
465.854	93.81
466.073	70.81
466.293	89.81
466.512	70.81
466.732	88.81
466.951	74.81
467.171	91.81
467.391	80.81
467.61	81.81
467.829	69.81
468.049	92.81
468.268	63.81
468.488	80.81
468.707	79.81
468.927	92.81
469.146	80.81
469.365	67.81
469.585	84.81
469.804	90.81
470.023	74.81
470.243	79.81
470.462	100.81
470.681	90.81
470.901	88.81
471.12	80.81
471.339	75.81
471.558	85.81
471.777	94.81
471.997	74.81
472.216	86.81
472.435	86.81
472.654	72.81
472.873	71.81
473.092	90.81
473.311	97.81
473.53	74.81
473.749	74.81
473.968	98.81
474.187	91.81
474.406	76.81
474.625	73.81
474.844	74.81
475.063	89.81
475.282	91.81
475.501	79.81
475.72	78.81
475.939	90.81
476.158	63.81
476.377	86.81
476.596	91.81
476.814	81.81
477.033	81.81
477.252	89.81
477.471	70.81
477.69	74.81
477.908	75.81
478.127	74.81
478.346	75.81
478.564	88.81
478.783	92.81
479.002	85.81
479.22	78.81
479.439	86.81
479.658	74.81
479.876	82.81
480.095	85.81
480.313	77.81
480.532	88.81
480.751	82.81
480.969	93.81
481.188	78.81
481.406	81.81
481.624	93.81
481.843	93.81
482.061	90.81
482.28	86.81
482.498	78.81
482.717	81.81
482.935	81.81
483.153	75.81
483.372	90.81
483.59	91.81
483.808	84.81
484.027	90.81
484.245	98.81
484.463	93.81
484.681	89.81
484.9	93.81
485.118	76.81
485.336	85.81
485.554	74.81
485.772	85.81
485.99	94.81
486.209	84.81
486.427	78.81
486.645	84.81
486.863	69.81
487.081	71.81
487.299	84.81
487.517	98.81
487.735	104.81
487.953	114.81
488.171	122.81
488.389	102.81
488.607	97.81
488.825	91.81
489.043	87.81
489.261	91.81
489.479	97.81
489.696	95.81
489.914	94.81
490.132	90.81
490.35	97.81
490.568	84.81
490.786	86.81
491.003	83.81
491.221	87.81
491.439	93.81
491.657	93.81
491.874	86.81
492.092	90.81
492.31	97.81
492.527	85.81
492.745	83.81
492.963	76.81
493.18	95.81
493.398	93.81
493.615	84.81
493.833	68.81
494.05	99.81
494.268	77.81
494.485	96.81
494.703	89.81
494.92	78.81
495.138	85.81
495.355	92.81
495.573	86.81
495.79	92.81
496.008	94.81
496.225	80.81
496.442	86.81
496.66	104.81
496.877	98.81
497.094	86.81
497.312	84.81
497.529	88.81
497.746	83.81
497.963	114.81
498.181	108.81
498.398	104.81
498.615	100.81
498.832	80.81
499.049	87.81
499.267	105.81
499.484	81.81
499.701	89.81
499.918	96.81
500.135	96.81
500.352	99.81
500.569	95.81
500.786	94.81
501.003	109.81
501.22	86.81
501.437	93.81
501.654	92.81
501.871	88.81
502.088	79.81
502.305	86.81
502.522	86.81
502.739	99.81
502.956	94.81
503.172	101.81
503.389	84.81
503.606	66.81
503.823	86.81
504.04	93.81
504.256	121.81
504.473	115.81
504.69	88.81
504.907	88.81
505.123	99.81
505.34	79.81
505.557	101.81
505.773	88.81
505.99	82.81
506.207	88.81
506.423	84.81
506.64	89.81
506.856	86.81
507.073	89.81
507.289	86.81
507.506	75.81
507.722	84.81
507.939	79.81
508.155	94.81
508.372	68.81
508.588	94.81
508.805	88.81
509.021	78.81
509.238	93.81
509.454	84.81
509.67	81.81
509.887	87.81
510.103	92.81
510.319	94.81
510.536	87.81
510.752	81.81
510.968	104.81
511.184	92.81
511.401	89.81
511.617	94.81
511.833	84.81
512.049	86.81
512.265	100.81
512.481	87.81
512.698	92.81
512.914	78.81
513.13	99.81
513.346	98.81
513.562	85.81
513.778	80.81
513.994	83.81
514.21	81.81
514.426	72.81
514.642	87.81
514.858	92.81
515.074	78.81
515.29	87.81
515.506	84.81
515.721	93.81
515.937	86.81
516.153	84.81
516.369	100.81
516.585	97.81
516.801	93.81
517.016	95.81
517.232	84.81
517.448	143.81
517.664	104.81
517.879	86.81
518.095	89.81
