Data from 1600_2_HRD10591_00014.txt Node
Date: Mon Jan 19 13:53:48 EST 2026
User: Yrep
Spectrometer: HR+D1059
Trigger mode: 1
Integration Time (sec): 1.000000E-1
Scans to average: 1
Electric dark correction enabled: true
Nonlinearity correction enabled: false
Boxcar width: 0
XAxis mode: Wavelengths
Number of Pixels in Spectrum: 2048
>>>>>Begin Spectral Data<<<<<
223.165	-22.44
223.4	-22.44
223.635	-22.44
223.869	-28.44
224.104	-15.44
224.338	-11.44
224.573	-21.44
224.808	-3.44
225.042	-7.44
225.277	-9.44
225.511	2.56
225.746	1.56
225.98	10.56
226.215	16.56
226.449	19.56
226.683	14.56
226.918	28.56
227.152	25.56
227.387	40.56
227.621	48.56
227.856	41.56
228.09	47.56
228.324	54.56
228.559	60.56
228.793	78.56
229.027	62.56
229.262	72.56
229.496	64.56
229.73	82.56
229.964	81.56
230.199	70.56
230.433	68.56
230.667	82.56
230.901	84.56
231.136	70.56
231.37	80.56
231.604	81.56
231.838	88.56
232.072	97.56
232.306	74.56
232.541	77.56
232.775	95.56
233.009	88.56
233.243	80.56
233.477	82.56
233.711	78.56
233.945	90.56
234.179	60.56
234.413	81.56
234.647	82.56
234.881	75.56
235.115	80.56
235.349	82.56
235.583	92.56
235.817	75.56
236.051	68.56
236.285	82.56
236.519	74.56
236.753	86.56
236.987	84.56
237.221	74.56
237.455	94.56
237.689	83.56
237.922	83.56
238.156	74.56
238.39	73.56
238.624	78.56
238.858	88.56
239.091	75.56
239.325	79.56
239.559	72.56
239.793	66.56
240.027	83.56
240.26	94.56
240.494	83.56
240.728	83.56
240.961	79.56
241.195	74.56
241.429	92.56
241.662	85.56
241.896	85.56
242.13	85.56
242.363	89.56
242.597	88.56
242.83	80.56
243.064	79.56
243.298	78.56
243.531	95.56
243.765	91.56
243.998	74.56
244.232	74.56
244.465	81.56
244.699	68.56
244.932	69.56
245.166	84.56
245.399	75.56
245.633	76.56
245.866	65.56
246.099	80.56
246.333	68.56
246.566	83.56
246.8	71.56
247.033	68.56
247.266	74.56
247.5	76.56
247.733	94.56
247.966	69.56
248.2	79.56
248.433	71.56
248.666	79.56
248.899	89.56
249.133	85.56
249.366	72.56
249.599	91.56
249.832	87.56
250.066	71.56
250.299	89.56
250.532	78.56
250.765	72.56
250.998	84.56
251.231	73.56
251.465	94.56
251.698	69.56
251.931	84.56
252.164	88.56
252.397	68.56
252.63	84.56
252.863	73.56
253.096	85.56
253.329	73.56
253.562	97.56
253.795	90.56
254.028	73.56
254.261	73.56
254.494	61.56
254.727	78.56
254.96	83.56
255.193	73.56
255.426	73.56
255.659	84.56
255.892	66.56
256.124	72.56
256.357	73.56
256.59	70.56
256.823	70.56
257.056	88.56
257.289	74.56
257.521	65.56
257.754	72.56
257.987	84.56
258.22	77.56
258.452	66.56
258.685	77.56
258.918	71.56
259.151	75.56
259.383	73.56
259.616	98.56
259.849	98.56
260.081	74.56
260.314	68.56
260.547	80.56
260.779	79.56
261.012	70.56
261.244	100.56
261.477	80.56
261.71	72.56
261.942	78.56
262.175	85.56
262.407	91.56
262.64	80.56
262.872	72.56
263.105	76.56
263.337	85.56
263.57	76.56
263.802	78.56
264.035	94.56
264.267	84.56
264.499	78.56
264.732	78.56
264.964	73.56
265.197	73.56
265.429	92.56
265.661	84.56
265.894	69.56
266.126	74.56
266.358	81.56
266.591	100.56
266.823	88.56
267.055	66.56
267.287	86.56
267.52	83.56
267.752	79.56
267.984	89.56
268.216	74.56
268.448	71.56
268.681	87.56
268.913	79.56
269.145	87.56
269.377	104.56
269.609	86.56
269.841	74.56
270.073	90.56
270.306	74.56
270.538	85.56
270.77	80.56
271.002	71.56
271.234	73.56
271.466	97.56
271.698	80.56
271.93	87.56
272.162	80.56
272.394	92.56
272.626	83.56
272.858	86.56
273.09	85.56
273.322	73.56
273.553	90.56
273.785	84.56
274.017	86.56
274.249	85.56
274.481	86.56
274.713	89.56
274.945	65.56
275.176	71.56
275.408	91.56
275.64	64.56
275.872	84.56
276.104	77.56
276.335	84.56
276.567	88.56
276.799	77.56
277.031	93.56
277.262	82.56
277.494	68.56
277.726	94.56
277.957	85.56
278.189	86.56
278.421	95.56
278.652	72.56
278.884	76.56
279.115	84.56
279.347	72.56
279.579	89.56
279.81	72.56
280.042	71.56
280.273	85.56
280.505	105.56
280.736	90.56
280.968	85.56
281.199	86.56
281.431	81.56
281.662	87.56
281.894	74.56
282.125	97.56
282.356	94.56
282.588	98.56
282.819	90.56
283.051	95.56
283.282	85.56
283.513	78.56
283.745	88.56
283.976	80.56
284.207	83.56
284.439	86.56
284.67	87.56
284.901	92.56
285.132	94.56
285.364	102.56
285.595	91.56
285.826	77.56
286.057	82.56
286.288	85.56
286.52	83.56
286.751	71.56
286.982	88.56
287.213	79.56
287.444	77.56
287.675	92.56
287.906	95.56
288.138	100.56
288.369	96.56
288.6	82.56
288.831	82.56
289.062	94.56
289.293	96.56
289.524	99.56
289.755	73.56
289.986	100.56
290.217	72.56
290.448	73.56
290.679	86.56
290.91	79.56
291.141	89.56
291.371	102.56
291.602	83.56
291.833	70.56
292.064	85.56
292.295	75.56
292.526	84.56
292.757	90.56
292.987	84.56
293.218	76.56
293.449	76.56
293.68	84.56
293.91	73.56
294.141	84.56
294.372	87.56
294.603	81.56
294.833	95.56
295.064	83.56
295.295	87.56
295.525	69.56
295.756	93.56
295.987	82.56
296.217	80.56
296.448	84.56
296.679	95.56
296.909	100.56
297.14	81.56
297.37	98.56
297.601	76.56
297.831	100.56
298.062	97.56
298.292	89.56
298.523	92.56
298.753	75.56
298.984	88.56
299.214	91.56
299.445	95.56
299.675	80.56
299.905	80.56
300.136	88.56
300.366	89.56
300.597	95.56
300.827	92.56
301.057	86.56
301.288	96.56
301.518	88.56
301.748	96.56
301.979	101.56
302.209	98.56
302.439	92.56
302.669	100.56
302.9	80.56
303.13	92.56
303.36	83.56
303.59	94.56
303.82	96.56
304.051	83.56
304.281	78.56
304.511	94.56
304.741	87.56
304.971	84.56
305.201	80.56
305.431	85.56
305.661	92.56
305.891	83.56
306.121	91.56
306.352	88.56
306.582	89.56
306.812	88.56
307.042	73.56
307.272	72.56
307.502	83.56
307.731	85.56
307.961	94.56
308.191	88.56
308.421	101.56
308.651	80.56
308.881	88.56
309.111	81.56
309.341	93.56
309.571	102.56
309.8	85.56
310.03	78.56
310.26	89.56
310.49	92.56
310.72	90.56
310.949	87.56
311.179	76.56
311.409	78.56
311.639	92.56
311.868	84.56
312.098	79.56
312.328	82.56
312.557	80.56
312.787	81.56
313.017	84.56
313.246	82.56
313.476	96.56
313.706	81.56
313.935	82.56
314.165	97.56
314.394	78.56
314.624	89.56
314.853	93.56
315.083	89.56
315.312	78.56
315.542	91.56
315.771	82.56
316.001	89.56
316.23	95.56
316.46	98.56
316.689	84.56
316.919	82.56
317.148	67.56
317.377	92.56
317.607	97.56
317.836	80.56
318.065	100.56
318.295	93.56
318.524	93.56
318.753	77.56
318.983	82.56
319.212	96.56
319.441	96.56
319.67	95.56
319.9	79.56
320.129	79.56
320.358	83.56
320.587	85.56
320.816	90.56
321.046	78.56
321.275	81.56
321.504	94.56
321.733	88.56
321.962	96.56
322.191	84.56
322.42	95.56
322.649	83.56
322.878	78.56
323.108	96.56
323.337	81.56
323.566	96.56
323.795	88.56
324.024	82.56
324.253	93.56
324.482	87.56
324.71	88.56
324.939	89.56
325.168	84.56
325.397	83.56
325.626	84.56
325.855	87.56
326.084	87.56
326.313	91.56
326.542	86.56
326.77	92.56
326.999	95.56
327.228	81.56
327.457	109.56
327.686	92.56
327.914	90.56
328.143	93.56
328.372	88.56
328.6	78.56
328.829	94.56
329.058	81.56
329.287	84.56
329.515	86.56
329.744	87.56
329.972	80.56
330.201	93.56
330.43	89.56
330.658	94.56
330.887	76.56
331.115	82.56
331.344	97.56
331.572	92.56
331.801	85.56
332.03	96.56
332.258	71.56
332.486	84.56
332.715	92.56
332.943	100.56
333.172	84.56
333.4	87.56
333.629	81.56
333.857	74.56
334.085	84.56
334.314	96.56
334.542	85.56
334.771	81.56
334.999	72.56
335.227	84.56
335.455	89.56
335.684	91.56
335.912	80.56
336.14	72.56
336.369	94.56
336.597	96.56
336.825	86.56
337.053	95.56
337.281	99.56
337.51	94.56
337.738	87.56
337.966	86.56
338.194	89.56
338.422	84.56
338.65	74.56
338.878	83.56
339.106	84.56
339.334	84.56
339.562	85.56
339.79	72.56
340.018	87.56
340.246	86.56
340.474	83.56
340.702	86.56
340.93	85.56
341.158	63.56
341.386	81.56
341.614	89.56
341.842	89.56
342.07	77.56
342.298	81.56
342.526	78.56
342.754	87.56
342.981	89.56
343.209	81.56
343.437	94.56
343.665	97.56
343.893	98.56
344.12	95.56
344.348	82.56
344.576	103.56
344.804	99.56
345.031	83.56
345.259	95.56
345.487	87.56
345.714	90.56
345.942	79.56
346.17	100.56
346.397	93.56
346.625	82.56
346.853	87.56
347.08	92.56
347.308	105.56
347.535	86.56
347.763	96.56
347.99	93.56
348.218	83.56
348.445	102.56
348.673	84.56
348.9	93.56
349.128	70.56
349.355	85.56
349.583	85.56
349.81	95.56
350.037	96.56
350.265	83.56
350.492	86.56
350.72	82.56
350.947	97.56
351.174	85.56
351.402	82.56
351.629	74.56
351.856	92.56
352.083	86.56
352.311	96.56
352.538	92.56
352.765	84.56
352.992	107.56
353.22	83.56
353.447	78.56
353.674	99.56
353.901	72.56
354.128	74.56
354.355	82.56
354.583	96.56
354.81	73.56
355.037	85.56
355.264	96.56
355.491	81.56
355.718	74.56
355.945	91.56
356.172	86.56
356.399	86.56
356.626	99.56
356.853	85.56
357.08	86.56
357.307	99.56
357.534	93.56
357.761	116.56
357.988	105.56
358.215	106.56
358.441	101.56
358.668	109.56
358.895	96.56
359.122	93.56
359.349	93.56
359.576	85.56
359.802	88.56
360.029	74.56
360.256	82.56
360.483	82.56
360.709	90.56
360.936	98.56
361.163	99.56
361.39	86.56
361.616	85.56
361.843	97.56
362.07	91.56
362.296	95.56
362.523	96.56
362.749	103.56
362.976	75.56
363.203	111.56
363.429	93.56
363.656	98.56
363.882	90.56
364.109	85.56
364.335	96.56
364.562	101.56
364.788	94.56
365.015	109.56
365.241	95.56
365.468	82.56
365.694	93.56
365.92	92.56
366.147	66.56
366.373	89.56
366.599	84.56
366.826	85.56
367.052	92.56
367.278	81.56
367.505	87.56
367.731	97.56
367.957	96.56
368.184	95.56
368.41	78.56
368.636	78.56
368.862	102.56
369.089	87.56
369.315	96.56
369.541	89.56
369.767	82.56
369.993	76.56
370.219	85.56
370.445	74.56
370.672	94.56
370.898	92.56
371.124	88.56
371.35	64.56
371.576	83.56
371.802	91.56
372.028	88.56
372.254	99.56
372.48	92.56
372.706	108.56
372.932	101.56
373.158	92.56
373.384	100.56
373.61	113.56
373.835	96.56
374.061	100.56
374.287	84.56
374.513	106.56
374.739	105.56
374.965	114.56
375.191	102.56
375.416	99.56
375.642	108.56
375.868	97.56
376.094	102.56
376.319	104.56
376.545	86.56
376.771	94.56
376.997	87.56
377.222	91.56
377.448	75.56
377.674	77.56
377.899	93.56
378.125	81.56
378.35	85.56
378.576	83.56
378.802	102.56
379.027	90.56
379.253	91.56
379.478	85.56
379.704	85.56
379.929	93.56
380.155	95.56
380.38	76.56
380.606	81.56
380.831	80.56
381.057	89.56
381.282	92.56
381.507	112.56
381.733	93.56
381.958	97.56
382.184	102.56
382.409	97.56
382.634	102.56
382.86	113.56
383.085	104.56
383.31	117.56
383.535	130.56
383.761	110.56
383.986	114.56
384.211	120.56
384.436	100.56
384.662	80.56
384.887	85.56
385.112	78.56
385.337	78.56
385.562	92.56
385.787	85.56
386.013	92.56
386.238	92.56
386.463	73.56
386.688	101.56
386.913	81.56
387.138	76.56
387.363	90.56
387.588	87.56
387.813	88.56
388.038	94.56
388.263	86.56
388.488	105.56
388.713	94.56
388.938	96.56
389.163	80.56
389.387	96.56
389.612	76.56
389.837	71.56
390.062	94.56
390.287	88.56
390.512	87.56
390.736	86.56
390.961	81.56
391.186	86.56
391.411	72.56
391.636	85.56
391.86	96.56
392.085	111.56
392.31	94.56
392.534	102.56
392.759	109.56
392.984	119.56
393.208	173.56
393.433	224.56
393.658	198.56
393.882	99.56
394.107	105.56
394.331	122.56
394.556	129.56
394.78	102.56
395.005	96.56
395.229	73.56
395.454	94.56
395.678	96.56
395.903	124.56
396.127	149.56
396.352	150.56
396.576	133.56
396.801	181.56
397.025	216.56
397.249	142.56
397.474	110.56
397.698	98.56
397.922	90.56
398.147	85.56
398.371	87.56
398.595	78.56
398.82	93.56
399.044	90.56
399.268	95.56
399.492	97.56
399.717	94.56
399.941	94.56
400.165	82.56
400.389	81.56
400.613	91.56
400.837	99.56
401.062	98.56
401.286	83.56
401.51	90.56
401.734	78.56
401.958	87.56
402.182	80.56
402.406	72.56
402.63	81.56
402.854	88.56
403.078	84.56
403.302	92.56
403.526	96.56
403.75	95.56
403.974	89.56
404.198	93.56
404.422	137.56
404.645	157.56
404.869	128.56
405.093	110.56
405.317	106.56
405.541	85.56
405.765	82.56
405.988	73.56
406.212	97.56
406.436	72.56
406.66	85.56
406.883	93.56
407.107	91.56
407.331	92.56
407.555	83.56
407.778	89.56
408.002	92.56
408.226	70.56
408.449	85.56
408.673	95.56
408.896	76.56
409.12	68.56
409.344	73.56
409.567	85.56
409.791	84.56
410.014	83.56
410.238	95.56
410.461	88.56
410.685	96.56
410.908	107.56
411.132	89.56
411.355	76.56
411.578	72.56
411.802	73.56
412.025	85.56
412.249	82.56
412.472	81.56
412.695	77.56
412.919	71.56
413.142	90.56
413.365	73.56
413.589	83.56
413.812	80.56
414.035	84.56
414.258	88.56
414.482	83.56
414.705	70.56
414.928	82.56
415.151	92.56
415.374	70.56
415.597	88.56
415.821	86.56
416.044	74.56
416.267	74.56
416.49	81.56
416.713	94.56
416.936	82.56
417.159	84.56
417.382	90.56
417.605	85.56
417.828	94.56
418.051	84.56
418.274	74.56
418.497	85.56
418.72	87.56
418.943	85.56
419.166	94.56
419.389	83.56
419.611	78.56
419.834	80.56
420.057	87.56
420.28	82.56
420.503	82.56
420.726	93.56
420.948	86.56
421.171	81.56
421.394	81.56
421.617	106.56
421.839	112.56
422.062	90.56
422.285	118.56
422.507	181.56
422.73	307.56
422.953	281.56
423.175	128.56
423.398	97.56
423.621	101.56
423.843	96.56
424.066	87.56
424.288	72.56
424.511	80.56
424.733	88.56
424.956	91.56
425.178	80.56
425.401	71.56
425.623	90.56
425.846	90.56
426.068	77.56
426.291	82.56
426.513	83.56
426.735	74.56
426.958	93.56
427.18	88.56
427.402	99.56
427.625	81.56
427.847	89.56
428.069	88.56
428.292	96.56
428.514	119.56
428.736	92.56
428.958	97.56
429.181	95.56
429.403	94.56
429.625	101.56
429.847	105.56
430.069	131.56
430.292	162.56
430.514	130.56
430.736	120.56
430.958	128.56
431.18	98.56
431.402	104.56
431.624	93.56
431.846	101.56
432.068	114.56
432.29	89.56
432.512	68.56
432.734	94.56
432.956	84.56
433.178	72.56
433.4	79.56
433.622	95.56
433.844	70.56
434.066	78.56
434.287	84.56
434.509	71.56
434.731	69.56
434.953	79.56
435.175	87.56
435.397	90.56
435.618	78.56
435.84	96.56
436.062	93.56
436.284	91.56
436.505	73.56
436.727	62.56
436.949	95.56
437.17	79.56
437.392	80.56
437.614	90.56
437.835	92.56
438.057	78.56
438.278	82.56
438.5	85.56
438.721	85.56
438.943	87.56
439.165	73.56
439.386	100.56
439.608	93.56
439.829	77.56
440.05	84.56
440.272	82.56
440.493	89.56
440.715	98.56
440.936	94.56
441.158	88.56
441.379	101.56
441.6	80.56
441.822	98.56
442.043	86.56
442.264	94.56
442.486	103.56
442.707	111.56
442.928	92.56
443.149	90.56
443.371	122.56
443.592	168.56
443.813	166.56
444.034	110.56
444.255	84.56
444.476	84.56
444.698	84.56
444.919	78.56
445.14	165.56
445.361	172.56
445.582	207.56
445.803	168.56
446.024	98.56
446.245	98.56
446.466	82.56
446.687	84.56
446.908	76.56
447.129	86.56
447.35	85.56
447.571	84.56
447.792	74.56
448.013	89.56
448.234	77.56
448.455	81.56
448.675	82.56
448.896	84.56
449.117	73.56
449.338	77.56
449.559	77.56
449.779	69.56
450	98.56
450.221	82.56
450.442	68.56
450.662	69.56
450.883	86.56
451.104	72.56
451.324	76.56
451.545	95.56
451.766	68.56
451.986	86.56
452.207	96.56
452.428	82.56
452.648	81.56
452.869	82.56
453.089	72.56
453.31	84.56
453.53	100.56
453.751	84.56
453.971	72.56
454.192	73.56
454.412	84.56
454.633	96.56
454.853	70.56
455.073	83.56
455.294	74.56
455.514	84.56
455.734	80.56
455.955	85.56
456.175	70.56
456.395	79.56
456.616	82.56
456.836	83.56
457.056	85.56
457.276	75.56
457.497	80.56
457.717	78.56
457.937	92.56
458.157	101.56
458.377	93.56
458.598	90.56
458.818	98.56
459.038	84.56
459.258	88.56
459.478	78.56
459.698	96.56
459.918	76.56
460.138	83.56
460.358	69.56
460.578	90.56
460.798	98.56
461.018	100.56
461.238	69.56
461.458	86.56
461.678	84.56
461.898	80.56
462.118	77.56
462.338	75.56
462.558	82.56
462.777	71.56
462.997	91.56
463.217	99.56
463.437	87.56
463.657	81.56
463.876	85.56
464.096	77.56
464.316	73.56
464.536	88.56
464.755	90.56
464.975	81.56
465.195	76.56
465.414	84.56
465.634	79.56
465.854	95.56
466.073	86.56
466.293	78.56
466.512	90.56
466.732	71.56
466.951	66.56
467.171	79.56
467.391	94.56
467.61	74.56
467.829	83.56
468.049	79.56
468.268	89.56
468.488	77.56
468.707	93.56
468.927	79.56
469.146	75.56
469.365	94.56
469.585	77.56
469.804	81.56
470.023	88.56
470.243	92.56
470.462	84.56
470.681	65.56
470.901	82.56
471.12	85.56
471.339	100.56
471.558	79.56
471.777	94.56
471.997	74.56
472.216	89.56
472.435	93.56
472.654	82.56
472.873	93.56
473.092	91.56
473.311	86.56
473.53	93.56
473.749	91.56
473.968	77.56
474.187	84.56
474.406	80.56
474.625	96.56
474.844	88.56
475.063	76.56
475.282	69.56
475.501	103.56
475.72	78.56
475.939	80.56
476.158	84.56
476.377	88.56
476.596	72.56
476.814	81.56
477.033	72.56
477.252	88.56
477.471	89.56
477.69	92.56
477.908	96.56
478.127	89.56
478.346	75.56
478.564	78.56
478.783	74.56
479.002	66.56
479.22	90.56
479.439	94.56
479.658	83.56
479.876	94.56
480.095	81.56
480.313	87.56
480.532	93.56
480.751	82.56
480.969	81.56
481.188	85.56
481.406	93.56
481.624	89.56
481.843	78.56
482.061	74.56
482.28	96.56
482.498	75.56
482.717	97.56
482.935	99.56
483.153	93.56
483.372	63.56
483.59	96.56
483.808	71.56
484.027	80.56
484.245	94.56
484.463	80.56
484.681	84.56
484.9	87.56
485.118	102.56
485.336	106.56
485.554	92.56
485.772	96.56
485.99	84.56
486.209	84.56
486.427	77.56
486.645	89.56
486.863	88.56
487.081	76.56
487.299	109.56
487.517	94.56
487.735	104.56
487.953	117.56
488.171	102.56
488.389	90.56
488.607	93.56
488.825	79.56
489.043	90.56
489.261	98.56
489.479	97.56
489.696	77.56
489.914	79.56
490.132	90.56
490.35	100.56
490.568	96.56
490.786	70.56
491.003	75.56
491.221	85.56
491.439	80.56
491.657	75.56
491.874	93.56
492.092	97.56
492.31	102.56
492.527	83.56
492.745	88.56
492.963	85.56
493.18	88.56
493.398	99.56
493.615	82.56
493.833	89.56
494.05	93.56
494.268	80.56
494.485	96.56
494.703	95.56
494.92	90.56
495.138	72.56
495.355	97.56
495.573	78.56
495.79	85.56
496.008	97.56
496.225	84.56
496.442	84.56
496.66	92.56
496.877	91.56
497.094	88.56
497.312	71.56
497.529	88.56
497.746	96.56
497.963	88.56
498.181	114.56
498.398	105.56
498.615	90.56
498.832	85.56
499.049	101.56
499.267	93.56
499.484	89.56
499.701	98.56
499.918	95.56
500.135	105.56
500.352	93.56
500.569	85.56
500.786	88.56
501.003	91.56
501.22	66.56
501.437	99.56
501.654	88.56
501.871	98.56
502.088	98.56
502.305	94.56
502.522	93.56
502.739	110.56
502.956	97.56
503.172	89.56
503.389	81.56
503.606	86.56
503.823	95.56
504.04	91.56
504.256	109.56
504.473	102.56
504.69	86.56
504.907	92.56
505.123	93.56
505.34	80.56
505.557	80.56
505.773	77.56
505.99	76.56
506.207	89.56
506.423	79.56
506.64	104.56
506.856	81.56
507.073	90.56
507.289	75.56
507.506	83.56
507.722	87.56
507.939	88.56
508.155	96.56
508.372	64.56
508.588	88.56
508.805	82.56
509.021	75.56
509.238	101.56
509.454	92.56
509.67	78.56
509.887	104.56
510.103	87.56
510.319	87.56
510.536	81.56
510.752	88.56
510.968	94.56
511.184	87.56
511.401	90.56
511.617	78.56
511.833	93.56
512.049	82.56
512.265	82.56
512.481	93.56
512.698	79.56
512.914	69.56
513.13	84.56
513.346	91.56
513.562	78.56
513.778	92.56
513.994	89.56
514.21	83.56
514.426	83.56
514.642	81.56
514.858	76.56
515.074	93.56
515.29	98.56
515.506	90.56
515.721	93.56
515.937	84.56
516.153	97.56
516.369	88.56
516.585	99.56
516.801	104.56
517.016	101.56
517.232	80.56
517.448	116.56
517.664	114.56
517.879	95.56
518.095	94.56
518.311	98.56
