Data from 1600_2_HRD10591_00017.txt Node
Date: Mon Jan 19 13:53:49 EST 2026
User: Yrep
Spectrometer: HR+D1059
Trigger mode: 1
Integration Time (sec): 1.000000E-1
Scans to average: 1
Electric dark correction enabled: true
Nonlinearity correction enabled: false
Boxcar width: 0
XAxis mode: Wavelengths
Number of Pixels in Spectrum: 2048
>>>>>Begin Spectral Data<<<<<
223.165	-31.69
223.4	-31.69
223.635	-31.69
223.869	-27.69
224.104	-19.69
224.338	-7.69
224.573	-23.69
224.808	-11.69
225.042	-7.69
225.277	-9.69
225.511	0.31
225.746	13.31
225.98	12.31
226.215	13.31
226.449	22.31
226.683	12.31
226.918	31.31
227.152	34.31
227.387	48.31
227.621	40.31
227.856	36.31
228.09	34.31
228.324	49.31
228.559	50.31
228.793	62.31
229.027	62.31
229.262	72.31
229.496	68.31
229.73	63.31
229.964	74.31
230.199	68.31
230.433	76.31
230.667	85.31
230.901	80.31
231.136	72.31
231.37	84.31
231.604	77.31
231.838	59.31
232.072	75.31
232.306	63.31
232.541	71.31
232.775	81.31
233.009	81.31
233.243	98.31
233.477	90.31
233.711	90.31
233.945	88.31
234.179	93.31
234.413	78.31
234.647	98.31
234.881	86.31
235.115	85.31
235.349	82.31
235.583	88.31
235.817	78.31
236.051	87.31
236.285	69.31
236.519	66.31
236.753	81.31
236.987	71.31
237.221	78.31
237.455	66.31
237.689	92.31
237.922	86.31
238.156	75.31
238.39	80.31
238.624	79.31
238.858	68.31
239.091	82.31
239.325	88.31
239.559	70.31
239.793	82.31
240.027	69.31
240.26	80.31
240.494	70.31
240.728	80.31
240.961	82.31
241.195	80.31
241.429	83.31
241.662	60.31
241.896	78.31
242.13	80.31
242.363	73.31
242.597	77.31
242.83	73.31
243.064	64.31
243.298	81.31
243.531	72.31
243.765	74.31
243.998	82.31
244.232	80.31
244.465	78.31
244.699	71.31
244.932	82.31
245.166	64.31
245.399	78.31
245.633	82.31
245.866	58.31
246.099	75.31
246.333	82.31
246.566	79.31
246.8	70.31
247.033	71.31
247.266	84.31
247.5	68.31
247.733	69.31
247.966	86.31
248.2	72.31
248.433	87.31
248.666	74.31
248.899	76.31
249.133	80.31
249.366	68.31
249.599	89.31
249.832	88.31
250.066	74.31
250.299	81.31
250.532	76.31
250.765	76.31
250.998	80.31
251.231	75.31
251.465	75.31
251.698	96.31
251.931	83.31
252.164	82.31
252.397	80.31
252.63	81.31
252.863	98.31
253.096	89.31
253.329	71.31
253.562	83.31
253.795	93.31
254.028	76.31
254.261	71.31
254.494	92.31
254.727	87.31
254.96	77.31
255.193	75.31
255.426	79.31
255.659	87.31
255.892	74.31
256.124	83.31
256.357	79.31
256.59	85.31
256.823	80.31
257.056	74.31
257.289	72.31
257.521	75.31
257.754	74.31
257.987	79.31
258.22	76.31
258.452	77.31
258.685	61.31
258.918	84.31
259.151	88.31
259.383	74.31
259.616	82.31
259.849	80.31
260.081	73.31
260.314	108.31
260.547	65.31
260.779	92.31
261.012	79.31
261.244	79.31
261.477	79.31
261.71	63.31
261.942	79.31
262.175	81.31
262.407	94.31
262.64	75.31
262.872	72.31
263.105	84.31
263.337	96.31
263.57	92.31
263.802	80.31
264.035	98.31
264.267	74.31
264.499	80.31
264.732	71.31
264.964	80.31
265.197	92.31
265.429	84.31
265.661	77.31
265.894	88.31
266.126	82.31
266.358	82.31
266.591	91.31
266.823	89.31
267.055	76.31
267.287	100.31
267.52	82.31
267.752	76.31
267.984	86.31
268.216	70.31
268.448	85.31
268.681	95.31
268.913	78.31
269.145	87.31
269.377	82.31
269.609	78.31
269.841	88.31
270.073	77.31
270.306	75.31
270.538	88.31
270.77	64.31
271.002	84.31
271.234	78.31
271.466	88.31
271.698	86.31
271.93	80.31
272.162	88.31
272.394	88.31
272.626	82.31
272.858	88.31
273.09	99.31
273.322	67.31
273.553	73.31
273.785	80.31
274.017	82.31
274.249	84.31
274.481	75.31
274.713	83.31
274.945	85.31
275.176	76.31
275.408	79.31
275.64	81.31
275.872	96.31
276.104	93.31
276.335	73.31
276.567	81.31
276.799	68.31
277.031	70.31
277.262	83.31
277.494	89.31
277.726	80.31
277.957	76.31
278.189	82.31
278.421	87.31
278.652	75.31
278.884	97.31
279.115	87.31
279.347	82.31
279.579	81.31
279.81	95.31
280.042	89.31
280.273	97.31
280.505	84.31
280.736	66.31
280.968	84.31
281.199	80.31
281.431	80.31
281.662	61.31
281.894	87.31
282.125	84.31
282.356	78.31
282.588	79.31
282.819	76.31
283.051	81.31
283.282	80.31
283.513	76.31
283.745	90.31
283.976	79.31
284.207	81.31
284.439	94.31
284.67	66.31
284.901	80.31
285.132	91.31
285.364	88.31
285.595	90.31
285.826	98.31
286.057	84.31
286.288	82.31
286.52	88.31
286.751	73.31
286.982	84.31
287.213	82.31
287.444	63.31
287.675	89.31
287.906	87.31
288.138	79.31
288.369	81.31
288.6	80.31
288.831	88.31
289.062	83.31
289.293	69.31
289.524	71.31
289.755	87.31
289.986	74.31
290.217	105.31
290.448	88.31
290.679	86.31
290.91	87.31
291.141	94.31
291.371	101.31
291.602	78.31
291.833	80.31
292.064	80.31
292.295	74.31
292.526	76.31
292.757	78.31
292.987	88.31
293.218	74.31
293.449	83.31
293.68	86.31
293.91	81.31
294.141	93.31
294.372	88.31
294.603	89.31
294.833	90.31
295.064	95.31
295.295	87.31
295.525	89.31
295.756	70.31
295.987	103.31
296.217	80.31
296.448	87.31
296.679	77.31
296.909	95.31
297.14	94.31
297.37	82.31
297.601	93.31
297.831	89.31
298.062	88.31
298.292	102.31
298.523	70.31
298.753	84.31
298.984	88.31
299.214	95.31
299.445	89.31
299.675	86.31
299.905	90.31
300.136	94.31
300.366	77.31
300.597	100.31
300.827	86.31
301.057	89.31
301.288	93.31
301.518	91.31
301.748	94.31
301.979	98.31
302.209	93.31
302.439	92.31
302.669	90.31
302.9	80.31
303.13	83.31
303.36	88.31
303.59	86.31
303.82	79.31
304.051	84.31
304.281	87.31
304.511	89.31
304.741	86.31
304.971	95.31
305.201	84.31
305.431	79.31
305.661	101.31
305.891	89.31
306.121	94.31
306.352	88.31
306.582	92.31
306.812	79.31
307.042	80.31
307.272	84.31
307.502	88.31
307.731	86.31
307.961	88.31
308.191	86.31
308.421	88.31
308.651	70.31
308.881	86.31
309.111	92.31
309.341	96.31
309.571	93.31
309.8	89.31
310.03	85.31
310.26	82.31
310.49	78.31
310.72	72.31
310.949	90.31
311.179	87.31
311.409	93.31
311.639	100.31
311.868	97.31
312.098	90.31
312.328	73.31
312.557	92.31
312.787	85.31
313.017	78.31
313.246	86.31
313.476	76.31
313.706	82.31
313.935	85.31
314.165	85.31
314.394	78.31
314.624	89.31
314.853	76.31
315.083	94.31
315.312	78.31
315.542	95.31
315.771	94.31
316.001	80.31
316.23	90.31
316.46	77.31
316.689	82.31
316.919	81.31
317.148	97.31
317.377	98.31
317.607	78.31
317.836	98.31
318.065	93.31
318.295	92.31
318.524	82.31
318.753	80.31
318.983	105.31
319.212	81.31
319.441	94.31
319.67	82.31
319.9	84.31
320.129	87.31
320.358	75.31
320.587	90.31
320.816	80.31
321.046	85.31
321.275	78.31
321.504	99.31
321.733	94.31
321.962	80.31
322.191	85.31
322.42	94.31
322.649	88.31
322.878	89.31
323.108	89.31
323.337	81.31
323.566	93.31
323.795	84.31
324.024	88.31
324.253	90.31
324.482	87.31
324.71	82.31
324.939	98.31
325.168	84.31
325.397	74.31
325.626	93.31
325.855	81.31
326.084	83.31
326.313	92.31
326.542	101.31
326.77	83.31
326.999	81.31
327.228	82.31
327.457	66.31
327.686	92.31
327.914	75.31
328.143	96.31
328.372	95.31
328.6	81.31
328.829	88.31
329.058	75.31
329.287	65.31
329.515	79.31
329.744	99.31
329.972	80.31
330.201	92.31
330.43	81.31
330.658	100.31
330.887	74.31
331.115	88.31
331.344	71.31
331.572	95.31
331.801	88.31
332.03	78.31
332.258	81.31
332.486	82.31
332.715	65.31
332.943	85.31
333.172	89.31
333.4	87.31
333.629	88.31
333.857	89.31
334.085	95.31
334.314	82.31
334.542	80.31
334.771	106.31
334.999	110.31
335.227	87.31
335.455	86.31
335.684	81.31
335.912	89.31
336.14	82.31
336.369	91.31
336.597	94.31
336.825	100.31
337.053	95.31
337.281	66.31
337.51	86.31
337.738	72.31
337.966	80.31
338.194	77.31
338.422	83.31
338.65	89.31
338.878	78.31
339.106	79.31
339.334	95.31
339.562	82.31
339.79	78.31
340.018	94.31
340.246	92.31
340.474	99.31
340.702	81.31
340.93	80.31
341.158	77.31
341.386	81.31
341.614	72.31
341.842	87.31
342.07	91.31
342.298	81.31
342.526	91.31
342.754	92.31
342.981	93.31
343.209	86.31
343.437	75.31
343.665	80.31
343.893	85.31
344.12	92.31
344.348	86.31
344.576	86.31
344.804	80.31
345.031	80.31
345.259	95.31
345.487	85.31
345.714	83.31
345.942	100.31
346.17	84.31
346.397	73.31
346.625	76.31
346.853	84.31
347.08	80.31
347.308	61.31
347.535	85.31
347.763	77.31
347.99	75.31
348.218	101.31
348.445	84.31
348.673	89.31
348.9	89.31
349.128	97.31
349.355	91.31
349.583	86.31
349.81	86.31
350.037	89.31
350.265	98.31
350.492	79.31
350.72	92.31
350.947	73.31
351.174	81.31
351.402	93.31
351.629	95.31
351.856	71.31
352.083	89.31
352.311	82.31
352.538	89.31
352.765	75.31
352.992	101.31
353.22	84.31
353.447	84.31
353.674	86.31
353.901	95.31
354.128	89.31
354.355	92.31
354.583	90.31
354.81	74.31
355.037	93.31
355.264	86.31
355.491	95.31
355.718	82.31
355.945	91.31
356.172	74.31
356.399	86.31
356.626	87.31
356.853	93.31
357.08	93.31
357.307	95.31
357.534	84.31
357.761	96.31
357.988	104.31
358.215	106.31
358.441	95.31
358.668	94.31
358.895	99.31
359.122	94.31
359.349	96.31
359.576	93.31
359.802	100.31
360.029	79.31
360.256	82.31
360.483	77.31
360.709	82.31
360.936	100.31
361.163	92.31
361.39	85.31
361.616	98.31
361.843	80.31
362.07	87.31
362.296	84.31
362.523	86.31
362.749	86.31
362.976	105.31
363.203	97.31
363.429	92.31
363.656	100.31
363.882	96.31
364.109	89.31
364.335	109.31
364.562	117.31
364.788	102.31
365.015	102.31
365.241	85.31
365.468	94.31
365.694	80.31
365.92	88.31
366.147	89.31
366.373	84.31
366.599	87.31
366.826	84.31
367.052	90.31
367.278	88.31
367.505	89.31
367.731	99.31
367.957	98.31
368.184	82.31
368.41	82.31
368.636	84.31
368.862	89.31
369.089	94.31
369.315	74.31
369.541	82.31
369.767	96.31
369.993	81.31
370.219	95.31
370.445	87.31
370.672	88.31
370.898	79.31
371.124	74.31
371.35	69.31
371.576	86.31
371.802	80.31
372.028	95.31
372.254	96.31
372.48	75.31
372.706	94.31
372.932	89.31
373.158	99.31
373.384	111.31
373.61	106.31
373.835	105.31
374.061	94.31
374.287	108.31
374.513	103.31
374.739	100.31
374.965	109.31
375.191	102.31
375.416	94.31
375.642	104.31
375.868	101.31
376.094	92.31
376.319	85.31
376.545	96.31
376.771	95.31
376.997	97.31
377.222	87.31
377.448	83.31
377.674	106.31
377.899	80.31
378.125	88.31
378.35	84.31
378.576	81.31
378.802	88.31
379.027	91.31
379.253	91.31
379.478	97.31
379.704	103.31
379.929	108.31
380.155	101.31
380.38	94.31
380.606	83.31
380.831	84.31
381.057	82.31
381.282	85.31
381.507	96.31
381.733	103.31
381.958	94.31
382.184	120.31
382.409	89.31
382.634	114.31
382.86	113.31
383.085	120.31
383.31	128.31
383.535	105.31
383.761	115.31
383.986	119.31
384.211	99.31
384.436	90.31
384.662	88.31
384.887	82.31
385.112	92.31
385.337	92.31
385.562	104.31
385.787	93.31
386.013	95.31
386.238	93.31
386.463	88.31
386.688	97.31
386.913	95.31
387.138	97.31
387.363	98.31
387.588	88.31
387.813	85.31
388.038	102.31
388.263	88.31
388.488	89.31
388.713	79.31
388.938	84.31
389.163	80.31
389.387	74.31
389.612	71.31
389.837	88.31
390.062	93.31
390.287	84.31
390.512	84.31
390.736	94.31
390.961	80.31
391.186	84.31
391.411	80.31
391.636	88.31
391.86	100.31
392.085	95.31
392.31	97.31
392.534	103.31
392.759	110.31
392.984	118.31
393.208	182.31
393.433	242.31
393.658	186.31
393.882	114.31
394.107	100.31
394.331	118.31
394.556	145.31
394.78	110.31
395.005	77.31
395.229	91.31
395.454	87.31
395.678	92.31
395.903	113.31
396.127	125.31
396.352	146.31
396.576	140.31
396.801	199.31
397.025	216.31
397.249	137.31
397.474	110.31
397.698	85.31
397.922	76.31
398.147	84.31
398.371	90.31
398.595	82.31
398.82	81.31
399.044	64.31
399.268	80.31
399.492	76.31
399.717	89.31
399.941	101.31
400.165	97.31
400.389	97.31
400.613	84.31
400.837	82.31
401.062	72.31
401.286	80.31
401.51	81.31
401.734	93.31
401.958	87.31
402.182	96.31
402.406	86.31
402.63	100.31
402.854	90.31
403.078	90.31
403.302	82.31
403.526	100.31
403.75	104.31
403.974	83.31
404.198	95.31
404.422	131.31
404.645	124.31
404.869	126.31
405.093	98.31
405.317	105.31
405.541	81.31
405.765	72.31
405.988	94.31
406.212	100.31
406.436	106.31
406.66	84.31
406.883	88.31
407.107	72.31
407.331	78.31
407.555	84.31
407.778	96.31
408.002	98.31
408.226	101.31
408.449	94.31
408.673	91.31
408.896	84.31
409.12	65.31
409.344	81.31
409.567	79.31
409.791	92.31
410.014	84.31
410.238	93.31
410.461	105.31
410.685	84.31
410.908	80.31
411.132	73.31
411.355	81.31
411.578	86.31
411.802	73.31
412.025	84.31
412.249	91.31
412.472	91.31
412.695	87.31
412.919	80.31
413.142	87.31
413.365	100.31
413.589	73.31
413.812	76.31
414.035	86.31
414.258	79.31
414.482	80.31
414.705	89.31
414.928	84.31
415.151	84.31
415.374	82.31
415.597	95.31
415.821	88.31
416.044	92.31
416.267	83.31
416.49	90.31
416.713	101.31
416.936	93.31
417.159	88.31
417.382	92.31
417.605	83.31
417.828	78.31
418.051	78.31
418.274	95.31
418.497	95.31
418.72	74.31
418.943	73.31
419.166	98.31
419.389	82.31
419.611	81.31
419.834	84.31
420.057	98.31
420.28	92.31
420.503	82.31
420.726	88.31
420.948	81.31
421.171	81.31
421.394	87.31
421.617	101.31
421.839	96.31
422.062	99.31
422.285	116.31
422.507	203.31
422.73	333.31
422.953	280.31
423.175	150.31
423.398	102.31
423.621	99.31
423.843	84.31
424.066	92.31
424.288	92.31
424.511	89.31
424.733	98.31
424.956	84.31
425.178	81.31
425.401	86.31
425.623	96.31
425.846	81.31
426.068	84.31
426.291	81.31
426.513	85.31
426.735	99.31
426.958	79.31
427.18	90.31
427.402	96.31
427.625	86.31
427.847	91.31
428.069	102.31
428.292	111.31
428.514	125.31
428.736	108.31
428.958	104.31
429.181	106.31
429.403	88.31
429.625	84.31
429.847	123.31
430.069	140.31
430.292	159.31
430.514	132.31
430.736	131.31
430.958	126.31
431.18	98.31
431.402	76.31
431.624	92.31
431.846	103.31
432.068	112.31
432.29	94.31
432.512	94.31
432.734	82.31
432.956	90.31
433.178	79.31
433.4	80.31
433.622	77.31
433.844	79.31
434.066	75.31
434.287	81.31
434.509	82.31
434.731	95.31
434.953	72.31
435.175	71.31
435.397	86.31
435.618	86.31
435.84	73.31
436.062	84.31
436.284	88.31
436.505	88.31
436.727	85.31
436.949	94.31
437.17	74.31
437.392	76.31
437.614	86.31
437.835	79.31
438.057	90.31
438.278	82.31
438.5	111.31
438.721	100.31
438.943	88.31
439.165	76.31
439.386	86.31
439.608	95.31
439.829	75.31
440.05	94.31
440.272	94.31
440.493	87.31
440.715	75.31
440.936	100.31
441.158	92.31
441.379	74.31
441.6	86.31
441.822	96.31
442.043	89.31
442.264	77.31
442.486	108.31
442.707	132.31
442.928	113.31
443.149	104.31
443.371	136.31
443.592	183.31
443.813	158.31
444.034	89.31
444.255	90.31
444.476	90.31
444.698	84.31
444.919	78.31
445.14	188.31
445.361	171.31
445.582	203.31
445.803	189.31
446.024	100.31
446.245	96.31
446.466	85.31
446.687	88.31
446.908	84.31
447.129	71.31
447.35	88.31
447.571	73.31
447.792	80.31
448.013	82.31
448.234	80.31
448.455	89.31
448.675	94.31
448.896	93.31
449.117	101.31
449.338	72.31
449.559	84.31
449.779	73.31
450	77.31
450.221	78.31
450.442	79.31
450.662	86.31
450.883	69.31
451.104	91.31
451.324	95.31
451.545	87.31
451.766	67.31
451.986	94.31
452.207	90.31
452.428	98.31
452.648	90.31
452.869	100.31
453.089	92.31
453.31	95.31
453.53	96.31
453.751	95.31
453.971	87.31
454.192	84.31
454.412	78.31
454.633	83.31
454.853	82.31
455.073	96.31
455.294	70.31
455.514	84.31
455.734	80.31
455.955	76.31
456.175	82.31
456.395	87.31
456.616	92.31
456.836	86.31
457.056	79.31
457.276	78.31
457.497	78.31
457.717	87.31
457.937	89.31
458.157	100.31
458.377	98.31
458.598	101.31
458.818	110.31
459.038	85.31
459.258	89.31
459.478	81.31
459.698	88.31
459.918	91.31
460.138	88.31
460.358	87.31
460.578	102.31
460.798	94.31
461.018	98.31
461.238	78.31
461.458	80.31
461.678	76.31
461.898	83.31
462.118	89.31
462.338	80.31
462.558	80.31
462.777	73.31
462.997	92.31
463.217	82.31
463.437	92.31
463.657	77.31
463.876	80.31
464.096	78.31
464.316	77.31
464.536	69.31
464.755	96.31
464.975	87.31
465.195	76.31
465.414	93.31
465.634	78.31
465.854	67.31
466.073	81.31
466.293	94.31
466.512	87.31
466.732	71.31
466.951	84.31
467.171	89.31
467.391	81.31
467.61	90.31
467.829	86.31
468.049	79.31
468.268	87.31
468.488	78.31
468.707	74.31
468.927	84.31
469.146	78.31
469.365	95.31
469.585	84.31
469.804	86.31
470.023	84.31
470.243	87.31
470.462	92.31
470.681	83.31
470.901	68.31
471.12	90.31
471.339	64.31
471.558	97.31
471.777	73.31
471.997	68.31
472.216	84.31
472.435	90.31
472.654	81.31
472.873	84.31
473.092	70.31
473.311	84.31
473.53	80.31
473.749	86.31
473.968	94.31
474.187	79.31
474.406	68.31
474.625	75.31
474.844	78.31
475.063	83.31
475.282	85.31
475.501	88.31
475.72	84.31
475.939	79.31
476.158	87.31
476.377	86.31
476.596	88.31
476.814	88.31
477.033	74.31
477.252	93.31
477.471	85.31
477.69	82.31
477.908	86.31
478.127	77.31
478.346	87.31
478.564	91.31
478.783	97.31
479.002	90.31
479.22	90.31
479.439	99.31
479.658	79.31
479.876	84.31
480.095	87.31
480.313	76.31
480.532	78.31
480.751	89.31
480.969	82.31
481.188	94.31
481.406	75.31
481.624	73.31
481.843	73.31
482.061	91.31
482.28	76.31
482.498	92.31
482.717	78.31
482.935	74.31
483.153	86.31
483.372	103.31
483.59	90.31
483.808	66.31
484.027	91.31
484.245	101.31
484.463	94.31
484.681	88.31
484.9	83.31
485.118	79.31
485.336	85.31
485.554	84.31
485.772	92.31
485.99	70.31
486.209	79.31
486.427	84.31
486.645	72.31
486.863	68.31
487.081	89.31
487.299	91.31
487.517	92.31
487.735	78.31
487.953	127.31
488.171	119.31
488.389	97.31
488.607	80.31
488.825	88.31
489.043	90.31
489.261	93.31
489.479	87.31
489.696	89.31
489.914	80.31
490.132	75.31
490.35	92.31
490.568	86.31
490.786	89.31
491.003	96.31
491.221	98.31
491.439	93.31
491.657	93.31
491.874	87.31
492.092	87.31
492.31	95.31
492.527	82.31
492.745	85.31
492.963	100.31
493.18	101.31
493.398	96.31
493.615	90.31
493.833	82.31
494.05	106.31
494.268	95.31
494.485	86.31
494.703	92.31
494.92	96.31
495.138	80.31
495.355	84.31
495.573	82.31
495.79	86.31
496.008	79.31
496.225	87.31
496.442	90.31
496.66	96.31
496.877	97.31
497.094	88.31
497.312	88.31
497.529	87.31
497.746	88.31
497.963	100.31
498.181	100.31
498.398	97.31
498.615	88.31
498.832	92.31
499.049	84.31
499.267	101.31
499.484	100.31
499.701	80.31
499.918	82.31
500.135	80.31
500.352	87.31
500.569	95.31
500.786	92.31
501.003	99.31
501.22	85.31
501.437	96.31
501.654	92.31
501.871	88.31
502.088	84.31
502.305	80.31
502.522	96.31
502.739	86.31
502.956	81.31
503.172	73.31
503.389	87.31
503.606	85.31
503.823	92.31
504.04	85.31
504.256	114.31
504.473	97.31
504.69	101.31
504.907	109.31
505.123	84.31
505.34	73.31
505.557	95.31
505.773	97.31
505.99	91.31
506.207	93.31
506.423	95.31
506.64	89.31
506.856	64.31
507.073	84.31
507.289	88.31
507.506	78.31
507.722	102.31
507.939	96.31
508.155	90.31
508.372	75.31
508.588	99.31
508.805	86.31
509.021	84.31
509.238	79.31
509.454	81.31
509.67	77.31
509.887	88.31
510.103	101.31
510.319	88.31
510.536	103.31
510.752	109.31
510.968	86.31
511.184	96.31
511.401	73.31
511.617	92.31
511.833	89.31
512.049	88.31
512.265	93.31
512.481	98.31
512.698	89.31
512.914	88.31
513.13	81.31
513.346	76.31
513.562	89.31
513.778	88.31
513.994	76.31
514.21	101.31
514.426	105.31
514.642	95.31
514.858	92.31
515.074	88.31
515.29	88.31
515.506	86.31
515.721	81.31
515.937	96.31
516.153	78.31
516.369	78.31
516.585	93.31
516.801	87.31
517.016	102.31
517.232	97.31
517.448	135.31
517.664	114.31
517.879	85.31
518.095	86.31
