Data from 1600_2_HRD10591_00021.txt Node
Date: Mon Jan 19 13:53:51 EST 2026
User: Yrep
Spectrometer: HR+D1059
Trigger mode: 1
Integration Time (sec): 1.000000E-1
Scans to average: 1
Electric dark correction enabled: true
Nonlinearity correction enabled: false
Boxcar width: 0
XAxis mode: Wavelengths
Number of Pixels in Spectrum: 2048
>>>>>Begin Spectral Data<<<<<
223.165	-30
223.4	-30
223.635	-30
223.869	-28
224.104	-21
224.338	-22
224.573	-5
224.808	-17
225.042	8
225.277	5
225.511	-6
225.746	12
225.98	11
226.215	20
226.449	20
226.683	24
226.918	5
227.152	24
227.387	38
227.621	52
227.856	32
228.09	56
228.324	53
228.559	58
228.793	67
229.027	67
229.262	53
229.496	61
229.73	76
229.964	82
230.199	81
230.433	70
230.667	86
230.901	69
231.136	80
231.37	73
231.604	74
231.838	77
232.072	83
232.306	72
232.541	95
232.775	84
233.009	81
233.243	86
233.477	82
233.711	93
233.945	82
234.179	82
234.413	92
234.647	82
234.881	89
235.115	84
235.349	99
235.583	91
235.817	75
236.051	79
236.285	83
236.519	89
236.753	84
236.987	81
237.221	76
237.455	86
237.689	76
237.922	72
238.156	59
238.39	83
238.624	71
238.858	80
239.091	86
239.325	71
239.559	99
239.793	80
240.027	72
240.26	69
240.494	84
240.728	93
240.961	85
241.195	80
241.429	68
241.662	85
241.896	88
242.13	82
242.363	79
242.597	76
242.83	96
243.064	85
243.298	91
243.531	84
243.765	77
243.998	86
244.232	78
244.465	65
244.699	85
244.932	76
245.166	80
245.399	78
245.633	86
245.866	69
246.099	71
246.333	76
246.566	91
246.8	78
247.033	91
247.266	63
247.5	86
247.733	94
247.966	88
248.2	77
248.433	89
248.666	71
248.899	81
249.133	96
249.366	105
249.599	89
249.832	89
250.066	98
250.299	77
250.532	80
250.765	75
250.998	79
251.231	83
251.465	91
251.698	89
251.931	83
252.164	81
252.397	81
252.63	84
252.863	65
253.096	87
253.329	80
253.562	89
253.795	76
254.028	90
254.261	69
254.494	83
254.727	95
254.96	82
255.193	91
255.426	83
255.659	91
255.892	87
256.124	86
256.357	75
256.59	75
256.823	86
257.056	85
257.289	88
257.521	72
257.754	88
257.987	94
258.22	81
258.452	93
258.685	88
258.918	84
259.151	76
259.383	73
259.616	75
259.849	88
260.081	91
260.314	92
260.547	73
260.779	79
261.012	73
261.244	79
261.477	102
261.71	74
261.942	76
262.175	95
262.407	67
262.64	73
262.872	82
263.105	85
263.337	85
263.57	94
263.802	90
264.035	88
264.267	90
264.499	77
264.732	89
264.964	93
265.197	84
265.429	83
265.661	87
265.894	68
266.126	86
266.358	79
266.591	81
266.823	67
267.055	87
267.287	89
267.52	76
267.752	85
267.984	75
268.216	80
268.448	89
268.681	93
268.913	92
269.145	83
269.377	75
269.609	80
269.841	103
270.073	97
270.306	76
270.538	92
270.77	87
271.002	78
271.234	74
271.466	78
271.698	79
271.93	87
272.162	67
272.394	91
272.626	91
272.858	89
273.09	88
273.322	94
273.553	87
273.785	79
274.017	103
274.249	96
274.481	98
274.713	91
274.945	85
275.176	90
275.408	83
275.64	76
275.872	89
276.104	85
276.335	73
276.567	87
276.799	84
277.031	96
277.262	80
277.494	84
277.726	106
277.957	102
278.189	93
278.421	68
278.652	81
278.884	69
279.115	94
279.347	100
279.579	95
279.81	93
280.042	80
280.273	77
280.505	83
280.736	77
280.968	100
281.199	83
281.431	89
281.662	76
281.894	79
282.125	90
282.356	87
282.588	82
282.819	97
283.051	90
283.282	83
283.513	99
283.745	80
283.976	80
284.207	82
284.439	99
284.67	85
284.901	94
285.132	88
285.364	98
285.595	85
285.826	96
286.057	87
286.288	78
286.52	82
286.751	68
286.982	89
287.213	82
287.444	73
287.675	71
287.906	82
288.138	86
288.369	86
288.6	102
288.831	84
289.062	81
289.293	81
289.524	87
289.755	83
289.986	89
290.217	87
290.448	76
290.679	89
290.91	89
291.141	83
291.371	88
291.602	99
291.833	95
292.064	81
292.295	99
292.526	83
292.757	89
292.987	95
293.218	88
293.449	89
293.68	85
293.91	97
294.141	101
294.372	93
294.603	82
294.833	91
295.064	92
295.295	89
295.525	83
295.756	94
295.987	88
296.217	86
296.448	86
296.679	89
296.909	88
297.14	89
297.37	87
297.601	91
297.831	81
298.062	83
298.292	88
298.523	83
298.753	85
298.984	99
299.214	96
299.445	103
299.675	79
299.905	88
300.136	93
300.366	73
300.597	99
300.827	93
301.057	82
301.288	85
301.518	97
301.748	87
301.979	118
302.209	96
302.439	95
302.669	81
302.9	85
303.13	101
303.36	90
303.59	96
303.82	92
304.051	93
304.281	95
304.511	83
304.741	82
304.971	89
305.201	76
305.431	92
305.661	95
305.891	79
306.121	96
306.352	89
306.582	85
306.812	91
307.042	92
307.272	87
307.502	78
307.731	84
307.961	92
308.191	95
308.421	89
308.651	91
308.881	94
309.111	97
309.341	94
309.571	78
309.8	78
310.03	91
310.26	84
310.49	91
310.72	82
310.949	89
311.179	100
311.409	92
311.639	87
311.868	78
312.098	87
312.328	99
312.557	90
312.787	76
313.017	86
313.246	93
313.476	75
313.706	93
313.935	91
314.165	86
314.394	92
314.624	87
314.853	95
315.083	81
315.312	98
315.542	81
315.771	83
316.001	82
316.23	84
316.46	77
316.689	71
316.919	77
317.148	91
317.377	91
317.607	84
317.836	74
318.065	86
318.295	89
318.524	87
318.753	103
318.983	90
319.212	90
319.441	79
319.67	87
319.9	86
320.129	85
320.358	76
320.587	87
320.816	92
321.046	81
321.275	88
321.504	91
321.733	81
321.962	84
322.191	95
322.42	90
322.649	89
322.878	89
323.108	103
323.337	102
323.566	90
323.795	93
324.024	93
324.253	95
324.482	81
324.71	101
324.939	83
325.168	84
325.397	87
325.626	98
325.855	88
326.084	95
326.313	88
326.542	86
326.77	108
326.999	90
327.228	97
327.457	86
327.686	89
327.914	97
328.143	89
328.372	83
328.6	92
328.829	93
329.058	90
329.287	88
329.515	90
329.744	98
329.972	86
330.201	89
330.43	80
330.658	87
330.887	85
331.115	90
331.344	75
331.572	99
331.801	81
332.03	91
332.258	75
332.486	87
332.715	70
332.943	98
333.172	87
333.4	82
333.629	78
333.857	76
334.085	73
334.314	75
334.542	70
334.771	82
334.999	89
335.227	85
335.455	81
335.684	77
335.912	71
336.14	87
336.369	97
336.597	84
336.825	70
337.053	90
337.281	84
337.51	103
337.738	81
337.966	78
338.194	85
338.422	84
338.65	98
338.878	88
339.106	92
339.334	84
339.562	93
339.79	93
340.018	85
340.246	88
340.474	96
340.702	93
340.93	91
341.158	80
341.386	84
341.614	89
341.842	81
342.07	85
342.298	89
342.526	91
342.754	73
342.981	83
343.209	92
343.437	110
343.665	95
343.893	97
344.12	106
344.348	96
344.576	98
344.804	97
345.031	73
345.259	78
345.487	74
345.714	91
345.942	82
346.17	93
346.397	88
346.625	77
346.853	83
347.08	77
347.308	85
347.535	99
347.763	83
347.99	87
348.218	84
348.445	91
348.673	89
348.9	77
349.128	95
349.355	99
349.583	86
349.81	95
350.037	87
350.265	95
350.492	89
350.72	89
350.947	98
351.174	97
351.402	103
351.629	90
351.856	82
352.083	78
352.311	84
352.538	89
352.765	95
352.992	91
353.22	94
353.447	87
353.674	80
353.901	85
354.128	84
354.355	89
354.583	82
354.81	87
355.037	81
355.264	91
355.491	86
355.718	85
355.945	88
356.172	87
356.399	89
356.626	95
356.853	99
357.08	93
357.307	89
357.534	92
357.761	76
357.988	83
358.215	85
358.441	92
358.668	85
358.895	91
359.122	83
359.349	91
359.576	84
359.802	81
360.029	84
360.256	81
360.483	87
360.709	90
360.936	94
361.163	75
361.39	95
361.616	82
361.843	96
362.07	82
362.296	98
362.523	91
362.749	95
362.976	106
363.203	107
363.429	91
363.656	89
363.882	85
364.109	96
364.335	87
364.562	91
364.788	100
365.015	91
365.241	79
365.468	75
365.694	83
365.92	103
366.147	90
366.373	84
366.599	101
366.826	90
367.052	93
367.278	93
367.505	89
367.731	82
367.957	64
368.184	107
368.41	82
368.636	99
368.862	109
369.089	86
369.315	80
369.541	99
369.767	82
369.993	87
370.219	86
370.445	83
370.672	85
370.898	79
371.124	93
371.35	91
371.576	83
371.802	96
372.028	84
372.254	92
372.48	98
372.706	79
372.932	90
373.158	99
373.384	96
373.61	105
373.835	91
374.061	95
374.287	91
374.513	103
374.739	102
374.965	90
375.191	96
375.416	89
375.642	100
375.868	93
376.094	76
376.319	73
376.545	98
376.771	87
376.997	80
377.222	94
377.448	92
377.674	75
377.899	94
378.125	81
378.35	84
378.576	73
378.802	80
379.027	95
379.253	91
379.478	88
379.704	96
379.929	97
380.155	88
380.38	80
380.606	78
380.831	83
381.057	87
381.282	101
381.507	77
381.733	95
381.958	95
382.184	85
382.409	79
382.634	90
382.86	114
383.085	106
383.31	105
383.535	99
383.761	111
383.986	104
384.211	96
384.436	81
384.662	87
384.887	93
385.112	87
385.337	91
385.562	85
385.787	84
386.013	98
386.238	96
386.463	93
386.688	95
386.913	87
387.138	95
387.363	87
387.588	82
387.813	92
388.038	89
388.263	84
388.488	93
388.713	91
388.938	92
389.163	79
389.387	81
389.612	100
389.837	93
390.062	80
390.287	67
390.512	95
390.736	93
390.961	97
391.186	91
391.411	86
391.636	83
391.86	92
392.085	95
392.31	91
392.534	89
392.759	99
392.984	115
393.208	158
393.433	200
393.658	173
393.882	97
394.107	104
394.331	135
394.556	125
394.78	96
395.005	99
395.229	92
395.454	91
395.678	98
395.903	92
396.127	124
396.352	124
396.576	113
396.801	149
397.025	179
397.249	128
397.474	102
397.698	102
397.922	91
398.147	92
398.371	82
398.595	99
398.82	91
399.044	88
399.268	91
399.492	90
399.717	79
399.941	83
400.165	77
400.389	75
400.613	81
400.837	93
401.062	96
401.286	87
401.51	97
401.734	88
401.958	82
402.182	77
402.406	87
402.63	84
402.854	99
403.078	95
403.302	82
403.526	106
403.75	96
403.974	92
404.198	117
404.422	129
404.645	124
404.869	108
405.093	98
405.317	73
405.541	93
405.765	85
405.988	89
406.212	91
406.436	100
406.66	95
406.883	81
407.107	89
407.331	86
407.555	90
407.778	96
408.002	101
408.226	94
408.449	81
408.673	89
408.896	80
409.12	87
409.344	82
409.567	88
409.791	83
410.014	96
410.238	82
410.461	74
410.685	88
410.908	88
411.132	96
411.355	92
411.578	89
411.802	76
412.025	89
412.249	92
412.472	91
412.695	95
412.919	93
413.142	92
413.365	76
413.589	86
413.812	78
414.035	78
414.258	83
414.482	92
414.705	89
414.928	77
415.151	72
415.374	89
415.597	78
415.821	90
416.044	75
416.267	80
416.49	83
416.713	92
416.936	90
417.159	103
417.382	97
417.605	87
417.828	88
418.051	87
418.274	95
418.497	93
418.72	104
418.943	75
419.166	87
419.389	80
419.611	89
419.834	100
420.057	91
420.28	90
420.503	93
420.726	89
420.948	87
421.171	92
421.394	88
421.617	105
421.839	82
422.062	97
422.285	111
422.507	160
422.73	243
422.953	209
423.175	114
423.398	103
423.621	97
423.843	97
424.066	81
424.288	86
424.511	81
424.733	95
424.956	95
425.178	82
425.401	90
425.623	91
425.846	97
426.068	93
426.291	82
426.513	77
426.735	88
426.958	88
427.18	91
427.402	81
427.625	81
427.847	97
428.069	98
428.292	105
428.514	123
428.736	108
428.958	105
429.181	107
429.403	72
429.625	96
429.847	117
430.069	120
430.292	139
430.514	136
430.736	113
430.958	113
431.18	83
431.402	101
431.624	95
431.846	97
432.068	103
432.29	88
432.512	98
432.734	81
432.956	93
433.178	80
433.4	79
433.622	78
433.844	84
434.066	85
434.287	89
434.509	87
434.731	78
434.953	81
435.175	76
435.397	87
435.618	75
435.84	90
436.062	84
436.284	81
436.505	84
436.727	89
436.949	93
437.17	93
437.392	88
437.614	70
437.835	80
438.057	99
438.278	90
438.5	89
438.721	89
438.943	73
439.165	75
439.386	82
439.608	81
439.829	74
440.05	83
440.272	67
440.493	100
440.715	96
440.936	89
441.158	105
441.379	77
441.6	81
441.822	78
442.043	83
442.264	93
442.486	102
442.707	103
442.928	92
443.149	97
443.371	118
443.592	155
443.813	150
444.034	107
444.255	88
444.476	99
444.698	81
444.919	97
445.14	173
445.361	160
445.582	170
445.803	143
446.024	103
446.245	103
446.466	95
446.687	85
446.908	83
447.129	88
447.35	84
447.571	89
447.792	90
448.013	90
448.234	83
448.455	87
448.675	84
448.896	78
449.117	81
449.338	90
449.559	95
449.779	81
450	83
450.221	83
450.442	89
450.662	77
450.883	96
451.104	83
451.324	90
451.545	76
451.766	83
451.986	83
452.207	95
452.428	93
452.648	77
452.869	87
453.089	97
453.31	90
453.53	102
453.751	98
453.971	98
454.192	85
454.412	89
454.633	80
454.853	104
455.073	80
455.294	75
455.514	87
455.734	95
455.955	93
456.175	92
456.395	83
456.616	87
456.836	90
457.056	74
457.276	91
457.497	77
457.717	86
457.937	95
458.157	100
458.377	87
458.598	76
458.818	93
459.038	92
459.258	89
459.478	83
459.698	85
459.918	86
460.138	91
460.358	92
460.578	101
460.798	111
461.018	98
461.238	72
461.458	74
461.678	78
461.898	93
462.118	87
462.338	81
462.558	94
462.777	81
462.997	95
463.217	87
463.437	100
463.657	91
463.876	95
464.096	84
464.316	91
464.536	98
464.755	87
464.975	90
465.195	83
465.414	90
465.634	97
465.854	81
466.073	95
466.293	97
466.512	78
466.732	87
466.951	89
467.171	75
467.391	82
467.61	97
467.829	71
468.049	101
468.268	99
468.488	88
468.707	87
468.927	91
469.146	81
469.365	77
469.585	88
469.804	96
470.023	85
470.243	72
470.462	83
470.681	87
470.901	78
471.12	82
471.339	70
471.558	89
471.777	82
471.997	97
472.216	88
472.435	88
472.654	91
472.873	88
473.092	88
473.311	89
473.53	89
473.749	87
473.968	87
474.187	85
474.406	88
474.625	91
474.844	86
475.063	89
475.282	91
475.501	77
475.72	93
475.939	92
476.158	99
476.377	87
476.596	107
476.814	93
477.033	86
477.252	85
477.471	71
477.69	81
477.908	99
478.127	89
478.346	96
478.564	86
478.783	93
479.002	85
479.22	103
479.439	89
479.658	97
479.876	99
480.095	87
480.313	96
480.532	96
480.751	99
480.969	75
481.188	97
481.406	84
481.624	81
481.843	86
482.061	94
482.28	77
482.498	86
482.717	93
482.935	92
483.153	88
483.372	78
483.59	81
483.808	82
484.027	95
484.245	91
484.463	82
484.681	92
484.9	92
485.118	83
485.336	83
485.554	89
485.772	91
485.99	97
486.209	85
486.427	83
486.645	97
486.863	95
487.081	94
487.299	97
487.517	91
487.735	89
487.953	108
488.171	91
488.389	88
488.607	92
488.825	88
489.043	96
489.261	103
489.479	97
489.696	91
489.914	95
490.132	104
490.35	94
490.568	83
490.786	96
491.003	80
491.221	83
491.439	92
491.657	91
491.874	76
492.092	85
492.31	98
492.527	91
492.745	83
492.963	97
493.18	72
493.398	96
493.615	95
493.833	80
494.05	84
494.268	84
494.485	80
494.703	99
494.92	95
495.138	91
495.355	91
495.573	95
495.79	90
496.008	102
496.225	86
496.442	89
496.66	95
496.877	89
497.094	85
497.312	89
497.529	82
497.746	80
497.963	93
498.181	93
498.398	104
498.615	107
498.832	100
499.049	104
499.267	84
499.484	81
499.701	116
499.918	107
500.135	103
500.352	95
500.569	76
500.786	98
501.003	98
501.22	84
501.437	76
501.654	96
501.871	87
502.088	87
502.305	102
502.522	95
502.739	107
502.956	70
503.172	81
503.389	84
503.606	103
503.823	95
504.04	102
504.256	95
504.473	90
504.69	100
504.907	91
505.123	91
505.34	82
505.557	109
505.773	88
505.99	92
506.207	93
506.423	81
506.64	87
506.856	102
507.073	86
507.289	99
507.506	103
507.722	85
507.939	74
508.155	85
508.372	105
508.588	108
508.805	100
509.021	99
509.238	97
509.454	86
509.67	95
509.887	96
510.103	95
510.319	92
510.536	97
510.752	89
510.968	97
511.184	85
511.401	92
511.617	95
511.833	88
512.049	90
512.265	96
512.481	77
512.698	95
512.914	93
513.13	91
513.346	90
513.562	84
513.778	90
513.994	84
514.21	105
514.426	83
514.642	88
514.858	98
515.074	88
515.29	97
515.506	102
515.721	89
515.937	88
516.153	89
516.369	96
516.585	87
516.801	99
517.016	107
517.232	96
517.448	130
517.664	93
517.879	91
518.095	97
518.311	98
518.527	134
518.742	92
518.958	101
519.173	101
519.389	84
519.605	117
519.82	99
520.036	88
520.251	90
520.467	86
520.682	90
520.898	98
521.113	103
521.329	73
521.544	89
521.76	81
521.975	102
522.19	93
522.406	84
522.621	92
522.836	95
523.052	90
523.267	96
523.482	92
523.698	91
523.913	94
524.128	95
524.343	94
524.559	96
524.774	100
524.989	98
525.204	105
525.419	88
525.634	95
525.849	97
526.064	97
526.28	124
526.495	136
526.71	152
526.925	112
527.14	159
527.355	140
527.57	85
527.785	110
527.999	84
528.214	88
528.429	91
528.644	99
528.859	95
529.074	82
529.289	85
529.503	96
529.718	108
529.933	90
530.148	81
530.363	104
530.577	91
530.792	84
531.007	91
531.221	93
531.436	91
531.651	81
531.865	93
532.08	97
532.295	84
532.509	100
532.724	95
532.938	93
533.153	110
533.367	95
533.582	95
533.796	94
534.011	94
534.225	94
534.44	89
534.654	92
534.868	99
535.083	118
535.297	114
535.511	100
535.726	94
535.94	88
536.154	88
536.369	101
536.583	102
536.797	104
537.011	107
537.225	91
537.44	90
537.654	90
537.868	99
538.082	96
538.296	87
538.51	95
538.724	101
538.938	99
539.153	98
539.367	99
539.581	92
539.795	80
540.009	108
540.222	81
540.436	91
540.65	90
540.864	71
541.078	102
541.292	106
541.506	92
541.72	98
541.934	93
542.147	101
542.361	99
542.575	93
542.789	101
543.002	95
543.216	99
543.43	106
543.644	106
543.857	97
544.071	69
544.285	90
544.498	90
544.712	115
544.925	83
545.139	101
545.352	90
545.566	94
545.779	83
545.993	91
546.206	102
546.42	97
546.633	88
546.847	104
547.06	98
547.274	100
547.487	97
547.7	105
547.914	102
548.127	120
548.34	111
548.554	111
548.767	105
548.98	113
549.193	92
549.407	99
549.62	115
549.833	106
550.046	112
550.259	114
550.473	112
550.686	135
550.899	127
551.112	146
551.325	144
551.538	146
551.751	137
551.964	135
552.177	132
552.39	127
552.603	118
552.816	130
553.029	119
553.242	150
553.455	133
553.667	145
553.88	129
554.093	139
554.306	138
554.519	148
554.732	147
554.944	140
555.157	152
555.37	141
555.583	131
555.795	126
556.008	125
556.221	129
556.433	131
556.646	112
556.859	116
557.071	123
557.284	125
557.496	101
557.709	105
557.921	98
558.134	102
558.346	125
558.559	119
558.771	130
558.984	180
559.196	177
559.409	127
559.621	168
559.833	141
560.046	150
560.258	146
560.47	133
560.683	115
560.895	106
561.107	92
561.32	93
561.532	101
561.744	102
561.956	94
562.168	95
562.381	89
562.593	102
562.805	99
563.017	104
563.229	97
563.441	99
563.653	103
563.865	98
564.077	83
564.289	100
564.501	88
564.713	79
564.925	95
565.137	92
565.349	81
565.561	107
565.773	89
565.985	93
566.197	74
566.408	80
566.62	91
566.832	86
567.044	88
567.255	105
567.467	93
567.679	89
567.891	89
568.102	83
568.314	98
568.526	85
568.737	97
568.949	92
569.161	97
569.372	104
569.584	103
569.795	93
570.007	84
570.218	88
570.43	78
570.641	96
570.853	85
571.064	103
571.276	85
571.487	116
571.698	82
571.91	97
572.121	94
572.333	93
572.544	69
572.755	91
572.966	100
573.178	83
573.389	91
573.6	103
573.811	101
574.023	89
574.234	103
574.445	88
574.656	87
574.867	83
575.078	76
575.289	93
575.501	107
575.712	97
575.923	100
576.134	98
576.345	98
576.556	88
576.767	101
576.978	95
577.188	86
577.399	91
577.61	100
577.821	106
578.032	86
578.243	93
578.454	106
578.665	93
578.875	91
579.086	92
579.297	84
579.508	100
579.718	93
579.929	91
580.14	100
580.35	106
580.561	95
580.772	85
580.982	87
581.193	98
581.403	105
581.614	105
581.825	90
582.035	93
582.246	90
582.456	90
582.667	89
582.877	91
583.087	99
583.298	86
583.508	94
583.719	112
583.929	85
584.139	81
584.35	95
584.56	84
584.77	96
584.981	67
585.191	95
585.401	100
585.611	99
585.821	107
586.032	134
586.242	108
586.452	109
