Data from 1600_2_HRD10591_00036.txt Node
Date: Mon Jan 19 13:53:59 EST 2026
User: Yrep
Spectrometer: HR+D1059
Trigger mode: 1
Integration Time (sec): 1.000000E-1
Scans to average: 1
Electric dark correction enabled: true
Nonlinearity correction enabled: false
Boxcar width: 0
XAxis mode: Wavelengths
Number of Pixels in Spectrum: 2048
>>>>>Begin Spectral Data<<<<<
223.165	-3.44
223.4	-3.44
223.635	-3.44
223.869	-25.44
224.104	-26.44
224.338	-14.44
224.573	-18.44
224.808	-28.44
225.042	-2.44
225.277	-8.44
225.511	-6.44
225.746	7.56
225.98	14.56
226.215	14.56
226.449	8.56
226.683	31.56
226.918	30.56
227.152	26.56
227.387	27.56
227.621	45.56
227.856	49.56
228.09	43.56
228.324	58.56
228.559	65.56
228.793	56.56
229.027	49.56
229.262	66.56
229.496	62.56
229.73	64.56
229.964	70.56
230.199	59.56
230.433	62.56
230.667	81.56
230.901	75.56
231.136	79.56
231.37	81.56
231.604	77.56
231.838	70.56
232.072	79.56
232.306	92.56
232.541	85.56
232.775	74.56
233.009	79.56
233.243	72.56
233.477	82.56
233.711	88.56
233.945	88.56
234.179	87.56
234.413	72.56
234.647	86.56
234.881	77.56
235.115	77.56
235.349	84.56
235.583	70.56
235.817	75.56
236.051	83.56
236.285	93.56
236.519	61.56
236.753	68.56
236.987	87.56
237.221	75.56
237.455	73.56
237.689	84.56
237.922	71.56
238.156	71.56
238.39	77.56
238.624	78.56
238.858	81.56
239.091	78.56
239.325	68.56
239.559	76.56
239.793	70.56
240.027	62.56
240.26	81.56
240.494	73.56
240.728	84.56
240.961	84.56
241.195	79.56
241.429	79.56
241.662	64.56
241.896	68.56
242.13	81.56
242.363	73.56
242.597	70.56
242.83	77.56
243.064	67.56
243.298	85.56
243.531	70.56
243.765	77.56
243.998	57.56
244.232	57.56
244.465	71.56
244.699	74.56
244.932	77.56
245.166	79.56
245.399	85.56
245.633	94.56
245.866	92.56
246.099	75.56
246.333	79.56
246.566	72.56
246.8	84.56
247.033	88.56
247.266	80.56
247.5	71.56
247.733	63.56
247.966	92.56
248.2	77.56
248.433	81.56
248.666	76.56
248.899	82.56
249.133	79.56
249.366	79.56
249.599	80.56
249.832	75.56
250.066	74.56
250.299	86.56
250.532	81.56
250.765	82.56
250.998	75.56
251.231	82.56
251.465	64.56
251.698	78.56
251.931	69.56
252.164	77.56
252.397	82.56
252.63	74.56
252.863	76.56
253.096	74.56
253.329	83.56
253.562	74.56
253.795	90.56
254.028	85.56
254.261	58.56
254.494	65.56
254.727	86.56
254.96	79.56
255.193	81.56
255.426	85.56
255.659	77.56
255.892	69.56
256.124	70.56
256.357	78.56
256.59	70.56
256.823	63.56
257.056	77.56
257.289	72.56
257.521	72.56
257.754	84.56
257.987	73.56
258.22	83.56
258.452	77.56
258.685	76.56
258.918	73.56
259.151	77.56
259.383	83.56
259.616	82.56
259.849	74.56
260.081	76.56
260.314	72.56
260.547	82.56
260.779	91.56
261.012	62.56
261.244	88.56
261.477	85.56
261.71	75.56
261.942	87.56
262.175	87.56
262.407	67.56
262.64	87.56
262.872	75.56
263.105	88.56
263.337	89.56
263.57	77.56
263.802	84.56
264.035	76.56
264.267	87.56
264.499	96.56
264.732	79.56
264.964	86.56
265.197	67.56
265.429	73.56
265.661	77.56
265.894	86.56
266.126	67.56
266.358	87.56
266.591	75.56
266.823	83.56
267.055	77.56
267.287	63.56
267.52	79.56
267.752	74.56
267.984	83.56
268.216	79.56
268.448	81.56
268.681	91.56
268.913	89.56
269.145	86.56
269.377	68.56
269.609	80.56
269.841	84.56
270.073	76.56
270.306	79.56
270.538	83.56
270.77	82.56
271.002	83.56
271.234	86.56
271.466	80.56
271.698	74.56
271.93	99.56
272.162	91.56
272.394	88.56
272.626	73.56
272.858	84.56
273.09	86.56
273.322	83.56
273.553	87.56
273.785	94.56
274.017	85.56
274.249	86.56
274.481	85.56
274.713	83.56
274.945	78.56
275.176	83.56
275.408	89.56
275.64	79.56
275.872	80.56
276.104	79.56
276.335	84.56
276.567	83.56
276.799	80.56
277.031	89.56
277.262	93.56
277.494	67.56
277.726	83.56
277.957	89.56
278.189	83.56
278.421	87.56
278.652	93.56
278.884	77.56
279.115	72.56
279.347	84.56
279.579	94.56
279.81	83.56
280.042	77.56
280.273	89.56
280.505	77.56
280.736	90.56
280.968	85.56
281.199	89.56
281.431	72.56
281.662	88.56
281.894	72.56
282.125	78.56
282.356	79.56
282.588	85.56
282.819	79.56
283.051	78.56
283.282	79.56
283.513	84.56
283.745	88.56
283.976	85.56
284.207	75.56
284.439	76.56
284.67	79.56
284.901	84.56
285.132	92.56
285.364	73.56
285.595	85.56
285.826	81.56
286.057	81.56
286.288	79.56
286.52	87.56
286.751	86.56
286.982	93.56
287.213	80.56
287.444	65.56
287.675	84.56
287.906	87.56
288.138	78.56
288.369	83.56
288.6	77.56
288.831	94.56
289.062	94.56
289.293	82.56
289.524	77.56
289.755	91.56
289.986	76.56
290.217	80.56
290.448	77.56
290.679	81.56
290.91	91.56
291.141	86.56
291.371	84.56
291.602	100.56
291.833	78.56
292.064	91.56
292.295	88.56
292.526	75.56
292.757	81.56
292.987	88.56
293.218	91.56
293.449	87.56
293.68	83.56
293.91	76.56
294.141	76.56
294.372	86.56
294.603	76.56
294.833	96.56
295.064	95.56
295.295	92.56
295.525	86.56
295.756	69.56
295.987	71.56
296.217	79.56
296.448	80.56
296.679	74.56
296.909	83.56
297.14	92.56
297.37	95.56
297.601	84.56
297.831	88.56
298.062	90.56
298.292	95.56
298.523	90.56
298.753	86.56
298.984	81.56
299.214	74.56
299.445	79.56
299.675	79.56
299.905	85.56
300.136	89.56
300.366	97.56
300.597	83.56
300.827	81.56
301.057	73.56
301.288	87.56
301.518	77.56
301.748	97.56
301.979	101.56
302.209	88.56
302.439	80.56
302.669	84.56
302.9	80.56
303.13	92.56
303.36	81.56
303.59	94.56
303.82	81.56
304.051	85.56
304.281	84.56
304.511	96.56
304.741	95.56
304.971	80.56
305.201	87.56
305.431	89.56
305.661	84.56
305.891	83.56
306.121	83.56
306.352	90.56
306.582	76.56
306.812	90.56
307.042	83.56
307.272	85.56
307.502	73.56
307.731	94.56
307.961	79.56
308.191	98.56
308.421	94.56
308.651	96.56
308.881	78.56
309.111	85.56
309.341	77.56
309.571	81.56
309.8	78.56
310.03	88.56
310.26	85.56
310.49	79.56
310.72	91.56
310.949	84.56
311.179	78.56
311.409	85.56
311.639	87.56
311.868	63.56
312.098	97.56
312.328	91.56
312.557	83.56
312.787	74.56
313.017	91.56
313.246	84.56
313.476	82.56
313.706	93.56
313.935	80.56
314.165	96.56
314.394	93.56
314.624	95.56
314.853	89.56
315.083	96.56
315.312	75.56
315.542	81.56
315.771	81.56
316.001	82.56
316.23	98.56
316.46	84.56
316.689	72.56
316.919	84.56
317.148	83.56
317.377	76.56
317.607	86.56
317.836	93.56
318.065	68.56
318.295	74.56
318.524	87.56
318.753	78.56
318.983	78.56
319.212	91.56
319.441	81.56
319.67	78.56
319.9	84.56
320.129	93.56
320.358	69.56
320.587	88.56
320.816	81.56
321.046	80.56
321.275	87.56
321.504	73.56
321.733	73.56
321.962	88.56
322.191	86.56
322.42	71.56
322.649	96.56
322.878	87.56
323.108	86.56
323.337	81.56
323.566	68.56
323.795	75.56
324.024	83.56
324.253	82.56
324.482	77.56
324.71	95.56
324.939	81.56
325.168	85.56
325.397	84.56
325.626	71.56
325.855	71.56
326.084	87.56
326.313	93.56
326.542	71.56
326.77	84.56
326.999	77.56
327.228	85.56
327.457	92.56
327.686	77.56
327.914	99.56
328.143	77.56
328.372	76.56
328.6	71.56
328.829	86.56
329.058	83.56
329.287	88.56
329.515	91.56
329.744	84.56
329.972	96.56
330.201	85.56
330.43	67.56
330.658	83.56
330.887	91.56
331.115	81.56
331.344	85.56
331.572	97.56
331.801	83.56
332.03	71.56
332.258	86.56
332.486	89.56
332.715	80.56
332.943	74.56
333.172	86.56
333.4	89.56
333.629	91.56
333.857	71.56
334.085	74.56
334.314	70.56
334.542	66.56
334.771	85.56
334.999	83.56
335.227	87.56
335.455	85.56
335.684	91.56
335.912	78.56
336.14	86.56
336.369	101.56
336.597	87.56
336.825	93.56
337.053	85.56
337.281	81.56
337.51	102.56
337.738	82.56
337.966	68.56
338.194	80.56
338.422	80.56
338.65	83.56
338.878	95.56
339.106	87.56
339.334	91.56
339.562	70.56
339.79	86.56
340.018	93.56
340.246	81.56
340.474	67.56
340.702	64.56
340.93	91.56
341.158	91.56
341.386	79.56
341.614	84.56
341.842	92.56
342.07	79.56
342.298	84.56
342.526	92.56
342.754	68.56
342.981	84.56
343.209	87.56
343.437	110.56
343.665	86.56
343.893	85.56
344.12	77.56
344.348	86.56
344.576	89.56
344.804	72.56
345.031	87.56
345.259	85.56
345.487	92.56
345.714	81.56
345.942	79.56
346.17	88.56
346.397	81.56
346.625	80.56
346.853	81.56
347.08	83.56
347.308	95.56
347.535	98.56
347.763	89.56
347.99	88.56
348.218	90.56
348.445	65.56
348.673	82.56
348.9	70.56
349.128	83.56
349.355	85.56
349.583	91.56
349.81	88.56
350.037	71.56
350.265	71.56
350.492	84.56
350.72	82.56
350.947	92.56
351.174	77.56
351.402	87.56
351.629	97.56
351.856	94.56
352.083	78.56
352.311	84.56
352.538	94.56
352.765	87.56
352.992	88.56
353.22	95.56
353.447	76.56
353.674	92.56
353.901	93.56
354.128	65.56
354.355	85.56
354.583	78.56
354.81	72.56
355.037	81.56
355.264	99.56
355.491	91.56
355.718	83.56
355.945	82.56
356.172	84.56
356.399	96.56
356.626	88.56
356.853	76.56
357.08	82.56
357.307	96.56
357.534	87.56
357.761	92.56
357.988	82.56
358.215	93.56
358.441	85.56
358.668	90.56
358.895	86.56
359.122	86.56
359.349	72.56
359.576	81.56
359.802	71.56
360.029	87.56
360.256	84.56
360.483	88.56
360.709	90.56
360.936	90.56
361.163	85.56
361.39	85.56
361.616	91.56
361.843	83.56
362.07	84.56
362.296	82.56
362.523	80.56
362.749	85.56
362.976	86.56
363.203	84.56
363.429	95.56
363.656	85.56
363.882	77.56
364.109	84.56
364.335	82.56
364.562	98.56
364.788	87.56
365.015	86.56
365.241	85.56
365.468	83.56
365.694	92.56
365.92	90.56
366.147	77.56
366.373	71.56
366.599	84.56
366.826	80.56
367.052	100.56
367.278	79.56
367.505	85.56
367.731	85.56
367.957	80.56
368.184	87.56
368.41	78.56
368.636	86.56
368.862	89.56
369.089	87.56
369.315	81.56
369.541	88.56
369.767	73.56
369.993	89.56
370.219	76.56
370.445	96.56
370.672	81.56
370.898	89.56
371.124	79.56
371.35	87.56
371.576	87.56
371.802	73.56
372.028	84.56
372.254	94.56
372.48	87.56
372.706	87.56
372.932	80.56
373.158	73.56
373.384	90.56
373.61	89.56
373.835	90.56
374.061	91.56
374.287	84.56
374.513	101.56
374.739	92.56
374.965	84.56
375.191	91.56
375.416	88.56
375.642	79.56
375.868	100.56
376.094	84.56
376.319	82.56
376.545	85.56
376.771	80.56
376.997	84.56
377.222	69.56
377.448	88.56
377.674	73.56
377.899	69.56
378.125	90.56
378.35	79.56
378.576	79.56
378.802	68.56
379.027	74.56
379.253	77.56
379.478	73.56
379.704	76.56
379.929	94.56
380.155	77.56
380.38	76.56
380.606	81.56
380.831	94.56
381.057	84.56
381.282	79.56
381.507	99.56
381.733	87.56
381.958	86.56
382.184	85.56
382.409	89.56
382.634	87.56
382.86	96.56
383.085	99.56
383.31	102.56
383.535	84.56
383.761	91.56
383.986	93.56
384.211	83.56
384.436	77.56
384.662	95.56
384.887	75.56
385.112	80.56
385.337	84.56
385.562	92.56
385.787	75.56
386.013	91.56
386.238	84.56
386.463	78.56
386.688	104.56
386.913	88.56
387.138	85.56
387.363	85.56
387.588	93.56
387.813	77.56
388.038	74.56
388.263	71.56
388.488	94.56
388.713	87.56
388.938	81.56
389.163	82.56
389.387	89.56
389.612	87.56
389.837	91.56
390.062	81.56
390.287	93.56
390.512	95.56
390.736	72.56
390.961	80.56
391.186	79.56
391.411	76.56
391.636	80.56
391.86	84.56
392.085	75.56
392.31	71.56
392.534	85.56
392.759	85.56
392.984	94.56
393.208	114.56
393.433	116.56
393.658	116.56
393.882	78.56
394.107	77.56
394.331	87.56
394.556	93.56
394.78	79.56
395.005	94.56
395.229	76.56
395.454	88.56
395.678	73.56
395.903	88.56
396.127	90.56
396.352	102.56
396.576	76.56
396.801	108.56
397.025	122.56
397.249	101.56
397.474	74.56
397.698	97.56
397.922	70.56
398.147	50.56
398.371	70.56
398.595	82.56
398.82	82.56
399.044	74.56
399.268	88.56
399.492	72.56
399.717	85.56
399.941	81.56
400.165	69.56
400.389	74.56
400.613	77.56
400.837	80.56
401.062	84.56
401.286	88.56
401.51	67.56
401.734	91.56
401.958	82.56
402.182	83.56
402.406	64.56
402.63	73.56
402.854	84.56
403.078	88.56
403.302	99.56
403.526	83.56
403.75	78.56
403.974	86.56
404.198	69.56
404.422	91.56
404.645	100.56
404.869	94.56
405.093	78.56
405.317	85.56
405.541	71.56
405.765	80.56
405.988	78.56
406.212	73.56
406.436	76.56
406.66	83.56
406.883	93.56
407.107	84.56
407.331	91.56
407.555	89.56
407.778	89.56
408.002	82.56
408.226	81.56
408.449	75.56
408.673	73.56
408.896	81.56
409.12	73.56
409.344	67.56
409.567	80.56
409.791	81.56
410.014	89.56
410.238	73.56
410.461	82.56
410.685	84.56
410.908	84.56
411.132	76.56
411.355	86.56
411.578	101.56
411.802	82.56
412.025	83.56
412.249	86.56
412.472	90.56
412.695	87.56
412.919	90.56
413.142	84.56
413.365	75.56
413.589	80.56
413.812	85.56
414.035	79.56
414.258	63.56
414.482	90.56
414.705	73.56
414.928	87.56
415.151	65.56
415.374	81.56
415.597	92.56
415.821	81.56
416.044	83.56
416.267	76.56
416.49	86.56
416.713	61.56
416.936	87.56
417.159	83.56
417.382	83.56
417.605	80.56
417.828	82.56
418.051	82.56
418.274	76.56
418.497	77.56
418.72	73.56
418.943	84.56
419.166	98.56
419.389	80.56
419.611	79.56
419.834	86.56
420.057	77.56
420.28	84.56
420.503	78.56
420.726	84.56
420.948	87.56
421.171	80.56
421.394	76.56
421.617	93.56
421.839	83.56
422.062	88.56
422.285	88.56
422.507	112.56
422.73	149.56
422.953	143.56
423.175	86.56
423.398	84.56
423.621	96.56
423.843	89.56
424.066	94.56
424.288	87.56
424.511	78.56
424.733	64.56
424.956	67.56
425.178	78.56
425.401	80.56
425.623	85.56
425.846	73.56
426.068	67.56
426.291	83.56
426.513	72.56
426.735	75.56
426.958	85.56
427.18	76.56
427.402	85.56
427.625	87.56
427.847	88.56
428.069	73.56
428.292	85.56
428.514	84.56
428.736	77.56
428.958	88.56
429.181	88.56
429.403	82.56
429.625	85.56
429.847	84.56
430.069	102.56
430.292	92.56
430.514	98.56
430.736	79.56
430.958	99.56
431.18	78.56
431.402	85.56
431.624	87.56
431.846	80.56
432.068	80.56
432.29	79.56
432.512	81.56
432.734	69.56
432.956	82.56
433.178	90.56
433.4	69.56
433.622	89.56
433.844	76.56
434.066	88.56
434.287	83.56
434.509	84.56
434.731	78.56
434.953	74.56
435.175	71.56
435.397	86.56
435.618	81.56
435.84	84.56
436.062	76.56
436.284	74.56
436.505	80.56
436.727	82.56
436.949	88.56
437.17	95.56
437.392	76.56
437.614	92.56
437.835	74.56
438.057	68.56
438.278	84.56
438.5	68.56
438.721	72.56
438.943	76.56
439.165	75.56
439.386	78.56
439.608	82.56
439.829	84.56
440.05	78.56
440.272	80.56
440.493	63.56
440.715	66.56
440.936	70.56
441.158	92.56
441.379	67.56
441.6	83.56
441.822	73.56
442.043	84.56
442.264	80.56
442.486	84.56
442.707	82.56
442.928	87.56
443.149	92.56
443.371	92.56
443.592	90.56
443.813	84.56
444.034	79.56
444.255	97.56
444.476	89.56
444.698	79.56
444.919	63.56
445.14	154.56
445.361	118.56
445.582	96.56
445.803	96.56
446.024	95.56
446.245	75.56
446.466	76.56
446.687	86.56
446.908	68.56
447.129	80.56
447.35	80.56
447.571	92.56
447.792	73.56
448.013	86.56
448.234	68.56
448.455	86.56
448.675	69.56
448.896	79.56
449.117	90.56
449.338	79.56
449.559	77.56
449.779	67.56
450	84.56
450.221	79.56
450.442	87.56
450.662	79.56
450.883	84.56
451.104	80.56
451.324	77.56
451.545	97.56
451.766	76.56
451.986	80.56
452.207	83.56
452.428	91.56
452.648	63.56
452.869	93.56
453.089	94.56
453.31	79.56
453.53	79.56
453.751	92.56
453.971	93.56
454.192	84.56
454.412	81.56
454.633	83.56
454.853	71.56
455.073	70.56
455.294	88.56
455.514	81.56
455.734	75.56
455.955	85.56
456.175	78.56
456.395	83.56
456.616	85.56
456.836	81.56
457.056	91.56
457.276	79.56
457.497	82.56
457.717	86.56
457.937	89.56
458.157	83.56
458.377	87.56
458.598	73.56
458.818	87.56
459.038	93.56
459.258	72.56
459.478	83.56
459.698	85.56
459.918	79.56
460.138	96.56
460.358	79.56
460.578	77.56
460.798	73.56
461.018	79.56
461.238	69.56
461.458	77.56
461.678	71.56
461.898	87.56
462.118	83.56
462.338	81.56
462.558	91.56
462.777	87.56
462.997	78.56
463.217	84.56
463.437	74.56
463.657	75.56
463.876	91.56
464.096	79.56
464.316	87.56
464.536	63.56
464.755	84.56
464.975	64.56
465.195	83.56
465.414	87.56
465.634	69.56
465.854	63.56
466.073	91.56
466.293	80.56
466.512	80.56
466.732	87.56
466.951	73.56
467.171	75.56
467.391	69.56
467.61	72.56
467.829	74.56
468.049	75.56
468.268	80.56
468.488	80.56
468.707	70.56
468.927	63.56
469.146	83.56
469.365	86.56
469.585	83.56
469.804	83.56
470.023	66.56
470.243	79.56
470.462	79.56
470.681	82.56
470.901	80.56
471.12	87.56
471.339	81.56
471.558	82.56
471.777	85.56
471.997	74.56
472.216	80.56
472.435	68.56
472.654	81.56
472.873	63.56
473.092	81.56
473.311	72.56
473.53	81.56
473.749	86.56
473.968	91.56
474.187	77.56
474.406	79.56
474.625	85.56
474.844	70.56
475.063	86.56
475.282	81.56
475.501	81.56
475.72	93.56
475.939	73.56
476.158	73.56
476.377	79.56
476.596	86.56
476.814	64.56
477.033	81.56
477.252	91.56
477.471	82.56
477.69	89.56
477.908	78.56
478.127	81.56
478.346	83.56
478.564	84.56
478.783	76.56
479.002	91.56
479.22	66.56
479.439	79.56
479.658	84.56
479.876	75.56
480.095	72.56
480.313	73.56
480.532	79.56
480.751	56.56
480.969	82.56
481.188	86.56
481.406	91.56
481.624	75.56
481.843	85.56
482.061	68.56
482.28	84.56
482.498	72.56
482.717	74.56
482.935	86.56
483.153	80.56
483.372	79.56
483.59	75.56
483.808	62.56
484.027	91.56
484.245	77.56
484.463	70.56
484.681	98.56
484.9	88.56
485.118	75.56
485.336	72.56
485.554	78.56
485.772	92.56
485.99	72.56
486.209	86.56
486.427	68.56
486.645	77.56
486.863	83.56
487.081	88.56
487.299	76.56
487.517	83.56
487.735	78.56
487.953	85.56
488.171	95.56
488.389	79.56
488.607	79.56
488.825	96.56
489.043	85.56
489.261	71.56
489.479	75.56
489.696	79.56
489.914	85.56
490.132	79.56
490.35	83.56
490.568	84.56
490.786	84.56
491.003	76.56
491.221	84.56
491.439	81.56
491.657	78.56
491.874	74.56
492.092	82.56
492.31	88.56
492.527	77.56
492.745	70.56
492.963	81.56
493.18	84.56
493.398	80.56
493.615	93.56
493.833	81.56
494.05	83.56
494.268	67.56
494.485	77.56
494.703	75.56
494.92	74.56
495.138	62.56
495.355	81.56
495.573	75.56
495.79	88.56
496.008	100.56
496.225	81.56
496.442	84.56
496.66	97.56
496.877	94.56
497.094	90.56
497.312	91.56
497.529	79.56
497.746	67.56
497.963	79.56
498.181	86.56
498.398	90.56
498.615	91.56
498.832	92.56
499.049	85.56
499.267	84.56
499.484	87.56
499.701	88.56
499.918	97.56
500.135	81.56
500.352	88.56
500.569	87.56
500.786	73.56
501.003	94.56
501.22	87.56
501.437	76.56
501.654	83.56
501.871	76.56
502.088	85.56
502.305	82.56
502.522	83.56
502.739	73.56
502.956	82.56
503.172	85.56
503.389	96.56
503.606	76.56
503.823	77.56
504.04	83.56
504.256	97.56
504.473	75.56
504.69	79.56
504.907	81.56
505.123	93.56
505.34	96.56
505.557	94.56
505.773	78.56
505.99	82.56
506.207	82.56
506.423	84.56
506.64	79.56
506.856	85.56
507.073	78.56
507.289	73.56
507.506	85.56
507.722	75.56
507.939	80.56
508.155	73.56
508.372	76.56
508.588	87.56
508.805	94.56
509.021	77.56
509.238	76.56
509.454	82.56
509.67	72.56
509.887	97.56
510.103	87.56
510.319	83.56
510.536	65.56
510.752	77.56
510.968	78.56
511.184	86.56
511.401	78.56
511.617	80.56
511.833	73.56
512.049	95.56
512.265	64.56
512.481	83.56
512.698	87.56
512.914	79.56
513.13	88.56
513.346	86.56
513.562	74.56
513.778	92.56
513.994	82.56
514.21	79.56
514.426	82.56
514.642	76.56
514.858	96.56
515.074	78.56
515.29	92.56
515.506	87.56
515.721	88.56
515.937	90.56
516.153	75.56
516.369	85.56
516.585	87.56
516.801	71.56
517.016	67.56
517.232	91.56
517.448	102.56
517.664	89.56
517.879	88.56
518.095	93.56
518.311	76.56
518.527	98.56
518.742	64.56
518.958	80.56
519.173	76.56
519.389	89.56
519.605	74.56
519.82	73.56
520.036	85.56
