Data from 1600_2_HRD10591_00010.txt Node
Date: Mon Jan 19 13:53:46 EST 2026
User: Yrep
Spectrometer: HR+D1059
Trigger mode: 1
Integration Time (sec): 1.000000E-1
Scans to average: 1
Electric dark correction enabled: true
Nonlinearity correction enabled: false
Boxcar width: 0
XAxis mode: Wavelengths
Number of Pixels in Spectrum: 2048
>>>>>Begin Spectral Data<<<<<
223.165	-25.88
223.4	-25.88
223.635	-25.88
223.869	-10.88
224.104	-15.88
224.338	-16.88
224.573	-23.88
224.808	-9.88
225.042	-11.88
225.277	-8.88
225.511	-3.88
225.746	-3.88
225.98	10.12
226.215	23.12
226.449	16.12
226.683	26.12
226.918	30.12
227.152	26.12
227.387	36.12
227.621	43.12
227.856	56.12
228.09	44.12
228.324	33.12
228.559	62.12
228.793	59.12
229.027	59.12
229.262	54.12
229.496	71.12
229.73	78.12
229.964	84.12
230.199	59.12
230.433	77.12
230.667	76.12
230.901	82.12
231.136	84.12
231.37	83.12
231.604	64.12
231.838	83.12
232.072	96.12
232.306	94.12
232.541	76.12
232.775	74.12
233.009	94.12
233.243	98.12
233.477	79.12
233.711	90.12
233.945	74.12
234.179	86.12
234.413	83.12
234.647	76.12
234.881	88.12
235.115	76.12
235.349	62.12
235.583	92.12
235.817	86.12
236.051	83.12
236.285	75.12
236.519	83.12
236.753	84.12
236.987	67.12
237.221	71.12
237.455	75.12
237.689	99.12
237.922	79.12
238.156	71.12
238.39	66.12
238.624	81.12
238.858	82.12
239.091	84.12
239.325	80.12
239.559	87.12
239.793	84.12
240.027	77.12
240.26	86.12
240.494	78.12
240.728	65.12
240.961	86.12
241.195	66.12
241.429	92.12
241.662	69.12
241.896	72.12
242.13	87.12
242.363	77.12
242.597	78.12
242.83	86.12
243.064	81.12
243.298	86.12
243.531	66.12
243.765	86.12
243.998	76.12
244.232	75.12
244.465	82.12
244.699	80.12
244.932	83.12
245.166	71.12
245.399	85.12
245.633	75.12
245.866	60.12
246.099	68.12
246.333	89.12
246.566	76.12
246.8	74.12
247.033	70.12
247.266	88.12
247.5	67.12
247.733	73.12
247.966	91.12
248.2	68.12
248.433	91.12
248.666	79.12
248.899	87.12
249.133	96.12
249.366	92.12
249.599	81.12
249.832	74.12
250.066	85.12
250.299	80.12
250.532	73.12
250.765	89.12
250.998	81.12
251.231	90.12
251.465	73.12
251.698	81.12
251.931	82.12
252.164	80.12
252.397	76.12
252.63	86.12
252.863	79.12
253.096	89.12
253.329	85.12
253.562	74.12
253.795	81.12
254.028	82.12
254.261	83.12
254.494	73.12
254.727	84.12
254.96	82.12
255.193	83.12
255.426	84.12
255.659	89.12
255.892	78.12
256.124	83.12
256.357	84.12
256.59	66.12
256.823	79.12
257.056	79.12
257.289	76.12
257.521	90.12
257.754	77.12
257.987	76.12
258.22	80.12
258.452	84.12
258.685	88.12
258.918	79.12
259.151	72.12
259.383	82.12
259.616	80.12
259.849	73.12
260.081	74.12
260.314	82.12
260.547	90.12
260.779	80.12
261.012	90.12
261.244	78.12
261.477	97.12
261.71	86.12
261.942	81.12
262.175	72.12
262.407	76.12
262.64	79.12
262.872	80.12
263.105	85.12
263.337	78.12
263.57	74.12
263.802	87.12
264.035	82.12
264.267	79.12
264.499	106.12
264.732	76.12
264.964	83.12
265.197	94.12
265.429	75.12
265.661	90.12
265.894	81.12
266.126	89.12
266.358	75.12
266.591	76.12
266.823	79.12
267.055	76.12
267.287	86.12
267.52	88.12
267.752	80.12
267.984	87.12
268.216	87.12
268.448	92.12
268.681	86.12
268.913	78.12
269.145	82.12
269.377	77.12
269.609	79.12
269.841	88.12
270.073	91.12
270.306	77.12
270.538	81.12
270.77	75.12
271.002	78.12
271.234	71.12
271.466	96.12
271.698	96.12
271.93	91.12
272.162	95.12
272.394	95.12
272.626	92.12
272.858	85.12
273.09	78.12
273.322	89.12
273.553	74.12
273.785	83.12
274.017	98.12
274.249	87.12
274.481	76.12
274.713	62.12
274.945	90.12
275.176	79.12
275.408	74.12
275.64	86.12
275.872	81.12
276.104	97.12
276.335	103.12
276.567	89.12
276.799	81.12
277.031	96.12
277.262	71.12
277.494	92.12
277.726	74.12
277.957	75.12
278.189	75.12
278.421	83.12
278.652	69.12
278.884	74.12
279.115	78.12
279.347	95.12
279.579	85.12
279.81	83.12
280.042	77.12
280.273	80.12
280.505	99.12
280.736	89.12
280.968	75.12
281.199	96.12
281.431	75.12
281.662	87.12
281.894	82.12
282.125	82.12
282.356	85.12
282.588	89.12
282.819	79.12
283.051	87.12
283.282	92.12
283.513	96.12
283.745	84.12
283.976	97.12
284.207	94.12
284.439	84.12
284.67	85.12
284.901	78.12
285.132	87.12
285.364	98.12
285.595	78.12
285.826	82.12
286.057	83.12
286.288	87.12
286.52	75.12
286.751	94.12
286.982	78.12
287.213	88.12
287.444	73.12
287.675	64.12
287.906	96.12
288.138	90.12
288.369	87.12
288.6	89.12
288.831	88.12
289.062	92.12
289.293	84.12
289.524	89.12
289.755	88.12
289.986	83.12
290.217	68.12
290.448	97.12
290.679	82.12
290.91	91.12
291.141	75.12
291.371	77.12
291.602	91.12
291.833	87.12
292.064	85.12
292.295	80.12
292.526	80.12
292.757	91.12
292.987	98.12
293.218	71.12
293.449	78.12
293.68	88.12
293.91	78.12
294.141	90.12
294.372	73.12
294.603	86.12
294.833	89.12
295.064	93.12
295.295	76.12
295.525	77.12
295.756	80.12
295.987	86.12
296.217	81.12
296.448	99.12
296.679	89.12
296.909	98.12
297.14	97.12
297.37	95.12
297.601	85.12
297.831	95.12
298.062	83.12
298.292	94.12
298.523	91.12
298.753	82.12
298.984	98.12
299.214	86.12
299.445	74.12
299.675	76.12
299.905	95.12
300.136	73.12
300.366	92.12
300.597	90.12
300.827	94.12
301.057	77.12
301.288	84.12
301.518	85.12
301.748	70.12
301.979	94.12
302.209	79.12
302.439	85.12
302.669	87.12
302.9	95.12
303.13	76.12
303.36	91.12
303.59	94.12
303.82	100.12
304.051	79.12
304.281	78.12
304.511	95.12
304.741	86.12
304.971	85.12
305.201	85.12
305.431	70.12
305.661	84.12
305.891	82.12
306.121	91.12
306.352	80.12
306.582	94.12
306.812	88.12
307.042	76.12
307.272	83.12
307.502	82.12
307.731	87.12
307.961	90.12
308.191	93.12
308.421	97.12
308.651	91.12
308.881	91.12
309.111	93.12
309.341	86.12
309.571	93.12
309.8	89.12
310.03	85.12
310.26	92.12
310.49	79.12
310.72	91.12
310.949	71.12
311.179	77.12
311.409	84.12
311.639	83.12
311.868	83.12
312.098	73.12
312.328	96.12
312.557	91.12
312.787	106.12
313.017	102.12
313.246	83.12
313.476	85.12
313.706	84.12
313.935	95.12
314.165	82.12
314.394	86.12
314.624	92.12
314.853	96.12
315.083	89.12
315.312	77.12
315.542	84.12
315.771	88.12
316.001	89.12
316.23	82.12
316.46	74.12
316.689	80.12
316.919	91.12
317.148	79.12
317.377	78.12
317.607	84.12
317.836	66.12
318.065	89.12
318.295	99.12
318.524	80.12
318.753	88.12
318.983	73.12
319.212	81.12
319.441	74.12
319.67	84.12
319.9	92.12
320.129	101.12
320.358	91.12
320.587	93.12
320.816	83.12
321.046	83.12
321.275	85.12
321.504	82.12
321.733	75.12
321.962	84.12
322.191	98.12
322.42	84.12
322.649	74.12
322.878	75.12
323.108	84.12
323.337	83.12
323.566	78.12
323.795	88.12
324.024	82.12
324.253	85.12
324.482	80.12
324.71	81.12
324.939	88.12
325.168	90.12
325.397	73.12
325.626	72.12
325.855	74.12
326.084	81.12
326.313	92.12
326.542	84.12
326.77	85.12
326.999	95.12
327.228	84.12
327.457	72.12
327.686	89.12
327.914	95.12
328.143	83.12
328.372	84.12
328.6	99.12
328.829	91.12
329.058	84.12
329.287	86.12
329.515	87.12
329.744	92.12
329.972	97.12
330.201	84.12
330.43	91.12
330.658	84.12
330.887	90.12
331.115	84.12
331.344	79.12
331.572	78.12
331.801	86.12
332.03	82.12
332.258	75.12
332.486	95.12
332.715	95.12
332.943	93.12
333.172	88.12
333.4	76.12
333.629	74.12
333.857	91.12
334.085	86.12
334.314	90.12
334.542	94.12
334.771	93.12
334.999	95.12
335.227	92.12
335.455	95.12
335.684	83.12
335.912	87.12
336.14	82.12
336.369	82.12
336.597	74.12
336.825	81.12
337.053	80.12
337.281	98.12
337.51	82.12
337.738	101.12
337.966	85.12
338.194	94.12
338.422	92.12
338.65	82.12
338.878	91.12
339.106	95.12
339.334	94.12
339.562	86.12
339.79	76.12
340.018	78.12
340.246	82.12
340.474	73.12
340.702	94.12
340.93	97.12
341.158	95.12
341.386	98.12
341.614	81.12
341.842	74.12
342.07	83.12
342.298	82.12
342.526	87.12
342.754	86.12
342.981	91.12
343.209	87.12
343.437	85.12
343.665	92.12
343.893	90.12
344.12	83.12
344.348	91.12
344.576	86.12
344.804	90.12
345.031	88.12
345.259	99.12
345.487	85.12
345.714	89.12
345.942	92.12
346.17	110.12
346.397	74.12
346.625	90.12
346.853	95.12
347.08	85.12
347.308	83.12
347.535	92.12
347.763	95.12
347.99	100.12
348.218	90.12
348.445	94.12
348.673	86.12
348.9	98.12
349.128	92.12
349.355	75.12
349.583	83.12
349.81	90.12
350.037	86.12
350.265	88.12
350.492	87.12
350.72	91.12
350.947	94.12
351.174	82.12
351.402	89.12
351.629	75.12
351.856	86.12
352.083	85.12
352.311	71.12
352.538	84.12
352.765	76.12
352.992	96.12
353.22	87.12
353.447	90.12
353.674	81.12
353.901	76.12
354.128	92.12
354.355	85.12
354.583	85.12
354.81	87.12
355.037	83.12
355.264	77.12
355.491	91.12
355.718	93.12
355.945	84.12
356.172	88.12
356.399	79.12
356.626	80.12
356.853	76.12
357.08	83.12
357.307	88.12
357.534	93.12
357.761	82.12
357.988	90.12
358.215	104.12
358.441	91.12
358.668	84.12
358.895	83.12
359.122	85.12
359.349	83.12
359.576	76.12
359.802	82.12
360.029	67.12
360.256	84.12
360.483	83.12
360.709	87.12
360.936	101.12
361.163	83.12
361.39	78.12
361.616	79.12
361.843	91.12
362.07	85.12
362.296	84.12
362.523	90.12
362.749	76.12
362.976	91.12
363.203	95.12
363.429	70.12
363.656	89.12
363.882	90.12
364.109	80.12
364.335	99.12
364.562	84.12
364.788	72.12
365.015	83.12
365.241	87.12
365.468	76.12
365.694	88.12
365.92	75.12
366.147	76.12
366.373	90.12
366.599	89.12
366.826	82.12
367.052	92.12
367.278	90.12
367.505	83.12
367.731	86.12
367.957	80.12
368.184	91.12
368.41	81.12
368.636	90.12
368.862	89.12
369.089	93.12
369.315	81.12
369.541	75.12
369.767	96.12
369.993	65.12
370.219	71.12
370.445	95.12
370.672	93.12
370.898	81.12
371.124	84.12
371.35	90.12
371.576	85.12
371.802	94.12
372.028	90.12
372.254	89.12
372.48	67.12
372.706	84.12
372.932	96.12
373.158	81.12
373.384	88.12
373.61	86.12
373.835	107.12
374.061	94.12
374.287	88.12
374.513	92.12
374.739	84.12
374.965	89.12
375.191	84.12
375.416	92.12
375.642	93.12
375.868	93.12
376.094	98.12
376.319	79.12
376.545	76.12
376.771	83.12
376.997	74.12
377.222	79.12
377.448	96.12
377.674	88.12
377.899	84.12
378.125	82.12
378.35	92.12
378.576	82.12
378.802	77.12
379.027	85.12
379.253	93.12
379.478	81.12
379.704	76.12
379.929	82.12
380.155	96.12
380.38	93.12
380.606	97.12
380.831	91.12
381.057	91.12
381.282	86.12
381.507	84.12
381.733	90.12
381.958	95.12
382.184	88.12
382.409	96.12
382.634	103.12
382.86	95.12
383.085	95.12
383.31	81.12
383.535	89.12
383.761	97.12
383.986	95.12
384.211	97.12
384.436	84.12
384.662	81.12
384.887	86.12
385.112	87.12
385.337	83.12
385.562	71.12
385.787	88.12
386.013	82.12
386.238	84.12
386.463	83.12
386.688	110.12
386.913	83.12
387.138	92.12
387.363	96.12
387.588	90.12
387.813	87.12
388.038	89.12
388.263	99.12
388.488	82.12
388.713	92.12
388.938	88.12
389.163	93.12
389.387	86.12
389.612	83.12
389.837	102.12
390.062	93.12
390.287	80.12
390.512	84.12
390.736	73.12
390.961	82.12
391.186	82.12
391.411	73.12
391.636	68.12
391.86	81.12
392.085	73.12
392.31	78.12
392.534	88.12
392.759	77.12
392.984	81.12
393.208	87.12
393.433	102.12
393.658	89.12
393.882	93.12
394.107	98.12
394.331	94.12
394.556	77.12
394.78	91.12
395.005	90.12
395.229	94.12
395.454	90.12
395.678	85.12
395.903	93.12
396.127	87.12
396.352	90.12
396.576	90.12
396.801	86.12
397.025	98.12
397.249	85.12
397.474	88.12
397.698	101.12
397.922	101.12
398.147	85.12
398.371	74.12
398.595	88.12
398.82	87.12
399.044	88.12
399.268	63.12
399.492	68.12
399.717	67.12
399.941	96.12
400.165	96.12
400.389	81.12
400.613	78.12
400.837	97.12
401.062	74.12
401.286	68.12
401.51	68.12
401.734	88.12
401.958	88.12
402.182	87.12
402.406	80.12
402.63	86.12
402.854	87.12
403.078	78.12
403.302	80.12
403.526	74.12
403.75	89.12
403.974	82.12
404.198	73.12
404.422	104.12
404.645	98.12
404.869	84.12
405.093	98.12
405.317	87.12
405.541	103.12
405.765	77.12
405.988	72.12
406.212	95.12
406.436	90.12
406.66	87.12
406.883	76.12
407.107	84.12
407.331	96.12
407.555	82.12
407.778	73.12
408.002	94.12
408.226	86.12
408.449	85.12
408.673	96.12
408.896	92.12
409.12	76.12
409.344	101.12
409.567	76.12
409.791	88.12
410.014	75.12
410.238	89.12
410.461	80.12
410.685	89.12
410.908	76.12
411.132	78.12
411.355	69.12
411.578	86.12
411.802	94.12
412.025	86.12
412.249	83.12
412.472	90.12
412.695	88.12
412.919	92.12
413.142	98.12
413.365	87.12
413.589	81.12
413.812	86.12
414.035	92.12
414.258	82.12
414.482	81.12
414.705	90.12
414.928	88.12
415.151	86.12
415.374	86.12
415.597	78.12
415.821	73.12
416.044	85.12
416.267	75.12
416.49	80.12
416.713	74.12
416.936	91.12
417.159	76.12
417.382	88.12
417.605	80.12
417.828	82.12
418.051	73.12
418.274	90.12
418.497	82.12
418.72	89.12
418.943	86.12
419.166	76.12
419.389	97.12
419.611	76.12
419.834	66.12
420.057	91.12
420.28	72.12
420.503	84.12
420.726	82.12
420.948	85.12
421.171	87.12
421.394	82.12
421.617	78.12
421.839	99.12
422.062	66.12
422.285	79.12
422.507	98.12
422.73	115.12
422.953	136.12
423.175	97.12
423.398	96.12
423.621	86.12
423.843	76.12
424.066	79.12
424.288	86.12
424.511	66.12
424.733	73.12
424.956	80.12
425.178	90.12
425.401	91.12
425.623	76.12
425.846	76.12
426.068	100.12
426.291	70.12
426.513	63.12
426.735	92.12
426.958	83.12
427.18	100.12
427.402	79.12
427.625	84.12
427.847	83.12
428.069	84.12
428.292	95.12
428.514	86.12
428.736	79.12
428.958	90.12
429.181	72.12
429.403	86.12
429.625	86.12
429.847	94.12
430.069	93.12
430.292	89.12
430.514	103.12
430.736	95.12
430.958	97.12
431.18	75.12
431.402	79.12
431.624	80.12
431.846	83.12
432.068	83.12
432.29	80.12
432.512	89.12
432.734	67.12
432.956	90.12
433.178	85.12
433.4	99.12
433.622	86.12
433.844	80.12
434.066	94.12
434.287	85.12
434.509	75.12
434.731	80.12
434.953	84.12
435.175	73.12
435.397	96.12
435.618	78.12
435.84	79.12
436.062	73.12
436.284	86.12
436.505	75.12
436.727	78.12
436.949	76.12
437.17	86.12
437.392	88.12
437.614	87.12
437.835	87.12
438.057	76.12
438.278	72.12
438.5	81.12
438.721	83.12
438.943	101.12
439.165	84.12
439.386	95.12
439.608	84.12
439.829	89.12
440.05	83.12
440.272	77.12
440.493	67.12
440.715	83.12
440.936	86.12
441.158	85.12
441.379	76.12
441.6	102.12
441.822	100.12
442.043	73.12
442.264	70.12
442.486	91.12
442.707	88.12
442.928	90.12
443.149	69.12
443.371	108.12
443.592	89.12
443.813	87.12
444.034	89.12
444.255	82.12
444.476	76.12
444.698	86.12
444.919	77.12
445.14	154.12
445.361	119.12
445.582	108.12
445.803	98.12
446.024	82.12
446.245	83.12
446.466	76.12
446.687	81.12
446.908	88.12
447.129	86.12
447.35	72.12
447.571	73.12
447.792	85.12
448.013	72.12
448.234	63.12
448.455	68.12
448.675	86.12
448.896	80.12
449.117	93.12
449.338	91.12
449.559	96.12
449.779	92.12
450	77.12
450.221	73.12
450.442	85.12
450.662	82.12
450.883	85.12
451.104	94.12
451.324	88.12
451.545	92.12
451.766	84.12
451.986	76.12
452.207	81.12
452.428	84.12
452.648	79.12
452.869	83.12
453.089	103.12
453.31	90.12
453.53	88.12
453.751	85.12
453.971	79.12
454.192	68.12
454.412	74.12
454.633	86.12
454.853	82.12
455.073	76.12
455.294	63.12
455.514	91.12
455.734	88.12
455.955	77.12
456.175	84.12
456.395	92.12
456.616	72.12
456.836	81.12
457.056	78.12
457.276	76.12
457.497	77.12
457.717	87.12
457.937	64.12
458.157	85.12
458.377	75.12
458.598	78.12
458.818	86.12
459.038	80.12
459.258	88.12
459.478	95.12
459.698	96.12
459.918	86.12
460.138	69.12
460.358	75.12
460.578	84.12
460.798	77.12
461.018	86.12
461.238	85.12
461.458	80.12
461.678	87.12
461.898	81.12
462.118	104.12
462.338	75.12
462.558	62.12
462.777	85.12
462.997	86.12
463.217	81.12
463.437	72.12
463.657	88.12
463.876	83.12
464.096	79.12
464.316	82.12
464.536	93.12
464.755	76.12
464.975	96.12
465.195	72.12
465.414	97.12
465.634	88.12
465.854	97.12
466.073	101.12
466.293	64.12
466.512	75.12
466.732	95.12
466.951	88.12
467.171	80.12
467.391	82.12
467.61	75.12
467.829	82.12
468.049	80.12
468.268	80.12
468.488	83.12
468.707	90.12
468.927	82.12
469.146	76.12
469.365	86.12
469.585	80.12
469.804	106.12
470.023	84.12
470.243	92.12
470.462	67.12
470.681	82.12
470.901	89.12
471.12	85.12
471.339	84.12
471.558	103.12
471.777	94.12
471.997	87.12
472.216	86.12
472.435	57.12
472.654	71.12
472.873	83.12
473.092	86.12
473.311	81.12
473.53	95.12
473.749	74.12
473.968	82.12
474.187	80.12
474.406	80.12
474.625	88.12
474.844	78.12
475.063	86.12
475.282	86.12
475.501	98.12
475.72	97.12
475.939	71.12
476.158	97.12
476.377	62.12
476.596	71.12
476.814	76.12
477.033	75.12
477.252	88.12
477.471	73.12
477.69	101.12
477.908	78.12
478.127	86.12
478.346	92.12
478.564	83.12
478.783	66.12
479.002	92.12
479.22	92.12
479.439	85.12
479.658	84.12
479.876	85.12
480.095	79.12
480.313	91.12
480.532	89.12
480.751	82.12
480.969	82.12
481.188	88.12
481.406	96.12
481.624	82.12
481.843	82.12
482.061	93.12
482.28	86.12
482.498	91.12
482.717	85.12
482.935	82.12
483.153	83.12
483.372	91.12
483.59	90.12
483.808	90.12
484.027	87.12
484.245	88.12
484.463	83.12
484.681	81.12
484.9	85.12
485.118	89.12
485.336	81.12
485.554	74.12
485.772	85.12
485.99	93.12
486.209	90.12
486.427	73.12
486.645	78.12
486.863	80.12
487.081	103.12
487.299	85.12
487.517	92.12
487.735	79.12
487.953	90.12
488.171	86.12
488.389	86.12
488.607	78.12
488.825	81.12
489.043	95.12
489.261	84.12
489.479	92.12
489.696	91.12
489.914	76.12
490.132	82.12
490.35	91.12
490.568	88.12
490.786	80.12
491.003	92.12
491.221	102.12
491.439	98.12
491.657	85.12
491.874	88.12
492.092	95.12
492.31	80.12
492.527	83.12
492.745	82.12
492.963	88.12
493.18	97.12
493.398	81.12
493.615	89.12
493.833	83.12
494.05	77.12
494.268	87.12
494.485	89.12
494.703	79.12
494.92	86.12
495.138	96.12
495.355	76.12
495.573	94.12
495.79	90.12
496.008	78.12
496.225	79.12
496.442	71.12
496.66	98.12
496.877	88.12
497.094	96.12
497.312	77.12
497.529	67.12
497.746	82.12
497.963	84.12
498.181	65.12
498.398	98.12
498.615	78.12
498.832	77.12
499.049	96.12
499.267	104.12
499.484	85.12
499.701	84.12
499.918	94.12
500.135	94.12
500.352	81.12
500.569	88.12
500.786	101.12
501.003	99.12
501.22	86.12
501.437	82.12
501.654	91.12
501.871	86.12
502.088	98.12
502.305	75.12
502.522	72.12
502.739	88.12
502.956	76.12
503.172	96.12
503.389	83.12
503.606	87.12
503.823	87.12
504.04	87.12
504.256	79.12
504.473	86.12
504.69	80.12
504.907	88.12
505.123	87.12
505.34	88.12
505.557	80.12
505.773	87.12
505.99	87.12
506.207	91.12
506.423	87.12
506.64	88.12
506.856	89.12
507.073	85.12
507.289	89.12
507.506	99.12
507.722	85.12
507.939	87.12
508.155	79.12
508.372	80.12
508.588	66.12
508.805	78.12
509.021	88.12
509.238	100.12
509.454	91.12
509.67	82.12
509.887	92.12
510.103	80.12
510.319	86.12
510.536	101.12
510.752	84.12
510.968	104.12
511.184	94.12
511.401	81.12
511.617	96.12
511.833	86.12
512.049	87.12
512.265	86.12
512.481	100.12
512.698	110.12
512.914	94.12
513.13	93.12
513.346	88.12
513.562	98.12
513.778	84.12
513.994	77.12
514.21	86.12
514.426	80.12
514.642	90.12
514.858	76.12
515.074	90.12
515.29	95.12
515.506	84.12
515.721	82.12
515.937	88.12
516.153	93.12
516.369	79.12
516.585	75.12
516.801	90.12
517.016	77.12
517.232	92.12
517.448	106.12
517.664	86.12
517.879	75.12
518.095	72.12
518.311	85.12
518.527	110.12
518.742	90.12
518.958	96.12
519.173	86.12
519.389	88.12
519.605	88.12
