Data from 1600_2_HRD10591_00037.txt Node
Date: Mon Jan 19 13:53:59 EST 2026
User: Yrep
Spectrometer: HR+D1059
Trigger mode: 1
Integration Time (sec): 1.000000E-1
Scans to average: 1
Electric dark correction enabled: true
Nonlinearity correction enabled: false
Boxcar width: 0
XAxis mode: Wavelengths
Number of Pixels in Spectrum: 2048
>>>>>Begin Spectral Data<<<<<
223.165	-10.94
223.4	-10.94
223.635	-10.94
223.869	-15.94
224.104	-16.94
224.338	-21.94
224.573	-22.94
224.808	-10.94
225.042	-13.94
225.277	-2.94
225.511	-5.94
225.746	13.06
225.98	11.06
226.215	20.06
226.449	19.06
226.683	5.06
226.918	23.06
227.152	31.06
227.387	41.06
227.621	51.06
227.856	53.06
228.09	49.06
228.324	38.06
228.559	62.06
228.793	37.06
229.027	67.06
229.262	70.06
229.496	67.06
229.73	76.06
229.964	71.06
230.199	75.06
230.433	61.06
230.667	78.06
230.901	78.06
231.136	69.06
231.37	76.06
231.604	75.06
231.838	79.06
232.072	76.06
232.306	58.06
232.541	82.06
232.775	68.06
233.009	90.06
233.243	86.06
233.477	82.06
233.711	72.06
233.945	84.06
234.179	85.06
234.413	72.06
234.647	76.06
234.881	69.06
235.115	72.06
235.349	61.06
235.583	75.06
235.817	64.06
236.051	69.06
236.285	70.06
236.519	70.06
236.753	75.06
236.987	68.06
237.221	67.06
237.455	86.06
237.689	65.06
237.922	69.06
238.156	64.06
238.39	61.06
238.624	71.06
238.858	77.06
239.091	71.06
239.325	76.06
239.559	82.06
239.793	67.06
240.027	69.06
240.26	72.06
240.494	65.06
240.728	73.06
240.961	71.06
241.195	65.06
241.429	82.06
241.662	82.06
241.896	70.06
242.13	66.06
242.363	61.06
242.597	72.06
242.83	69.06
243.064	91.06
243.298	81.06
243.531	72.06
243.765	81.06
243.998	79.06
244.232	84.06
244.465	73.06
244.699	72.06
244.932	66.06
245.166	65.06
245.399	73.06
245.633	66.06
245.866	74.06
246.099	82.06
246.333	72.06
246.566	66.06
246.8	74.06
247.033	77.06
247.266	85.06
247.5	77.06
247.733	75.06
247.966	57.06
248.2	86.06
248.433	76.06
248.666	83.06
248.899	82.06
249.133	71.06
249.366	74.06
249.599	90.06
249.832	83.06
250.066	85.06
250.299	76.06
250.532	61.06
250.765	79.06
250.998	68.06
251.231	71.06
251.465	72.06
251.698	77.06
251.931	83.06
252.164	76.06
252.397	78.06
252.63	75.06
252.863	75.06
253.096	74.06
253.329	72.06
253.562	62.06
253.795	82.06
254.028	85.06
254.261	91.06
254.494	65.06
254.727	79.06
254.96	72.06
255.193	69.06
255.426	60.06
255.659	79.06
255.892	53.06
256.124	61.06
256.357	64.06
256.59	80.06
256.823	77.06
257.056	81.06
257.289	85.06
257.521	71.06
257.754	86.06
257.987	78.06
258.22	81.06
258.452	86.06
258.685	70.06
258.918	61.06
259.151	65.06
259.383	76.06
259.616	78.06
259.849	77.06
260.081	84.06
260.314	75.06
260.547	90.06
260.779	69.06
261.012	82.06
261.244	81.06
261.477	72.06
261.71	74.06
261.942	82.06
262.175	80.06
262.407	73.06
262.64	69.06
262.872	71.06
263.105	66.06
263.337	73.06
263.57	84.06
263.802	78.06
264.035	80.06
264.267	90.06
264.499	90.06
264.732	73.06
264.964	66.06
265.197	72.06
265.429	81.06
265.661	68.06
265.894	81.06
266.126	94.06
266.358	91.06
266.591	71.06
266.823	76.06
267.055	80.06
267.287	78.06
267.52	77.06
267.752	73.06
267.984	64.06
268.216	77.06
268.448	77.06
268.681	80.06
268.913	73.06
269.145	64.06
269.377	86.06
269.609	84.06
269.841	66.06
270.073	71.06
270.306	86.06
270.538	71.06
270.77	74.06
271.002	60.06
271.234	97.06
271.466	83.06
271.698	78.06
271.93	77.06
272.162	87.06
272.394	77.06
272.626	69.06
272.858	80.06
273.09	80.06
273.322	76.06
273.553	74.06
273.785	83.06
274.017	74.06
274.249	82.06
274.481	80.06
274.713	93.06
274.945	96.06
275.176	93.06
275.408	81.06
275.64	88.06
275.872	75.06
276.104	66.06
276.335	90.06
276.567	90.06
276.799	83.06
277.031	83.06
277.262	86.06
277.494	79.06
277.726	75.06
277.957	79.06
278.189	74.06
278.421	76.06
278.652	68.06
278.884	77.06
279.115	89.06
279.347	66.06
279.579	89.06
279.81	88.06
280.042	85.06
280.273	73.06
280.505	84.06
280.736	89.06
280.968	75.06
281.199	68.06
281.431	84.06
281.662	79.06
281.894	87.06
282.125	78.06
282.356	71.06
282.588	78.06
282.819	77.06
283.051	84.06
283.282	66.06
283.513	74.06
283.745	81.06
283.976	77.06
284.207	80.06
284.439	75.06
284.67	71.06
284.901	87.06
285.132	83.06
285.364	78.06
285.595	78.06
285.826	70.06
286.057	77.06
286.288	67.06
286.52	65.06
286.751	67.06
286.982	72.06
287.213	86.06
287.444	77.06
287.675	98.06
287.906	96.06
288.138	86.06
288.369	77.06
288.6	85.06
288.831	77.06
289.062	79.06
289.293	81.06
289.524	66.06
289.755	71.06
289.986	67.06
290.217	71.06
290.448	71.06
290.679	73.06
290.91	79.06
291.141	83.06
291.371	101.06
291.602	66.06
291.833	80.06
292.064	78.06
292.295	85.06
292.526	74.06
292.757	78.06
292.987	82.06
293.218	78.06
293.449	77.06
293.68	81.06
293.91	87.06
294.141	82.06
294.372	88.06
294.603	83.06
294.833	87.06
295.064	70.06
295.295	74.06
295.525	89.06
295.756	76.06
295.987	82.06
296.217	82.06
296.448	81.06
296.679	78.06
296.909	92.06
297.14	85.06
297.37	70.06
297.601	77.06
297.831	81.06
298.062	91.06
298.292	83.06
298.523	77.06
298.753	69.06
298.984	81.06
299.214	71.06
299.445	68.06
299.675	86.06
299.905	98.06
300.136	75.06
300.366	70.06
300.597	95.06
300.827	92.06
301.057	86.06
301.288	61.06
301.518	90.06
301.748	74.06
301.979	100.06
302.209	86.06
302.439	85.06
302.669	79.06
302.9	77.06
303.13	76.06
303.36	83.06
303.59	85.06
303.82	87.06
304.051	78.06
304.281	69.06
304.511	74.06
304.741	78.06
304.971	71.06
305.201	81.06
305.431	86.06
305.661	77.06
305.891	68.06
306.121	93.06
306.352	98.06
306.582	83.06
306.812	78.06
307.042	87.06
307.272	76.06
307.502	79.06
307.731	76.06
307.961	77.06
308.191	88.06
308.421	91.06
308.651	78.06
308.881	85.06
309.111	76.06
309.341	100.06
309.571	85.06
309.8	87.06
310.03	84.06
310.26	90.06
310.49	85.06
310.72	80.06
310.949	79.06
311.179	70.06
311.409	81.06
311.639	82.06
311.868	85.06
312.098	79.06
312.328	83.06
312.557	84.06
312.787	88.06
313.017	71.06
313.246	65.06
313.476	86.06
313.706	79.06
313.935	85.06
314.165	93.06
314.394	79.06
314.624	76.06
314.853	81.06
315.083	80.06
315.312	94.06
315.542	85.06
315.771	83.06
316.001	81.06
316.23	88.06
316.46	93.06
316.689	78.06
316.919	87.06
317.148	78.06
317.377	77.06
317.607	78.06
317.836	89.06
318.065	81.06
318.295	78.06
318.524	83.06
318.753	85.06
318.983	92.06
319.212	80.06
319.441	75.06
319.67	65.06
319.9	83.06
320.129	107.06
320.358	87.06
320.587	86.06
320.816	83.06
321.046	84.06
321.275	84.06
321.504	100.06
321.733	81.06
321.962	84.06
322.191	78.06
322.42	86.06
322.649	78.06
322.878	72.06
323.108	85.06
323.337	78.06
323.566	82.06
323.795	71.06
324.024	87.06
324.253	84.06
324.482	71.06
324.71	81.06
324.939	87.06
325.168	80.06
325.397	70.06
325.626	77.06
325.855	84.06
326.084	70.06
326.313	70.06
326.542	72.06
326.77	66.06
326.999	68.06
327.228	78.06
327.457	69.06
327.686	71.06
327.914	86.06
328.143	84.06
328.372	74.06
328.6	85.06
328.829	79.06
329.058	75.06
329.287	90.06
329.515	84.06
329.744	84.06
329.972	84.06
330.201	63.06
330.43	87.06
330.658	84.06
330.887	76.06
331.115	79.06
331.344	81.06
331.572	85.06
331.801	92.06
332.03	89.06
332.258	80.06
332.486	71.06
332.715	98.06
332.943	83.06
333.172	75.06
333.4	95.06
333.629	69.06
333.857	78.06
334.085	96.06
334.314	80.06
334.542	78.06
334.771	100.06
334.999	91.06
335.227	93.06
335.455	92.06
335.684	89.06
335.912	68.06
336.14	81.06
336.369	83.06
336.597	92.06
336.825	83.06
337.053	83.06
337.281	77.06
337.51	85.06
337.738	91.06
337.966	85.06
338.194	80.06
338.422	84.06
338.65	85.06
338.878	87.06
339.106	71.06
339.334	87.06
339.562	91.06
339.79	90.06
340.018	74.06
340.246	76.06
340.474	84.06
340.702	79.06
340.93	71.06
341.158	76.06
341.386	70.06
341.614	69.06
341.842	93.06
342.07	68.06
342.298	90.06
342.526	79.06
342.754	75.06
342.981	77.06
343.209	86.06
343.437	74.06
343.665	86.06
343.893	90.06
344.12	81.06
344.348	84.06
344.576	88.06
344.804	77.06
345.031	77.06
345.259	81.06
345.487	78.06
345.714	77.06
345.942	78.06
346.17	85.06
346.397	86.06
346.625	79.06
346.853	70.06
347.08	87.06
347.308	81.06
347.535	71.06
347.763	73.06
347.99	83.06
348.218	82.06
348.445	76.06
348.673	86.06
348.9	88.06
349.128	91.06
349.355	73.06
349.583	79.06
349.81	77.06
350.037	98.06
350.265	82.06
350.492	90.06
350.72	81.06
350.947	95.06
351.174	74.06
351.402	72.06
351.629	75.06
351.856	92.06
352.083	85.06
352.311	94.06
352.538	72.06
352.765	74.06
352.992	74.06
353.22	80.06
353.447	66.06
353.674	80.06
353.901	78.06
354.128	86.06
354.355	86.06
354.583	69.06
354.81	75.06
355.037	78.06
355.264	67.06
355.491	78.06
355.718	78.06
355.945	77.06
356.172	87.06
356.399	83.06
356.626	77.06
356.853	70.06
357.08	88.06
357.307	89.06
357.534	74.06
357.761	97.06
357.988	79.06
358.215	72.06
358.441	97.06
358.668	67.06
358.895	79.06
359.122	87.06
359.349	85.06
359.576	89.06
359.802	83.06
360.029	77.06
360.256	78.06
360.483	78.06
360.709	91.06
360.936	93.06
361.163	92.06
361.39	79.06
361.616	79.06
361.843	77.06
362.07	80.06
362.296	87.06
362.523	81.06
362.749	88.06
362.976	75.06
363.203	99.06
363.429	94.06
363.656	91.06
363.882	78.06
364.109	86.06
364.335	101.06
364.562	77.06
364.788	83.06
365.015	75.06
365.241	70.06
365.468	77.06
365.694	85.06
365.92	61.06
366.147	85.06
366.373	75.06
366.599	90.06
366.826	84.06
367.052	81.06
367.278	78.06
367.505	81.06
367.731	75.06
367.957	93.06
368.184	86.06
368.41	80.06
368.636	90.06
368.862	90.06
369.089	75.06
369.315	64.06
369.541	85.06
369.767	77.06
369.993	66.06
370.219	79.06
370.445	89.06
370.672	86.06
370.898	80.06
371.124	77.06
371.35	70.06
371.576	82.06
371.802	83.06
372.028	89.06
372.254	86.06
372.48	81.06
372.706	95.06
372.932	87.06
373.158	94.06
373.384	89.06
373.61	95.06
373.835	91.06
374.061	74.06
374.287	88.06
374.513	84.06
374.739	85.06
374.965	84.06
375.191	75.06
375.416	92.06
375.642	80.06
375.868	82.06
376.094	80.06
376.319	78.06
376.545	85.06
376.771	87.06
376.997	76.06
377.222	85.06
377.448	86.06
377.674	75.06
377.899	77.06
378.125	87.06
378.35	87.06
378.576	81.06
378.802	79.06
379.027	80.06
379.253	94.06
379.478	93.06
379.704	85.06
379.929	86.06
380.155	77.06
380.38	96.06
380.606	77.06
380.831	81.06
381.057	80.06
381.282	81.06
381.507	75.06
381.733	81.06
381.958	89.06
382.184	83.06
382.409	73.06
382.634	88.06
382.86	74.06
383.085	84.06
383.31	79.06
383.535	102.06
383.761	101.06
383.986	90.06
384.211	74.06
384.436	69.06
384.662	80.06
384.887	84.06
385.112	69.06
385.337	67.06
385.562	82.06
385.787	79.06
386.013	89.06
386.238	87.06
386.463	93.06
386.688	94.06
386.913	77.06
387.138	83.06
387.363	84.06
387.588	81.06
387.813	92.06
388.038	84.06
388.263	84.06
388.488	75.06
388.713	93.06
388.938	71.06
389.163	75.06
389.387	78.06
389.612	71.06
389.837	89.06
390.062	93.06
390.287	87.06
390.512	81.06
390.736	88.06
390.961	76.06
391.186	87.06
391.411	76.06
391.636	88.06
391.86	83.06
392.085	76.06
392.31	77.06
392.534	77.06
392.759	86.06
392.984	84.06
393.208	120.06
393.433	154.06
393.658	109.06
393.882	96.06
394.107	95.06
394.331	95.06
394.556	91.06
394.78	79.06
395.005	78.06
395.229	87.06
395.454	83.06
395.678	87.06
395.903	98.06
396.127	105.06
396.352	102.06
396.576	97.06
396.801	106.06
397.025	129.06
397.249	99.06
397.474	85.06
397.698	82.06
397.922	73.06
398.147	72.06
398.371	83.06
398.595	83.06
398.82	80.06
399.044	79.06
399.268	83.06
399.492	81.06
399.717	72.06
399.941	76.06
400.165	72.06
400.389	78.06
400.613	70.06
400.837	77.06
401.062	80.06
401.286	69.06
401.51	77.06
401.734	75.06
401.958	94.06
402.182	100.06
402.406	86.06
402.63	76.06
402.854	77.06
403.078	91.06
403.302	81.06
403.526	89.06
403.75	70.06
403.974	85.06
404.198	68.06
404.422	84.06
404.645	94.06
404.869	80.06
405.093	92.06
405.317	85.06
405.541	79.06
405.765	83.06
405.988	67.06
406.212	84.06
406.436	93.06
406.66	76.06
406.883	71.06
407.107	74.06
407.331	75.06
407.555	90.06
407.778	77.06
408.002	75.06
408.226	93.06
408.449	72.06
408.673	86.06
408.896	88.06
409.12	80.06
409.344	81.06
409.567	81.06
409.791	76.06
410.014	77.06
410.238	77.06
410.461	66.06
410.685	71.06
410.908	83.06
411.132	82.06
411.355	75.06
411.578	81.06
411.802	71.06
412.025	77.06
412.249	60.06
412.472	93.06
412.695	87.06
412.919	67.06
413.142	81.06
413.365	89.06
413.589	76.06
413.812	75.06
414.035	77.06
414.258	77.06
414.482	81.06
414.705	86.06
414.928	69.06
415.151	83.06
415.374	79.06
415.597	66.06
415.821	73.06
416.044	83.06
416.267	94.06
416.49	77.06
416.713	67.06
416.936	89.06
417.159	90.06
417.382	82.06
417.605	87.06
417.828	75.06
418.051	78.06
418.274	83.06
418.497	66.06
418.72	92.06
418.943	71.06
419.166	77.06
419.389	70.06
419.611	69.06
419.834	78.06
420.057	65.06
420.28	85.06
420.503	74.06
420.726	80.06
420.948	79.06
421.171	83.06
421.394	79.06
421.617	69.06
421.839	63.06
422.062	83.06
422.285	86.06
422.507	111.06
422.73	174.06
422.953	163.06
423.175	103.06
423.398	83.06
423.621	97.06
423.843	84.06
424.066	80.06
424.288	83.06
424.511	85.06
424.733	84.06
424.956	97.06
425.178	88.06
425.401	68.06
425.623	90.06
425.846	85.06
426.068	77.06
426.291	75.06
426.513	75.06
426.735	91.06
426.958	92.06
427.18	93.06
427.402	76.06
427.625	78.06
427.847	82.06
428.069	76.06
428.292	98.06
428.514	85.06
428.736	84.06
428.958	92.06
429.181	93.06
429.403	83.06
429.625	85.06
429.847	80.06
430.069	103.06
430.292	108.06
430.514	94.06
430.736	73.06
430.958	97.06
431.18	81.06
431.402	82.06
431.624	82.06
431.846	92.06
432.068	90.06
432.29	91.06
432.512	82.06
432.734	79.06
432.956	91.06
433.178	80.06
433.4	85.06
433.622	86.06
433.844	80.06
434.066	78.06
434.287	84.06
434.509	86.06
434.731	72.06
434.953	75.06
435.175	77.06
435.397	72.06
435.618	80.06
435.84	87.06
436.062	87.06
436.284	66.06
436.505	75.06
436.727	85.06
436.949	84.06
437.17	91.06
437.392	86.06
437.614	82.06
437.835	65.06
438.057	69.06
438.278	84.06
438.5	89.06
438.721	81.06
438.943	80.06
439.165	77.06
439.386	91.06
439.608	85.06
439.829	75.06
440.05	66.06
440.272	60.06
440.493	79.06
440.715	71.06
440.936	83.06
441.158	72.06
441.379	63.06
441.6	79.06
441.822	70.06
442.043	77.06
442.264	84.06
442.486	95.06
442.707	73.06
442.928	90.06
443.149	79.06
443.371	82.06
443.592	89.06
443.813	103.06
444.034	83.06
444.255	79.06
444.476	77.06
444.698	70.06
444.919	74.06
445.14	157.06
445.361	135.06
445.582	118.06
445.803	112.06
446.024	82.06
446.245	80.06
446.466	77.06
446.687	88.06
446.908	71.06
447.129	65.06
447.35	72.06
447.571	65.06
447.792	84.06
448.013	85.06
448.234	74.06
448.455	89.06
448.675	93.06
448.896	85.06
449.117	82.06
449.338	82.06
449.559	94.06
449.779	69.06
450	74.06
450.221	77.06
450.442	73.06
450.662	68.06
450.883	78.06
451.104	77.06
451.324	78.06
451.545	82.06
451.766	59.06
451.986	89.06
452.207	82.06
452.428	83.06
452.648	87.06
452.869	82.06
453.089	81.06
453.31	82.06
453.53	74.06
453.751	75.06
453.971	79.06
454.192	92.06
454.412	78.06
454.633	81.06
454.853	74.06
455.073	67.06
455.294	83.06
455.514	77.06
455.734	66.06
455.955	75.06
456.175	94.06
456.395	96.06
456.616	82.06
456.836	76.06
457.056	78.06
457.276	82.06
457.497	99.06
457.717	80.06
457.937	75.06
458.157	85.06
458.377	87.06
458.598	91.06
458.818	83.06
459.038	77.06
459.258	97.06
459.478	72.06
459.698	87.06
459.918	80.06
460.138	94.06
460.358	85.06
460.578	83.06
460.798	81.06
461.018	88.06
461.238	102.06
461.458	65.06
461.678	78.06
461.898	85.06
462.118	85.06
462.338	74.06
462.558	81.06
462.777	72.06
462.997	81.06
463.217	86.06
463.437	77.06
463.657	75.06
463.876	76.06
464.096	80.06
464.316	77.06
464.536	70.06
464.755	80.06
464.975	70.06
465.195	69.06
465.414	79.06
465.634	61.06
465.854	69.06
466.073	74.06
466.293	71.06
466.512	69.06
466.732	90.06
466.951	79.06
467.171	80.06
467.391	61.06
467.61	81.06
467.829	79.06
468.049	83.06
468.268	79.06
468.488	71.06
468.707	87.06
468.927	77.06
469.146	89.06
469.365	86.06
469.585	75.06
469.804	97.06
470.023	78.06
470.243	82.06
470.462	62.06
470.681	89.06
470.901	90.06
471.12	75.06
471.339	86.06
471.558	71.06
471.777	62.06
471.997	71.06
472.216	84.06
472.435	70.06
472.654	72.06
472.873	77.06
473.092	86.06
473.311	83.06
473.53	75.06
473.749	71.06
473.968	83.06
474.187	75.06
474.406	79.06
474.625	78.06
474.844	82.06
475.063	90.06
475.282	89.06
475.501	91.06
475.72	90.06
475.939	79.06
476.158	96.06
476.377	83.06
476.596	72.06
476.814	85.06
477.033	82.06
477.252	65.06
477.471	70.06
477.69	80.06
477.908	79.06
478.127	82.06
478.346	79.06
478.564	87.06
478.783	78.06
479.002	79.06
479.22	80.06
479.439	85.06
479.658	74.06
479.876	86.06
480.095	77.06
480.313	82.06
480.532	72.06
480.751	94.06
480.969	77.06
481.188	69.06
481.406	87.06
481.624	62.06
481.843	69.06
482.061	83.06
482.28	82.06
482.498	67.06
482.717	75.06
482.935	68.06
483.153	77.06
483.372	88.06
483.59	89.06
483.808	69.06
484.027	91.06
484.245	93.06
484.463	85.06
484.681	86.06
484.9	69.06
485.118	93.06
485.336	90.06
485.554	83.06
485.772	92.06
485.99	77.06
486.209	97.06
486.427	81.06
486.645	69.06
486.863	79.06
487.081	78.06
487.299	81.06
487.517	73.06
487.735	79.06
487.953	84.06
488.171	86.06
488.389	81.06
488.607	70.06
488.825	78.06
489.043	76.06
489.261	85.06
489.479	79.06
489.696	66.06
489.914	79.06
490.132	89.06
490.35	92.06
490.568	78.06
490.786	75.06
491.003	81.06
491.221	83.06
491.439	64.06
491.657	94.06
491.874	80.06
492.092	75.06
492.31	67.06
492.527	76.06
492.745	75.06
492.963	85.06
493.18	85.06
493.398	74.06
493.615	88.06
493.833	83.06
494.05	60.06
494.268	81.06
494.485	83.06
494.703	81.06
494.92	68.06
495.138	70.06
495.355	75.06
495.573	79.06
495.79	86.06
496.008	76.06
496.225	74.06
496.442	87.06
496.66	84.06
496.877	60.06
497.094	82.06
497.312	80.06
497.529	78.06
497.746	85.06
497.963	73.06
498.181	78.06
498.398	85.06
498.615	82.06
498.832	85.06
499.049	87.06
499.267	81.06
499.484	77.06
499.701	81.06
499.918	79.06
500.135	83.06
500.352	90.06
500.569	75.06
500.786	68.06
501.003	79.06
501.22	86.06
501.437	75.06
501.654	87.06
501.871	81.06
502.088	80.06
502.305	87.06
502.522	83.06
502.739	82.06
502.956	77.06
503.172	76.06
503.389	89.06
503.606	73.06
503.823	84.06
504.04	74.06
504.256	78.06
504.473	85.06
504.69	70.06
504.907	81.06
505.123	76.06
505.34	80.06
505.557	64.06
505.773	87.06
505.99	80.06
506.207	79.06
506.423	90.06
506.64	85.06
506.856	96.06
507.073	83.06
507.289	83.06
507.506	81.06
507.722	70.06
507.939	79.06
508.155	77.06
508.372	78.06
508.588	73.06
508.805	78.06
509.021	64.06
509.238	87.06
509.454	78.06
509.67	77.06
509.887	56.06
510.103	87.06
510.319	96.06
510.536	85.06
510.752	80.06
510.968	68.06
511.184	77.06
511.401	79.06
511.617	74.06
511.833	79.06
512.049	69.06
512.265	70.06
512.481	72.06
512.698	74.06
512.914	79.06
513.13	95.06
513.346	76.06
513.562	71.06
513.778	84.06
513.994	83.06
514.21	91.06
514.426	89.06
514.642	79.06
514.858	57.06
515.074	69.06
515.29	74.06
515.506	79.06
515.721	82.06
515.937	88.06
516.153	78.06
516.369	70.06
516.585	71.06
516.801	85.06
517.016	92.06
517.232	73.06
517.448	86.06
517.664	81.06
517.879	77.06
518.095	74.06
518.311	65.06
518.527	84.06
518.742	89.06
518.958	80.06
519.173	85.06
519.389	76.06
519.605	86.06
519.82	85.06
