Data from 1600_2_HRD10591_00029.txt Node
Date: Mon Jan 19 13:53:55 EST 2026
User: Yrep
Spectrometer: HR+D1059
Trigger mode: 1
Integration Time (sec): 1.000000E-1
Scans to average: 1
Electric dark correction enabled: true
Nonlinearity correction enabled: false
Boxcar width: 0
XAxis mode: Wavelengths
Number of Pixels in Spectrum: 2048
>>>>>Begin Spectral Data<<<<<
223.165	-12
223.4	-12
223.635	-12
223.869	-18
224.104	-18
224.338	-11
224.573	-14
224.808	-22
225.042	-6
225.277	-14
225.511	-7
225.746	6
225.98	2
226.215	2
226.449	30
226.683	21
226.918	28
227.152	33
227.387	52
227.621	38
227.856	52
228.09	49
228.324	50
228.559	52
228.793	62
229.027	66
229.262	82
229.496	68
229.73	71
229.964	76
230.199	72
230.433	79
230.667	80
230.901	77
231.136	68
231.37	84
231.604	86
231.838	81
232.072	85
232.306	88
232.541	69
232.775	95
233.009	85
233.243	90
233.477	88
233.711	80
233.945	90
234.179	86
234.413	91
234.647	68
234.881	84
235.115	74
235.349	69
235.583	86
235.817	91
236.051	84
236.285	80
236.519	76
236.753	83
236.987	74
237.221	77
237.455	74
237.689	83
237.922	88
238.156	78
238.39	85
238.624	74
238.858	73
239.091	76
239.325	75
239.559	81
239.793	84
240.027	90
240.26	61
240.494	81
240.728	85
240.961	71
241.195	73
241.429	82
241.662	65
241.896	73
242.13	89
242.363	79
242.597	83
242.83	86
243.064	80
243.298	75
243.531	75
243.765	84
243.998	67
244.232	88
244.465	73
244.699	81
244.932	91
245.166	76
245.399	75
245.633	78
245.866	73
246.099	66
246.333	79
246.566	85
246.8	73
247.033	81
247.266	78
247.5	82
247.733	74
247.966	64
248.2	89
248.433	92
248.666	95
248.899	99
249.133	71
249.366	71
249.599	71
249.832	75
250.066	81
250.299	78
250.532	92
250.765	73
250.998	80
251.231	75
251.465	88
251.698	91
251.931	66
252.164	73
252.397	84
252.63	79
252.863	87
253.096	95
253.329	72
253.562	79
253.795	74
254.028	85
254.261	74
254.494	84
254.727	77
254.96	71
255.193	77
255.426	86
255.659	71
255.892	73
256.124	66
256.357	77
256.59	89
256.823	83
257.056	88
257.289	90
257.521	95
257.754	72
257.987	71
258.22	89
258.452	75
258.685	76
258.918	81
259.151	90
259.383	80
259.616	81
259.849	76
260.081	83
260.314	81
260.547	77
260.779	89
261.012	74
261.244	78
261.477	83
261.71	87
261.942	84
262.175	71
262.407	90
262.64	84
262.872	80
263.105	93
263.337	90
263.57	82
263.802	80
264.035	91
264.267	74
264.499	73
264.732	88
264.964	85
265.197	80
265.429	75
265.661	86
265.894	91
266.126	75
266.358	81
266.591	83
266.823	72
267.055	83
267.287	86
267.52	82
267.752	86
267.984	86
268.216	74
268.448	87
268.681	76
268.913	90
269.145	83
269.377	104
269.609	80
269.841	79
270.073	95
270.306	97
270.538	82
270.77	77
271.002	89
271.234	79
271.466	89
271.698	87
271.93	88
272.162	91
272.394	85
272.626	66
272.858	90
273.09	78
273.322	82
273.553	84
273.785	81
274.017	89
274.249	91
274.481	83
274.713	77
274.945	94
275.176	96
275.408	81
275.64	80
275.872	92
276.104	77
276.335	86
276.567	75
276.799	71
277.031	83
277.262	91
277.494	82
277.726	82
277.957	95
278.189	86
278.421	86
278.652	83
278.884	73
279.115	94
279.347	85
279.579	91
279.81	101
280.042	94
280.273	80
280.505	83
280.736	81
280.968	72
281.199	91
281.431	80
281.662	85
281.894	92
282.125	86
282.356	87
282.588	81
282.819	90
283.051	77
283.282	86
283.513	88
283.745	97
283.976	82
284.207	94
284.439	91
284.67	84
284.901	82
285.132	93
285.364	100
285.595	100
285.826	83
286.057	87
286.288	86
286.52	88
286.751	71
286.982	94
287.213	86
287.444	80
287.675	85
287.906	80
288.138	96
288.369	99
288.6	81
288.831	78
289.062	86
289.293	77
289.524	75
289.755	82
289.986	81
290.217	87
290.448	81
290.679	74
290.91	88
291.141	86
291.371	75
291.602	89
291.833	86
292.064	78
292.295	87
292.526	95
292.757	76
292.987	90
293.218	95
293.449	96
293.68	85
293.91	90
294.141	89
294.372	75
294.603	84
294.833	93
295.064	82
295.295	85
295.525	86
295.756	82
295.987	95
296.217	86
296.448	81
296.679	76
296.909	104
297.14	105
297.37	101
297.601	92
297.831	97
298.062	79
298.292	78
298.523	80
298.753	90
298.984	95
299.214	81
299.445	83
299.675	83
299.905	95
300.136	87
300.366	86
300.597	110
300.827	97
301.057	97
301.288	85
301.518	80
301.748	94
301.979	98
302.209	100
302.439	85
302.669	86
302.9	83
303.13	97
303.36	84
303.59	86
303.82	77
304.051	103
304.281	88
304.511	84
304.741	95
304.971	90
305.201	98
305.431	80
305.661	83
305.891	91
306.121	95
306.352	73
306.582	84
306.812	100
307.042	87
307.272	83
307.502	88
307.731	94
307.961	77
308.191	93
308.421	90
308.651	69
308.881	99
309.111	94
309.341	105
309.571	97
309.8	85
310.03	79
310.26	88
310.49	79
310.72	93
310.949	77
311.179	84
311.409	77
311.639	80
311.868	77
312.098	91
312.328	78
312.557	89
312.787	84
313.017	82
313.246	86
313.476	78
313.706	80
313.935	88
314.165	84
314.394	99
314.624	102
314.853	82
315.083	87
315.312	87
315.542	97
315.771	87
316.001	90
316.23	83
316.46	92
316.689	96
316.919	85
317.148	89
317.377	82
317.607	96
317.836	86
318.065	91
318.295	77
318.524	75
318.753	90
318.983	71
319.212	96
319.441	91
319.67	85
319.9	106
320.129	99
320.358	80
320.587	90
320.816	81
321.046	74
321.275	90
321.504	79
321.733	82
321.962	90
322.191	108
322.42	73
322.649	79
322.878	91
323.108	85
323.337	94
323.566	86
323.795	88
324.024	83
324.253	81
324.482	94
324.71	83
324.939	84
325.168	85
325.397	94
325.626	71
325.855	83
326.084	81
326.313	91
326.542	88
326.77	91
326.999	85
327.228	86
327.457	84
327.686	104
327.914	91
328.143	94
328.372	91
328.6	98
328.829	94
329.058	84
329.287	62
329.515	88
329.744	79
329.972	83
330.201	95
330.43	74
330.658	95
330.887	82
331.115	98
331.344	79
331.572	74
331.801	98
332.03	83
332.258	82
332.486	81
332.715	91
332.943	91
333.172	83
333.4	79
333.629	83
333.857	92
334.085	79
334.314	96
334.542	92
334.771	94
334.999	87
335.227	86
335.455	89
335.684	99
335.912	94
336.14	79
336.369	84
336.597	87
336.825	82
337.053	86
337.281	88
337.51	76
337.738	82
337.966	92
338.194	89
338.422	86
338.65	99
338.878	83
339.106	91
339.334	91
339.562	87
339.79	90
340.018	86
340.246	101
340.474	74
340.702	89
340.93	90
341.158	94
341.386	82
341.614	92
341.842	87
342.07	89
342.298	81
342.526	82
342.754	99
342.981	74
343.209	86
343.437	104
343.665	84
343.893	99
344.12	93
344.348	89
344.576	76
344.804	95
345.031	97
345.259	101
345.487	81
345.714	86
345.942	89
346.17	84
346.397	74
346.625	84
346.853	77
347.08	94
347.308	96
347.535	97
347.763	76
347.99	87
348.218	87
348.445	92
348.673	76
348.9	82
349.128	95
349.355	81
349.583	90
349.81	87
350.037	91
350.265	84
350.492	78
350.72	92
350.947	91
351.174	84
351.402	89
351.629	102
351.856	79
352.083	96
352.311	83
352.538	74
352.765	68
352.992	89
353.22	96
353.447	87
353.674	90
353.901	103
354.128	72
354.355	79
354.583	88
354.81	91
355.037	85
355.264	89
355.491	84
355.718	103
355.945	88
356.172	94
356.399	80
356.626	98
356.853	90
357.08	103
357.307	95
357.534	87
357.761	79
357.988	106
358.215	102
358.441	97
358.668	88
358.895	85
359.122	99
359.349	77
359.576	77
359.802	82
360.029	89
360.256	83
360.483	81
360.709	87
360.936	90
361.163	88
361.39	93
361.616	86
361.843	95
362.07	98
362.296	86
362.523	92
362.749	106
362.976	99
363.203	94
363.429	105
363.656	85
363.882	98
364.109	94
364.335	105
364.562	98
364.788	94
365.015	102
365.241	96
365.468	100
365.694	93
365.92	102
366.147	83
366.373	85
366.599	76
366.826	81
367.052	90
367.278	80
367.505	77
367.731	95
367.957	98
368.184	90
368.41	86
368.636	75
368.862	86
369.089	86
369.315	86
369.541	75
369.767	86
369.993	80
370.219	87
370.445	85
370.672	92
370.898	99
371.124	95
371.35	88
371.576	86
371.802	106
372.028	89
372.254	87
372.48	77
372.706	91
372.932	91
373.158	107
373.384	117
373.61	107
373.835	113
374.061	96
374.287	91
374.513	98
374.739	114
374.965	96
375.191	86
375.416	90
375.642	94
375.868	106
376.094	99
376.319	85
376.545	75
376.771	83
376.997	84
377.222	95
377.448	98
377.674	89
377.899	90
378.125	88
378.35	83
378.576	68
378.802	76
379.027	96
379.253	83
379.478	104
379.704	87
379.929	84
380.155	102
380.38	86
380.606	89
380.831	80
381.057	81
381.282	81
381.507	83
381.733	102
381.958	90
382.184	109
382.409	98
382.634	119
382.86	97
383.085	108
383.31	114
383.535	98
383.761	115
383.986	108
384.211	105
384.436	91
384.662	88
384.887	81
385.112	100
385.337	85
385.562	108
385.787	105
386.013	100
386.238	94
386.463	97
386.688	86
386.913	86
387.138	92
387.363	92
387.588	87
387.813	93
388.038	98
388.263	87
388.488	86
388.713	92
388.938	96
389.163	68
389.387	80
389.612	99
389.837	83
390.062	99
390.287	89
390.512	89
390.736	106
390.961	97
391.186	89
391.411	66
391.636	89
391.86	105
392.085	97
392.31	95
392.534	88
392.759	108
392.984	122
393.208	186
393.433	283
393.658	220
393.882	126
394.107	102
394.331	128
394.556	142
394.78	99
395.005	92
395.229	103
395.454	81
395.678	99
395.903	128
396.127	142
396.352	168
396.576	147
396.801	194
397.025	238
397.249	138
397.474	111
397.698	83
397.922	80
398.147	94
398.371	83
398.595	90
398.82	86
399.044	89
399.268	85
399.492	69
399.717	94
399.941	76
400.165	93
400.389	90
400.613	89
400.837	68
401.062	77
401.286	84
401.51	90
401.734	82
401.958	83
402.182	84
402.406	82
402.63	96
402.854	82
403.078	101
403.302	88
403.526	100
403.75	86
403.974	90
404.198	110
404.422	129
404.645	159
404.869	131
405.093	104
405.317	106
405.541	95
405.765	83
405.988	86
406.212	88
406.436	99
406.66	100
406.883	74
407.107	94
407.331	87
407.555	90
407.778	82
408.002	86
408.226	96
408.449	80
408.673	96
408.896	87
409.12	90
409.344	86
409.567	101
409.791	90
410.014	95
410.238	92
410.461	94
410.685	98
410.908	92
411.132	91
411.355	83
411.578	77
411.802	77
412.025	66
412.249	84
412.472	88
412.695	68
412.919	88
413.142	96
413.365	82
413.589	80
413.812	97
414.035	94
414.258	89
414.482	96
414.705	95
414.928	87
415.151	94
415.374	86
415.597	91
415.821	86
416.044	82
416.267	77
416.49	86
416.713	88
416.936	72
417.159	72
417.382	83
417.605	71
417.828	94
418.051	95
418.274	81
418.497	89
418.72	78
418.943	92
419.166	98
419.389	94
419.611	63
419.834	84
420.057	98
420.28	94
420.503	83
420.726	89
420.948	93
421.171	99
421.394	89
421.617	86
421.839	91
422.062	117
422.285	130
422.507	224
422.73	362
422.953	334
423.175	149
423.398	104
423.621	99
423.843	100
424.066	88
424.288	103
424.511	79
424.733	80
424.956	79
425.178	80
425.401	84
425.623	95
425.846	88
426.068	81
426.291	95
426.513	78
426.735	88
426.958	94
427.18	83
427.402	92
427.625	80
427.847	91
428.069	77
428.292	115
428.514	124
428.736	90
428.958	109
429.181	113
429.403	86
429.625	98
429.847	121
430.069	125
430.292	160
430.514	166
430.736	118
430.958	130
431.18	101
431.402	76
431.624	95
431.846	116
432.068	125
432.29	82
432.512	96
432.734	98
432.956	85
433.178	82
433.4	76
433.622	90
433.844	92
434.066	63
434.287	83
434.509	85
434.731	87
434.953	80
435.175	85
435.397	80
435.618	96
435.84	88
436.062	81
436.284	90
436.505	79
436.727	78
436.949	87
437.17	87
437.392	85
437.614	94
437.835	88
438.057	87
438.278	94
438.5	103
438.721	95
438.943	91
439.165	93
439.386	90
439.608	92
439.829	63
440.05	85
440.272	105
440.493	108
440.715	91
440.936	105
441.158	91
441.379	91
441.6	94
441.822	88
442.043	80
442.264	83
442.486	102
442.707	128
442.928	107
443.149	107
443.371	129
443.592	171
443.813	156
444.034	101
444.255	95
444.476	72
444.698	97
444.919	91
445.14	193
445.361	182
445.582	223
445.803	182
446.024	106
446.245	93
446.466	98
446.687	95
446.908	78
447.129	82
447.35	87
447.571	80
447.792	81
448.013	83
448.234	91
448.455	81
448.675	83
448.896	85
449.117	86
449.338	81
449.559	97
449.779	77
450	86
450.221	86
450.442	91
450.662	88
450.883	91
451.104	87
451.324	87
451.545	74
451.766	92
451.986	90
452.207	88
452.428	98
452.648	89
452.869	92
453.089	81
453.31	83
453.53	86
453.751	71
453.971	71
454.192	76
454.412	94
454.633	78
454.853	77
455.073	94
455.294	89
455.514	90
455.734	92
455.955	90
456.175	84
456.395	93
456.616	80
456.836	88
457.056	97
457.276	88
457.497	84
457.717	87
457.937	91
458.157	99
458.377	97
458.598	103
458.818	90
459.038	72
459.258	82
459.478	97
459.698	89
459.918	81
460.138	85
460.358	86
460.578	87
460.798	102
461.018	105
461.238	95
461.458	81
461.678	98
461.898	77
462.118	82
462.338	92
462.558	71
462.777	87
462.997	82
463.217	85
463.437	86
463.657	86
463.876	81
464.096	82
464.316	81
464.536	87
464.755	94
464.975	83
465.195	74
465.414	80
465.634	93
465.854	81
466.073	89
466.293	78
466.512	79
466.732	87
466.951	86
467.171	88
467.391	83
467.61	92
467.829	100
468.049	91
468.268	83
468.488	84
468.707	100
468.927	84
469.146	94
469.365	86
469.585	92
469.804	85
470.023	79
470.243	87
470.462	83
470.681	83
470.901	80
471.12	82
471.339	75
471.558	78
471.777	77
471.997	94
472.216	85
472.435	73
472.654	81
472.873	71
473.092	82
473.311	92
473.53	87
473.749	104
473.968	89
474.187	80
474.406	84
474.625	78
474.844	88
475.063	86
475.282	89
475.501	92
475.72	97
475.939	86
476.158	72
476.377	84
476.596	77
476.814	79
477.033	90
477.252	94
477.471	81
477.69	91
477.908	84
478.127	101
478.346	90
478.564	82
478.783	73
479.002	80
479.22	90
479.439	81
479.658	79
479.876	88
480.095	82
480.313	91
480.532	78
480.751	80
480.969	93
481.188	91
481.406	77
481.624	94
481.843	77
482.061	92
482.28	72
482.498	92
482.717	86
482.935	83
483.153	85
483.372	96
483.59	98
483.808	84
484.027	91
484.245	91
484.463	88
484.681	106
484.9	80
485.118	79
485.336	73
485.554	87
485.772	92
485.99	90
486.209	94
486.427	80
486.645	93
486.863	97
487.081	85
487.299	94
487.517	100
487.735	104
487.953	99
488.171	108
488.389	84
488.607	84
488.825	75
489.043	89
489.261	95
489.479	95
489.696	85
489.914	87
490.132	88
490.35	102
490.568	91
490.786	90
491.003	95
491.221	86
491.439	89
491.657	83
491.874	75
492.092	102
492.31	99
492.527	95
492.745	86
492.963	82
493.18	84
493.398	99
493.615	92
493.833	97
494.05	82
494.268	95
494.485	87
494.703	100
494.92	84
495.138	98
495.355	92
495.573	103
495.79	88
496.008	80
496.225	84
496.442	66
496.66	95
496.877	86
497.094	87
497.312	85
497.529	81
497.746	86
497.963	81
498.181	76
498.398	103
498.615	92
498.832	94
499.049	96
499.267	106
499.484	86
499.701	81
499.918	71
500.135	89
500.352	91
500.569	94
500.786	82
501.003	87
501.22	71
501.437	83
501.654	86
501.871	91
502.088	86
502.305	86
502.522	87
502.739	82
502.956	92
503.172	80
503.389	84
503.606	97
503.823	91
504.04	91
504.256	101
504.473	100
504.69	89
504.907	89
505.123	88
505.34	86
505.557	92
505.773	96
505.99	80
506.207	78
506.423	86
506.64	73
506.856	79
507.073	86
507.289	86
507.506	81
507.722	83
507.939	80
508.155	91
508.372	94
508.588	80
508.805	94
509.021	75
509.238	87
509.454	76
509.67	80
509.887	90
510.103	89
510.319	92
510.536	96
510.752	97
510.968	92
511.184	90
511.401	81
511.617	83
511.833	71
512.049	96
512.265	90
512.481	84
512.698	92
512.914	75
513.13	89
513.346	100
513.562	92
513.778	88
513.994	81
514.21	101
514.426	82
514.642	93
514.858	80
515.074	80
515.29	80
515.506	85
515.721	92
515.937	88
516.153	84
516.369	100
516.585	88
516.801	73
517.016	91
517.232	91
517.448	102
517.664	78
517.879	99
518.095	93
518.311	90
518.527	123
518.742	105
518.958	115
519.173	116
519.389	95
519.605	83
519.82	88
520.036	96
520.251	85
520.467	102
520.682	80
520.898	84
521.113	91
521.329	95
521.544	91
521.76	90
521.975	78
522.19	77
522.406	82
522.621	100
522.836	87
523.052	94
523.267	107
523.482	86
523.698	84
523.913	82
524.128	78
524.343	92
524.559	80
524.774	86
524.989	92
525.204	101
525.419	86
525.634	78
525.849	85
526.064	89
526.28	123
526.495	175
526.71	187
526.925	148
527.14	190
527.355	176
527.57	104
527.785	101
527.999	76
528.214	99
528.429	90
528.644	92
528.859	100
529.074	80
529.289	88
529.503	75
529.718	84
529.933	92
530.148	89
530.363	79
530.577	70
530.792	86
531.007	98
531.221	98
531.436	91
531.651	81
531.865	86
532.08	84
532.295	95
532.509	92
532.724	94
532.938	89
533.153	105
533.367	86
533.582	75
533.796	78
534.011	94
534.225	93
534.44	105
534.654	93
534.868	104
535.083	126
535.297	96
535.511	96
535.726	86
535.94	89
536.154	97
536.369	95
536.583	87
536.797	83
537.011	88
537.225	89
537.44	93
537.654	93
537.868	95
538.082	90
538.296	90
538.51	91
538.724	94
538.938	86
539.153	118
539.367	88
539.581	92
539.795	98
540.009	92
540.222	88
540.436	104
540.65	93
540.864	89
541.078	91
541.292	83
541.506	99
541.72	94
541.934	84
542.147	82
542.361	72
542.575	96
542.789	87
543.002	91
543.216	95
543.43	97
543.644	98
543.857	95
544.071	88
544.285	91
544.498	98
544.712	86
544.925	98
545.139	89
545.352	91
545.566	97
545.779	100
545.993	88
546.206	87
546.42	77
546.633	87
546.847	95
547.06	82
547.274	80
547.487	100
547.7	116
547.914	105
548.127	101
548.34	97
548.554	123
548.767	101
548.98	118
549.193	108
549.407	107
549.62	102
549.833	114
550.046	113
550.259	127
550.473	97
550.686	99
550.899	104
551.112	133
551.325	131
551.538	131
551.751	130
551.964	116
552.177	112
552.39	119
552.603	112
552.816	115
553.029	110
553.242	120
553.455	115
553.667	122
553.88	128
554.093	104
554.306	118
554.519	114
554.732	87
554.944	124
555.157	103
555.37	127
555.583	119
555.795	114
556.008	101
556.221	106
556.433	109
556.646	105
556.859	130
557.071	90
557.284	84
557.496	92
557.709	98
557.921	98
558.134	119
558.346	118
558.559	116
558.771	128
558.984	222
559.196	236
559.409	123
559.621	198
559.833	145
560.046	176
560.258	143
560.47	140
560.683	110
560.895	101
561.107	86
561.32	96
561.532	85
561.744	96
561.956	82
562.168	82
562.381	89
562.593	76
562.805	84
563.017	78
563.229	87
563.441	90
563.653	85
563.865	74
564.077	92
564.289	79
564.501	82
564.713	78
564.925	90
565.137	90
565.349	101
565.561	85
565.773	101
565.985	95
566.197	86
566.408	101
566.62	92
566.832	84
567.044	84
567.255	95
567.467	85
567.679	89
567.891	81
568.102	96
568.314	92
568.526	85
568.737	92
568.949	89
569.161	93
569.372	88
569.584	91
569.795	85
570.007	100
570.218	92
570.43	90
570.641	91
570.853	72
571.064	78
571.276	84
571.487	102
571.698	82
571.91	72
572.121	86
572.333	70
572.544	76
572.755	90
572.966	90
573.178	83
573.389	81
573.6	90
573.811	96
574.023	99
574.234	88
574.445	84
574.656	81
574.867	89
575.078	89
575.289	86
575.501	88
575.712	95
575.923	91
576.134	78
576.345	84
576.556	82
576.767	107
576.978	92
577.188	71
577.399	83
577.61	89
577.821	84
578.032	94
578.243	81
578.454	93
578.665	96
578.875	76
579.086	84
579.297	90
579.508	82
579.718	103
579.929	77
580.14	99
580.35	98
580.561	113
580.772	102
580.982	84
581.193	85
581.403	104
581.614	94
581.825	85
582.035	91
582.246	84
582.456	89
582.667	97
582.877	93
583.087	82
583.298	78
583.508	104
583.719	113
583.929	98
584.139	93
584.35	92
584.56	96
584.77	90
584.981	86
585.191	96
585.401	86
585.611	99
585.821	106
586.032	138
586.242	107
586.452	117
586.662	103
586.872	88
