Data from 1600_2_HRD10591_00008.txt Node
Date: Mon Jan 19 13:53:45 EST 2026
User: Yrep
Spectrometer: HR+D1059
Trigger mode: 1
Integration Time (sec): 1.000000E-1
Scans to average: 1
Electric dark correction enabled: true
Nonlinearity correction enabled: false
Boxcar width: 0
XAxis mode: Wavelengths
Number of Pixels in Spectrum: 2048
>>>>>Begin Spectral Data<<<<<
223.165	-24.44
223.4	-24.44
223.635	-24.44
223.869	-33.44
224.104	-25.44
224.338	-12.44
224.573	-3.44
224.808	-11.44
225.042	-10.44
225.277	-3.44
225.511	-6.44
225.746	1.56
225.98	9.56
226.215	8.56
226.449	26.56
226.683	24.56
226.918	24.56
227.152	35.56
227.387	23.56
227.621	48.56
227.856	36.56
228.09	56.56
228.324	52.56
228.559	61.56
228.793	63.56
229.027	66.56
229.262	81.56
229.496	66.56
229.73	75.56
229.964	76.56
230.199	76.56
230.433	72.56
230.667	64.56
230.901	66.56
231.136	71.56
231.37	78.56
231.604	100.56
231.838	88.56
232.072	92.56
232.306	87.56
232.541	87.56
232.775	85.56
233.009	79.56
233.243	92.56
233.477	76.56
233.711	71.56
233.945	74.56
234.179	72.56
234.413	80.56
234.647	81.56
234.881	72.56
235.115	84.56
235.349	89.56
235.583	75.56
235.817	85.56
236.051	81.56
236.285	69.56
236.519	70.56
236.753	88.56
236.987	89.56
237.221	81.56
237.455	88.56
237.689	83.56
237.922	75.56
238.156	75.56
238.39	70.56
238.624	71.56
238.858	70.56
239.091	71.56
239.325	83.56
239.559	69.56
239.793	87.56
240.027	92.56
240.26	67.56
240.494	78.56
240.728	89.56
240.961	77.56
241.195	79.56
241.429	76.56
241.662	86.56
241.896	82.56
242.13	80.56
242.363	71.56
242.597	78.56
242.83	73.56
243.064	79.56
243.298	86.56
243.531	74.56
243.765	88.56
243.998	82.56
244.232	88.56
244.465	82.56
244.699	84.56
244.932	93.56
245.166	79.56
245.399	73.56
245.633	92.56
245.866	81.56
246.099	85.56
246.333	73.56
246.566	72.56
246.8	79.56
247.033	75.56
247.266	75.56
247.5	82.56
247.733	69.56
247.966	79.56
248.2	64.56
248.433	74.56
248.666	85.56
248.899	87.56
249.133	92.56
249.366	69.56
249.599	84.56
249.832	69.56
250.066	84.56
250.299	92.56
250.532	76.56
250.765	73.56
250.998	76.56
251.231	85.56
251.465	72.56
251.698	79.56
251.931	66.56
252.164	95.56
252.397	80.56
252.63	92.56
252.863	78.56
253.096	77.56
253.329	80.56
253.562	83.56
253.795	71.56
254.028	70.56
254.261	86.56
254.494	73.56
254.727	88.56
254.96	80.56
255.193	78.56
255.426	71.56
255.659	74.56
255.892	81.56
256.124	78.56
256.357	88.56
256.59	57.56
256.823	85.56
257.056	86.56
257.289	87.56
257.521	93.56
257.754	73.56
257.987	70.56
258.22	73.56
258.452	77.56
258.685	80.56
258.918	85.56
259.151	84.56
259.383	75.56
259.616	74.56
259.849	76.56
260.081	88.56
260.314	74.56
260.547	89.56
260.779	83.56
261.012	81.56
261.244	77.56
261.477	86.56
261.71	74.56
261.942	77.56
262.175	91.56
262.407	80.56
262.64	78.56
262.872	91.56
263.105	88.56
263.337	74.56
263.57	82.56
263.802	85.56
264.035	83.56
264.267	69.56
264.499	80.56
264.732	89.56
264.964	87.56
265.197	99.56
265.429	88.56
265.661	79.56
265.894	79.56
266.126	94.56
266.358	89.56
266.591	72.56
266.823	83.56
267.055	74.56
267.287	87.56
267.52	88.56
267.752	80.56
267.984	86.56
268.216	80.56
268.448	79.56
268.681	89.56
268.913	71.56
269.145	83.56
269.377	85.56
269.609	73.56
269.841	69.56
270.073	68.56
270.306	72.56
270.538	79.56
270.77	87.56
271.002	85.56
271.234	69.56
271.466	79.56
271.698	74.56
271.93	93.56
272.162	92.56
272.394	76.56
272.626	70.56
272.858	87.56
273.09	80.56
273.322	80.56
273.553	84.56
273.785	79.56
274.017	93.56
274.249	76.56
274.481	84.56
274.713	85.56
274.945	82.56
275.176	94.56
275.408	78.56
275.64	83.56
275.872	73.56
276.104	88.56
276.335	81.56
276.567	78.56
276.799	70.56
277.031	92.56
277.262	82.56
277.494	88.56
277.726	77.56
277.957	72.56
278.189	90.56
278.421	80.56
278.652	82.56
278.884	71.56
279.115	76.56
279.347	97.56
279.579	84.56
279.81	75.56
280.042	81.56
280.273	82.56
280.505	90.56
280.736	93.56
280.968	83.56
281.199	88.56
281.431	80.56
281.662	68.56
281.894	87.56
282.125	86.56
282.356	82.56
282.588	76.56
282.819	73.56
283.051	68.56
283.282	71.56
283.513	77.56
283.745	82.56
283.976	91.56
284.207	86.56
284.439	80.56
284.67	96.56
284.901	91.56
285.132	81.56
285.364	91.56
285.595	85.56
285.826	74.56
286.057	89.56
286.288	81.56
286.52	83.56
286.751	74.56
286.982	75.56
287.213	95.56
287.444	84.56
287.675	81.56
287.906	89.56
288.138	90.56
288.369	77.56
288.6	80.56
288.831	96.56
289.062	81.56
289.293	65.56
289.524	79.56
289.755	88.56
289.986	92.56
290.217	88.56
290.448	85.56
290.679	82.56
290.91	84.56
291.141	88.56
291.371	87.56
291.602	80.56
291.833	80.56
292.064	88.56
292.295	77.56
292.526	105.56
292.757	93.56
292.987	81.56
293.218	90.56
293.449	90.56
293.68	82.56
293.91	83.56
294.141	80.56
294.372	89.56
294.603	82.56
294.833	83.56
295.064	72.56
295.295	78.56
295.525	96.56
295.756	84.56
295.987	79.56
296.217	88.56
296.448	84.56
296.679	78.56
296.909	88.56
297.14	72.56
297.37	70.56
297.601	73.56
297.831	97.56
298.062	86.56
298.292	81.56
298.523	96.56
298.753	74.56
298.984	68.56
299.214	95.56
299.445	87.56
299.675	87.56
299.905	93.56
300.136	80.56
300.366	85.56
300.597	86.56
300.827	87.56
301.057	77.56
301.288	78.56
301.518	84.56
301.748	85.56
301.979	95.56
302.209	92.56
302.439	82.56
302.669	90.56
302.9	89.56
303.13	71.56
303.36	94.56
303.59	80.56
303.82	87.56
304.051	69.56
304.281	83.56
304.511	92.56
304.741	84.56
304.971	79.56
305.201	105.56
305.431	98.56
305.661	94.56
305.891	74.56
306.121	77.56
306.352	84.56
306.582	79.56
306.812	86.56
307.042	81.56
307.272	83.56
307.502	83.56
307.731	81.56
307.961	81.56
308.191	95.56
308.421	78.56
308.651	73.56
308.881	102.56
309.111	88.56
309.341	81.56
309.571	87.56
309.8	86.56
310.03	84.56
310.26	81.56
310.49	86.56
310.72	77.56
310.949	81.56
311.179	92.56
311.409	88.56
311.639	81.56
311.868	81.56
312.098	87.56
312.328	83.56
312.557	85.56
312.787	85.56
313.017	74.56
313.246	85.56
313.476	68.56
313.706	91.56
313.935	89.56
314.165	92.56
314.394	80.56
314.624	85.56
314.853	90.56
315.083	81.56
315.312	79.56
315.542	71.56
315.771	69.56
316.001	91.56
316.23	88.56
316.46	85.56
316.689	89.56
316.919	72.56
317.148	89.56
317.377	104.56
317.607	87.56
317.836	78.56
318.065	80.56
318.295	90.56
318.524	83.56
318.753	92.56
318.983	86.56
319.212	80.56
319.441	102.56
319.67	75.56
319.9	69.56
320.129	89.56
320.358	79.56
320.587	79.56
320.816	92.56
321.046	83.56
321.275	73.56
321.504	93.56
321.733	94.56
321.962	94.56
322.191	87.56
322.42	76.56
322.649	80.56
322.878	90.56
323.108	67.56
323.337	99.56
323.566	75.56
323.795	75.56
324.024	94.56
324.253	84.56
324.482	86.56
324.71	77.56
324.939	88.56
325.168	71.56
325.397	73.56
325.626	94.56
325.855	92.56
326.084	101.56
326.313	84.56
326.542	77.56
326.77	82.56
326.999	93.56
327.228	87.56
327.457	85.56
327.686	86.56
327.914	93.56
328.143	88.56
328.372	82.56
328.6	75.56
328.829	79.56
329.058	78.56
329.287	78.56
329.515	86.56
329.744	73.56
329.972	89.56
330.201	77.56
330.43	85.56
330.658	96.56
330.887	75.56
331.115	87.56
331.344	98.56
331.572	90.56
331.801	79.56
332.03	86.56
332.258	81.56
332.486	78.56
332.715	90.56
332.943	84.56
333.172	85.56
333.4	67.56
333.629	81.56
333.857	72.56
334.085	83.56
334.314	80.56
334.542	78.56
334.771	91.56
334.999	74.56
335.227	86.56
335.455	77.56
335.684	88.56
335.912	94.56
336.14	79.56
336.369	89.56
336.597	89.56
336.825	75.56
337.053	80.56
337.281	82.56
337.51	81.56
337.738	94.56
337.966	64.56
338.194	74.56
338.422	85.56
338.65	62.56
338.878	80.56
339.106	87.56
339.334	92.56
339.562	74.56
339.79	87.56
340.018	74.56
340.246	82.56
340.474	97.56
340.702	95.56
340.93	61.56
341.158	93.56
341.386	92.56
341.614	84.56
341.842	81.56
342.07	95.56
342.298	74.56
342.526	75.56
342.754	86.56
342.981	77.56
343.209	69.56
343.437	97.56
343.665	92.56
343.893	83.56
344.12	88.56
344.348	82.56
344.576	87.56
344.804	72.56
345.031	83.56
345.259	112.56
345.487	88.56
345.714	72.56
345.942	77.56
346.17	70.56
346.397	82.56
346.625	86.56
346.853	85.56
347.08	84.56
347.308	77.56
347.535	90.56
347.763	99.56
347.99	80.56
348.218	80.56
348.445	80.56
348.673	83.56
348.9	80.56
349.128	93.56
349.355	94.56
349.583	83.56
349.81	80.56
350.037	80.56
350.265	72.56
350.492	91.56
350.72	87.56
350.947	73.56
351.174	82.56
351.402	93.56
351.629	82.56
351.856	75.56
352.083	98.56
352.311	88.56
352.538	77.56
352.765	80.56
352.992	92.56
353.22	87.56
353.447	87.56
353.674	92.56
353.901	82.56
354.128	80.56
354.355	77.56
354.583	88.56
354.81	92.56
355.037	80.56
355.264	75.56
355.491	95.56
355.718	92.56
355.945	78.56
356.172	88.56
356.399	76.56
356.626	64.56
356.853	80.56
357.08	88.56
357.307	79.56
357.534	92.56
357.761	87.56
357.988	85.56
358.215	72.56
358.441	86.56
358.668	70.56
358.895	84.56
359.122	76.56
359.349	78.56
359.576	85.56
359.802	73.56
360.029	81.56
360.256	76.56
360.483	81.56
360.709	64.56
360.936	93.56
361.163	78.56
361.39	85.56
361.616	90.56
361.843	81.56
362.07	85.56
362.296	83.56
362.523	91.56
362.749	82.56
362.976	72.56
363.203	94.56
363.429	89.56
363.656	87.56
363.882	79.56
364.109	94.56
364.335	84.56
364.562	87.56
364.788	91.56
365.015	87.56
365.241	81.56
365.468	87.56
365.694	73.56
365.92	85.56
366.147	71.56
366.373	89.56
366.599	80.56
366.826	88.56
367.052	87.56
367.278	87.56
367.505	79.56
367.731	80.56
367.957	91.56
368.184	83.56
368.41	84.56
368.636	83.56
368.862	73.56
369.089	61.56
369.315	87.56
369.541	88.56
369.767	84.56
369.993	79.56
370.219	94.56
370.445	94.56
370.672	80.56
370.898	79.56
371.124	83.56
371.35	78.56
371.576	97.56
371.802	84.56
372.028	87.56
372.254	88.56
372.48	84.56
372.706	64.56
372.932	85.56
373.158	64.56
373.384	90.56
373.61	98.56
373.835	95.56
374.061	85.56
374.287	79.56
374.513	75.56
374.739	81.56
374.965	86.56
375.191	86.56
375.416	78.56
375.642	66.56
375.868	74.56
376.094	93.56
376.319	84.56
376.545	71.56
376.771	72.56
376.997	86.56
377.222	87.56
377.448	87.56
377.674	73.56
377.899	70.56
378.125	83.56
378.35	72.56
378.576	88.56
378.802	84.56
379.027	76.56
379.253	87.56
379.478	79.56
379.704	91.56
379.929	90.56
380.155	65.56
380.38	90.56
380.606	75.56
380.831	72.56
381.057	86.56
381.282	74.56
381.507	83.56
381.733	92.56
381.958	95.56
382.184	83.56
382.409	92.56
382.634	76.56
382.86	82.56
383.085	80.56
383.31	81.56
383.535	90.56
383.761	84.56
383.986	84.56
384.211	84.56
384.436	82.56
384.662	75.56
384.887	73.56
385.112	76.56
385.337	84.56
385.562	70.56
385.787	80.56
386.013	76.56
386.238	86.56
386.463	86.56
386.688	104.56
386.913	86.56
387.138	79.56
387.363	78.56
387.588	88.56
387.813	81.56
388.038	78.56
388.263	73.56
388.488	88.56
388.713	77.56
388.938	72.56
389.163	84.56
389.387	89.56
389.612	90.56
389.837	80.56
390.062	98.56
390.287	97.56
390.512	91.56
390.736	76.56
390.961	77.56
391.186	62.56
391.411	90.56
391.636	74.56
391.86	88.56
392.085	66.56
392.31	79.56
392.534	88.56
392.759	71.56
392.984	87.56
393.208	93.56
393.433	112.56
393.658	98.56
393.882	90.56
394.107	81.56
394.331	78.56
394.556	94.56
394.78	66.56
395.005	79.56
395.229	82.56
395.454	85.56
395.678	70.56
395.903	95.56
396.127	78.56
396.352	95.56
396.576	75.56
396.801	99.56
397.025	95.56
397.249	88.56
397.474	90.56
397.698	80.56
397.922	85.56
398.147	86.56
398.371	95.56
398.595	82.56
398.82	85.56
399.044	86.56
399.268	81.56
399.492	68.56
399.717	82.56
399.941	86.56
400.165	88.56
400.389	80.56
400.613	75.56
400.837	65.56
401.062	66.56
401.286	81.56
401.51	71.56
401.734	74.56
401.958	87.56
402.182	89.56
402.406	73.56
402.63	78.56
402.854	82.56
403.078	80.56
403.302	81.56
403.526	79.56
403.75	86.56
403.974	79.56
404.198	93.56
404.422	73.56
404.645	92.56
404.869	74.56
405.093	91.56
405.317	92.56
405.541	73.56
405.765	76.56
405.988	87.56
406.212	94.56
406.436	95.56
406.66	83.56
406.883	94.56
407.107	87.56
407.331	71.56
407.555	72.56
407.778	68.56
408.002	96.56
408.226	98.56
408.449	85.56
408.673	78.56
408.896	79.56
409.12	76.56
409.344	82.56
409.567	97.56
409.791	75.56
410.014	82.56
410.238	84.56
410.461	76.56
410.685	74.56
410.908	91.56
411.132	73.56
411.355	87.56
411.578	85.56
411.802	83.56
412.025	85.56
412.249	74.56
412.472	80.56
412.695	73.56
412.919	74.56
413.142	89.56
413.365	80.56
413.589	85.56
413.812	72.56
414.035	76.56
414.258	89.56
414.482	76.56
414.705	73.56
414.928	63.56
415.151	82.56
415.374	73.56
415.597	77.56
415.821	81.56
416.044	85.56
416.267	75.56
416.49	64.56
416.713	70.56
416.936	78.56
417.159	78.56
417.382	78.56
417.605	82.56
417.828	77.56
418.051	79.56
418.274	96.56
418.497	89.56
418.72	81.56
418.943	86.56
419.166	77.56
419.389	76.56
419.611	71.56
419.834	76.56
420.057	85.56
420.28	82.56
420.503	67.56
420.726	83.56
420.948	77.56
421.171	89.56
421.394	93.56
421.617	96.56
421.839	81.56
422.062	86.56
422.285	93.56
422.507	113.56
422.73	112.56
422.953	98.56
423.175	95.56
423.398	83.56
423.621	73.56
423.843	69.56
424.066	68.56
424.288	77.56
424.511	69.56
424.733	76.56
424.956	89.56
425.178	92.56
425.401	80.56
425.623	94.56
425.846	76.56
426.068	90.56
426.291	78.56
426.513	84.56
426.735	76.56
426.958	80.56
427.18	74.56
427.402	77.56
427.625	78.56
427.847	83.56
428.069	88.56
428.292	82.56
428.514	88.56
428.736	82.56
428.958	95.56
429.181	102.56
429.403	89.56
429.625	82.56
429.847	81.56
430.069	81.56
430.292	86.56
430.514	93.56
430.736	85.56
430.958	86.56
431.18	93.56
431.402	76.56
431.624	70.56
431.846	83.56
432.068	82.56
432.29	84.56
432.512	80.56
432.734	89.56
432.956	65.56
433.178	71.56
433.4	75.56
433.622	82.56
433.844	84.56
434.066	80.56
434.287	81.56
434.509	67.56
434.731	63.56
434.953	92.56
435.175	69.56
435.397	75.56
435.618	78.56
435.84	84.56
436.062	84.56
436.284	92.56
436.505	84.56
436.727	83.56
436.949	71.56
437.17	87.56
437.392	94.56
437.614	90.56
437.835	73.56
438.057	82.56
438.278	84.56
438.5	75.56
438.721	95.56
438.943	86.56
439.165	95.56
439.386	86.56
439.608	92.56
439.829	73.56
440.05	87.56
440.272	83.56
440.493	72.56
440.715	68.56
440.936	79.56
441.158	80.56
441.379	87.56
441.6	76.56
441.822	89.56
442.043	88.56
442.264	88.56
442.486	74.56
442.707	81.56
442.928	98.56
443.149	89.56
443.371	94.56
443.592	95.56
443.813	92.56
444.034	82.56
444.255	80.56
444.476	69.56
444.698	70.56
444.919	82.56
445.14	160.56
445.361	127.56
445.582	105.56
445.803	92.56
446.024	74.56
446.245	90.56
446.466	69.56
446.687	69.56
446.908	83.56
447.129	87.56
447.35	61.56
447.571	80.56
447.792	84.56
448.013	96.56
448.234	86.56
448.455	84.56
448.675	85.56
448.896	77.56
449.117	97.56
449.338	86.56
449.559	87.56
449.779	82.56
450	85.56
450.221	69.56
450.442	71.56
450.662	104.56
450.883	68.56
451.104	82.56
451.324	78.56
451.545	80.56
451.766	84.56
451.986	85.56
452.207	73.56
452.428	79.56
452.648	84.56
452.869	75.56
453.089	75.56
453.31	68.56
453.53	73.56
453.751	89.56
453.971	73.56
454.192	74.56
454.412	80.56
454.633	83.56
454.853	84.56
455.073	79.56
455.294	78.56
455.514	75.56
455.734	81.56
455.955	79.56
456.175	93.56
456.395	84.56
456.616	85.56
456.836	87.56
457.056	98.56
457.276	69.56
457.497	75.56
457.717	84.56
457.937	67.56
458.157	80.56
458.377	81.56
458.598	83.56
458.818	77.56
459.038	75.56
459.258	83.56
459.478	85.56
459.698	84.56
459.918	82.56
460.138	89.56
460.358	96.56
460.578	72.56
460.798	83.56
461.018	88.56
461.238	77.56
461.458	73.56
461.678	80.56
461.898	89.56
462.118	74.56
462.338	91.56
462.558	88.56
462.777	80.56
462.997	88.56
463.217	80.56
463.437	87.56
463.657	86.56
463.876	92.56
464.096	87.56
464.316	75.56
464.536	82.56
464.755	88.56
464.975	82.56
465.195	88.56
465.414	90.56
465.634	93.56
465.854	81.56
466.073	80.56
466.293	76.56
466.512	81.56
466.732	76.56
466.951	86.56
467.171	80.56
467.391	85.56
467.61	80.56
467.829	70.56
468.049	73.56
468.268	82.56
468.488	85.56
468.707	68.56
468.927	79.56
469.146	88.56
469.365	88.56
469.585	89.56
469.804	78.56
470.023	93.56
470.243	79.56
470.462	83.56
470.681	78.56
470.901	74.56
471.12	85.56
471.339	75.56
471.558	78.56
471.777	73.56
471.997	88.56
472.216	95.56
472.435	78.56
472.654	89.56
472.873	73.56
473.092	78.56
473.311	84.56
473.53	72.56
473.749	86.56
473.968	80.56
474.187	80.56
474.406	89.56
474.625	73.56
474.844	79.56
475.063	84.56
475.282	74.56
475.501	88.56
475.72	90.56
475.939	81.56
476.158	86.56
476.377	75.56
476.596	69.56
476.814	88.56
477.033	96.56
477.252	89.56
477.471	82.56
477.69	80.56
477.908	96.56
478.127	81.56
478.346	76.56
478.564	83.56
478.783	88.56
479.002	81.56
479.22	75.56
479.439	89.56
479.658	96.56
479.876	79.56
480.095	88.56
480.313	89.56
480.532	86.56
480.751	85.56
480.969	96.56
481.188	82.56
481.406	84.56
481.624	81.56
481.843	81.56
482.061	86.56
482.28	88.56
482.498	86.56
482.717	90.56
482.935	82.56
483.153	82.56
483.372	89.56
483.59	90.56
483.808	73.56
484.027	82.56
484.245	94.56
484.463	61.56
484.681	87.56
484.9	83.56
485.118	85.56
485.336	84.56
485.554	88.56
485.772	74.56
485.99	80.56
486.209	84.56
486.427	71.56
486.645	77.56
486.863	99.56
487.081	89.56
487.299	90.56
487.517	93.56
487.735	86.56
487.953	77.56
488.171	94.56
488.389	95.56
488.607	78.56
488.825	84.56
489.043	95.56
489.261	82.56
489.479	89.56
489.696	97.56
489.914	89.56
490.132	92.56
490.35	102.56
490.568	90.56
490.786	87.56
491.003	86.56
491.221	89.56
491.439	80.56
491.657	89.56
491.874	64.56
492.092	80.56
492.31	93.56
492.527	97.56
492.745	96.56
492.963	84.56
493.18	97.56
493.398	87.56
493.615	84.56
493.833	86.56
494.05	85.56
494.268	89.56
494.485	85.56
494.703	85.56
494.92	94.56
495.138	100.56
495.355	76.56
495.573	104.56
495.79	72.56
496.008	89.56
496.225	89.56
496.442	88.56
496.66	90.56
496.877	90.56
497.094	77.56
497.312	73.56
497.529	76.56
497.746	80.56
497.963	81.56
498.181	92.56
498.398	100.56
498.615	79.56
498.832	80.56
499.049	75.56
499.267	85.56
499.484	95.56
499.701	80.56
499.918	90.56
500.135	87.56
500.352	86.56
500.569	79.56
500.786	87.56
501.003	81.56
501.22	99.56
501.437	79.56
501.654	88.56
501.871	77.56
502.088	87.56
502.305	95.56
502.522	89.56
502.739	94.56
502.956	93.56
503.172	87.56
503.389	73.56
503.606	64.56
503.823	79.56
504.04	88.56
504.256	78.56
504.473	98.56
504.69	78.56
504.907	88.56
505.123	90.56
505.34	87.56
505.557	79.56
505.773	95.56
505.99	85.56
506.207	87.56
506.423	72.56
506.64	78.56
506.856	84.56
507.073	88.56
507.289	74.56
507.506	80.56
507.722	81.56
507.939	70.56
508.155	80.56
508.372	96.56
508.588	87.56
508.805	83.56
509.021	82.56
509.238	74.56
509.454	72.56
509.67	83.56
509.887	68.56
510.103	79.56
510.319	88.56
510.536	80.56
510.752	87.56
510.968	85.56
511.184	90.56
511.401	83.56
511.617	76.56
511.833	81.56
512.049	99.56
512.265	86.56
512.481	87.56
512.698	72.56
512.914	83.56
513.13	88.56
513.346	87.56
513.562	79.56
513.778	77.56
513.994	79.56
514.21	78.56
514.426	79.56
514.642	81.56
514.858	87.56
515.074	71.56
515.29	80.56
515.506	92.56
515.721	80.56
515.937	96.56
516.153	79.56
516.369	85.56
516.585	79.56
516.801	84.56
517.016	88.56
517.232	90.56
517.448	107.56
517.664	69.56
517.879	84.56
518.095	86.56
518.311	86.56
518.527	92.56
518.742	105.56
518.958	79.56
519.173	86.56
519.389	82.56
519.605	85.56
519.82	92.56
520.036	89.56
