Data from 1600_2_HRD10591_00041.txt Node
Date: Mon Jan 19 13:54:01 EST 2026
User: Yrep
Spectrometer: HR+D1059
Trigger mode: 1
Integration Time (sec): 1.000000E-1
Scans to average: 1
Electric dark correction enabled: true
Nonlinearity correction enabled: false
Boxcar width: 0
XAxis mode: Wavelengths
Number of Pixels in Spectrum: 2048
>>>>>Begin Spectral Data<<<<<
223.165	-15.5
223.4	-15.5
223.635	-15.5
223.869	-9.5
224.104	-14.5
224.338	-20.5
224.573	-15.5
224.808	-19.5
225.042	-4.5
225.277	-16.5
225.511	-11.5
225.746	3.5
225.98	4.5
226.215	8.5
226.449	15.5
226.683	20.5
226.918	25.5
227.152	49.5
227.387	49.5
227.621	43.5
227.856	34.5
228.09	40.5
228.324	50.5
228.559	49.5
228.793	50.5
229.027	50.5
229.262	64.5
229.496	69.5
229.73	60.5
229.964	75.5
230.199	63.5
230.433	71.5
230.667	88.5
230.901	63.5
231.136	79.5
231.37	73.5
231.604	74.5
231.838	81.5
232.072	96.5
232.306	83.5
232.541	71.5
232.775	83.5
233.009	70.5
233.243	75.5
233.477	94.5
233.711	86.5
233.945	87.5
234.179	96.5
234.413	82.5
234.647	72.5
234.881	77.5
235.115	71.5
235.349	71.5
235.583	98.5
235.817	71.5
236.051	69.5
236.285	63.5
236.519	85.5
236.753	79.5
236.987	73.5
237.221	63.5
237.455	88.5
237.689	75.5
237.922	74.5
238.156	69.5
238.39	79.5
238.624	85.5
238.858	85.5
239.091	76.5
239.325	76.5
239.559	80.5
239.793	73.5
240.027	76.5
240.26	72.5
240.494	77.5
240.728	78.5
240.961	74.5
241.195	78.5
241.429	80.5
241.662	90.5
241.896	82.5
242.13	74.5
242.363	81.5
242.597	84.5
242.83	73.5
243.064	77.5
243.298	94.5
243.531	68.5
243.765	81.5
243.998	75.5
244.232	81.5
244.465	77.5
244.699	79.5
244.932	70.5
245.166	73.5
245.399	90.5
245.633	82.5
245.866	71.5
246.099	71.5
246.333	80.5
246.566	79.5
246.8	76.5
247.033	82.5
247.266	76.5
247.5	72.5
247.733	75.5
247.966	77.5
248.2	76.5
248.433	86.5
248.666	78.5
248.899	79.5
249.133	78.5
249.366	89.5
249.599	77.5
249.832	81.5
250.066	76.5
250.299	75.5
250.532	76.5
250.765	73.5
250.998	73.5
251.231	71.5
251.465	75.5
251.698	83.5
251.931	71.5
252.164	72.5
252.397	83.5
252.63	84.5
252.863	70.5
253.096	83.5
253.329	86.5
253.562	71.5
253.795	86.5
254.028	83.5
254.261	79.5
254.494	83.5
254.727	77.5
254.96	80.5
255.193	82.5
255.426	76.5
255.659	80.5
255.892	84.5
256.124	70.5
256.357	77.5
256.59	73.5
256.823	82.5
257.056	98.5
257.289	78.5
257.521	71.5
257.754	73.5
257.987	87.5
258.22	72.5
258.452	79.5
258.685	88.5
258.918	85.5
259.151	71.5
259.383	91.5
259.616	75.5
259.849	84.5
260.081	99.5
260.314	68.5
260.547	85.5
260.779	83.5
261.012	81.5
261.244	82.5
261.477	69.5
261.71	86.5
261.942	83.5
262.175	77.5
262.407	76.5
262.64	64.5
262.872	71.5
263.105	88.5
263.337	87.5
263.57	89.5
263.802	81.5
264.035	76.5
264.267	75.5
264.499	69.5
264.732	82.5
264.964	65.5
265.197	85.5
265.429	81.5
265.661	83.5
265.894	82.5
266.126	91.5
266.358	56.5
266.591	71.5
266.823	94.5
267.055	73.5
267.287	84.5
267.52	79.5
267.752	79.5
267.984	71.5
268.216	79.5
268.448	89.5
268.681	80.5
268.913	82.5
269.145	75.5
269.377	73.5
269.609	85.5
269.841	85.5
270.073	80.5
270.306	92.5
270.538	83.5
270.77	75.5
271.002	78.5
271.234	81.5
271.466	85.5
271.698	87.5
271.93	86.5
272.162	92.5
272.394	80.5
272.626	96.5
272.858	74.5
273.09	81.5
273.322	89.5
273.553	72.5
273.785	86.5
274.017	76.5
274.249	69.5
274.481	79.5
274.713	83.5
274.945	101.5
275.176	84.5
275.408	78.5
275.64	81.5
275.872	77.5
276.104	86.5
276.335	93.5
276.567	81.5
276.799	85.5
277.031	92.5
277.262	85.5
277.494	85.5
277.726	84.5
277.957	86.5
278.189	85.5
278.421	71.5
278.652	83.5
278.884	91.5
279.115	83.5
279.347	81.5
279.579	88.5
279.81	89.5
280.042	79.5
280.273	85.5
280.505	84.5
280.736	92.5
280.968	95.5
281.199	69.5
281.431	81.5
281.662	84.5
281.894	79.5
282.125	83.5
282.356	90.5
282.588	92.5
282.819	83.5
283.051	88.5
283.282	85.5
283.513	84.5
283.745	71.5
283.976	65.5
284.207	88.5
284.439	93.5
284.67	83.5
284.901	81.5
285.132	98.5
285.364	84.5
285.595	88.5
285.826	87.5
286.057	94.5
286.288	103.5
286.52	79.5
286.751	90.5
286.982	91.5
287.213	82.5
287.444	81.5
287.675	87.5
287.906	87.5
288.138	91.5
288.369	87.5
288.6	84.5
288.831	81.5
289.062	86.5
289.293	78.5
289.524	86.5
289.755	92.5
289.986	90.5
290.217	87.5
290.448	79.5
290.679	84.5
290.91	82.5
291.141	96.5
291.371	84.5
291.602	88.5
291.833	108.5
292.064	87.5
292.295	65.5
292.526	80.5
292.757	78.5
292.987	86.5
293.218	83.5
293.449	82.5
293.68	95.5
293.91	86.5
294.141	87.5
294.372	73.5
294.603	93.5
294.833	78.5
295.064	72.5
295.295	97.5
295.525	98.5
295.756	91.5
295.987	85.5
296.217	81.5
296.448	69.5
296.679	80.5
296.909	83.5
297.14	95.5
297.37	86.5
297.601	73.5
297.831	89.5
298.062	88.5
298.292	75.5
298.523	87.5
298.753	88.5
298.984	78.5
299.214	80.5
299.445	86.5
299.675	89.5
299.905	74.5
300.136	79.5
300.366	82.5
300.597	77.5
300.827	80.5
301.057	78.5
301.288	94.5
301.518	80.5
301.748	88.5
301.979	87.5
302.209	82.5
302.439	85.5
302.669	86.5
302.9	89.5
303.13	87.5
303.36	83.5
303.59	80.5
303.82	74.5
304.051	83.5
304.281	89.5
304.511	73.5
304.741	100.5
304.971	91.5
305.201	82.5
305.431	91.5
305.661	80.5
305.891	83.5
306.121	93.5
306.352	83.5
306.582	82.5
306.812	88.5
307.042	91.5
307.272	88.5
307.502	91.5
307.731	87.5
307.961	80.5
308.191	88.5
308.421	92.5
308.651	85.5
308.881	80.5
309.111	87.5
309.341	94.5
309.571	97.5
309.8	86.5
310.03	97.5
310.26	81.5
310.49	87.5
310.72	72.5
310.949	98.5
311.179	85.5
311.409	77.5
311.639	82.5
311.868	90.5
312.098	75.5
312.328	79.5
312.557	78.5
312.787	88.5
313.017	79.5
313.246	99.5
313.476	74.5
313.706	74.5
313.935	100.5
314.165	86.5
314.394	87.5
314.624	83.5
314.853	93.5
315.083	85.5
315.312	84.5
315.542	91.5
315.771	98.5
316.001	73.5
316.23	74.5
316.46	85.5
316.689	73.5
316.919	74.5
317.148	79.5
317.377	76.5
317.607	87.5
317.836	87.5
318.065	90.5
318.295	90.5
318.524	83.5
318.753	93.5
318.983	87.5
319.212	83.5
319.441	82.5
319.67	97.5
319.9	82.5
320.129	96.5
320.358	79.5
320.587	87.5
320.816	76.5
321.046	74.5
321.275	92.5
321.504	80.5
321.733	97.5
321.962	82.5
322.191	83.5
322.42	81.5
322.649	81.5
322.878	78.5
323.108	92.5
323.337	84.5
323.566	79.5
323.795	84.5
324.024	92.5
324.253	83.5
324.482	93.5
324.71	95.5
324.939	68.5
325.168	91.5
325.397	94.5
325.626	72.5
325.855	82.5
326.084	94.5
326.313	91.5
326.542	93.5
326.77	102.5
326.999	86.5
327.228	73.5
327.457	93.5
327.686	92.5
327.914	72.5
328.143	81.5
328.372	89.5
328.6	86.5
328.829	80.5
329.058	85.5
329.287	84.5
329.515	82.5
329.744	95.5
329.972	78.5
330.201	86.5
330.43	93.5
330.658	73.5
330.887	83.5
331.115	97.5
331.344	79.5
331.572	94.5
331.801	90.5
332.03	94.5
332.258	83.5
332.486	85.5
332.715	99.5
332.943	89.5
333.172	73.5
333.4	81.5
333.629	82.5
333.857	87.5
334.085	83.5
334.314	84.5
334.542	84.5
334.771	81.5
334.999	83.5
335.227	91.5
335.455	103.5
335.684	103.5
335.912	92.5
336.14	94.5
336.369	95.5
336.597	94.5
336.825	80.5
337.053	84.5
337.281	96.5
337.51	102.5
337.738	79.5
337.966	73.5
338.194	85.5
338.422	80.5
338.65	88.5
338.878	94.5
339.106	85.5
339.334	83.5
339.562	95.5
339.79	85.5
340.018	81.5
340.246	67.5
340.474	80.5
340.702	83.5
340.93	85.5
341.158	87.5
341.386	91.5
341.614	81.5
341.842	92.5
342.07	78.5
342.298	82.5
342.526	91.5
342.754	82.5
342.981	86.5
343.209	87.5
343.437	114.5
343.665	77.5
343.893	79.5
344.12	91.5
344.348	92.5
344.576	96.5
344.804	79.5
345.031	89.5
345.259	95.5
345.487	94.5
345.714	91.5
345.942	91.5
346.17	80.5
346.397	92.5
346.625	96.5
346.853	91.5
347.08	83.5
347.308	89.5
347.535	87.5
347.763	84.5
347.99	64.5
348.218	75.5
348.445	76.5
348.673	87.5
348.9	90.5
349.128	92.5
349.355	79.5
349.583	87.5
349.81	91.5
350.037	87.5
350.265	96.5
350.492	75.5
350.72	71.5
350.947	74.5
351.174	88.5
351.402	81.5
351.629	86.5
351.856	90.5
352.083	84.5
352.311	76.5
352.538	86.5
352.765	88.5
352.992	80.5
353.22	79.5
353.447	87.5
353.674	81.5
353.901	91.5
354.128	95.5
354.355	77.5
354.583	80.5
354.81	92.5
355.037	71.5
355.264	77.5
355.491	88.5
355.718	85.5
355.945	94.5
356.172	76.5
356.399	91.5
356.626	89.5
356.853	96.5
357.08	95.5
357.307	79.5
357.534	72.5
357.761	88.5
357.988	92.5
358.215	79.5
358.441	99.5
358.668	88.5
358.895	81.5
359.122	86.5
359.349	98.5
359.576	83.5
359.802	85.5
360.029	80.5
360.256	76.5
360.483	81.5
360.709	97.5
360.936	87.5
361.163	86.5
361.39	97.5
361.616	89.5
361.843	93.5
362.07	85.5
362.296	100.5
362.523	83.5
362.749	76.5
362.976	103.5
363.203	90.5
363.429	102.5
363.656	101.5
363.882	91.5
364.109	95.5
364.335	94.5
364.562	95.5
364.788	80.5
365.015	80.5
365.241	80.5
365.468	88.5
365.694	90.5
365.92	83.5
366.147	78.5
366.373	107.5
366.599	79.5
366.826	69.5
367.052	89.5
367.278	96.5
367.505	83.5
367.731	83.5
367.957	91.5
368.184	91.5
368.41	87.5
368.636	77.5
368.862	97.5
369.089	91.5
369.315	90.5
369.541	74.5
369.767	90.5
369.993	72.5
370.219	85.5
370.445	78.5
370.672	91.5
370.898	80.5
371.124	88.5
371.35	74.5
371.576	81.5
371.802	97.5
372.028	97.5
372.254	89.5
372.48	85.5
372.706	73.5
372.932	78.5
373.158	91.5
373.384	100.5
373.61	108.5
373.835	102.5
374.061	78.5
374.287	98.5
374.513	99.5
374.739	100.5
374.965	89.5
375.191	96.5
375.416	92.5
375.642	88.5
375.868	108.5
376.094	99.5
376.319	87.5
376.545	93.5
376.771	81.5
376.997	72.5
377.222	70.5
377.448	86.5
377.674	84.5
377.899	88.5
378.125	96.5
378.35	78.5
378.576	76.5
378.802	94.5
379.027	94.5
379.253	74.5
379.478	87.5
379.704	85.5
379.929	88.5
380.155	91.5
380.38	82.5
380.606	72.5
380.831	88.5
381.057	85.5
381.282	93.5
381.507	89.5
381.733	91.5
381.958	101.5
382.184	99.5
382.409	102.5
382.634	108.5
382.86	92.5
383.085	75.5
383.31	93.5
383.535	105.5
383.761	101.5
383.986	109.5
384.211	96.5
384.436	88.5
384.662	80.5
384.887	83.5
385.112	84.5
385.337	95.5
385.562	97.5
385.787	92.5
386.013	94.5
386.238	92.5
386.463	84.5
386.688	101.5
386.913	72.5
387.138	88.5
387.363	82.5
387.588	76.5
387.813	77.5
388.038	84.5
388.263	92.5
388.488	99.5
388.713	96.5
388.938	88.5
389.163	81.5
389.387	78.5
389.612	77.5
389.837	86.5
390.062	81.5
390.287	108.5
390.512	81.5
390.736	82.5
390.961	87.5
391.186	88.5
391.411	87.5
391.636	72.5
391.86	80.5
392.085	95.5
392.31	80.5
392.534	92.5
392.759	97.5
392.984	114.5
393.208	179.5
393.433	227.5
393.658	201.5
393.882	102.5
394.107	96.5
394.331	118.5
394.556	119.5
394.78	95.5
395.005	85.5
395.229	83.5
395.454	89.5
395.678	91.5
395.903	101.5
396.127	129.5
396.352	133.5
396.576	130.5
396.801	190.5
397.025	203.5
397.249	118.5
397.474	89.5
397.698	94.5
397.922	84.5
398.147	90.5
398.371	93.5
398.595	85.5
398.82	85.5
399.044	91.5
399.268	80.5
399.492	72.5
399.717	79.5
399.941	97.5
400.165	88.5
400.389	91.5
400.613	87.5
400.837	94.5
401.062	78.5
401.286	80.5
401.51	84.5
401.734	82.5
401.958	72.5
402.182	73.5
402.406	79.5
402.63	73.5
402.854	85.5
403.078	72.5
403.302	78.5
403.526	91.5
403.75	78.5
403.974	81.5
404.198	97.5
404.422	109.5
404.645	134.5
404.869	103.5
405.093	81.5
405.317	77.5
405.541	92.5
405.765	97.5
405.988	72.5
406.212	75.5
406.436	86.5
406.66	89.5
406.883	90.5
407.107	87.5
407.331	85.5
407.555	83.5
407.778	87.5
408.002	86.5
408.226	84.5
408.449	93.5
408.673	82.5
408.896	72.5
409.12	97.5
409.344	79.5
409.567	90.5
409.791	84.5
410.014	68.5
410.238	74.5
410.461	88.5
410.685	82.5
410.908	103.5
411.132	85.5
411.355	81.5
411.578	75.5
411.802	75.5
412.025	80.5
412.249	95.5
412.472	89.5
412.695	84.5
412.919	80.5
413.142	72.5
413.365	83.5
413.589	91.5
413.812	93.5
414.035	83.5
414.258	91.5
414.482	83.5
414.705	92.5
414.928	89.5
415.151	78.5
415.374	81.5
415.597	61.5
415.821	81.5
416.044	88.5
416.267	91.5
416.49	90.5
416.713	69.5
416.936	72.5
417.159	84.5
417.382	80.5
417.605	83.5
417.828	74.5
418.051	80.5
418.274	78.5
418.497	77.5
418.72	68.5
418.943	84.5
419.166	96.5
419.389	80.5
419.611	78.5
419.834	86.5
420.057	71.5
420.28	86.5
420.503	74.5
420.726	74.5
420.948	76.5
421.171	89.5
421.394	93.5
421.617	83.5
421.839	92.5
422.062	101.5
422.285	115.5
422.507	197.5
422.73	318.5
422.953	278.5
423.175	132.5
423.398	87.5
423.621	91.5
423.843	83.5
424.066	75.5
424.288	72.5
424.511	98.5
424.733	77.5
424.956	79.5
425.178	76.5
425.401	87.5
425.623	80.5
425.846	69.5
426.068	81.5
426.291	91.5
426.513	83.5
426.735	81.5
426.958	91.5
427.18	72.5
427.402	95.5
427.625	70.5
427.847	99.5
428.069	91.5
428.292	108.5
428.514	99.5
428.736	84.5
428.958	102.5
429.181	107.5
429.403	87.5
429.625	82.5
429.847	99.5
430.069	109.5
430.292	133.5
430.514	139.5
430.736	93.5
430.958	115.5
431.18	90.5
431.402	68.5
431.624	86.5
431.846	102.5
432.068	96.5
432.29	90.5
432.512	98.5
432.734	90.5
432.956	98.5
433.178	85.5
433.4	61.5
433.622	83.5
433.844	91.5
434.066	84.5
434.287	80.5
434.509	73.5
434.731	102.5
434.953	79.5
435.175	82.5
435.397	102.5
435.618	76.5
435.84	91.5
436.062	83.5
436.284	79.5
436.505	80.5
436.727	85.5
436.949	94.5
437.17	82.5
437.392	85.5
437.614	80.5
437.835	81.5
438.057	77.5
438.278	76.5
438.5	88.5
438.721	89.5
438.943	85.5
439.165	74.5
439.386	80.5
439.608	79.5
439.829	83.5
440.05	80.5
440.272	82.5
440.493	81.5
440.715	93.5
440.936	87.5
441.158	88.5
441.379	81.5
441.6	83.5
441.822	71.5
442.043	72.5
442.264	91.5
442.486	91.5
442.707	122.5
442.928	77.5
443.149	94.5
443.371	129.5
443.592	151.5
443.813	133.5
444.034	78.5
444.255	79.5
444.476	85.5
444.698	83.5
444.919	93.5
445.14	180.5
445.361	144.5
445.582	179.5
445.803	162.5
446.024	99.5
446.245	91.5
446.466	81.5
446.687	69.5
446.908	84.5
447.129	85.5
447.35	66.5
447.571	80.5
447.792	74.5
448.013	73.5
448.234	86.5
448.455	79.5
448.675	61.5
448.896	71.5
449.117	87.5
449.338	71.5
449.559	87.5
449.779	104.5
450	92.5
450.221	76.5
450.442	83.5
450.662	91.5
450.883	86.5
451.104	90.5
451.324	102.5
451.545	86.5
451.766	93.5
451.986	75.5
452.207	89.5
452.428	101.5
452.648	89.5
452.869	93.5
453.089	87.5
453.31	94.5
453.53	88.5
453.751	83.5
453.971	84.5
454.192	78.5
454.412	92.5
454.633	82.5
454.853	104.5
455.073	96.5
455.294	74.5
455.514	101.5
455.734	92.5
455.955	76.5
456.175	87.5
456.395	89.5
456.616	84.5
456.836	72.5
457.056	88.5
457.276	79.5
457.497	79.5
457.717	79.5
457.937	87.5
458.157	80.5
458.377	83.5
458.598	98.5
458.818	93.5
459.038	91.5
459.258	88.5
459.478	84.5
459.698	82.5
459.918	79.5
460.138	75.5
460.358	78.5
460.578	92.5
460.798	94.5
461.018	94.5
461.238	89.5
461.458	84.5
461.678	91.5
461.898	68.5
462.118	87.5
462.338	86.5
462.558	71.5
462.777	82.5
462.997	83.5
463.217	70.5
463.437	84.5
463.657	84.5
463.876	83.5
464.096	84.5
464.316	85.5
464.536	71.5
464.755	79.5
464.975	92.5
465.195	75.5
465.414	93.5
465.634	78.5
465.854	77.5
466.073	86.5
466.293	81.5
466.512	81.5
466.732	82.5
466.951	91.5
467.171	81.5
467.391	79.5
467.61	81.5
467.829	95.5
468.049	86.5
468.268	69.5
468.488	83.5
468.707	78.5
468.927	93.5
469.146	78.5
469.365	86.5
469.585	81.5
469.804	70.5
470.023	70.5
470.243	96.5
470.462	77.5
470.681	87.5
470.901	88.5
471.12	74.5
471.339	103.5
471.558	89.5
471.777	88.5
471.997	79.5
472.216	63.5
472.435	89.5
472.654	85.5
472.873	74.5
473.092	85.5
473.311	92.5
473.53	86.5
473.749	80.5
473.968	98.5
474.187	85.5
474.406	95.5
474.625	92.5
474.844	102.5
475.063	93.5
475.282	70.5
475.501	80.5
475.72	103.5
475.939	78.5
476.158	67.5
476.377	65.5
476.596	96.5
476.814	69.5
477.033	82.5
477.252	89.5
477.471	91.5
477.69	93.5
477.908	87.5
478.127	79.5
478.346	80.5
478.564	78.5
478.783	71.5
479.002	85.5
479.22	83.5
479.439	85.5
479.658	104.5
479.876	68.5
480.095	78.5
480.313	95.5
480.532	78.5
480.751	86.5
480.969	80.5
481.188	95.5
481.406	76.5
481.624	79.5
481.843	88.5
482.061	82.5
482.28	81.5
482.498	78.5
482.717	76.5
482.935	88.5
483.153	83.5
483.372	81.5
483.59	79.5
483.808	81.5
484.027	85.5
484.245	79.5
484.463	74.5
484.681	83.5
484.9	81.5
485.118	88.5
485.336	93.5
485.554	86.5
485.772	88.5
485.99	76.5
486.209	89.5
486.427	79.5
486.645	86.5
486.863	85.5
487.081	96.5
487.299	88.5
487.517	100.5
487.735	102.5
487.953	96.5
488.171	97.5
488.389	95.5
488.607	77.5
488.825	74.5
489.043	81.5
489.261	84.5
489.479	79.5
489.696	75.5
489.914	83.5
490.132	88.5
490.35	111.5
490.568	59.5
490.786	79.5
491.003	103.5
491.221	84.5
491.439	86.5
491.657	94.5
491.874	88.5
492.092	81.5
492.31	79.5
492.527	78.5
492.745	83.5
492.963	87.5
493.18	100.5
493.398	87.5
493.615	84.5
493.833	83.5
494.05	84.5
494.268	102.5
494.485	87.5
494.703	82.5
494.92	96.5
495.138	89.5
495.355	83.5
495.573	79.5
495.79	81.5
496.008	97.5
496.225	76.5
496.442	84.5
496.66	78.5
496.877	84.5
497.094	79.5
497.312	80.5
497.529	69.5
497.746	83.5
497.963	83.5
498.181	80.5
498.398	91.5
498.615	78.5
498.832	90.5
499.049	85.5
499.267	93.5
499.484	73.5
499.701	87.5
499.918	79.5
500.135	91.5
500.352	84.5
500.569	85.5
500.786	93.5
501.003	94.5
501.22	83.5
501.437	92.5
501.654	88.5
501.871	86.5
502.088	75.5
502.305	84.5
502.522	91.5
502.739	92.5
502.956	70.5
503.172	87.5
503.389	79.5
503.606	87.5
503.823	78.5
504.04	94.5
504.256	83.5
504.473	102.5
504.69	100.5
504.907	90.5
505.123	81.5
505.34	77.5
505.557	86.5
505.773	91.5
505.99	94.5
506.207	103.5
506.423	80.5
506.64	85.5
506.856	81.5
507.073	84.5
507.289	79.5
507.506	86.5
507.722	78.5
507.939	77.5
508.155	87.5
508.372	85.5
508.588	94.5
508.805	91.5
509.021	89.5
509.238	79.5
509.454	80.5
509.67	81.5
509.887	88.5
510.103	92.5
510.319	90.5
510.536	82.5
510.752	83.5
510.968	76.5
511.184	94.5
511.401	92.5
511.617	111.5
511.833	95.5
512.049	84.5
512.265	85.5
512.481	88.5
512.698	77.5
512.914	86.5
513.13	93.5
513.346	89.5
513.562	92.5
513.778	72.5
513.994	75.5
514.21	81.5
514.426	81.5
514.642	84.5
514.858	87.5
515.074	80.5
515.29	89.5
515.506	82.5
515.721	67.5
515.937	100.5
516.153	83.5
516.369	68.5
516.585	102.5
516.801	93.5
517.016	86.5
517.232	99.5
517.448	99.5
517.664	80.5
517.879	88.5
518.095	82.5
518.311	100.5
518.527	118.5
518.742	106.5
518.958	99.5
519.173	118.5
519.389	84.5
519.605	91.5
519.82	79.5
520.036	101.5
520.251	79.5
520.467	83.5
520.682	79.5
520.898	84.5
521.113	66.5
521.329	80.5
521.544	78.5
521.76	82.5
521.975	87.5
522.19	81.5
522.406	88.5
522.621	92.5
522.836	78.5
523.052	90.5
523.267	94.5
523.482	78.5
523.698	71.5
523.913	74.5
524.128	82.5
524.343	100.5
524.559	102.5
524.774	85.5
524.989	109.5
525.204	80.5
525.419	77.5
525.634	81.5
525.849	83.5
526.064	100.5
526.28	109.5
526.495	147.5
526.71	153.5
526.925	132.5
527.14	157.5
527.355	149.5
527.57	83.5
527.785	72.5
527.999	87.5
528.214	97.5
528.429	88.5
528.644	84.5
528.859	89.5
529.074	83.5
529.289	86.5
529.503	80.5
529.718	82.5
529.933	82.5
530.148	92.5
530.363	81.5
530.577	86.5
530.792	92.5
531.007	83.5
531.221	73.5
531.436	83.5
531.651	85.5
531.865	88.5
532.08	84.5
532.295	90.5
532.509	85.5
532.724	76.5
532.938	92.5
533.153	86.5
533.367	83.5
533.582	74.5
533.796	77.5
534.011	100.5
534.225	95.5
534.44	94.5
534.654	97.5
534.868	89.5
535.083	109.5
535.297	107.5
535.511	89.5
535.726	86.5
535.94	82.5
536.154	88.5
536.369	86.5
536.583	84.5
536.797	93.5
537.011	84.5
537.225	93.5
537.44	98.5
537.654	88.5
537.868	89.5
538.082	89.5
538.296	89.5
538.51	107.5
538.724	93.5
538.938	96.5
