Data from 1600_2_HRD10591_00048.txt Node
Date: Mon Jan 19 13:54:05 EST 2026
User: Yrep
Spectrometer: HR+D1059
Trigger mode: 1
Integration Time (sec): 1.000000E-1
Scans to average: 1
Electric dark correction enabled: true
Nonlinearity correction enabled: false
Boxcar width: 0
XAxis mode: Wavelengths
Number of Pixels in Spectrum: 2048
>>>>>Begin Spectral Data<<<<<
223.165	-19.06
223.4	-19.06
223.635	-19.06
223.869	-13.06
224.104	-16.06
224.338	-11.06
224.573	-15.06
224.808	-15.06
225.042	-11.06
225.277	-2.06
225.511	-1.06
225.746	-7.06
225.98	6.94
226.215	22.94
226.449	12.94
226.683	20.94
226.918	18.94
227.152	27.94
227.387	45.94
227.621	42.94
227.856	28.94
228.09	48.94
228.324	55.94
228.559	53.94
228.793	57.94
229.027	73.94
229.262	74.94
229.496	65.94
229.73	62.94
229.964	67.94
230.199	63.94
230.433	61.94
230.667	75.94
230.901	69.94
231.136	70.94
231.37	76.94
231.604	80.94
231.838	83.94
232.072	85.94
232.306	83.94
232.541	68.94
232.775	83.94
233.009	77.94
233.243	85.94
233.477	85.94
233.711	79.94
233.945	85.94
234.179	82.94
234.413	70.94
234.647	72.94
234.881	69.94
235.115	94.94
235.349	86.94
235.583	86.94
235.817	81.94
236.051	79.94
236.285	73.94
236.519	82.94
236.753	70.94
236.987	65.94
237.221	81.94
237.455	87.94
237.689	86.94
237.922	76.94
238.156	75.94
238.39	76.94
238.624	73.94
238.858	69.94
239.091	70.94
239.325	68.94
239.559	69.94
239.793	77.94
240.027	72.94
240.26	79.94
240.494	68.94
240.728	72.94
240.961	67.94
241.195	85.94
241.429	82.94
241.662	69.94
241.896	82.94
242.13	69.94
242.363	72.94
242.597	64.94
242.83	71.94
243.064	84.94
243.298	74.94
243.531	71.94
243.765	74.94
243.998	78.94
244.232	76.94
244.465	62.94
244.699	73.94
244.932	57.94
245.166	73.94
245.399	71.94
245.633	74.94
245.866	78.94
246.099	69.94
246.333	90.94
246.566	65.94
246.8	78.94
247.033	67.94
247.266	82.94
247.5	74.94
247.733	62.94
247.966	79.94
248.2	78.94
248.433	63.94
248.666	65.94
248.899	86.94
249.133	73.94
249.366	69.94
249.599	90.94
249.832	79.94
250.066	85.94
250.299	67.94
250.532	85.94
250.765	92.94
250.998	85.94
251.231	80.94
251.465	69.94
251.698	79.94
251.931	71.94
252.164	77.94
252.397	89.94
252.63	70.94
252.863	92.94
253.096	80.94
253.329	76.94
253.562	76.94
253.795	84.94
254.028	77.94
254.261	77.94
254.494	73.94
254.727	76.94
254.96	78.94
255.193	73.94
255.426	61.94
255.659	72.94
255.892	69.94
256.124	78.94
256.357	77.94
256.59	76.94
256.823	78.94
257.056	76.94
257.289	78.94
257.521	82.94
257.754	64.94
257.987	73.94
258.22	76.94
258.452	81.94
258.685	71.94
258.918	70.94
259.151	68.94
259.383	79.94
259.616	85.94
259.849	78.94
260.081	76.94
260.314	80.94
260.547	78.94
260.779	83.94
261.012	72.94
261.244	71.94
261.477	74.94
261.71	69.94
261.942	90.94
262.175	85.94
262.407	77.94
262.64	71.94
262.872	72.94
263.105	91.94
263.337	90.94
263.57	80.94
263.802	74.94
264.035	79.94
264.267	74.94
264.499	84.94
264.732	88.94
264.964	74.94
265.197	70.94
265.429	74.94
265.661	74.94
265.894	86.94
266.126	82.94
266.358	78.94
266.591	68.94
266.823	68.94
267.055	88.94
267.287	65.94
267.52	84.94
267.752	74.94
267.984	81.94
268.216	83.94
268.448	82.94
268.681	72.94
268.913	78.94
269.145	68.94
269.377	80.94
269.609	95.94
269.841	82.94
270.073	75.94
270.306	70.94
270.538	90.94
270.77	93.94
271.002	83.94
271.234	82.94
271.466	77.94
271.698	70.94
271.93	73.94
272.162	72.94
272.394	83.94
272.626	78.94
272.858	93.94
273.09	83.94
273.322	80.94
273.553	86.94
273.785	88.94
274.017	71.94
274.249	72.94
274.481	72.94
274.713	82.94
274.945	94.94
275.176	82.94
275.408	89.94
275.64	73.94
275.872	84.94
276.104	78.94
276.335	83.94
276.567	84.94
276.799	88.94
277.031	78.94
277.262	84.94
277.494	81.94
277.726	79.94
277.957	81.94
278.189	77.94
278.421	70.94
278.652	84.94
278.884	93.94
279.115	96.94
279.347	75.94
279.579	91.94
279.81	73.94
280.042	80.94
280.273	88.94
280.505	83.94
280.736	86.94
280.968	82.94
281.199	81.94
281.431	84.94
281.662	78.94
281.894	75.94
282.125	88.94
282.356	86.94
282.588	77.94
282.819	85.94
283.051	87.94
283.282	85.94
283.513	86.94
283.745	65.94
283.976	79.94
284.207	88.94
284.439	65.94
284.67	79.94
284.901	84.94
285.132	76.94
285.364	85.94
285.595	86.94
285.826	91.94
286.057	81.94
286.288	72.94
286.52	86.94
286.751	76.94
286.982	95.94
287.213	90.94
287.444	73.94
287.675	73.94
287.906	79.94
288.138	76.94
288.369	84.94
288.6	82.94
288.831	77.94
289.062	86.94
289.293	74.94
289.524	85.94
289.755	83.94
289.986	79.94
290.217	75.94
290.448	72.94
290.679	88.94
290.91	93.94
291.141	79.94
291.371	86.94
291.602	90.94
291.833	86.94
292.064	63.94
292.295	75.94
292.526	90.94
292.757	74.94
292.987	90.94
293.218	80.94
293.449	79.94
293.68	96.94
293.91	83.94
294.141	88.94
294.372	75.94
294.603	81.94
294.833	83.94
295.064	92.94
295.295	70.94
295.525	83.94
295.756	99.94
295.987	82.94
296.217	72.94
296.448	79.94
296.679	86.94
296.909	82.94
297.14	87.94
297.37	72.94
297.601	82.94
297.831	95.94
298.062	71.94
298.292	86.94
298.523	82.94
298.753	67.94
298.984	89.94
299.214	86.94
299.445	79.94
299.675	85.94
299.905	71.94
300.136	77.94
300.366	78.94
300.597	77.94
300.827	67.94
301.057	82.94
301.288	71.94
301.518	88.94
301.748	62.94
301.979	103.94
302.209	72.94
302.439	93.94
302.669	91.94
302.9	82.94
303.13	70.94
303.36	52.94
303.59	101.94
303.82	68.94
304.051	88.94
304.281	99.94
304.511	96.94
304.741	94.94
304.971	85.94
305.201	86.94
305.431	89.94
305.661	84.94
305.891	97.94
306.121	86.94
306.352	93.94
306.582	69.94
306.812	88.94
307.042	90.94
307.272	94.94
307.502	93.94
307.731	81.94
307.961	84.94
308.191	80.94
308.421	76.94
308.651	77.94
308.881	85.94
309.111	82.94
309.341	83.94
309.571	94.94
309.8	62.94
310.03	55.94
310.26	81.94
310.49	88.94
310.72	96.94
310.949	66.94
311.179	77.94
311.409	72.94
311.639	85.94
311.868	74.94
312.098	71.94
312.328	92.94
312.557	76.94
312.787	99.94
313.017	96.94
313.246	95.94
313.476	84.94
313.706	85.94
313.935	59.94
314.165	68.94
314.394	78.94
314.624	76.94
314.853	83.94
315.083	90.94
315.312	88.94
315.542	87.94
315.771	84.94
316.001	76.94
316.23	78.94
316.46	78.94
316.689	83.94
316.919	78.94
317.148	87.94
317.377	77.94
317.607	80.94
317.836	80.94
318.065	87.94
318.295	75.94
318.524	72.94
318.753	63.94
318.983	81.94
319.212	79.94
319.441	87.94
319.67	78.94
319.9	83.94
320.129	93.94
320.358	73.94
320.587	90.94
320.816	91.94
321.046	87.94
321.275	78.94
321.504	86.94
321.733	79.94
321.962	78.94
322.191	70.94
322.42	83.94
322.649	83.94
322.878	78.94
323.108	85.94
323.337	78.94
323.566	71.94
323.795	95.94
324.024	86.94
324.253	74.94
324.482	74.94
324.71	76.94
324.939	71.94
325.168	82.94
325.397	68.94
325.626	91.94
325.855	82.94
326.084	76.94
326.313	78.94
326.542	80.94
326.77	100.94
326.999	81.94
327.228	83.94
327.457	82.94
327.686	81.94
327.914	98.94
328.143	81.94
328.372	78.94
328.6	82.94
328.829	82.94
329.058	90.94
329.287	89.94
329.515	69.94
329.744	83.94
329.972	73.94
330.201	91.94
330.43	90.94
330.658	79.94
330.887	92.94
331.115	73.94
331.344	86.94
331.572	86.94
331.801	71.94
332.03	84.94
332.258	77.94
332.486	85.94
332.715	71.94
332.943	78.94
333.172	70.94
333.4	81.94
333.629	77.94
333.857	82.94
334.085	83.94
334.314	87.94
334.542	73.94
334.771	78.94
334.999	87.94
335.227	78.94
335.455	93.94
335.684	95.94
335.912	82.94
336.14	76.94
336.369	87.94
336.597	79.94
336.825	79.94
337.053	91.94
337.281	71.94
337.51	80.94
337.738	88.94
337.966	84.94
338.194	94.94
338.422	82.94
338.65	76.94
338.878	86.94
339.106	75.94
339.334	80.94
339.562	80.94
339.79	78.94
340.018	73.94
340.246	91.94
340.474	79.94
340.702	79.94
340.93	61.94
341.158	80.94
341.386	86.94
341.614	72.94
341.842	77.94
342.07	66.94
342.298	82.94
342.526	78.94
342.754	70.94
342.981	82.94
343.209	92.94
343.437	93.94
343.665	75.94
343.893	88.94
344.12	76.94
344.348	86.94
344.576	76.94
344.804	96.94
345.031	80.94
345.259	82.94
345.487	65.94
345.714	68.94
345.942	79.94
346.17	91.94
346.397	72.94
346.625	82.94
346.853	80.94
347.08	102.94
347.308	93.94
347.535	79.94
347.763	78.94
347.99	90.94
348.218	87.94
348.445	89.94
348.673	86.94
348.9	84.94
349.128	95.94
349.355	90.94
349.583	76.94
349.81	76.94
350.037	90.94
350.265	100.94
350.492	90.94
350.72	84.94
350.947	75.94
351.174	92.94
351.402	103.94
351.629	78.94
351.856	95.94
352.083	76.94
352.311	94.94
352.538	77.94
352.765	96.94
352.992	94.94
353.22	82.94
353.447	95.94
353.674	88.94
353.901	88.94
354.128	88.94
354.355	80.94
354.583	87.94
354.81	85.94
355.037	84.94
355.264	72.94
355.491	80.94
355.718	82.94
355.945	87.94
356.172	86.94
356.399	98.94
356.626	84.94
356.853	89.94
357.08	84.94
357.307	100.94
357.534	82.94
357.761	92.94
357.988	94.94
358.215	89.94
358.441	70.94
358.668	73.94
358.895	90.94
359.122	71.94
359.349	68.94
359.576	84.94
359.802	83.94
360.029	82.94
360.256	83.94
360.483	69.94
360.709	82.94
360.936	83.94
361.163	74.94
361.39	84.94
361.616	70.94
361.843	67.94
362.07	79.94
362.296	75.94
362.523	71.94
362.749	86.94
362.976	78.94
363.203	83.94
363.429	77.94
363.656	73.94
363.882	75.94
364.109	81.94
364.335	69.94
364.562	73.94
364.788	87.94
365.015	82.94
365.241	76.94
365.468	83.94
365.694	95.94
365.92	76.94
366.147	75.94
366.373	67.94
366.599	82.94
366.826	90.94
367.052	70.94
367.278	73.94
367.505	88.94
367.731	93.94
367.957	87.94
368.184	86.94
368.41	80.94
368.636	92.94
368.862	86.94
369.089	72.94
369.315	81.94
369.541	86.94
369.767	90.94
369.993	86.94
370.219	75.94
370.445	82.94
370.672	93.94
370.898	78.94
371.124	82.94
371.35	83.94
371.576	65.94
371.802	64.94
372.028	88.94
372.254	96.94
372.48	62.94
372.706	86.94
372.932	78.94
373.158	77.94
373.384	99.94
373.61	81.94
373.835	80.94
374.061	76.94
374.287	84.94
374.513	67.94
374.739	83.94
374.965	80.94
375.191	95.94
375.416	79.94
375.642	69.94
375.868	79.94
376.094	93.94
376.319	83.94
376.545	68.94
376.771	82.94
376.997	84.94
377.222	75.94
377.448	75.94
377.674	93.94
377.899	71.94
378.125	78.94
378.35	92.94
378.576	81.94
378.802	80.94
379.027	92.94
379.253	79.94
379.478	74.94
379.704	86.94
379.929	82.94
380.155	70.94
380.38	70.94
380.606	71.94
380.831	69.94
381.057	84.94
381.282	90.94
381.507	92.94
381.733	87.94
381.958	79.94
382.184	80.94
382.409	71.94
382.634	78.94
382.86	80.94
383.085	83.94
383.31	85.94
383.535	84.94
383.761	81.94
383.986	88.94
384.211	80.94
384.436	78.94
384.662	67.94
384.887	81.94
385.112	90.94
385.337	81.94
385.562	82.94
385.787	77.94
386.013	94.94
386.238	85.94
386.463	71.94
386.688	85.94
386.913	75.94
387.138	78.94
387.363	93.94
387.588	73.94
387.813	78.94
388.038	88.94
388.263	79.94
388.488	91.94
388.713	85.94
388.938	60.94
389.163	75.94
389.387	71.94
389.612	78.94
389.837	81.94
390.062	78.94
390.287	79.94
390.512	84.94
390.736	67.94
390.961	69.94
391.186	79.94
391.411	63.94
391.636	68.94
391.86	86.94
392.085	82.94
392.31	81.94
392.534	80.94
392.759	78.94
392.984	92.94
393.208	94.94
393.433	118.94
393.658	102.94
393.882	80.94
394.107	83.94
394.331	91.94
394.556	84.94
394.78	101.94
395.005	72.94
395.229	101.94
395.454	88.94
395.678	76.94
395.903	96.94
396.127	95.94
396.352	102.94
396.576	92.94
396.801	119.94
397.025	122.94
397.249	109.94
397.474	87.94
397.698	80.94
397.922	82.94
398.147	78.94
398.371	84.94
398.595	76.94
398.82	75.94
399.044	91.94
399.268	75.94
399.492	81.94
399.717	64.94
399.941	88.94
400.165	91.94
400.389	76.94
400.613	84.94
400.837	78.94
401.062	80.94
401.286	84.94
401.51	79.94
401.734	88.94
401.958	83.94
402.182	66.94
402.406	59.94
402.63	75.94
402.854	81.94
403.078	86.94
403.302	70.94
403.526	90.94
403.75	68.94
403.974	76.94
404.198	86.94
404.422	90.94
404.645	92.94
404.869	80.94
405.093	82.94
405.317	83.94
405.541	60.94
405.765	80.94
405.988	78.94
406.212	68.94
406.436	80.94
406.66	76.94
406.883	79.94
407.107	77.94
407.331	84.94
407.555	91.94
407.778	90.94
408.002	84.94
408.226	76.94
408.449	79.94
408.673	88.94
408.896	85.94
409.12	70.94
409.344	71.94
409.567	91.94
409.791	64.94
410.014	82.94
410.238	72.94
410.461	75.94
410.685	83.94
410.908	76.94
411.132	90.94
411.355	81.94
411.578	70.94
411.802	78.94
412.025	70.94
412.249	70.94
412.472	73.94
412.695	78.94
412.919	77.94
413.142	79.94
413.365	75.94
413.589	81.94
413.812	86.94
414.035	70.94
414.258	80.94
414.482	87.94
414.705	85.94
414.928	78.94
415.151	76.94
415.374	57.94
415.597	70.94
415.821	72.94
416.044	66.94
416.267	69.94
416.49	74.94
416.713	72.94
416.936	67.94
417.159	74.94
417.382	76.94
417.605	72.94
417.828	77.94
418.051	80.94
418.274	79.94
418.497	73.94
418.72	83.94
418.943	81.94
419.166	69.94
419.389	80.94
419.611	80.94
419.834	78.94
420.057	79.94
420.28	82.94
420.503	67.94
420.726	84.94
420.948	88.94
421.171	78.94
421.394	87.94
421.617	82.94
421.839	72.94
422.062	94.94
422.285	84.94
422.507	97.94
422.73	142.94
422.953	143.94
423.175	87.94
423.398	50.94
423.621	87.94
423.843	75.94
424.066	76.94
424.288	75.94
424.511	79.94
424.733	76.94
424.956	91.94
425.178	82.94
425.401	76.94
425.623	77.94
425.846	72.94
426.068	82.94
426.291	94.94
426.513	80.94
426.735	77.94
426.958	87.94
427.18	87.94
427.402	60.94
427.625	72.94
427.847	77.94
428.069	92.94
428.292	83.94
428.514	82.94
428.736	78.94
428.958	85.94
429.181	78.94
429.403	70.94
429.625	86.94
429.847	78.94
430.069	110.94
430.292	110.94
430.514	87.94
430.736	90.94
430.958	86.94
431.18	86.94
431.402	88.94
431.624	83.94
431.846	83.94
432.068	80.94
432.29	83.94
432.512	72.94
432.734	74.94
432.956	84.94
433.178	88.94
433.4	88.94
433.622	90.94
433.844	87.94
434.066	78.94
434.287	83.94
434.509	76.94
434.731	62.94
434.953	79.94
435.175	78.94
435.397	71.94
435.618	76.94
435.84	73.94
436.062	87.94
436.284	84.94
436.505	75.94
436.727	83.94
436.949	81.94
437.17	77.94
437.392	83.94
437.614	83.94
437.835	82.94
438.057	78.94
438.278	65.94
438.5	87.94
438.721	85.94
438.943	82.94
439.165	84.94
439.386	80.94
439.608	73.94
439.829	86.94
440.05	90.94
440.272	82.94
440.493	58.94
440.715	82.94
440.936	79.94
441.158	78.94
441.379	81.94
441.6	76.94
441.822	67.94
442.043	72.94
442.264	80.94
442.486	78.94
442.707	84.94
442.928	85.94
443.149	82.94
443.371	76.94
443.592	91.94
443.813	86.94
444.034	84.94
444.255	79.94
444.476	84.94
444.698	76.94
444.919	85.94
445.14	163.94
445.361	110.94
445.582	97.94
445.803	101.94
446.024	62.94
446.245	86.94
446.466	83.94
446.687	75.94
446.908	88.94
447.129	82.94
447.35	72.94
447.571	84.94
447.792	82.94
448.013	76.94
448.234	78.94
448.455	76.94
448.675	82.94
448.896	78.94
449.117	76.94
449.338	76.94
449.559	73.94
449.779	69.94
450	76.94
450.221	80.94
450.442	94.94
450.662	80.94
450.883	91.94
451.104	82.94
451.324	65.94
451.545	86.94
451.766	69.94
451.986	69.94
452.207	66.94
452.428	78.94
452.648	82.94
452.869	94.94
453.089	78.94
453.31	77.94
453.53	75.94
453.751	70.94
453.971	68.94
454.192	71.94
454.412	66.94
454.633	71.94
454.853	76.94
455.073	84.94
455.294	85.94
455.514	87.94
455.734	88.94
455.955	66.94
456.175	79.94
456.395	62.94
456.616	79.94
456.836	80.94
457.056	78.94
457.276	77.94
457.497	49.94
457.717	66.94
457.937	77.94
458.157	85.94
458.377	85.94
458.598	93.94
458.818	84.94
459.038	94.94
459.258	86.94
459.478	74.94
459.698	83.94
459.918	86.94
460.138	68.94
460.358	85.94
460.578	82.94
460.798	93.94
461.018	89.94
461.238	85.94
461.458	83.94
461.678	78.94
461.898	82.94
462.118	88.94
462.338	86.94
462.558	87.94
462.777	81.94
462.997	84.94
463.217	74.94
463.437	74.94
463.657	80.94
463.876	87.94
464.096	82.94
464.316	63.94
464.536	92.94
464.755	90.94
464.975	78.94
465.195	71.94
465.414	71.94
465.634	85.94
465.854	86.94
466.073	88.94
466.293	88.94
466.512	65.94
466.732	64.94
466.951	66.94
467.171	78.94
467.391	79.94
467.61	68.94
467.829	70.94
468.049	71.94
468.268	87.94
468.488	81.94
468.707	78.94
468.927	85.94
469.146	89.94
469.365	71.94
469.585	81.94
469.804	76.94
470.023	77.94
470.243	81.94
470.462	76.94
470.681	70.94
470.901	76.94
471.12	71.94
471.339	67.94
471.558	73.94
471.777	78.94
471.997	82.94
472.216	74.94
472.435	66.94
472.654	81.94
472.873	85.94
473.092	80.94
473.311	82.94
473.53	80.94
473.749	84.94
473.968	77.94
474.187	87.94
474.406	80.94
474.625	74.94
474.844	68.94
475.063	67.94
475.282	84.94
475.501	88.94
475.72	83.94
475.939	58.94
476.158	78.94
476.377	77.94
476.596	80.94
476.814	86.94
477.033	85.94
477.252	85.94
477.471	69.94
477.69	95.94
477.908	94.94
478.127	86.94
478.346	71.94
478.564	91.94
478.783	75.94
479.002	83.94
479.22	83.94
479.439	84.94
479.658	61.94
479.876	80.94
480.095	74.94
480.313	81.94
480.532	90.94
480.751	78.94
480.969	71.94
481.188	66.94
481.406	83.94
481.624	82.94
481.843	73.94
482.061	78.94
482.28	79.94
482.498	77.94
482.717	90.94
482.935	64.94
483.153	76.94
483.372	78.94
483.59	94.94
483.808	87.94
484.027	72.94
484.245	76.94
484.463	86.94
484.681	93.94
484.9	81.94
485.118	91.94
485.336	78.94
485.554	84.94
485.772	75.94
485.99	77.94
486.209	78.94
486.427	62.94
486.645	83.94
486.863	87.94
487.081	78.94
487.299	78.94
487.517	84.94
487.735	70.94
487.953	62.94
488.171	83.94
488.389	73.94
488.607	78.94
488.825	90.94
489.043	86.94
489.261	74.94
489.479	84.94
489.696	85.94
489.914	81.94
490.132	93.94
490.35	99.94
490.568	92.94
490.786	75.94
491.003	81.94
491.221	79.94
491.439	86.94
491.657	66.94
491.874	89.94
492.092	78.94
492.31	83.94
492.527	88.94
492.745	78.94
492.963	79.94
493.18	74.94
493.398	82.94
493.615	67.94
493.833	82.94
494.05	80.94
494.268	98.94
494.485	82.94
494.703	87.94
494.92	78.94
495.138	96.94
495.355	87.94
495.573	73.94
495.79	79.94
496.008	73.94
496.225	84.94
496.442	93.94
496.66	73.94
496.877	83.94
497.094	72.94
497.312	96.94
497.529	91.94
497.746	89.94
497.963	76.94
498.181	84.94
498.398	72.94
498.615	80.94
498.832	78.94
499.049	86.94
499.267	85.94
499.484	88.94
499.701	81.94
499.918	76.94
500.135	86.94
500.352	86.94
500.569	83.94
500.786	87.94
501.003	93.94
501.22	82.94
501.437	77.94
501.654	82.94
501.871	92.94
502.088	79.94
502.305	76.94
502.522	85.94
502.739	88.94
502.956	75.94
503.172	64.94
503.389	80.94
503.606	76.94
503.823	80.94
504.04	88.94
504.256	99.94
504.473	88.94
504.69	70.94
504.907	76.94
505.123	79.94
505.34	75.94
505.557	81.94
505.773	84.94
505.99	82.94
506.207	87.94
506.423	99.94
506.64	92.94
506.856	77.94
507.073	79.94
507.289	83.94
507.506	79.94
507.722	79.94
507.939	81.94
508.155	82.94
508.372	93.94
508.588	76.94
508.805	74.94
509.021	88.94
509.238	76.94
509.454	78.94
509.67	75.94
509.887	59.94
510.103	86.94
510.319	73.94
510.536	81.94
510.752	90.94
510.968	72.94
511.184	76.94
511.401	75.94
511.617	71.94
511.833	73.94
512.049	80.94
512.265	86.94
512.481	96.94
512.698	71.94
512.914	80.94
513.13	66.94
513.346	97.94
513.562	86.94
513.778	79.94
513.994	86.94
514.21	92.94
514.426	81.94
514.642	87.94
514.858	84.94
515.074	85.94
515.29	76.94
515.506	86.94
515.721	77.94
515.937	82.94
516.153	91.94
516.369	73.94
516.585	72.94
516.801	80.94
517.016	78.94
517.232	84.94
517.448	76.94
517.664	75.94
517.879	78.94
518.095	76.94
518.311	73.94
518.527	78.94
518.742	84.94
518.958	71.94
519.173	82.94
519.389	96.94
519.605	94.94
519.82	76.94
520.036	77.94
