Data from 1600_2_HRD10591_00027.txt Node
Date: Mon Jan 19 13:53:54 EST 2026
User: Yrep
Spectrometer: HR+D1059
Trigger mode: 1
Integration Time (sec): 1.000000E-1
Scans to average: 1
Electric dark correction enabled: true
Nonlinearity correction enabled: false
Boxcar width: 0
XAxis mode: Wavelengths
Number of Pixels in Spectrum: 2048
>>>>>Begin Spectral Data<<<<<
223.165	-17.62
223.4	-17.62
223.635	-17.62
223.869	-12.62
224.104	-23.62
224.338	-17.62
224.573	-16.62
224.808	-15.62
225.042	4.38
225.277	-3.62
225.511	-7.62
225.746	-10.62
225.98	11.38
226.215	2.38
226.449	22.38
226.683	30.38
226.918	28.38
227.152	26.38
227.387	45.38
227.621	33.38
227.856	40.38
228.09	37.38
228.324	48.38
228.559	48.38
228.793	48.38
229.027	59.38
229.262	61.38
229.496	74.38
229.73	66.38
229.964	79.38
230.199	52.38
230.433	75.38
230.667	70.38
230.901	64.38
231.136	55.38
231.37	76.38
231.604	72.38
231.838	77.38
232.072	71.38
232.306	70.38
232.541	88.38
232.775	71.38
233.009	79.38
233.243	84.38
233.477	68.38
233.711	75.38
233.945	77.38
234.179	81.38
234.413	81.38
234.647	80.38
234.881	82.38
235.115	78.38
235.349	75.38
235.583	78.38
235.817	81.38
236.051	69.38
236.285	69.38
236.519	71.38
236.753	76.38
236.987	73.38
237.221	76.38
237.455	73.38
237.689	66.38
237.922	76.38
238.156	76.38
238.39	75.38
238.624	80.38
238.858	65.38
239.091	56.38
239.325	68.38
239.559	74.38
239.793	68.38
240.027	69.38
240.26	82.38
240.494	77.38
240.728	73.38
240.961	72.38
241.195	64.38
241.429	58.38
241.662	64.38
241.896	87.38
242.13	88.38
242.363	79.38
242.597	68.38
242.83	79.38
243.064	67.38
243.298	76.38
243.531	74.38
243.765	73.38
243.998	48.38
244.232	60.38
244.465	84.38
244.699	77.38
244.932	73.38
245.166	79.38
245.399	76.38
245.633	75.38
245.866	75.38
246.099	69.38
246.333	76.38
246.566	66.38
246.8	60.38
247.033	69.38
247.266	64.38
247.5	72.38
247.733	76.38
247.966	67.38
248.2	77.38
248.433	64.38
248.666	69.38
248.899	72.38
249.133	75.38
249.366	85.38
249.599	72.38
249.832	74.38
250.066	81.38
250.299	82.38
250.532	84.38
250.765	75.38
250.998	85.38
251.231	58.38
251.465	68.38
251.698	79.38
251.931	74.38
252.164	71.38
252.397	76.38
252.63	61.38
252.863	90.38
253.096	88.38
253.329	65.38
253.562	74.38
253.795	76.38
254.028	65.38
254.261	66.38
254.494	73.38
254.727	86.38
254.96	71.38
255.193	76.38
255.426	76.38
255.659	77.38
255.892	66.38
256.124	66.38
256.357	84.38
256.59	86.38
256.823	81.38
257.056	63.38
257.289	66.38
257.521	67.38
257.754	76.38
257.987	65.38
258.22	94.38
258.452	74.38
258.685	64.38
258.918	78.38
259.151	70.38
259.383	85.38
259.616	70.38
259.849	84.38
260.081	84.38
260.314	83.38
260.547	92.38
260.779	76.38
261.012	71.38
261.244	84.38
261.477	83.38
261.71	79.38
261.942	71.38
262.175	76.38
262.407	71.38
262.64	76.38
262.872	65.38
263.105	55.38
263.337	76.38
263.57	85.38
263.802	86.38
264.035	74.38
264.267	91.38
264.499	63.38
264.732	84.38
264.964	102.38
265.197	79.38
265.429	82.38
265.661	85.38
265.894	88.38
266.126	83.38
266.358	73.38
266.591	69.38
266.823	96.38
267.055	90.38
267.287	71.38
267.52	88.38
267.752	87.38
267.984	79.38
268.216	60.38
268.448	84.38
268.681	60.38
268.913	89.38
269.145	96.38
269.377	72.38
269.609	82.38
269.841	82.38
270.073	80.38
270.306	91.38
270.538	90.38
270.77	78.38
271.002	79.38
271.234	79.38
271.466	78.38
271.698	77.38
271.93	82.38
272.162	82.38
272.394	89.38
272.626	79.38
272.858	86.38
273.09	72.38
273.322	76.38
273.553	86.38
273.785	81.38
274.017	76.38
274.249	74.38
274.481	71.38
274.713	82.38
274.945	68.38
275.176	72.38
275.408	88.38
275.64	81.38
275.872	84.38
276.104	73.38
276.335	79.38
276.567	80.38
276.799	72.38
277.031	68.38
277.262	72.38
277.494	82.38
277.726	86.38
277.957	96.38
278.189	76.38
278.421	80.38
278.652	71.38
278.884	75.38
279.115	85.38
279.347	70.38
279.579	84.38
279.81	92.38
280.042	70.38
280.273	97.38
280.505	93.38
280.736	79.38
280.968	78.38
281.199	79.38
281.431	65.38
281.662	82.38
281.894	67.38
282.125	100.38
282.356	76.38
282.588	71.38
282.819	71.38
283.051	78.38
283.282	89.38
283.513	89.38
283.745	77.38
283.976	81.38
284.207	84.38
284.439	81.38
284.67	91.38
284.901	81.38
285.132	80.38
285.364	83.38
285.595	94.38
285.826	94.38
286.057	96.38
286.288	81.38
286.52	83.38
286.751	81.38
286.982	99.38
287.213	86.38
287.444	80.38
287.675	80.38
287.906	92.38
288.138	76.38
288.369	98.38
288.6	82.38
288.831	79.38
289.062	73.38
289.293	65.38
289.524	76.38
289.755	80.38
289.986	80.38
290.217	62.38
290.448	82.38
290.679	85.38
290.91	79.38
291.141	65.38
291.371	66.38
291.602	89.38
291.833	89.38
292.064	75.38
292.295	89.38
292.526	86.38
292.757	82.38
292.987	83.38
293.218	91.38
293.449	71.38
293.68	80.38
293.91	83.38
294.141	76.38
294.372	88.38
294.603	84.38
294.833	90.38
295.064	72.38
295.295	89.38
295.525	90.38
295.756	82.38
295.987	88.38
296.217	70.38
296.448	76.38
296.679	96.38
296.909	93.38
297.14	95.38
297.37	95.38
297.601	93.38
297.831	77.38
298.062	68.38
298.292	87.38
298.523	76.38
298.753	68.38
298.984	79.38
299.214	69.38
299.445	76.38
299.675	85.38
299.905	76.38
300.136	92.38
300.366	87.38
300.597	84.38
300.827	92.38
301.057	81.38
301.288	72.38
301.518	83.38
301.748	94.38
301.979	99.38
302.209	86.38
302.439	95.38
302.669	85.38
302.9	84.38
303.13	67.38
303.36	71.38
303.59	90.38
303.82	87.38
304.051	91.38
304.281	90.38
304.511	84.38
304.741	84.38
304.971	78.38
305.201	88.38
305.431	82.38
305.661	79.38
305.891	85.38
306.121	95.38
306.352	80.38
306.582	75.38
306.812	72.38
307.042	67.38
307.272	78.38
307.502	61.38
307.731	92.38
307.961	76.38
308.191	97.38
308.421	93.38
308.651	82.38
308.881	86.38
309.111	90.38
309.341	92.38
309.571	84.38
309.8	92.38
310.03	79.38
310.26	71.38
310.49	80.38
310.72	90.38
310.949	84.38
311.179	84.38
311.409	74.38
311.639	79.38
311.868	76.38
312.098	85.38
312.328	89.38
312.557	88.38
312.787	74.38
313.017	92.38
313.246	80.38
313.476	73.38
313.706	88.38
313.935	77.38
314.165	96.38
314.394	82.38
314.624	90.38
314.853	83.38
315.083	92.38
315.312	92.38
315.542	86.38
315.771	80.38
316.001	63.38
316.23	86.38
316.46	68.38
316.689	79.38
316.919	92.38
317.148	69.38
317.377	84.38
317.607	71.38
317.836	79.38
318.065	88.38
318.295	70.38
318.524	63.38
318.753	76.38
318.983	81.38
319.212	82.38
319.441	92.38
319.67	85.38
319.9	79.38
320.129	78.38
320.358	77.38
320.587	62.38
320.816	88.38
321.046	78.38
321.275	99.38
321.504	80.38
321.733	96.38
321.962	82.38
322.191	91.38
322.42	81.38
322.649	102.38
322.878	81.38
323.108	78.38
323.337	68.38
323.566	71.38
323.795	92.38
324.024	80.38
324.253	80.38
324.482	73.38
324.71	82.38
324.939	82.38
325.168	64.38
325.397	84.38
325.626	74.38
325.855	84.38
326.084	79.38
326.313	94.38
326.542	81.38
326.77	80.38
326.999	60.38
327.228	81.38
327.457	84.38
327.686	90.38
327.914	82.38
328.143	84.38
328.372	83.38
328.6	77.38
328.829	89.38
329.058	85.38
329.287	69.38
329.515	82.38
329.744	64.38
329.972	83.38
330.201	83.38
330.43	88.38
330.658	89.38
330.887	84.38
331.115	84.38
331.344	90.38
331.572	88.38
331.801	75.38
332.03	82.38
332.258	90.38
332.486	80.38
332.715	82.38
332.943	90.38
333.172	81.38
333.4	76.38
333.629	92.38
333.857	84.38
334.085	94.38
334.314	61.38
334.542	82.38
334.771	82.38
334.999	81.38
335.227	87.38
335.455	94.38
335.684	93.38
335.912	75.38
336.14	84.38
336.369	87.38
336.597	99.38
336.825	86.38
337.053	101.38
337.281	76.38
337.51	67.38
337.738	79.38
337.966	84.38
338.194	68.38
338.422	90.38
338.65	91.38
338.878	76.38
339.106	81.38
339.334	72.38
339.562	75.38
339.79	81.38
340.018	80.38
340.246	85.38
340.474	82.38
340.702	67.38
340.93	76.38
341.158	84.38
341.386	81.38
341.614	67.38
341.842	79.38
342.07	76.38
342.298	83.38
342.526	86.38
342.754	78.38
342.981	85.38
343.209	86.38
343.437	92.38
343.665	80.38
343.893	84.38
344.12	97.38
344.348	85.38
344.576	94.38
344.804	88.38
345.031	78.38
345.259	80.38
345.487	65.38
345.714	75.38
345.942	71.38
346.17	69.38
346.397	84.38
346.625	83.38
346.853	80.38
347.08	93.38
347.308	84.38
347.535	94.38
347.763	93.38
347.99	77.38
348.218	80.38
348.445	84.38
348.673	84.38
348.9	87.38
349.128	100.38
349.355	94.38
349.583	80.38
349.81	79.38
350.037	82.38
350.265	79.38
350.492	80.38
350.72	82.38
350.947	76.38
351.174	77.38
351.402	77.38
351.629	97.38
351.856	87.38
352.083	93.38
352.311	81.38
352.538	74.38
352.765	84.38
352.992	94.38
353.22	81.38
353.447	84.38
353.674	92.38
353.901	100.38
354.128	91.38
354.355	93.38
354.583	77.38
354.81	71.38
355.037	96.38
355.264	78.38
355.491	92.38
355.718	82.38
355.945	77.38
356.172	76.38
356.399	77.38
356.626	84.38
356.853	94.38
357.08	76.38
357.307	95.38
357.534	97.38
357.761	81.38
357.988	95.38
358.215	84.38
358.441	78.38
358.668	86.38
358.895	95.38
359.122	80.38
359.349	84.38
359.576	89.38
359.802	80.38
360.029	62.38
360.256	85.38
360.483	78.38
360.709	74.38
360.936	85.38
361.163	84.38
361.39	79.38
361.616	79.38
361.843	88.38
362.07	84.38
362.296	91.38
362.523	86.38
362.749	95.38
362.976	90.38
363.203	103.38
363.429	74.38
363.656	89.38
363.882	82.38
364.109	72.38
364.335	83.38
364.562	94.38
364.788	83.38
365.015	74.38
365.241	62.38
365.468	92.38
365.694	75.38
365.92	88.38
366.147	75.38
366.373	71.38
366.599	71.38
366.826	75.38
367.052	82.38
367.278	89.38
367.505	82.38
367.731	71.38
367.957	82.38
368.184	90.38
368.41	81.38
368.636	69.38
368.862	88.38
369.089	84.38
369.315	83.38
369.541	82.38
369.767	80.38
369.993	86.38
370.219	91.38
370.445	77.38
370.672	90.38
370.898	90.38
371.124	89.38
371.35	73.38
371.576	82.38
371.802	94.38
372.028	104.38
372.254	95.38
372.48	84.38
372.706	86.38
372.932	68.38
373.158	83.38
373.384	100.38
373.61	93.38
373.835	111.38
374.061	93.38
374.287	78.38
374.513	85.38
374.739	98.38
374.965	90.38
375.191	92.38
375.416	81.38
375.642	90.38
375.868	76.38
376.094	80.38
376.319	84.38
376.545	87.38
376.771	80.38
376.997	70.38
377.222	90.38
377.448	74.38
377.674	87.38
377.899	89.38
378.125	82.38
378.35	98.38
378.576	84.38
378.802	84.38
379.027	90.38
379.253	76.38
379.478	80.38
379.704	78.38
379.929	83.38
380.155	77.38
380.38	93.38
380.606	93.38
380.831	80.38
381.057	99.38
381.282	84.38
381.507	95.38
381.733	86.38
381.958	88.38
382.184	90.38
382.409	82.38
382.634	85.38
382.86	76.38
383.085	92.38
383.31	80.38
383.535	82.38
383.761	92.38
383.986	88.38
384.211	80.38
384.436	81.38
384.662	80.38
384.887	87.38
385.112	84.38
385.337	84.38
385.562	93.38
385.787	69.38
386.013	92.38
386.238	90.38
386.463	78.38
386.688	91.38
386.913	92.38
387.138	89.38
387.363	96.38
387.588	82.38
387.813	76.38
388.038	84.38
388.263	86.38
388.488	91.38
388.713	84.38
388.938	92.38
389.163	77.38
389.387	93.38
389.612	64.38
389.837	78.38
390.062	83.38
390.287	85.38
390.512	84.38
390.736	83.38
390.961	69.38
391.186	76.38
391.411	81.38
391.636	76.38
391.86	79.38
392.085	76.38
392.31	71.38
392.534	100.38
392.759	83.38
392.984	116.38
393.208	162.38
393.433	213.38
393.658	158.38
393.882	115.38
394.107	94.38
394.331	93.38
394.556	115.38
394.78	93.38
395.005	67.38
395.229	68.38
395.454	81.38
395.678	98.38
395.903	110.38
396.127	133.38
396.352	125.38
396.576	128.38
396.801	146.38
397.025	177.38
397.249	112.38
397.474	95.38
397.698	70.38
397.922	83.38
398.147	88.38
398.371	78.38
398.595	70.38
398.82	63.38
399.044	88.38
399.268	83.38
399.492	73.38
399.717	69.38
399.941	72.38
400.165	85.38
400.389	88.38
400.613	94.38
400.837	91.38
401.062	91.38
401.286	93.38
401.51	80.38
401.734	67.38
401.958	82.38
402.182	82.38
402.406	79.38
402.63	84.38
402.854	90.38
403.078	80.38
403.302	77.38
403.526	68.38
403.75	81.38
403.974	70.38
404.198	108.38
404.422	141.38
404.645	145.38
404.869	123.38
405.093	106.38
405.317	66.38
405.541	90.38
405.765	78.38
405.988	91.38
406.212	70.38
406.436	88.38
406.66	87.38
406.883	88.38
407.107	70.38
407.331	85.38
407.555	65.38
407.778	94.38
408.002	83.38
408.226	82.38
408.449	82.38
408.673	84.38
408.896	84.38
409.12	81.38
409.344	90.38
409.567	85.38
409.791	62.38
410.014	83.38
410.238	63.38
410.461	80.38
410.685	78.38
410.908	93.38
411.132	82.38
411.355	80.38
411.578	79.38
411.802	76.38
412.025	63.38
412.249	78.38
412.472	79.38
412.695	99.38
412.919	79.38
413.142	78.38
413.365	86.38
413.589	81.38
413.812	75.38
414.035	82.38
414.258	67.38
414.482	74.38
414.705	68.38
414.928	89.38
415.151	88.38
415.374	85.38
415.597	85.38
415.821	93.38
416.044	75.38
416.267	78.38
416.49	83.38
416.713	74.38
416.936	89.38
417.159	91.38
417.382	76.38
417.605	81.38
417.828	78.38
418.051	85.38
418.274	82.38
418.497	92.38
418.72	69.38
418.943	78.38
419.166	78.38
419.389	78.38
419.611	86.38
419.834	101.38
420.057	82.38
420.28	82.38
420.503	90.38
420.726	95.38
420.948	76.38
421.171	79.38
421.394	81.38
421.617	77.38
421.839	87.38
422.062	86.38
422.285	109.38
422.507	212.38
422.73	336.38
422.953	306.38
423.175	127.38
423.398	80.38
423.621	71.38
423.843	79.38
424.066	78.38
424.288	72.38
424.511	87.38
424.733	89.38
424.956	89.38
425.178	89.38
425.401	85.38
425.623	79.38
425.846	69.38
426.068	71.38
426.291	70.38
426.513	77.38
426.735	80.38
426.958	80.38
427.18	80.38
427.402	86.38
427.625	76.38
427.847	88.38
428.069	84.38
428.292	94.38
428.514	115.38
428.736	94.38
428.958	114.38
429.181	100.38
429.403	72.38
429.625	74.38
429.847	102.38
430.069	131.38
430.292	123.38
430.514	137.38
430.736	118.38
430.958	112.38
431.18	82.38
431.402	89.38
431.624	86.38
431.846	94.38
432.068	81.38
432.29	92.38
432.512	81.38
432.734	90.38
432.956	67.38
433.178	75.38
433.4	74.38
433.622	72.38
433.844	84.38
434.066	85.38
434.287	75.38
434.509	81.38
434.731	92.38
434.953	83.38
435.175	80.38
435.397	75.38
435.618	62.38
435.84	70.38
436.062	74.38
436.284	80.38
436.505	80.38
436.727	79.38
436.949	81.38
437.17	82.38
437.392	72.38
437.614	78.38
437.835	65.38
438.057	79.38
438.278	87.38
438.5	101.38
438.721	82.38
438.943	70.38
439.165	78.38
439.386	77.38
439.608	76.38
439.829	72.38
440.05	73.38
440.272	70.38
440.493	80.38
440.715	80.38
440.936	70.38
441.158	80.38
441.379	76.38
441.6	70.38
441.822	82.38
442.043	63.38
442.264	87.38
442.486	89.38
442.707	116.38
442.928	112.38
443.149	91.38
443.371	114.38
443.592	152.38
443.813	124.38
444.034	92.38
444.255	85.38
444.476	87.38
444.698	78.38
444.919	99.38
445.14	171.38
445.361	174.38
445.582	184.38
445.803	150.38
446.024	94.38
446.245	93.38
446.466	87.38
446.687	84.38
446.908	90.38
447.129	89.38
447.35	80.38
447.571	84.38
447.792	73.38
448.013	62.38
448.234	74.38
448.455	81.38
448.675	88.38
448.896	63.38
449.117	92.38
449.338	81.38
449.559	91.38
449.779	80.38
450	88.38
450.221	84.38
450.442	82.38
450.662	88.38
450.883	81.38
451.104	74.38
451.324	68.38
451.545	86.38
451.766	80.38
451.986	87.38
452.207	77.38
452.428	72.38
452.648	85.38
452.869	88.38
453.089	78.38
453.31	76.38
453.53	89.38
453.751	81.38
453.971	62.38
454.192	73.38
454.412	84.38
454.633	78.38
454.853	85.38
455.073	75.38
455.294	81.38
455.514	71.38
455.734	79.38
455.955	75.38
456.175	77.38
456.395	70.38
456.616	74.38
456.836	81.38
457.056	72.38
457.276	68.38
457.497	77.38
457.717	78.38
457.937	77.38
458.157	87.38
458.377	86.38
458.598	81.38
458.818	87.38
459.038	81.38
459.258	86.38
459.478	90.38
459.698	84.38
459.918	76.38
460.138	69.38
460.358	76.38
460.578	84.38
460.798	100.38
461.018	114.38
461.238	84.38
461.458	95.38
461.678	70.38
461.898	75.38
462.118	68.38
462.338	60.38
462.558	79.38
462.777	76.38
462.997	81.38
463.217	78.38
463.437	90.38
463.657	75.38
463.876	89.38
464.096	76.38
464.316	87.38
464.536	77.38
464.755	84.38
464.975	67.38
465.195	72.38
465.414	76.38
465.634	70.38
465.854	85.38
466.073	88.38
466.293	78.38
466.512	78.38
466.732	75.38
466.951	86.38
467.171	94.38
467.391	68.38
467.61	84.38
467.829	69.38
468.049	76.38
468.268	83.38
468.488	94.38
468.707	68.38
468.927	79.38
469.146	82.38
469.365	80.38
469.585	86.38
469.804	78.38
470.023	80.38
470.243	89.38
470.462	62.38
470.681	84.38
470.901	81.38
471.12	78.38
471.339	81.38
471.558	90.38
471.777	83.38
471.997	56.38
472.216	96.38
472.435	74.38
472.654	85.38
472.873	77.38
473.092	80.38
473.311	95.38
473.53	78.38
473.749	65.38
473.968	75.38
474.187	82.38
474.406	89.38
474.625	75.38
474.844	81.38
475.063	77.38
475.282	86.38
475.501	86.38
475.72	81.38
475.939	89.38
476.158	67.38
476.377	70.38
476.596	85.38
476.814	83.38
477.033	84.38
477.252	90.38
477.471	77.38
477.69	76.38
477.908	78.38
478.127	88.38
478.346	95.38
478.564	82.38
478.783	74.38
479.002	89.38
479.22	72.38
479.439	85.38
479.658	92.38
479.876	84.38
480.095	88.38
480.313	92.38
480.532	85.38
480.751	76.38
480.969	82.38
481.188	94.38
481.406	80.38
481.624	74.38
481.843	84.38
482.061	71.38
482.28	88.38
482.498	80.38
482.717	85.38
482.935	90.38
483.153	76.38
483.372	74.38
483.59	83.38
483.808	76.38
484.027	75.38
484.245	78.38
484.463	80.38
484.681	100.38
484.9	90.38
485.118	76.38
485.336	70.38
485.554	89.38
485.772	84.38
485.99	75.38
486.209	88.38
486.427	83.38
486.645	84.38
486.863	89.38
487.081	94.38
487.299	94.38
487.517	89.38
487.735	95.38
487.953	90.38
488.171	94.38
488.389	82.38
488.607	81.38
488.825	76.38
489.043	90.38
489.261	69.38
489.479	81.38
489.696	82.38
489.914	89.38
490.132	84.38
490.35	81.38
490.568	71.38
490.786	84.38
491.003	83.38
491.221	75.38
491.439	94.38
491.657	93.38
491.874	70.38
492.092	81.38
492.31	91.38
492.527	99.38
492.745	86.38
492.963	82.38
493.18	69.38
493.398	89.38
493.615	87.38
493.833	78.38
494.05	91.38
494.268	84.38
494.485	84.38
494.703	84.38
494.92	70.38
495.138	84.38
495.355	91.38
495.573	82.38
495.79	76.38
496.008	87.38
496.225	74.38
496.442	99.38
496.66	105.38
496.877	86.38
497.094	90.38
497.312	97.38
497.529	86.38
497.746	90.38
497.963	81.38
498.181	67.38
498.398	78.38
498.615	76.38
498.832	77.38
499.049	82.38
499.267	84.38
499.484	80.38
499.701	82.38
499.918	86.38
500.135	73.38
500.352	70.38
500.569	76.38
500.786	83.38
501.003	87.38
501.22	92.38
501.437	88.38
501.654	90.38
501.871	67.38
502.088	90.38
502.305	93.38
502.522	68.38
502.739	98.38
502.956	86.38
503.172	93.38
503.389	76.38
503.606	79.38
503.823	86.38
504.04	84.38
504.256	87.38
504.473	91.38
504.69	83.38
504.907	85.38
505.123	72.38
505.34	76.38
505.557	82.38
505.773	74.38
505.99	80.38
506.207	77.38
506.423	74.38
506.64	96.38
506.856	86.38
507.073	77.38
507.289	86.38
507.506	82.38
507.722	90.38
507.939	76.38
508.155	90.38
508.372	93.38
508.588	80.38
508.805	74.38
509.021	84.38
509.238	101.38
509.454	92.38
509.67	80.38
509.887	86.38
510.103	80.38
510.319	91.38
510.536	92.38
510.752	81.38
510.968	76.38
511.184	77.38
511.401	91.38
511.617	87.38
511.833	68.38
512.049	89.38
512.265	89.38
512.481	76.38
512.698	81.38
512.914	87.38
513.13	82.38
513.346	70.38
513.562	86.38
513.778	79.38
513.994	76.38
514.21	92.38
514.426	81.38
514.642	84.38
514.858	80.38
515.074	78.38
515.29	77.38
515.506	97.38
515.721	80.38
515.937	79.38
516.153	80.38
516.369	82.38
516.585	74.38
516.801	88.38
517.016	97.38
517.232	86.38
517.448	93.38
517.664	91.38
517.879	85.38
518.095	84.38
518.311	103.38
518.527	123.38
518.742	101.38
518.958	103.38
519.173	104.38
519.389	82.38
