Data from 1600_2_HRD10591_00023.txt Node
Date: Mon Jan 19 13:53:52 EST 2026
User: Yrep
Spectrometer: HR+D1059
Trigger mode: 1
Integration Time (sec): 1.000000E-1
Scans to average: 1
Electric dark correction enabled: true
Nonlinearity correction enabled: false
Boxcar width: 0
XAxis mode: Wavelengths
Number of Pixels in Spectrum: 2048
>>>>>Begin Spectral Data<<<<<
223.165	-28.56
223.4	-28.56
223.635	-28.56
223.869	-33.56
224.104	-19.56
224.338	-12.56
224.573	-8.56
224.808	-8.56
225.042	-13.56
225.277	3.44
225.511	-12.56
225.746	-1.56
225.98	12.44
226.215	23.44
226.449	25.44
226.683	20.44
226.918	27.44
227.152	26.44
227.387	26.44
227.621	40.44
227.856	40.44
228.09	35.44
228.324	41.44
228.559	49.44
228.793	68.44
229.027	65.44
229.262	63.44
229.496	63.44
229.73	63.44
229.964	75.44
230.199	76.44
230.433	84.44
230.667	77.44
230.901	50.44
231.136	68.44
231.37	76.44
231.604	71.44
231.838	81.44
232.072	82.44
232.306	92.44
232.541	69.44
232.775	68.44
233.009	85.44
233.243	75.44
233.477	80.44
233.711	73.44
233.945	74.44
234.179	80.44
234.413	73.44
234.647	81.44
234.881	85.44
235.115	78.44
235.349	73.44
235.583	94.44
235.817	70.44
236.051	84.44
236.285	71.44
236.519	72.44
236.753	68.44
236.987	77.44
237.221	85.44
237.455	88.44
237.689	76.44
237.922	62.44
238.156	70.44
238.39	69.44
238.624	84.44
238.858	66.44
239.091	50.44
239.325	84.44
239.559	86.44
239.793	67.44
240.027	78.44
240.26	66.44
240.494	80.44
240.728	74.44
240.961	66.44
241.195	86.44
241.429	80.44
241.662	76.44
241.896	62.44
242.13	68.44
242.363	61.44
242.597	67.44
242.83	76.44
243.064	68.44
243.298	73.44
243.531	70.44
243.765	78.44
243.998	87.44
244.232	69.44
244.465	71.44
244.699	75.44
244.932	90.44
245.166	67.44
245.399	74.44
245.633	72.44
245.866	79.44
246.099	60.44
246.333	83.44
246.566	80.44
246.8	79.44
247.033	61.44
247.266	64.44
247.5	71.44
247.733	69.44
247.966	68.44
248.2	64.44
248.433	85.44
248.666	79.44
248.899	93.44
249.133	76.44
249.366	83.44
249.599	73.44
249.832	64.44
250.066	82.44
250.299	74.44
250.532	92.44
250.765	81.44
250.998	75.44
251.231	69.44
251.465	77.44
251.698	81.44
251.931	65.44
252.164	83.44
252.397	86.44
252.63	76.44
252.863	66.44
253.096	88.44
253.329	79.44
253.562	72.44
253.795	70.44
254.028	80.44
254.261	81.44
254.494	84.44
254.727	85.44
254.96	86.44
255.193	77.44
255.426	80.44
255.659	77.44
255.892	82.44
256.124	69.44
256.357	73.44
256.59	85.44
256.823	80.44
257.056	65.44
257.289	69.44
257.521	82.44
257.754	72.44
257.987	63.44
258.22	70.44
258.452	83.44
258.685	74.44
258.918	82.44
259.151	72.44
259.383	74.44
259.616	65.44
259.849	68.44
260.081	71.44
260.314	69.44
260.547	70.44
260.779	79.44
261.012	80.44
261.244	85.44
261.477	76.44
261.71	76.44
261.942	62.44
262.175	68.44
262.407	85.44
262.64	80.44
262.872	78.44
263.105	73.44
263.337	79.44
263.57	94.44
263.802	69.44
264.035	78.44
264.267	76.44
264.499	85.44
264.732	65.44
264.964	91.44
265.197	86.44
265.429	94.44
265.661	76.44
265.894	72.44
266.126	77.44
266.358	74.44
266.591	81.44
266.823	68.44
267.055	76.44
267.287	80.44
267.52	77.44
267.752	61.44
267.984	88.44
268.216	75.44
268.448	68.44
268.681	78.44
268.913	63.44
269.145	79.44
269.377	78.44
269.609	60.44
269.841	72.44
270.073	85.44
270.306	94.44
270.538	78.44
270.77	72.44
271.002	84.44
271.234	67.44
271.466	78.44
271.698	89.44
271.93	88.44
272.162	79.44
272.394	76.44
272.626	81.44
272.858	97.44
273.09	65.44
273.322	81.44
273.553	85.44
273.785	82.44
274.017	81.44
274.249	75.44
274.481	86.44
274.713	95.44
274.945	93.44
275.176	81.44
275.408	73.44
275.64	76.44
275.872	69.44
276.104	81.44
276.335	71.44
276.567	70.44
276.799	94.44
277.031	76.44
277.262	72.44
277.494	82.44
277.726	84.44
277.957	80.44
278.189	63.44
278.421	84.44
278.652	80.44
278.884	73.44
279.115	65.44
279.347	82.44
279.579	95.44
279.81	86.44
280.042	74.44
280.273	85.44
280.505	76.44
280.736	70.44
280.968	88.44
281.199	76.44
281.431	78.44
281.662	75.44
281.894	81.44
282.125	79.44
282.356	80.44
282.588	87.44
282.819	68.44
283.051	82.44
283.282	83.44
283.513	62.44
283.745	67.44
283.976	78.44
284.207	74.44
284.439	74.44
284.67	73.44
284.901	64.44
285.132	83.44
285.364	83.44
285.595	86.44
285.826	74.44
286.057	89.44
286.288	69.44
286.52	86.44
286.751	96.44
286.982	67.44
287.213	75.44
287.444	88.44
287.675	76.44
287.906	77.44
288.138	81.44
288.369	82.44
288.6	87.44
288.831	97.44
289.062	85.44
289.293	86.44
289.524	66.44
289.755	67.44
289.986	96.44
290.217	80.44
290.448	79.44
290.679	88.44
290.91	83.44
291.141	92.44
291.371	86.44
291.602	68.44
291.833	76.44
292.064	84.44
292.295	84.44
292.526	82.44
292.757	80.44
292.987	76.44
293.218	70.44
293.449	76.44
293.68	92.44
293.91	81.44
294.141	74.44
294.372	78.44
294.603	86.44
294.833	83.44
295.064	81.44
295.295	77.44
295.525	77.44
295.756	85.44
295.987	78.44
296.217	80.44
296.448	75.44
296.679	79.44
296.909	92.44
297.14	95.44
297.37	76.44
297.601	88.44
297.831	77.44
298.062	92.44
298.292	94.44
298.523	74.44
298.753	76.44
298.984	78.44
299.214	73.44
299.445	88.44
299.675	87.44
299.905	89.44
300.136	85.44
300.366	83.44
300.597	74.44
300.827	88.44
301.057	81.44
301.288	73.44
301.518	82.44
301.748	93.44
301.979	98.44
302.209	67.44
302.439	82.44
302.669	73.44
302.9	85.44
303.13	94.44
303.36	70.44
303.59	77.44
303.82	70.44
304.051	76.44
304.281	73.44
304.511	76.44
304.741	76.44
304.971	75.44
305.201	80.44
305.431	80.44
305.661	75.44
305.891	92.44
306.121	80.44
306.352	88.44
306.582	78.44
306.812	66.44
307.042	76.44
307.272	81.44
307.502	80.44
307.731	82.44
307.961	83.44
308.191	79.44
308.421	92.44
308.651	83.44
308.881	90.44
309.111	90.44
309.341	83.44
309.571	95.44
309.8	84.44
310.03	80.44
310.26	82.44
310.49	90.44
310.72	89.44
310.949	76.44
311.179	66.44
311.409	92.44
311.639	77.44
311.868	82.44
312.098	82.44
312.328	78.44
312.557	86.44
312.787	68.44
313.017	92.44
313.246	81.44
313.476	96.44
313.706	81.44
313.935	84.44
314.165	90.44
314.394	100.44
314.624	78.44
314.853	90.44
315.083	66.44
315.312	74.44
315.542	74.44
315.771	81.44
316.001	80.44
316.23	81.44
316.46	80.44
316.689	81.44
316.919	89.44
317.148	73.44
317.377	72.44
317.607	74.44
317.836	72.44
318.065	73.44
318.295	81.44
318.524	84.44
318.753	84.44
318.983	95.44
319.212	81.44
319.441	82.44
319.67	71.44
319.9	84.44
320.129	91.44
320.358	87.44
320.587	94.44
320.816	75.44
321.046	77.44
321.275	65.44
321.504	94.44
321.733	86.44
321.962	78.44
322.191	69.44
322.42	76.44
322.649	77.44
322.878	82.44
323.108	91.44
323.337	77.44
323.566	80.44
323.795	84.44
324.024	72.44
324.253	80.44
324.482	91.44
324.71	80.44
324.939	80.44
325.168	83.44
325.397	71.44
325.626	80.44
325.855	71.44
326.084	72.44
326.313	67.44
326.542	73.44
326.77	93.44
326.999	84.44
327.228	88.44
327.457	76.44
327.686	76.44
327.914	77.44
328.143	89.44
328.372	81.44
328.6	92.44
328.829	72.44
329.058	78.44
329.287	85.44
329.515	87.44
329.744	84.44
329.972	78.44
330.201	64.44
330.43	97.44
330.658	85.44
330.887	88.44
331.115	85.44
331.344	88.44
331.572	76.44
331.801	78.44
332.03	87.44
332.258	88.44
332.486	89.44
332.715	86.44
332.943	76.44
333.172	85.44
333.4	73.44
333.629	85.44
333.857	72.44
334.085	87.44
334.314	72.44
334.542	84.44
334.771	89.44
334.999	76.44
335.227	79.44
335.455	93.44
335.684	88.44
335.912	90.44
336.14	81.44
336.369	83.44
336.597	75.44
336.825	73.44
337.053	82.44
337.281	80.44
337.51	84.44
337.738	84.44
337.966	78.44
338.194	81.44
338.422	69.44
338.65	79.44
338.878	73.44
339.106	85.44
339.334	96.44
339.562	86.44
339.79	74.44
340.018	75.44
340.246	81.44
340.474	73.44
340.702	86.44
340.93	65.44
341.158	90.44
341.386	67.44
341.614	71.44
341.842	82.44
342.07	94.44
342.298	85.44
342.526	76.44
342.754	58.44
342.981	80.44
343.209	72.44
343.437	99.44
343.665	79.44
343.893	84.44
344.12	90.44
344.348	80.44
344.576	79.44
344.804	93.44
345.031	84.44
345.259	77.44
345.487	80.44
345.714	90.44
345.942	76.44
346.17	84.44
346.397	84.44
346.625	65.44
346.853	79.44
347.08	76.44
347.308	97.44
347.535	87.44
347.763	83.44
347.99	79.44
348.218	86.44
348.445	74.44
348.673	82.44
348.9	95.44
349.128	85.44
349.355	84.44
349.583	83.44
349.81	94.44
350.037	88.44
350.265	83.44
350.492	75.44
350.72	79.44
350.947	94.44
351.174	71.44
351.402	73.44
351.629	78.44
351.856	78.44
352.083	74.44
352.311	78.44
352.538	73.44
352.765	95.44
352.992	82.44
353.22	80.44
353.447	72.44
353.674	79.44
353.901	90.44
354.128	98.44
354.355	98.44
354.583	71.44
354.81	83.44
355.037	84.44
355.264	77.44
355.491	81.44
355.718	77.44
355.945	82.44
356.172	75.44
356.399	88.44
356.626	90.44
356.853	84.44
357.08	76.44
357.307	83.44
357.534	80.44
357.761	86.44
357.988	81.44
358.215	71.44
358.441	86.44
358.668	83.44
358.895	84.44
359.122	78.44
359.349	77.44
359.576	76.44
359.802	72.44
360.029	70.44
360.256	83.44
360.483	84.44
360.709	74.44
360.936	74.44
361.163	96.44
361.39	87.44
361.616	91.44
361.843	85.44
362.07	92.44
362.296	80.44
362.523	88.44
362.749	63.44
362.976	73.44
363.203	81.44
363.429	81.44
363.656	89.44
363.882	89.44
364.109	97.44
364.335	74.44
364.562	104.44
364.788	81.44
365.015	84.44
365.241	72.44
365.468	76.44
365.694	85.44
365.92	79.44
366.147	90.44
366.373	66.44
366.599	74.44
366.826	68.44
367.052	74.44
367.278	74.44
367.505	68.44
367.731	77.44
367.957	80.44
368.184	80.44
368.41	67.44
368.636	67.44
368.862	81.44
369.089	77.44
369.315	91.44
369.541	89.44
369.767	97.44
369.993	77.44
370.219	92.44
370.445	90.44
370.672	92.44
370.898	73.44
371.124	82.44
371.35	77.44
371.576	91.44
371.802	93.44
372.028	66.44
372.254	76.44
372.48	87.44
372.706	81.44
372.932	69.44
373.158	76.44
373.384	84.44
373.61	93.44
373.835	89.44
374.061	78.44
374.287	82.44
374.513	76.44
374.739	84.44
374.965	71.44
375.191	85.44
375.416	80.44
375.642	85.44
375.868	90.44
376.094	88.44
376.319	80.44
376.545	91.44
376.771	78.44
376.997	76.44
377.222	73.44
377.448	84.44
377.674	71.44
377.899	91.44
378.125	88.44
378.35	70.44
378.576	76.44
378.802	79.44
379.027	82.44
379.253	66.44
379.478	84.44
379.704	84.44
379.929	78.44
380.155	83.44
380.38	76.44
380.606	60.44
380.831	71.44
381.057	82.44
381.282	84.44
381.507	76.44
381.733	83.44
381.958	91.44
382.184	77.44
382.409	89.44
382.634	93.44
382.86	89.44
383.085	84.44
383.31	82.44
383.535	70.44
383.761	75.44
383.986	71.44
384.211	82.44
384.436	77.44
384.662	86.44
384.887	74.44
385.112	76.44
385.337	73.44
385.562	73.44
385.787	81.44
386.013	88.44
386.238	95.44
386.463	78.44
386.688	93.44
386.913	86.44
387.138	64.44
387.363	89.44
387.588	81.44
387.813	89.44
388.038	76.44
388.263	74.44
388.488	70.44
388.713	84.44
388.938	82.44
389.163	89.44
389.387	80.44
389.612	80.44
389.837	77.44
390.062	81.44
390.287	67.44
390.512	82.44
390.736	84.44
390.961	70.44
391.186	70.44
391.411	98.44
391.636	76.44
391.86	73.44
392.085	76.44
392.31	87.44
392.534	80.44
392.759	98.44
392.984	93.44
393.208	120.44
393.433	149.44
393.658	121.44
393.882	94.44
394.107	71.44
394.331	88.44
394.556	96.44
394.78	86.44
395.005	77.44
395.229	76.44
395.454	93.44
395.678	84.44
395.903	86.44
396.127	107.44
396.352	105.44
396.576	97.44
396.801	123.44
397.025	138.44
397.249	106.44
397.474	93.44
397.698	80.44
397.922	79.44
398.147	80.44
398.371	84.44
398.595	71.44
398.82	88.44
399.044	83.44
399.268	81.44
399.492	68.44
399.717	75.44
399.941	80.44
400.165	86.44
400.389	74.44
400.613	75.44
400.837	88.44
401.062	70.44
401.286	77.44
401.51	82.44
401.734	76.44
401.958	92.44
402.182	68.44
402.406	74.44
402.63	68.44
402.854	84.44
403.078	79.44
403.302	81.44
403.526	75.44
403.75	85.44
403.974	65.44
404.198	106.44
404.422	118.44
404.645	131.44
404.869	110.44
405.093	88.44
405.317	74.44
405.541	78.44
405.765	63.44
405.988	85.44
406.212	76.44
406.436	86.44
406.66	75.44
406.883	75.44
407.107	76.44
407.331	83.44
407.555	81.44
407.778	85.44
408.002	84.44
408.226	81.44
408.449	79.44
408.673	66.44
408.896	79.44
409.12	79.44
409.344	85.44
409.567	81.44
409.791	70.44
410.014	79.44
410.238	76.44
410.461	78.44
410.685	88.44
410.908	78.44
411.132	88.44
411.355	75.44
411.578	94.44
411.802	97.44
412.025	60.44
412.249	81.44
412.472	85.44
412.695	84.44
412.919	84.44
413.142	78.44
413.365	98.44
413.589	86.44
413.812	84.44
414.035	82.44
414.258	84.44
414.482	80.44
414.705	82.44
414.928	75.44
415.151	82.44
415.374	85.44
415.597	72.44
415.821	72.44
416.044	71.44
416.267	89.44
416.49	71.44
416.713	73.44
416.936	82.44
417.159	76.44
417.382	81.44
417.605	86.44
417.828	67.44
418.051	74.44
418.274	84.44
418.497	76.44
418.72	70.44
418.943	83.44
419.166	64.44
419.389	61.44
419.611	84.44
419.834	61.44
420.057	80.44
420.28	78.44
420.503	83.44
420.726	76.44
420.948	64.44
421.171	89.44
421.394	85.44
421.617	86.44
421.839	85.44
422.062	91.44
422.285	97.44
422.507	154.44
422.73	235.44
422.953	216.44
423.175	116.44
423.398	92.44
423.621	96.44
423.843	92.44
424.066	71.44
424.288	74.44
424.511	74.44
424.733	73.44
424.956	78.44
425.178	76.44
425.401	86.44
425.623	74.44
425.846	74.44
426.068	67.44
426.291	72.44
426.513	87.44
426.735	74.44
426.958	83.44
427.18	89.44
427.402	80.44
427.625	87.44
427.847	78.44
428.069	98.44
428.292	90.44
428.514	108.44
428.736	94.44
428.958	84.44
429.181	86.44
429.403	99.44
429.625	80.44
429.847	83.44
430.069	105.44
430.292	104.44
430.514	113.44
430.736	99.44
430.958	105.44
431.18	65.44
431.402	80.44
431.624	80.44
431.846	78.44
432.068	109.44
432.29	92.44
432.512	74.44
432.734	85.44
432.956	82.44
433.178	74.44
433.4	87.44
433.622	78.44
433.844	92.44
434.066	77.44
434.287	76.44
434.509	78.44
434.731	85.44
434.953	65.44
435.175	86.44
435.397	79.44
435.618	81.44
435.84	79.44
436.062	86.44
436.284	77.44
436.505	78.44
436.727	86.44
436.949	71.44
437.17	77.44
437.392	71.44
437.614	73.44
437.835	68.44
438.057	88.44
438.278	74.44
438.5	91.44
438.721	78.44
438.943	69.44
439.165	82.44
439.386	76.44
439.608	86.44
439.829	71.44
440.05	90.44
440.272	72.44
440.493	84.44
440.715	72.44
440.936	82.44
441.158	74.44
441.379	83.44
441.6	92.44
441.822	85.44
442.043	87.44
442.264	93.44
442.486	100.44
442.707	92.44
442.928	78.44
443.149	75.44
443.371	104.44
443.592	121.44
443.813	122.44
444.034	86.44
444.255	69.44
444.476	69.44
444.698	74.44
444.919	78.44
445.14	178.44
445.361	155.44
445.582	133.44
445.803	125.44
446.024	92.44
446.245	74.44
446.466	76.44
446.687	61.44
446.908	68.44
447.129	82.44
447.35	84.44
447.571	82.44
447.792	74.44
448.013	82.44
448.234	85.44
448.455	88.44
448.675	77.44
448.896	82.44
449.117	74.44
449.338	72.44
449.559	84.44
449.779	92.44
450	68.44
450.221	91.44
450.442	85.44
450.662	69.44
450.883	77.44
451.104	85.44
451.324	75.44
451.545	80.44
451.766	76.44
451.986	83.44
452.207	71.44
452.428	80.44
452.648	66.44
452.869	82.44
453.089	61.44
453.31	77.44
453.53	85.44
453.751	74.44
453.971	90.44
454.192	80.44
454.412	72.44
454.633	61.44
454.853	74.44
455.073	77.44
455.294	79.44
455.514	70.44
455.734	70.44
455.955	88.44
456.175	79.44
456.395	72.44
456.616	69.44
456.836	76.44
457.056	95.44
457.276	81.44
457.497	78.44
457.717	79.44
457.937	72.44
458.157	88.44
458.377	83.44
458.598	80.44
458.818	85.44
459.038	80.44
459.258	83.44
459.478	65.44
459.698	74.44
459.918	81.44
460.138	80.44
460.358	75.44
460.578	86.44
460.798	88.44
461.018	106.44
461.238	81.44
461.458	69.44
461.678	70.44
461.898	77.44
462.118	84.44
462.338	73.44
462.558	82.44
462.777	78.44
462.997	79.44
463.217	75.44
463.437	62.44
463.657	81.44
463.876	80.44
464.096	77.44
464.316	84.44
464.536	77.44
464.755	76.44
464.975	74.44
465.195	74.44
465.414	80.44
465.634	67.44
465.854	83.44
466.073	63.44
466.293	70.44
466.512	70.44
466.732	64.44
466.951	79.44
467.171	72.44
467.391	77.44
467.61	93.44
467.829	76.44
468.049	65.44
468.268	76.44
468.488	76.44
468.707	85.44
468.927	78.44
469.146	74.44
469.365	75.44
469.585	68.44
469.804	83.44
470.023	74.44
470.243	90.44
470.462	69.44
470.681	86.44
470.901	82.44
471.12	84.44
471.339	73.44
471.558	68.44
471.777	78.44
471.997	76.44
472.216	81.44
472.435	72.44
472.654	68.44
472.873	81.44
473.092	70.44
473.311	69.44
473.53	91.44
473.749	88.44
473.968	90.44
474.187	81.44
474.406	82.44
474.625	84.44
474.844	76.44
475.063	89.44
475.282	81.44
475.501	70.44
475.72	82.44
475.939	78.44
476.158	70.44
476.377	78.44
476.596	82.44
476.814	73.44
477.033	81.44
477.252	65.44
477.471	76.44
477.69	82.44
477.908	83.44
478.127	80.44
478.346	72.44
478.564	85.44
478.783	81.44
479.002	89.44
479.22	79.44
479.439	64.44
479.658	88.44
479.876	80.44
480.095	80.44
480.313	81.44
480.532	76.44
480.751	81.44
480.969	82.44
481.188	75.44
481.406	96.44
481.624	76.44
481.843	66.44
482.061	79.44
482.28	70.44
482.498	74.44
482.717	69.44
482.935	85.44
483.153	65.44
483.372	83.44
483.59	84.44
483.808	74.44
484.027	85.44
484.245	83.44
484.463	93.44
484.681	75.44
484.9	74.44
485.118	83.44
485.336	80.44
485.554	74.44
485.772	81.44
485.99	84.44
486.209	66.44
486.427	78.44
486.645	86.44
486.863	75.44
487.081	84.44
487.299	70.44
487.517	94.44
487.735	76.44
487.953	92.44
488.171	84.44
488.389	81.44
488.607	80.44
488.825	85.44
489.043	88.44
489.261	92.44
489.479	94.44
489.696	76.44
489.914	82.44
490.132	72.44
490.35	90.44
490.568	84.44
490.786	86.44
491.003	77.44
491.221	85.44
491.439	94.44
491.657	74.44
491.874	73.44
492.092	75.44
492.31	70.44
492.527	80.44
492.745	75.44
492.963	71.44
493.18	74.44
493.398	96.44
493.615	91.44
493.833	77.44
494.05	64.44
494.268	91.44
494.485	78.44
494.703	94.44
494.92	69.44
495.138	81.44
495.355	81.44
495.573	78.44
495.79	91.44
496.008	89.44
496.225	84.44
496.442	94.44
496.66	84.44
496.877	71.44
497.094	77.44
497.312	74.44
497.529	90.44
497.746	93.44
497.963	83.44
498.181	84.44
498.398	77.44
498.615	91.44
498.832	79.44
499.049	87.44
499.267	78.44
499.484	91.44
499.701	84.44
499.918	68.44
500.135	70.44
500.352	78.44
500.569	97.44
500.786	77.44
501.003	84.44
501.22	67.44
501.437	74.44
501.654	75.44
501.871	60.44
502.088	84.44
502.305	85.44
502.522	76.44
502.739	79.44
502.956	77.44
503.172	68.44
503.389	75.44
503.606	78.44
503.823	77.44
504.04	85.44
504.256	83.44
504.473	83.44
504.69	78.44
504.907	82.44
505.123	86.44
505.34	80.44
505.557	76.44
505.773	81.44
505.99	72.44
506.207	81.44
506.423	83.44
506.64	84.44
506.856	79.44
507.073	71.44
507.289	68.44
507.506	82.44
507.722	78.44
507.939	72.44
508.155	89.44
508.372	84.44
508.588	73.44
508.805	81.44
509.021	85.44
509.238	76.44
509.454	74.44
509.67	83.44
509.887	87.44
510.103	76.44
510.319	76.44
510.536	87.44
510.752	75.44
510.968	81.44
511.184	68.44
511.401	72.44
511.617	68.44
511.833	81.44
512.049	71.44
512.265	94.44
512.481	86.44
512.698	88.44
512.914	83.44
513.13	80.44
513.346	76.44
513.562	86.44
513.778	84.44
513.994	78.44
514.21	78.44
514.426	92.44
514.642	90.44
514.858	89.44
515.074	93.44
515.29	91.44
515.506	80.44
515.721	75.44
515.937	69.44
516.153	80.44
516.369	66.44
516.585	83.44
516.801	82.44
517.016	72.44
517.232	94.44
517.448	74.44
517.664	89.44
517.879	90.44
518.095	91.44
518.311	82.44
518.527	102.44
518.742	91.44
518.958	93.44
519.173	79.44
519.389	90.44
519.605	78.44
519.82	65.44
