Data from 1600_2_HRD10591_00025.txt Node
Date: Mon Jan 19 13:53:53 EST 2026
User: Yrep
Spectrometer: HR+D1059
Trigger mode: 1
Integration Time (sec): 1.000000E-1
Scans to average: 1
Electric dark correction enabled: true
Nonlinearity correction enabled: false
Boxcar width: 0
XAxis mode: Wavelengths
Number of Pixels in Spectrum: 2048
>>>>>Begin Spectral Data<<<<<
223.165	-18.38
223.4	-18.38
223.635	-18.38
223.869	-20.38
224.104	-17.38
224.338	-13.38
224.573	-13.38
224.808	-17.38
225.042	-3.38
225.277	-5.38
225.511	-2.38
225.746	3.62
225.98	22.62
226.215	11.62
226.449	15.62
226.683	15.62
226.918	23.62
227.152	18.62
227.387	28.62
227.621	33.62
227.856	33.62
228.09	47.62
228.324	43.62
228.559	51.62
228.793	53.62
229.027	58.62
229.262	52.62
229.496	58.62
229.73	71.62
229.964	70.62
230.199	51.62
230.433	61.62
230.667	72.62
230.901	82.62
231.136	68.62
231.37	78.62
231.604	68.62
231.838	73.62
232.072	79.62
232.306	71.62
232.541	68.62
232.775	62.62
233.009	78.62
233.243	75.62
233.477	79.62
233.711	83.62
233.945	74.62
234.179	71.62
234.413	66.62
234.647	71.62
234.881	61.62
235.115	88.62
235.349	74.62
235.583	56.62
235.817	77.62
236.051	59.62
236.285	74.62
236.519	61.62
236.753	83.62
236.987	76.62
237.221	62.62
237.455	78.62
237.689	52.62
237.922	67.62
238.156	60.62
238.39	76.62
238.624	81.62
238.858	83.62
239.091	72.62
239.325	56.62
239.559	69.62
239.793	52.62
240.027	74.62
240.26	74.62
240.494	73.62
240.728	78.62
240.961	66.62
241.195	73.62
241.429	60.62
241.662	59.62
241.896	74.62
242.13	63.62
242.363	74.62
242.597	62.62
242.83	84.62
243.064	78.62
243.298	72.62
243.531	59.62
243.765	66.62
243.998	65.62
244.232	84.62
244.465	79.62
244.699	71.62
244.932	59.62
245.166	63.62
245.399	67.62
245.633	69.62
245.866	67.62
246.099	72.62
246.333	65.62
246.566	60.62
246.8	79.62
247.033	75.62
247.266	83.62
247.5	81.62
247.733	67.62
247.966	67.62
248.2	69.62
248.433	66.62
248.666	80.62
248.899	73.62
249.133	79.62
249.366	60.62
249.599	67.62
249.832	69.62
250.066	62.62
250.299	74.62
250.532	66.62
250.765	69.62
250.998	88.62
251.231	69.62
251.465	68.62
251.698	75.62
251.931	69.62
252.164	81.62
252.397	69.62
252.63	68.62
252.863	76.62
253.096	68.62
253.329	81.62
253.562	73.62
253.795	76.62
254.028	73.62
254.261	85.62
254.494	88.62
254.727	76.62
254.96	63.62
255.193	86.62
255.426	72.62
255.659	62.62
255.892	75.62
256.124	72.62
256.357	78.62
256.59	75.62
256.823	80.62
257.056	76.62
257.289	74.62
257.521	75.62
257.754	70.62
257.987	81.62
258.22	75.62
258.452	70.62
258.685	82.62
258.918	68.62
259.151	74.62
259.383	79.62
259.616	75.62
259.849	87.62
260.081	76.62
260.314	81.62
260.547	78.62
260.779	62.62
261.012	72.62
261.244	76.62
261.477	73.62
261.71	81.62
261.942	79.62
262.175	69.62
262.407	63.62
262.64	72.62
262.872	87.62
263.105	66.62
263.337	72.62
263.57	83.62
263.802	76.62
264.035	60.62
264.267	78.62
264.499	82.62
264.732	88.62
264.964	86.62
265.197	68.62
265.429	77.62
265.661	78.62
265.894	75.62
266.126	76.62
266.358	80.62
266.591	86.62
266.823	84.62
267.055	72.62
267.287	71.62
267.52	72.62
267.752	74.62
267.984	76.62
268.216	59.62
268.448	80.62
268.681	82.62
268.913	73.62
269.145	74.62
269.377	72.62
269.609	73.62
269.841	65.62
270.073	68.62
270.306	71.62
270.538	82.62
270.77	69.62
271.002	66.62
271.234	78.62
271.466	78.62
271.698	57.62
271.93	82.62
272.162	71.62
272.394	72.62
272.626	80.62
272.858	91.62
273.09	88.62
273.322	80.62
273.553	70.62
273.785	81.62
274.017	86.62
274.249	89.62
274.481	74.62
274.713	90.62
274.945	72.62
275.176	96.62
275.408	76.62
275.64	86.62
275.872	89.62
276.104	75.62
276.335	81.62
276.567	78.62
276.799	81.62
277.031	85.62
277.262	66.62
277.494	68.62
277.726	76.62
277.957	88.62
278.189	83.62
278.421	91.62
278.652	84.62
278.884	92.62
279.115	90.62
279.347	76.62
279.579	84.62
279.81	89.62
280.042	72.62
280.273	71.62
280.505	62.62
280.736	69.62
280.968	64.62
281.199	62.62
281.431	76.62
281.662	74.62
281.894	77.62
282.125	74.62
282.356	86.62
282.588	78.62
282.819	75.62
283.051	74.62
283.282	72.62
283.513	86.62
283.745	81.62
283.976	82.62
284.207	74.62
284.439	82.62
284.67	80.62
284.901	86.62
285.132	88.62
285.364	114.62
285.595	108.62
285.826	84.62
286.057	71.62
286.288	78.62
286.52	74.62
286.751	61.62
286.982	79.62
287.213	83.62
287.444	84.62
287.675	85.62
287.906	78.62
288.138	80.62
288.369	96.62
288.6	75.62
288.831	65.62
289.062	72.62
289.293	69.62
289.524	87.62
289.755	96.62
289.986	72.62
290.217	88.62
290.448	82.62
290.679	82.62
290.91	80.62
291.141	87.62
291.371	88.62
291.602	73.62
291.833	67.62
292.064	78.62
292.295	88.62
292.526	69.62
292.757	74.62
292.987	73.62
293.218	96.62
293.449	62.62
293.68	81.62
293.91	74.62
294.141	70.62
294.372	98.62
294.603	87.62
294.833	78.62
295.064	80.62
295.295	69.62
295.525	80.62
295.756	83.62
295.987	72.62
296.217	71.62
296.448	73.62
296.679	72.62
296.909	81.62
297.14	68.62
297.37	66.62
297.601	74.62
297.831	75.62
298.062	87.62
298.292	75.62
298.523	77.62
298.753	78.62
298.984	71.62
299.214	74.62
299.445	84.62
299.675	84.62
299.905	87.62
300.136	80.62
300.366	83.62
300.597	86.62
300.827	80.62
301.057	84.62
301.288	73.62
301.518	74.62
301.748	84.62
301.979	95.62
302.209	89.62
302.439	72.62
302.669	75.62
302.9	69.62
303.13	84.62
303.36	75.62
303.59	73.62
303.82	76.62
304.051	91.62
304.281	99.62
304.511	79.62
304.741	88.62
304.971	79.62
305.201	67.62
305.431	76.62
305.661	88.62
305.891	80.62
306.121	73.62
306.352	90.62
306.582	78.62
306.812	74.62
307.042	67.62
307.272	91.62
307.502	73.62
307.731	84.62
307.961	73.62
308.191	81.62
308.421	95.62
308.651	100.62
308.881	79.62
309.111	96.62
309.341	100.62
309.571	95.62
309.8	78.62
310.03	76.62
310.26	83.62
310.49	104.62
310.72	80.62
310.949	67.62
311.179	72.62
311.409	79.62
311.639	78.62
311.868	66.62
312.098	66.62
312.328	81.62
312.557	78.62
312.787	79.62
313.017	85.62
313.246	86.62
313.476	81.62
313.706	80.62
313.935	77.62
314.165	83.62
314.394	77.62
314.624	91.62
314.853	95.62
315.083	77.62
315.312	91.62
315.542	74.62
315.771	81.62
316.001	67.62
316.23	61.62
316.46	79.62
316.689	72.62
316.919	84.62
317.148	82.62
317.377	64.62
317.607	82.62
317.836	86.62
318.065	82.62
318.295	91.62
318.524	96.62
318.753	70.62
318.983	91.62
319.212	82.62
319.441	75.62
319.67	75.62
319.9	83.62
320.129	67.62
320.358	82.62
320.587	78.62
320.816	75.62
321.046	67.62
321.275	77.62
321.504	81.62
321.733	82.62
321.962	90.62
322.191	86.62
322.42	73.62
322.649	81.62
322.878	81.62
323.108	81.62
323.337	86.62
323.566	89.62
323.795	71.62
324.024	75.62
324.253	59.62
324.482	66.62
324.71	75.62
324.939	81.62
325.168	66.62
325.397	72.62
325.626	77.62
325.855	75.62
326.084	94.62
326.313	78.62
326.542	72.62
326.77	81.62
326.999	82.62
327.228	74.62
327.457	86.62
327.686	82.62
327.914	73.62
328.143	78.62
328.372	74.62
328.6	82.62
328.829	87.62
329.058	74.62
329.287	75.62
329.515	78.62
329.744	82.62
329.972	62.62
330.201	89.62
330.43	91.62
330.658	82.62
330.887	72.62
331.115	76.62
331.344	75.62
331.572	74.62
331.801	64.62
332.03	84.62
332.258	80.62
332.486	88.62
332.715	83.62
332.943	73.62
333.172	78.62
333.4	63.62
333.629	87.62
333.857	95.62
334.085	73.62
334.314	74.62
334.542	77.62
334.771	95.62
334.999	82.62
335.227	84.62
335.455	82.62
335.684	82.62
335.912	81.62
336.14	73.62
336.369	86.62
336.597	70.62
336.825	80.62
337.053	75.62
337.281	94.62
337.51	83.62
337.738	79.62
337.966	78.62
338.194	76.62
338.422	83.62
338.65	86.62
338.878	76.62
339.106	65.62
339.334	83.62
339.562	80.62
339.79	82.62
340.018	67.62
340.246	74.62
340.474	84.62
340.702	87.62
340.93	84.62
341.158	76.62
341.386	81.62
341.614	76.62
341.842	81.62
342.07	82.62
342.298	69.62
342.526	79.62
342.754	75.62
342.981	74.62
343.209	76.62
343.437	91.62
343.665	87.62
343.893	69.62
344.12	88.62
344.348	97.62
344.576	88.62
344.804	80.62
345.031	71.62
345.259	90.62
345.487	73.62
345.714	88.62
345.942	82.62
346.17	64.62
346.397	73.62
346.625	91.62
346.853	77.62
347.08	84.62
347.308	84.62
347.535	85.62
347.763	90.62
347.99	68.62
348.218	84.62
348.445	77.62
348.673	84.62
348.9	96.62
349.128	77.62
349.355	83.62
349.583	86.62
349.81	82.62
350.037	80.62
350.265	79.62
350.492	87.62
350.72	64.62
350.947	74.62
351.174	65.62
351.402	66.62
351.629	75.62
351.856	84.62
352.083	82.62
352.311	82.62
352.538	91.62
352.765	78.62
352.992	81.62
353.22	66.62
353.447	95.62
353.674	90.62
353.901	82.62
354.128	92.62
354.355	93.62
354.583	77.62
354.81	82.62
355.037	78.62
355.264	92.62
355.491	87.62
355.718	67.62
355.945	78.62
356.172	74.62
356.399	80.62
356.626	99.62
356.853	89.62
357.08	84.62
357.307	89.62
357.534	83.62
357.761	74.62
357.988	82.62
358.215	93.62
358.441	74.62
358.668	82.62
358.895	86.62
359.122	82.62
359.349	74.62
359.576	82.62
359.802	86.62
360.029	67.62
360.256	72.62
360.483	97.62
360.709	76.62
360.936	80.62
361.163	81.62
361.39	81.62
361.616	79.62
361.843	76.62
362.07	92.62
362.296	90.62
362.523	78.62
362.749	91.62
362.976	97.62
363.203	111.62
363.429	88.62
363.656	90.62
363.882	87.62
364.109	90.62
364.335	87.62
364.562	97.62
364.788	102.62
365.015	84.62
365.241	74.62
365.468	91.62
365.694	84.62
365.92	85.62
366.147	74.62
366.373	75.62
366.599	74.62
366.826	71.62
367.052	81.62
367.278	77.62
367.505	71.62
367.731	98.62
367.957	78.62
368.184	82.62
368.41	76.62
368.636	86.62
368.862	84.62
369.089	87.62
369.315	94.62
369.541	83.62
369.767	67.62
369.993	69.62
370.219	85.62
370.445	85.62
370.672	81.62
370.898	97.62
371.124	93.62
371.35	71.62
371.576	80.62
371.802	96.62
372.028	97.62
372.254	87.62
372.48	82.62
372.706	93.62
372.932	89.62
373.158	93.62
373.384	99.62
373.61	108.62
373.835	112.62
374.061	103.62
374.287	80.62
374.513	83.62
374.739	107.62
374.965	99.62
375.191	83.62
375.416	99.62
375.642	89.62
375.868	107.62
376.094	82.62
376.319	85.62
376.545	86.62
376.771	92.62
376.997	76.62
377.222	71.62
377.448	88.62
377.674	77.62
377.899	88.62
378.125	65.62
378.35	88.62
378.576	81.62
378.802	82.62
379.027	80.62
379.253	82.62
379.478	74.62
379.704	77.62
379.929	91.62
380.155	87.62
380.38	85.62
380.606	80.62
380.831	72.62
381.057	89.62
381.282	76.62
381.507	75.62
381.733	91.62
381.958	106.62
382.184	90.62
382.409	106.62
382.634	97.62
382.86	105.62
383.085	110.62
383.31	114.62
383.535	104.62
383.761	117.62
383.986	120.62
384.211	104.62
384.436	77.62
384.662	83.62
384.887	67.62
385.112	81.62
385.337	76.62
385.562	84.62
385.787	93.62
386.013	100.62
386.238	91.62
386.463	81.62
386.688	71.62
386.913	68.62
387.138	84.62
387.363	86.62
387.588	86.62
387.813	88.62
388.038	87.62
388.263	76.62
388.488	90.62
388.713	97.62
388.938	86.62
389.163	76.62
389.387	82.62
389.612	88.62
389.837	81.62
390.062	91.62
390.287	73.62
390.512	76.62
390.736	65.62
390.961	94.62
391.186	66.62
391.411	63.62
391.636	78.62
391.86	78.62
392.085	81.62
392.31	103.62
392.534	96.62
392.759	106.62
392.984	127.62
393.208	238.62
393.433	368.62
393.658	265.62
393.882	128.62
394.107	98.62
394.331	116.62
394.556	134.62
394.78	92.62
395.005	84.62
395.229	83.62
395.454	106.62
395.678	87.62
395.903	120.62
396.127	158.62
396.352	171.62
396.576	164.62
396.801	235.62
397.025	282.62
397.249	166.62
397.474	105.62
397.698	92.62
397.922	72.62
398.147	85.62
398.371	96.62
398.595	81.62
398.82	78.62
399.044	85.62
399.268	84.62
399.492	75.62
399.717	76.62
399.941	79.62
400.165	76.62
400.389	75.62
400.613	80.62
400.837	75.62
401.062	80.62
401.286	79.62
401.51	60.62
401.734	82.62
401.958	95.62
402.182	82.62
402.406	86.62
402.63	77.62
402.854	88.62
403.078	82.62
403.302	84.62
403.526	98.62
403.75	85.62
403.974	79.62
404.198	102.62
404.422	121.62
404.645	144.62
404.869	131.62
405.093	87.62
405.317	82.62
405.541	72.62
405.765	71.62
405.988	91.62
406.212	95.62
406.436	92.62
406.66	87.62
406.883	79.62
407.107	92.62
407.331	91.62
407.555	78.62
407.778	95.62
408.002	88.62
408.226	69.62
408.449	89.62
408.673	70.62
408.896	72.62
409.12	76.62
409.344	81.62
409.567	74.62
409.791	87.62
410.014	86.62
410.238	85.62
410.461	70.62
410.685	85.62
410.908	69.62
411.132	84.62
411.355	91.62
411.578	80.62
411.802	70.62
412.025	71.62
412.249	75.62
412.472	66.62
412.695	81.62
412.919	76.62
413.142	86.62
413.365	75.62
413.589	68.62
413.812	82.62
414.035	77.62
414.258	60.62
414.482	73.62
414.705	75.62
414.928	74.62
415.151	64.62
415.374	72.62
415.597	83.62
415.821	80.62
416.044	56.62
416.267	79.62
416.49	69.62
416.713	81.62
416.936	64.62
417.159	71.62
417.382	79.62
417.605	76.62
417.828	92.62
418.051	76.62
418.274	71.62
418.497	76.62
418.72	64.62
418.943	75.62
419.166	76.62
419.389	89.62
419.611	67.62
419.834	100.62
420.057	79.62
420.28	82.62
420.503	76.62
420.726	86.62
420.948	90.62
421.171	73.62
421.394	91.62
421.617	104.62
421.839	95.62
422.062	103.62
422.285	135.62
422.507	273.62
422.73	461.62
422.953	408.62
423.175	190.62
423.398	111.62
423.621	88.62
423.843	89.62
424.066	94.62
424.288	71.62
424.511	74.62
424.733	88.62
424.956	97.62
425.178	102.62
425.401	88.62
425.623	94.62
425.846	81.62
426.068	83.62
426.291	71.62
426.513	85.62
426.735	74.62
426.958	83.62
427.18	72.62
427.402	87.62
427.625	88.62
427.847	87.62
428.069	92.62
428.292	136.62
428.514	142.62
428.736	106.62
428.958	108.62
429.181	131.62
429.403	96.62
429.625	79.62
429.847	112.62
430.069	151.62
430.292	189.62
430.514	193.62
430.736	127.62
430.958	149.62
431.18	92.62
431.402	92.62
431.624	114.62
431.846	126.62
432.068	142.62
432.29	105.62
432.512	91.62
432.734	97.62
432.956	91.62
433.178	84.62
433.4	72.62
433.622	86.62
433.844	76.62
434.066	67.62
434.287	81.62
434.509	79.62
434.731	75.62
434.953	76.62
435.175	76.62
435.397	77.62
435.618	86.62
435.84	78.62
436.062	67.62
436.284	66.62
436.505	80.62
436.727	79.62
436.949	99.62
437.17	78.62
437.392	83.62
437.614	90.62
437.835	84.62
438.057	81.62
438.278	79.62
438.5	100.62
438.721	84.62
438.943	81.62
439.165	87.62
439.386	83.62
439.608	80.62
439.829	91.62
440.05	70.62
440.272	90.62
440.493	69.62
440.715	75.62
440.936	68.62
441.158	92.62
441.379	64.62
441.6	84.62
441.822	95.62
442.043	90.62
442.264	95.62
442.486	122.62
442.707	146.62
442.928	106.62
443.149	102.62
443.371	132.62
443.592	238.62
443.813	206.62
444.034	103.62
444.255	94.62
444.476	80.62
444.698	80.62
444.919	82.62
445.14	186.62
445.361	202.62
445.582	275.62
445.803	235.62
446.024	119.62
446.245	90.62
446.466	83.62
446.687	83.62
446.908	71.62
447.129	68.62
447.35	69.62
447.571	74.62
447.792	73.62
448.013	77.62
448.234	88.62
448.455	82.62
448.675	79.62
448.896	74.62
449.117	73.62
449.338	66.62
449.559	74.62
449.779	71.62
450	74.62
450.221	80.62
450.442	66.62
450.662	78.62
450.883	80.62
451.104	75.62
451.324	86.62
451.545	64.62
451.766	78.62
451.986	73.62
452.207	67.62
452.428	84.62
452.648	85.62
452.869	96.62
453.089	79.62
453.31	70.62
453.53	76.62
453.751	88.62
453.971	76.62
454.192	79.62
454.412	78.62
454.633	86.62
454.853	81.62
455.073	72.62
455.294	73.62
455.514	89.62
455.734	85.62
455.955	85.62
456.175	87.62
456.395	82.62
456.616	73.62
456.836	91.62
457.056	83.62
457.276	75.62
457.497	86.62
457.717	80.62
457.937	90.62
458.157	120.62
458.377	97.62
458.598	92.62
458.818	90.62
459.038	90.62
459.258	69.62
459.478	76.62
459.698	63.62
459.918	75.62
460.138	81.62
460.358	78.62
460.578	85.62
460.798	98.62
461.018	93.62
461.238	64.62
461.458	82.62
461.678	80.62
461.898	80.62
462.118	82.62
462.338	64.62
462.558	74.62
462.777	60.62
462.997	59.62
463.217	83.62
463.437	73.62
463.657	84.62
463.876	65.62
464.096	74.62
464.316	78.62
464.536	77.62
464.755	82.62
464.975	80.62
465.195	73.62
465.414	80.62
465.634	90.62
465.854	83.62
466.073	75.62
466.293	84.62
466.512	86.62
466.732	77.62
466.951	88.62
467.171	76.62
467.391	71.62
467.61	78.62
467.829	76.62
468.049	84.62
468.268	77.62
468.488	86.62
468.707	90.62
468.927	76.62
469.146	84.62
469.365	74.62
469.585	87.62
469.804	76.62
470.023	69.62
470.243	80.62
470.462	76.62
470.681	87.62
470.901	76.62
471.12	88.62
471.339	79.62
471.558	78.62
471.777	82.62
471.997	65.62
472.216	62.62
472.435	82.62
472.654	72.62
472.873	90.62
473.092	85.62
473.311	68.62
473.53	73.62
473.749	74.62
473.968	88.62
474.187	81.62
474.406	74.62
474.625	82.62
474.844	87.62
475.063	84.62
475.282	85.62
475.501	62.62
475.72	82.62
475.939	72.62
476.158	78.62
476.377	74.62
476.596	74.62
476.814	81.62
477.033	77.62
477.252	76.62
477.471	67.62
477.69	88.62
477.908	73.62
478.127	76.62
478.346	77.62
478.564	84.62
478.783	79.62
479.002	70.62
479.22	71.62
479.439	84.62
479.658	86.62
479.876	82.62
480.095	89.62
480.313	86.62
480.532	68.62
480.751	79.62
480.969	70.62
481.188	87.62
481.406	83.62
481.624	79.62
481.843	78.62
482.061	76.62
482.28	86.62
482.498	84.62
482.717	81.62
482.935	82.62
483.153	88.62
483.372	91.62
483.59	67.62
483.808	73.62
484.027	94.62
484.245	83.62
484.463	81.62
484.681	87.62
484.9	82.62
485.118	90.62
485.336	78.62
485.554	81.62
485.772	70.62
485.99	96.62
486.209	91.62
486.427	92.62
486.645	84.62
486.863	86.62
487.081	83.62
487.299	95.62
487.517	80.62
487.735	102.62
487.953	143.62
488.171	131.62
488.389	89.62
488.607	83.62
488.825	74.62
489.043	85.62
489.261	98.62
489.479	87.62
489.696	82.62
489.914	84.62
490.132	84.62
490.35	86.62
490.568	81.62
490.786	93.62
491.003	82.62
491.221	91.62
491.439	86.62
491.657	80.62
491.874	83.62
492.092	89.62
492.31	78.62
492.527	89.62
492.745	74.62
492.963	86.62
493.18	75.62
493.398	94.62
493.615	96.62
493.833	88.62
494.05	98.62
494.268	78.62
494.485	84.62
494.703	82.62
494.92	88.62
495.138	80.62
495.355	82.62
495.573	82.62
495.79	82.62
496.008	81.62
496.225	86.62
496.442	92.62
496.66	90.62
496.877	75.62
497.094	76.62
497.312	70.62
497.529	86.62
497.746	85.62
497.963	81.62
498.181	84.62
498.398	109.62
498.615	79.62
498.832	61.62
499.049	88.62
499.267	106.62
499.484	87.62
499.701	88.62
499.918	87.62
500.135	80.62
500.352	80.62
500.569	75.62
500.786	98.62
501.003	77.62
501.22	95.62
501.437	80.62
501.654	90.62
501.871	102.62
502.088	79.62
502.305	88.62
502.522	106.62
502.739	90.62
502.956	84.62
503.172	95.62
503.389	82.62
503.606	74.62
503.823	91.62
504.04	94.62
504.256	111.62
504.473	100.62
504.69	81.62
504.907	84.62
505.123	77.62
505.34	72.62
505.557	74.62
505.773	89.62
505.99	80.62
506.207	87.62
506.423	67.62
506.64	82.62
506.856	82.62
507.073	79.62
507.289	78.62
507.506	82.62
507.722	75.62
507.939	89.62
508.155	90.62
508.372	78.62
508.588	72.62
508.805	75.62
509.021	89.62
509.238	91.62
509.454	68.62
509.67	82.62
509.887	72.62
510.103	87.62
510.319	84.62
510.536	77.62
510.752	96.62
510.968	83.62
511.184	77.62
511.401	80.62
511.617	104.62
511.833	82.62
512.049	80.62
512.265	94.62
512.481	84.62
512.698	92.62
512.914	69.62
513.13	81.62
513.346	98.62
513.562	80.62
513.778	95.62
513.994	82.62
514.21	82.62
514.426	79.62
514.642	69.62
514.858	74.62
515.074	78.62
515.29	92.62
515.506	91.62
515.721	82.62
515.937	89.62
516.153	85.62
516.369	76.62
516.585	92.62
516.801	96.62
517.016	91.62
517.232	81.62
517.448	125.62
517.664	87.62
517.879	76.62
518.095	76.62
518.311	97.62
518.527	138.62
518.742	121.62
518.958	126.62
