Data from 1600_2_HRD10591_00047.txt Node
Date: Mon Jan 19 13:54:04 EST 2026
User: Yrep
Spectrometer: HR+D1059
Trigger mode: 1
Integration Time (sec): 1.000000E-1
Scans to average: 1
Electric dark correction enabled: true
Nonlinearity correction enabled: false
Boxcar width: 0
XAxis mode: Wavelengths
Number of Pixels in Spectrum: 2048
>>>>>Begin Spectral Data<<<<<
223.165	-10.94
223.4	-10.94
223.635	-10.94
223.869	-23.94
224.104	-18.94
224.338	-17.94
224.573	-14.94
224.808	-15.94
225.042	-21.94
225.277	-3.94
225.511	-10.94
225.746	11.06
225.98	-9.94
226.215	19.06
226.449	8.06
226.683	28.06
226.918	38.06
227.152	45.06
227.387	29.06
227.621	34.06
227.856	46.06
228.09	48.06
228.324	57.06
228.559	56.06
228.793	59.06
229.027	69.06
229.262	73.06
229.496	70.06
229.73	72.06
229.964	78.06
230.199	68.06
230.433	86.06
230.667	75.06
230.901	73.06
231.136	68.06
231.37	92.06
231.604	71.06
231.838	76.06
232.072	81.06
232.306	68.06
232.541	73.06
232.775	69.06
233.009	82.06
233.243	84.06
233.477	89.06
233.711	81.06
233.945	80.06
234.179	100.06
234.413	83.06
234.647	80.06
234.881	81.06
235.115	82.06
235.349	80.06
235.583	80.06
235.817	71.06
236.051	87.06
236.285	78.06
236.519	65.06
236.753	77.06
236.987	82.06
237.221	73.06
237.455	72.06
237.689	81.06
237.922	84.06
238.156	72.06
238.39	83.06
238.624	80.06
238.858	81.06
239.091	75.06
239.325	67.06
239.559	92.06
239.793	76.06
240.027	81.06
240.26	69.06
240.494	70.06
240.728	74.06
240.961	68.06
241.195	68.06
241.429	81.06
241.662	75.06
241.896	80.06
242.13	85.06
242.363	76.06
242.597	74.06
242.83	71.06
243.064	72.06
243.298	62.06
243.531	80.06
243.765	81.06
243.998	60.06
244.232	85.06
244.465	76.06
244.699	65.06
244.932	75.06
245.166	71.06
245.399	60.06
245.633	72.06
245.866	73.06
246.099	87.06
246.333	78.06
246.566	81.06
246.8	71.06
247.033	72.06
247.266	93.06
247.5	78.06
247.733	78.06
247.966	91.06
248.2	72.06
248.433	66.06
248.666	78.06
248.899	78.06
249.133	80.06
249.366	84.06
249.599	73.06
249.832	85.06
250.066	82.06
250.299	81.06
250.532	77.06
250.765	79.06
250.998	87.06
251.231	80.06
251.465	84.06
251.698	96.06
251.931	94.06
252.164	86.06
252.397	89.06
252.63	86.06
252.863	86.06
253.096	77.06
253.329	73.06
253.562	76.06
253.795	80.06
254.028	75.06
254.261	80.06
254.494	61.06
254.727	93.06
254.96	90.06
255.193	82.06
255.426	84.06
255.659	90.06
255.892	79.06
256.124	80.06
256.357	80.06
256.59	81.06
256.823	79.06
257.056	82.06
257.289	81.06
257.521	69.06
257.754	87.06
257.987	78.06
258.22	90.06
258.452	87.06
258.685	80.06
258.918	76.06
259.151	63.06
259.383	94.06
259.616	87.06
259.849	76.06
260.081	64.06
260.314	90.06
260.547	77.06
260.779	85.06
261.012	82.06
261.244	75.06
261.477	92.06
261.71	85.06
261.942	76.06
262.175	93.06
262.407	82.06
262.64	86.06
262.872	80.06
263.105	91.06
263.337	89.06
263.57	84.06
263.802	83.06
264.035	80.06
264.267	78.06
264.499	80.06
264.732	77.06
264.964	92.06
265.197	84.06
265.429	87.06
265.661	89.06
265.894	81.06
266.126	83.06
266.358	78.06
266.591	87.06
266.823	86.06
267.055	77.06
267.287	82.06
267.52	98.06
267.752	101.06
267.984	91.06
268.216	69.06
268.448	74.06
268.681	76.06
268.913	74.06
269.145	88.06
269.377	97.06
269.609	96.06
269.841	80.06
270.073	77.06
270.306	79.06
270.538	85.06
270.77	81.06
271.002	92.06
271.234	73.06
271.466	80.06
271.698	88.06
271.93	93.06
272.162	105.06
272.394	86.06
272.626	80.06
272.858	78.06
273.09	80.06
273.322	83.06
273.553	84.06
273.785	83.06
274.017	96.06
274.249	70.06
274.481	76.06
274.713	74.06
274.945	81.06
275.176	81.06
275.408	85.06
275.64	83.06
275.872	81.06
276.104	76.06
276.335	84.06
276.567	94.06
276.799	67.06
277.031	80.06
277.262	76.06
277.494	89.06
277.726	75.06
277.957	94.06
278.189	74.06
278.421	90.06
278.652	82.06
278.884	77.06
279.115	74.06
279.347	90.06
279.579	85.06
279.81	78.06
280.042	83.06
280.273	84.06
280.505	94.06
280.736	80.06
280.968	77.06
281.199	75.06
281.431	90.06
281.662	89.06
281.894	85.06
282.125	89.06
282.356	83.06
282.588	85.06
282.819	81.06
283.051	94.06
283.282	96.06
283.513	95.06
283.745	87.06
283.976	84.06
284.207	92.06
284.439	95.06
284.67	91.06
284.901	79.06
285.132	79.06
285.364	94.06
285.595	87.06
285.826	92.06
286.057	83.06
286.288	83.06
286.52	81.06
286.751	75.06
286.982	72.06
287.213	70.06
287.444	84.06
287.675	78.06
287.906	84.06
288.138	114.06
288.369	88.06
288.6	98.06
288.831	81.06
289.062	88.06
289.293	90.06
289.524	78.06
289.755	73.06
289.986	83.06
290.217	76.06
290.448	80.06
290.679	83.06
290.91	74.06
291.141	79.06
291.371	66.06
291.602	78.06
291.833	69.06
292.064	68.06
292.295	85.06
292.526	88.06
292.757	89.06
292.987	91.06
293.218	87.06
293.449	88.06
293.68	83.06
293.91	71.06
294.141	96.06
294.372	84.06
294.603	83.06
294.833	84.06
295.064	96.06
295.295	92.06
295.525	81.06
295.756	89.06
295.987	80.06
296.217	72.06
296.448	82.06
296.679	80.06
296.909	79.06
297.14	74.06
297.37	84.06
297.601	87.06
297.831	86.06
298.062	79.06
298.292	86.06
298.523	89.06
298.753	80.06
298.984	89.06
299.214	97.06
299.445	80.06
299.675	82.06
299.905	89.06
300.136	82.06
300.366	86.06
300.597	84.06
300.827	84.06
301.057	84.06
301.288	106.06
301.518	93.06
301.748	79.06
301.979	82.06
302.209	92.06
302.439	77.06
302.669	83.06
302.9	90.06
303.13	87.06
303.36	84.06
303.59	77.06
303.82	79.06
304.051	80.06
304.281	81.06
304.511	83.06
304.741	90.06
304.971	88.06
305.201	77.06
305.431	79.06
305.661	85.06
305.891	74.06
306.121	94.06
306.352	89.06
306.582	71.06
306.812	83.06
307.042	81.06
307.272	97.06
307.502	92.06
307.731	86.06
307.961	85.06
308.191	89.06
308.421	78.06
308.651	67.06
308.881	89.06
309.111	78.06
309.341	74.06
309.571	88.06
309.8	85.06
310.03	102.06
310.26	100.06
310.49	96.06
310.72	81.06
310.949	90.06
311.179	74.06
311.409	78.06
311.639	70.06
311.868	76.06
312.098	101.06
312.328	85.06
312.557	85.06
312.787	97.06
313.017	93.06
313.246	82.06
313.476	98.06
313.706	87.06
313.935	100.06
314.165	94.06
314.394	78.06
314.624	82.06
314.853	89.06
315.083	73.06
315.312	83.06
315.542	86.06
315.771	91.06
316.001	68.06
316.23	89.06
316.46	95.06
316.689	74.06
316.919	76.06
317.148	72.06
317.377	97.06
317.607	91.06
317.836	84.06
318.065	68.06
318.295	80.06
318.524	81.06
318.753	74.06
318.983	81.06
319.212	74.06
319.441	80.06
319.67	83.06
319.9	80.06
320.129	94.06
320.358	87.06
320.587	86.06
320.816	81.06
321.046	79.06
321.275	79.06
321.504	79.06
321.733	86.06
321.962	79.06
322.191	71.06
322.42	92.06
322.649	78.06
322.878	85.06
323.108	80.06
323.337	89.06
323.566	85.06
323.795	89.06
324.024	92.06
324.253	95.06
324.482	84.06
324.71	98.06
324.939	71.06
325.168	82.06
325.397	87.06
325.626	87.06
325.855	81.06
326.084	96.06
326.313	79.06
326.542	93.06
326.77	88.06
326.999	58.06
327.228	84.06
327.457	78.06
327.686	92.06
327.914	80.06
328.143	92.06
328.372	84.06
328.6	90.06
328.829	68.06
329.058	78.06
329.287	75.06
329.515	92.06
329.744	84.06
329.972	78.06
330.201	85.06
330.43	86.06
330.658	81.06
330.887	88.06
331.115	89.06
331.344	83.06
331.572	92.06
331.801	82.06
332.03	82.06
332.258	80.06
332.486	85.06
332.715	96.06
332.943	85.06
333.172	84.06
333.4	67.06
333.629	82.06
333.857	87.06
334.085	87.06
334.314	85.06
334.542	76.06
334.771	82.06
334.999	95.06
335.227	103.06
335.455	88.06
335.684	75.06
335.912	90.06
336.14	80.06
336.369	72.06
336.597	86.06
336.825	83.06
337.053	73.06
337.281	77.06
337.51	88.06
337.738	82.06
337.966	96.06
338.194	78.06
338.422	88.06
338.65	94.06
338.878	88.06
339.106	84.06
339.334	74.06
339.562	74.06
339.79	92.06
340.018	84.06
340.246	80.06
340.474	83.06
340.702	72.06
340.93	85.06
341.158	90.06
341.386	89.06
341.614	80.06
341.842	72.06
342.07	80.06
342.298	85.06
342.526	92.06
342.754	70.06
342.981	74.06
343.209	82.06
343.437	92.06
343.665	72.06
343.893	82.06
344.12	88.06
344.348	86.06
344.576	75.06
344.804	79.06
345.031	90.06
345.259	86.06
345.487	84.06
345.714	87.06
345.942	80.06
346.17	84.06
346.397	89.06
346.625	88.06
346.853	82.06
347.08	69.06
347.308	83.06
347.535	88.06
347.763	81.06
347.99	79.06
348.218	85.06
348.445	84.06
348.673	86.06
348.9	84.06
349.128	101.06
349.355	94.06
349.583	82.06
349.81	72.06
350.037	79.06
350.265	95.06
350.492	81.06
350.72	99.06
350.947	99.06
351.174	94.06
351.402	97.06
351.629	69.06
351.856	66.06
352.083	68.06
352.311	86.06
352.538	79.06
352.765	84.06
352.992	99.06
353.22	83.06
353.447	89.06
353.674	80.06
353.901	86.06
354.128	80.06
354.355	79.06
354.583	89.06
354.81	92.06
355.037	84.06
355.264	94.06
355.491	90.06
355.718	72.06
355.945	87.06
356.172	86.06
356.399	97.06
356.626	81.06
356.853	69.06
357.08	90.06
357.307	95.06
357.534	82.06
357.761	80.06
357.988	73.06
358.215	84.06
358.441	89.06
358.668	93.06
358.895	79.06
359.122	78.06
359.349	74.06
359.576	69.06
359.802	75.06
360.029	85.06
360.256	89.06
360.483	87.06
360.709	85.06
360.936	95.06
361.163	82.06
361.39	77.06
361.616	82.06
361.843	71.06
362.07	93.06
362.296	87.06
362.523	92.06
362.749	92.06
362.976	80.06
363.203	98.06
363.429	80.06
363.656	76.06
363.882	82.06
364.109	79.06
364.335	80.06
364.562	69.06
364.788	88.06
365.015	89.06
365.241	78.06
365.468	88.06
365.694	86.06
365.92	84.06
366.147	78.06
366.373	85.06
366.599	91.06
366.826	82.06
367.052	90.06
367.278	100.06
367.505	100.06
367.731	93.06
367.957	79.06
368.184	76.06
368.41	83.06
368.636	84.06
368.862	83.06
369.089	82.06
369.315	85.06
369.541	89.06
369.767	64.06
369.993	87.06
370.219	78.06
370.445	83.06
370.672	86.06
370.898	70.06
371.124	86.06
371.35	75.06
371.576	100.06
371.802	79.06
372.028	78.06
372.254	85.06
372.48	91.06
372.706	79.06
372.932	80.06
373.158	86.06
373.384	79.06
373.61	100.06
373.835	89.06
374.061	92.06
374.287	77.06
374.513	62.06
374.739	79.06
374.965	87.06
375.191	75.06
375.416	78.06
375.642	80.06
375.868	88.06
376.094	86.06
376.319	86.06
376.545	82.06
376.771	77.06
376.997	82.06
377.222	92.06
377.448	81.06
377.674	71.06
377.899	95.06
378.125	87.06
378.35	72.06
378.576	72.06
378.802	86.06
379.027	85.06
379.253	83.06
379.478	67.06
379.704	79.06
379.929	94.06
380.155	86.06
380.38	96.06
380.606	78.06
380.831	84.06
381.057	84.06
381.282	89.06
381.507	75.06
381.733	87.06
381.958	94.06
382.184	108.06
382.409	96.06
382.634	81.06
382.86	94.06
383.085	88.06
383.31	87.06
383.535	85.06
383.761	85.06
383.986	75.06
384.211	72.06
384.436	74.06
384.662	73.06
384.887	82.06
385.112	77.06
385.337	86.06
385.562	88.06
385.787	80.06
386.013	81.06
386.238	83.06
386.463	87.06
386.688	99.06
386.913	85.06
387.138	83.06
387.363	84.06
387.588	97.06
387.813	89.06
388.038	93.06
388.263	90.06
388.488	87.06
388.713	82.06
388.938	93.06
389.163	79.06
389.387	78.06
389.612	104.06
389.837	84.06
390.062	74.06
390.287	73.06
390.512	80.06
390.736	83.06
390.961	85.06
391.186	78.06
391.411	74.06
391.636	76.06
391.86	89.06
392.085	79.06
392.31	92.06
392.534	93.06
392.759	92.06
392.984	110.06
393.208	128.06
393.433	159.06
393.658	129.06
393.882	92.06
394.107	90.06
394.331	91.06
394.556	86.06
394.78	89.06
395.005	74.06
395.229	77.06
395.454	74.06
395.678	78.06
395.903	82.06
396.127	86.06
396.352	92.06
396.576	103.06
396.801	144.06
397.025	148.06
397.249	102.06
397.474	98.06
397.698	88.06
397.922	87.06
398.147	96.06
398.371	100.06
398.595	80.06
398.82	88.06
399.044	70.06
399.268	75.06
399.492	83.06
399.717	76.06
399.941	73.06
400.165	75.06
400.389	85.06
400.613	88.06
400.837	88.06
401.062	79.06
401.286	93.06
401.51	78.06
401.734	82.06
401.958	87.06
402.182	80.06
402.406	85.06
402.63	85.06
402.854	81.06
403.078	85.06
403.302	81.06
403.526	86.06
403.75	86.06
403.974	81.06
404.198	88.06
404.422	87.06
404.645	95.06
404.869	86.06
405.093	93.06
405.317	81.06
405.541	93.06
405.765	74.06
405.988	73.06
406.212	83.06
406.436	73.06
406.66	84.06
406.883	81.06
407.107	77.06
407.331	97.06
407.555	85.06
407.778	91.06
408.002	85.06
408.226	80.06
408.449	86.06
408.673	78.06
408.896	79.06
409.12	86.06
409.344	78.06
409.567	88.06
409.791	94.06
410.014	80.06
410.238	84.06
410.461	97.06
410.685	78.06
410.908	92.06
411.132	88.06
411.355	82.06
411.578	81.06
411.802	73.06
412.025	85.06
412.249	71.06
412.472	88.06
412.695	82.06
412.919	96.06
413.142	85.06
413.365	82.06
413.589	83.06
413.812	84.06
414.035	81.06
414.258	86.06
414.482	89.06
414.705	86.06
414.928	72.06
415.151	66.06
415.374	73.06
415.597	93.06
415.821	87.06
416.044	86.06
416.267	79.06
416.49	85.06
416.713	92.06
416.936	92.06
417.159	82.06
417.382	80.06
417.605	85.06
417.828	77.06
418.051	76.06
418.274	70.06
418.497	84.06
418.72	93.06
418.943	93.06
419.166	90.06
419.389	82.06
419.611	78.06
419.834	74.06
420.057	80.06
420.28	70.06
420.503	81.06
420.726	88.06
420.948	79.06
421.171	71.06
421.394	81.06
421.617	71.06
421.839	76.06
422.062	82.06
422.285	85.06
422.507	124.06
422.73	178.06
422.953	145.06
423.175	100.06
423.398	70.06
423.621	81.06
423.843	78.06
424.066	87.06
424.288	85.06
424.511	90.06
424.733	97.06
424.956	86.06
425.178	72.06
425.401	80.06
425.623	72.06
425.846	77.06
426.068	90.06
426.291	86.06
426.513	89.06
426.735	79.06
426.958	95.06
427.18	73.06
427.402	77.06
427.625	92.06
427.847	71.06
428.069	77.06
428.292	92.06
428.514	77.06
428.736	85.06
428.958	95.06
429.181	100.06
429.403	68.06
429.625	78.06
429.847	73.06
430.069	99.06
430.292	94.06
430.514	86.06
430.736	98.06
430.958	93.06
431.18	75.06
431.402	86.06
431.624	82.06
431.846	90.06
432.068	97.06
432.29	79.06
432.512	80.06
432.734	78.06
432.956	80.06
433.178	84.06
433.4	81.06
433.622	79.06
433.844	74.06
434.066	82.06
434.287	81.06
434.509	82.06
434.731	83.06
434.953	82.06
435.175	77.06
435.397	84.06
435.618	81.06
435.84	70.06
436.062	81.06
436.284	81.06
436.505	70.06
436.727	82.06
436.949	68.06
437.17	83.06
437.392	69.06
437.614	80.06
437.835	74.06
438.057	77.06
438.278	78.06
438.5	81.06
438.721	75.06
438.943	80.06
439.165	86.06
439.386	81.06
439.608	71.06
439.829	73.06
440.05	76.06
440.272	72.06
440.493	88.06
440.715	76.06
440.936	79.06
441.158	92.06
441.379	88.06
441.6	85.06
441.822	82.06
442.043	73.06
442.264	70.06
442.486	82.06
442.707	91.06
442.928	84.06
443.149	86.06
443.371	101.06
443.592	90.06
443.813	92.06
444.034	85.06
444.255	92.06
444.476	71.06
444.698	88.06
444.919	86.06
445.14	170.06
445.361	146.06
445.582	117.06
445.803	90.06
446.024	84.06
446.245	83.06
446.466	87.06
446.687	72.06
446.908	84.06
447.129	87.06
447.35	95.06
447.571	80.06
447.792	75.06
448.013	77.06
448.234	80.06
448.455	88.06
448.675	86.06
448.896	93.06
449.117	78.06
449.338	87.06
449.559	85.06
449.779	74.06
450	79.06
450.221	81.06
450.442	83.06
450.662	88.06
450.883	70.06
451.104	83.06
451.324	85.06
451.545	76.06
451.766	73.06
451.986	81.06
452.207	76.06
452.428	87.06
452.648	87.06
452.869	89.06
453.089	86.06
453.31	90.06
453.53	84.06
453.751	71.06
453.971	76.06
454.192	78.06
454.412	81.06
454.633	74.06
454.853	81.06
455.073	66.06
455.294	88.06
455.514	80.06
455.734	74.06
455.955	81.06
456.175	74.06
456.395	88.06
456.616	74.06
456.836	90.06
457.056	85.06
457.276	86.06
457.497	97.06
457.717	75.06
457.937	88.06
458.157	86.06
458.377	74.06
458.598	90.06
458.818	85.06
459.038	76.06
459.258	92.06
459.478	88.06
459.698	81.06
459.918	80.06
460.138	73.06
460.358	84.06
460.578	88.06
460.798	99.06
461.018	91.06
461.238	86.06
461.458	78.06
461.678	83.06
461.898	71.06
462.118	72.06
462.338	96.06
462.558	87.06
462.777	76.06
462.997	77.06
463.217	95.06
463.437	82.06
463.657	66.06
463.876	88.06
464.096	81.06
464.316	69.06
464.536	75.06
464.755	85.06
464.975	77.06
465.195	90.06
465.414	89.06
465.634	65.06
465.854	88.06
466.073	73.06
466.293	92.06
466.512	74.06
466.732	75.06
466.951	82.06
467.171	73.06
467.391	90.06
467.61	87.06
467.829	84.06
468.049	67.06
468.268	95.06
468.488	80.06
468.707	89.06
468.927	79.06
469.146	78.06
469.365	73.06
469.585	89.06
469.804	70.06
470.023	80.06
470.243	80.06
470.462	92.06
470.681	77.06
470.901	89.06
471.12	72.06
471.339	94.06
471.558	85.06
471.777	94.06
471.997	91.06
472.216	80.06
472.435	99.06
472.654	87.06
472.873	70.06
473.092	82.06
473.311	68.06
473.53	85.06
473.749	92.06
473.968	78.06
474.187	82.06
474.406	66.06
474.625	81.06
474.844	88.06
475.063	81.06
475.282	84.06
475.501	83.06
475.72	86.06
475.939	81.06
476.158	92.06
476.377	89.06
476.596	81.06
476.814	79.06
477.033	74.06
477.252	95.06
477.471	94.06
477.69	84.06
477.908	86.06
478.127	81.06
478.346	74.06
478.564	80.06
478.783	101.06
479.002	82.06
479.22	71.06
479.439	96.06
479.658	86.06
479.876	73.06
480.095	69.06
480.313	81.06
480.532	82.06
480.751	85.06
480.969	81.06
481.188	65.06
481.406	88.06
481.624	91.06
481.843	97.06
482.061	98.06
482.28	81.06
482.498	81.06
482.717	77.06
482.935	68.06
483.153	80.06
483.372	94.06
483.59	87.06
483.808	68.06
484.027	74.06
484.245	82.06
484.463	87.06
484.681	102.06
484.9	98.06
485.118	72.06
485.336	80.06
485.554	93.06
485.772	71.06
485.99	84.06
486.209	90.06
486.427	80.06
486.645	81.06
486.863	77.06
487.081	89.06
487.299	97.06
487.517	88.06
487.735	89.06
487.953	89.06
488.171	92.06
488.389	85.06
488.607	84.06
488.825	86.06
489.043	84.06
489.261	85.06
489.479	78.06
489.696	85.06
489.914	92.06
490.132	94.06
490.35	84.06
490.568	86.06
490.786	89.06
491.003	86.06
491.221	79.06
491.439	97.06
491.657	70.06
491.874	81.06
492.092	86.06
492.31	76.06
492.527	68.06
492.745	94.06
492.963	83.06
493.18	81.06
493.398	87.06
493.615	80.06
493.833	89.06
494.05	92.06
494.268	91.06
494.485	92.06
494.703	86.06
494.92	82.06
495.138	90.06
495.355	95.06
495.573	88.06
495.79	90.06
496.008	83.06
496.225	79.06
496.442	98.06
496.66	82.06
496.877	75.06
497.094	95.06
497.312	73.06
497.529	87.06
497.746	95.06
497.963	82.06
498.181	76.06
498.398	88.06
498.615	92.06
498.832	84.06
499.049	82.06
499.267	91.06
499.484	91.06
499.701	77.06
499.918	98.06
500.135	88.06
500.352	78.06
500.569	80.06
500.786	81.06
501.003	88.06
501.22	73.06
501.437	88.06
501.654	89.06
501.871	82.06
502.088	77.06
502.305	82.06
502.522	78.06
502.739	78.06
502.956	91.06
503.172	96.06
503.389	85.06
503.606	87.06
503.823	73.06
504.04	90.06
504.256	92.06
504.473	76.06
504.69	79.06
504.907	93.06
505.123	94.06
505.34	86.06
505.557	81.06
505.773	88.06
505.99	88.06
506.207	81.06
506.423	84.06
506.64	81.06
506.856	92.06
507.073	84.06
507.289	78.06
507.506	81.06
507.722	87.06
507.939	88.06
508.155	85.06
508.372	84.06
508.588	92.06
508.805	83.06
509.021	81.06
509.238	66.06
509.454	94.06
509.67	87.06
509.887	78.06
510.103	84.06
510.319	90.06
510.536	87.06
510.752	79.06
510.968	87.06
511.184	94.06
511.401	86.06
511.617	77.06
511.833	79.06
512.049	91.06
512.265	71.06
512.481	83.06
512.698	91.06
512.914	106.06
513.13	84.06
513.346	84.06
513.562	94.06
513.778	81.06
513.994	78.06
514.21	89.06
514.426	86.06
514.642	93.06
514.858	73.06
515.074	89.06
515.29	81.06
515.506	69.06
515.721	82.06
515.937	99.06
516.153	102.06
516.369	92.06
516.585	90.06
516.801	92.06
517.016	85.06
517.232	90.06
517.448	82.06
517.664	94.06
517.879	71.06
518.095	91.06
518.311	94.06
518.527	104.06
518.742	93.06
518.958	92.06
519.173	86.06
519.389	83.06
519.605	86.06
