Data from 1600_2_HRD10591_00024.txt Node
Date: Mon Jan 19 13:53:53 EST 2026
User: Yrep
Spectrometer: HR+D1059
Trigger mode: 1
Integration Time (sec): 1.000000E-1
Scans to average: 1
Electric dark correction enabled: true
Nonlinearity correction enabled: false
Boxcar width: 0
XAxis mode: Wavelengths
Number of Pixels in Spectrum: 2048
>>>>>Begin Spectral Data<<<<<
223.165	-10.31
223.4	-10.31
223.635	-10.31
223.869	-29.31
224.104	-38.31
224.338	-16.31
224.573	-13.31
224.808	-13.31
225.042	-3.31
225.277	-15.31
225.511	-1.31
225.746	-6.31
225.98	-2.31
226.215	9.69
226.449	32.69
226.683	31.69
226.918	31.69
227.152	43.69
227.387	29.69
227.621	40.69
227.856	44.69
228.09	40.69
228.324	47.69
228.559	63.69
228.793	56.69
229.027	60.69
229.262	68.69
229.496	63.69
229.73	83.69
229.964	56.69
230.199	72.69
230.433	82.69
230.667	92.69
230.901	83.69
231.136	92.69
231.37	65.69
231.604	69.69
231.838	84.69
232.072	86.69
232.306	78.69
232.541	84.69
232.775	71.69
233.009	77.69
233.243	77.69
233.477	83.69
233.711	76.69
233.945	85.69
234.179	78.69
234.413	77.69
234.647	70.69
234.881	83.69
235.115	79.69
235.349	71.69
235.583	79.69
235.817	68.69
236.051	74.69
236.285	66.69
236.519	71.69
236.753	81.69
236.987	90.69
237.221	80.69
237.455	81.69
237.689	78.69
237.922	60.69
238.156	67.69
238.39	76.69
238.624	85.69
238.858	71.69
239.091	85.69
239.325	65.69
239.559	69.69
239.793	77.69
240.027	65.69
240.26	67.69
240.494	62.69
240.728	72.69
240.961	75.69
241.195	75.69
241.429	71.69
241.662	71.69
241.896	75.69
242.13	73.69
242.363	69.69
242.597	82.69
242.83	78.69
243.064	73.69
243.298	77.69
243.531	83.69
243.765	71.69
243.998	75.69
244.232	71.69
244.465	85.69
244.699	92.69
244.932	71.69
245.166	71.69
245.399	80.69
245.633	69.69
245.866	76.69
246.099	77.69
246.333	76.69
246.566	79.69
246.8	83.69
247.033	69.69
247.266	61.69
247.5	80.69
247.733	79.69
247.966	82.69
248.2	84.69
248.433	84.69
248.666	73.69
248.899	76.69
249.133	81.69
249.366	86.69
249.599	72.69
249.832	80.69
250.066	91.69
250.299	82.69
250.532	79.69
250.765	79.69
250.998	72.69
251.231	79.69
251.465	85.69
251.698	88.69
251.931	87.69
252.164	80.69
252.397	85.69
252.63	85.69
252.863	79.69
253.096	69.69
253.329	76.69
253.562	76.69
253.795	86.69
254.028	84.69
254.261	82.69
254.494	82.69
254.727	71.69
254.96	71.69
255.193	85.69
255.426	78.69
255.659	88.69
255.892	82.69
256.124	87.69
256.357	91.69
256.59	69.69
256.823	83.69
257.056	71.69
257.289	71.69
257.521	94.69
257.754	85.69
257.987	95.69
258.22	76.69
258.452	80.69
258.685	78.69
258.918	78.69
259.151	76.69
259.383	84.69
259.616	92.69
259.849	64.69
260.081	75.69
260.314	70.69
260.547	85.69
260.779	86.69
261.012	79.69
261.244	79.69
261.477	80.69
261.71	70.69
261.942	77.69
262.175	89.69
262.407	91.69
262.64	83.69
262.872	79.69
263.105	80.69
263.337	69.69
263.57	88.69
263.802	69.69
264.035	92.69
264.267	84.69
264.499	89.69
264.732	95.69
264.964	92.69
265.197	82.69
265.429	76.69
265.661	77.69
265.894	85.69
266.126	83.69
266.358	92.69
266.591	87.69
266.823	83.69
267.055	79.69
267.287	87.69
267.52	65.69
267.752	81.69
267.984	85.69
268.216	83.69
268.448	91.69
268.681	80.69
268.913	100.69
269.145	84.69
269.377	78.69
269.609	79.69
269.841	67.69
270.073	92.69
270.306	70.69
270.538	79.69
270.77	72.69
271.002	77.69
271.234	97.69
271.466	91.69
271.698	87.69
271.93	89.69
272.162	88.69
272.394	94.69
272.626	95.69
272.858	87.69
273.09	82.69
273.322	82.69
273.553	62.69
273.785	89.69
274.017	68.69
274.249	96.69
274.481	79.69
274.713	67.69
274.945	91.69
275.176	90.69
275.408	66.69
275.64	80.69
275.872	73.69
276.104	83.69
276.335	76.69
276.567	91.69
276.799	81.69
277.031	89.69
277.262	86.69
277.494	86.69
277.726	93.69
277.957	97.69
278.189	84.69
278.421	87.69
278.652	71.69
278.884	81.69
279.115	79.69
279.347	68.69
279.579	74.69
279.81	78.69
280.042	74.69
280.273	73.69
280.505	72.69
280.736	104.69
280.968	77.69
281.199	80.69
281.431	82.69
281.662	89.69
281.894	80.69
282.125	91.69
282.356	70.69
282.588	79.69
282.819	79.69
283.051	72.69
283.282	81.69
283.513	86.69
283.745	103.69
283.976	74.69
284.207	77.69
284.439	76.69
284.67	76.69
284.901	82.69
285.132	73.69
285.364	94.69
285.595	85.69
285.826	81.69
286.057	87.69
286.288	66.69
286.52	67.69
286.751	72.69
286.982	88.69
287.213	77.69
287.444	96.69
287.675	87.69
287.906	85.69
288.138	83.69
288.369	88.69
288.6	95.69
288.831	79.69
289.062	83.69
289.293	85.69
289.524	88.69
289.755	81.69
289.986	80.69
290.217	96.69
290.448	74.69
290.679	71.69
290.91	85.69
291.141	76.69
291.371	84.69
291.602	88.69
291.833	89.69
292.064	95.69
292.295	80.69
292.526	94.69
292.757	83.69
292.987	91.69
293.218	75.69
293.449	82.69
293.68	79.69
293.91	82.69
294.141	81.69
294.372	88.69
294.603	81.69
294.833	87.69
295.064	85.69
295.295	83.69
295.525	93.69
295.756	91.69
295.987	84.69
296.217	83.69
296.448	81.69
296.679	93.69
296.909	96.69
297.14	80.69
297.37	85.69
297.601	81.69
297.831	85.69
298.062	91.69
298.292	89.69
298.523	99.69
298.753	95.69
298.984	88.69
299.214	71.69
299.445	71.69
299.675	80.69
299.905	94.69
300.136	94.69
300.366	80.69
300.597	89.69
300.827	75.69
301.057	94.69
301.288	89.69
301.518	65.69
301.748	85.69
301.979	119.69
302.209	92.69
302.439	89.69
302.669	81.69
302.9	95.69
303.13	85.69
303.36	86.69
303.59	87.69
303.82	77.69
304.051	74.69
304.281	96.69
304.511	77.69
304.741	83.69
304.971	79.69
305.201	81.69
305.431	95.69
305.661	76.69
305.891	87.69
306.121	87.69
306.352	86.69
306.582	85.69
306.812	98.69
307.042	81.69
307.272	77.69
307.502	92.69
307.731	79.69
307.961	101.69
308.191	91.69
308.421	85.69
308.651	94.69
308.881	86.69
309.111	83.69
309.341	95.69
309.571	91.69
309.8	81.69
310.03	87.69
310.26	79.69
310.49	75.69
310.72	83.69
310.949	88.69
311.179	83.69
311.409	89.69
311.639	92.69
311.868	82.69
312.098	85.69
312.328	69.69
312.557	92.69
312.787	94.69
313.017	86.69
313.246	83.69
313.476	74.69
313.706	70.69
313.935	72.69
314.165	78.69
314.394	84.69
314.624	63.69
314.853	84.69
315.083	81.69
315.312	80.69
315.542	86.69
315.771	91.69
316.001	85.69
316.23	95.69
316.46	76.69
316.689	77.69
316.919	87.69
317.148	99.69
317.377	98.69
317.607	90.69
317.836	97.69
318.065	85.69
318.295	96.69
318.524	93.69
318.753	92.69
318.983	79.69
319.212	97.69
319.441	82.69
319.67	91.69
319.9	77.69
320.129	93.69
320.358	74.69
320.587	86.69
320.816	87.69
321.046	79.69
321.275	89.69
321.504	87.69
321.733	79.69
321.962	84.69
322.191	86.69
322.42	83.69
322.649	79.69
322.878	88.69
323.108	72.69
323.337	88.69
323.566	71.69
323.795	86.69
324.024	95.69
324.253	91.69
324.482	83.69
324.71	93.69
324.939	92.69
325.168	79.69
325.397	86.69
325.626	76.69
325.855	87.69
326.084	83.69
326.313	92.69
326.542	87.69
326.77	85.69
326.999	86.69
327.228	74.69
327.457	87.69
327.686	73.69
327.914	87.69
328.143	86.69
328.372	87.69
328.6	84.69
328.829	76.69
329.058	84.69
329.287	77.69
329.515	82.69
329.744	92.69
329.972	89.69
330.201	84.69
330.43	76.69
330.658	91.69
330.887	81.69
331.115	91.69
331.344	91.69
331.572	96.69
331.801	82.69
332.03	93.69
332.258	85.69
332.486	86.69
332.715	82.69
332.943	86.69
333.172	74.69
333.4	67.69
333.629	84.69
333.857	85.69
334.085	82.69
334.314	89.69
334.542	66.69
334.771	87.69
334.999	79.69
335.227	100.69
335.455	94.69
335.684	91.69
335.912	80.69
336.14	80.69
336.369	79.69
336.597	73.69
336.825	85.69
337.053	83.69
337.281	75.69
337.51	80.69
337.738	94.69
337.966	89.69
338.194	79.69
338.422	83.69
338.65	79.69
338.878	78.69
339.106	77.69
339.334	80.69
339.562	76.69
339.79	76.69
340.018	78.69
340.246	85.69
340.474	87.69
340.702	79.69
340.93	83.69
341.158	72.69
341.386	79.69
341.614	91.69
341.842	82.69
342.07	71.69
342.298	81.69
342.526	77.69
342.754	80.69
342.981	72.69
343.209	69.69
343.437	82.69
343.665	89.69
343.893	78.69
344.12	96.69
344.348	89.69
344.576	71.69
344.804	80.69
345.031	80.69
345.259	91.69
345.487	87.69
345.714	93.69
345.942	71.69
346.17	77.69
346.397	96.69
346.625	91.69
346.853	84.69
347.08	88.69
347.308	92.69
347.535	92.69
347.763	105.69
347.99	106.69
348.218	94.69
348.445	79.69
348.673	84.69
348.9	83.69
349.128	88.69
349.355	73.69
349.583	86.69
349.81	84.69
350.037	101.69
350.265	79.69
350.492	83.69
350.72	64.69
350.947	79.69
351.174	79.69
351.402	82.69
351.629	79.69
351.856	91.69
352.083	77.69
352.311	78.69
352.538	80.69
352.765	84.69
352.992	85.69
353.22	93.69
353.447	79.69
353.674	92.69
353.901	85.69
354.128	77.69
354.355	73.69
354.583	100.69
354.81	85.69
355.037	93.69
355.264	85.69
355.491	77.69
355.718	76.69
355.945	76.69
356.172	74.69
356.399	86.69
356.626	90.69
356.853	87.69
357.08	90.69
357.307	88.69
357.534	87.69
357.761	92.69
357.988	91.69
358.215	96.69
358.441	88.69
358.668	88.69
358.895	83.69
359.122	88.69
359.349	81.69
359.576	71.69
359.802	64.69
360.029	77.69
360.256	83.69
360.483	86.69
360.709	85.69
360.936	85.69
361.163	88.69
361.39	71.69
361.616	88.69
361.843	77.69
362.07	91.69
362.296	96.69
362.523	79.69
362.749	103.69
362.976	82.69
363.203	97.69
363.429	87.69
363.656	91.69
363.882	91.69
364.109	95.69
364.335	87.69
364.562	96.69
364.788	90.69
365.015	86.69
365.241	88.69
365.468	90.69
365.694	68.69
365.92	81.69
366.147	83.69
366.373	86.69
366.599	79.69
366.826	98.69
367.052	74.69
367.278	86.69
367.505	74.69
367.731	95.69
367.957	84.69
368.184	91.69
368.41	69.69
368.636	85.69
368.862	77.69
369.089	79.69
369.315	92.69
369.541	93.69
369.767	77.69
369.993	87.69
370.219	83.69
370.445	82.69
370.672	87.69
370.898	75.69
371.124	83.69
371.35	82.69
371.576	84.69
371.802	83.69
372.028	79.69
372.254	82.69
372.48	89.69
372.706	99.69
372.932	97.69
373.158	92.69
373.384	100.69
373.61	108.69
373.835	91.69
374.061	81.69
374.287	88.69
374.513	95.69
374.739	86.69
374.965	100.69
375.191	90.69
375.416	91.69
375.642	92.69
375.868	90.69
376.094	102.69
376.319	73.69
376.545	87.69
376.771	78.69
376.997	79.69
377.222	83.69
377.448	83.69
377.674	75.69
377.899	73.69
378.125	75.69
378.35	73.69
378.576	84.69
378.802	81.69
379.027	79.69
379.253	86.69
379.478	83.69
379.704	95.69
379.929	71.69
380.155	81.69
380.38	75.69
380.606	68.69
380.831	84.69
381.057	85.69
381.282	76.69
381.507	84.69
381.733	77.69
381.958	76.69
382.184	93.69
382.409	101.69
382.634	92.69
382.86	95.69
383.085	87.69
383.31	96.69
383.535	95.69
383.761	100.69
383.986	89.69
384.211	84.69
384.436	102.69
384.662	79.69
384.887	73.69
385.112	92.69
385.337	83.69
385.562	75.69
385.787	83.69
386.013	96.69
386.238	80.69
386.463	94.69
386.688	101.69
386.913	85.69
387.138	73.69
387.363	86.69
387.588	84.69
387.813	85.69
388.038	94.69
388.263	87.69
388.488	79.69
388.713	90.69
388.938	79.69
389.163	72.69
389.387	87.69
389.612	87.69
389.837	83.69
390.062	73.69
390.287	85.69
390.512	101.69
390.736	82.69
390.961	91.69
391.186	84.69
391.411	90.69
391.636	73.69
391.86	76.69
392.085	74.69
392.31	95.69
392.534	92.69
392.759	102.69
392.984	113.69
393.208	171.69
393.433	211.69
393.658	167.69
393.882	99.69
394.107	113.69
394.331	99.69
394.556	108.69
394.78	100.69
395.005	90.69
395.229	84.69
395.454	82.69
395.678	87.69
395.903	86.69
396.127	108.69
396.352	144.69
396.576	119.69
396.801	161.69
397.025	174.69
397.249	111.69
397.474	104.69
397.698	81.69
397.922	68.69
398.147	68.69
398.371	82.69
398.595	82.69
398.82	82.69
399.044	76.69
399.268	82.69
399.492	72.69
399.717	82.69
399.941	86.69
400.165	87.69
400.389	82.69
400.613	98.69
400.837	76.69
401.062	78.69
401.286	80.69
401.51	65.69
401.734	78.69
401.958	78.69
402.182	76.69
402.406	81.69
402.63	96.69
402.854	81.69
403.078	84.69
403.302	90.69
403.526	87.69
403.75	85.69
403.974	93.69
404.198	97.69
404.422	121.69
404.645	133.69
404.869	102.69
405.093	84.69
405.317	87.69
405.541	94.69
405.765	79.69
405.988	79.69
406.212	74.69
406.436	88.69
406.66	74.69
406.883	86.69
407.107	74.69
407.331	68.69
407.555	80.69
407.778	95.69
408.002	89.69
408.226	79.69
408.449	79.69
408.673	84.69
408.896	65.69
409.12	68.69
409.344	62.69
409.567	86.69
409.791	82.69
410.014	73.69
410.238	78.69
410.461	69.69
410.685	79.69
410.908	61.69
411.132	73.69
411.355	76.69
411.578	74.69
411.802	65.69
412.025	82.69
412.249	83.69
412.472	67.69
412.695	72.69
412.919	82.69
413.142	105.69
413.365	72.69
413.589	71.69
413.812	87.69
414.035	77.69
414.258	90.69
414.482	68.69
414.705	74.69
414.928	81.69
415.151	74.69
415.374	73.69
415.597	71.69
415.821	83.69
416.044	83.69
416.267	92.69
416.49	83.69
416.713	81.69
416.936	94.69
417.159	71.69
417.382	87.69
417.605	72.69
417.828	85.69
418.051	73.69
418.274	73.69
418.497	96.69
418.72	89.69
418.943	79.69
419.166	84.69
419.389	83.69
419.611	83.69
419.834	77.69
420.057	80.69
420.28	78.69
420.503	81.69
420.726	89.69
420.948	86.69
421.171	65.69
421.394	84.69
421.617	84.69
421.839	95.69
422.062	97.69
422.285	114.69
422.507	195.69
422.73	284.69
422.953	256.69
423.175	133.69
423.398	106.69
423.621	99.69
423.843	80.69
424.066	81.69
424.288	83.69
424.511	70.69
424.733	79.69
424.956	74.69
425.178	78.69
425.401	74.69
425.623	80.69
425.846	81.69
426.068	89.69
426.291	92.69
426.513	85.69
426.735	76.69
426.958	87.69
427.18	82.69
427.402	95.69
427.625	73.69
427.847	88.69
428.069	87.69
428.292	118.69
428.514	121.69
428.736	89.69
428.958	107.69
429.181	104.69
429.403	87.69
429.625	76.69
429.847	112.69
430.069	113.69
430.292	125.69
430.514	131.69
430.736	110.69
430.958	115.69
431.18	88.69
431.402	73.69
431.624	100.69
431.846	94.69
432.068	115.69
432.29	75.69
432.512	85.69
432.734	68.69
432.956	70.69
433.178	68.69
433.4	77.69
433.622	71.69
433.844	71.69
434.066	87.69
434.287	73.69
434.509	80.69
434.731	93.69
434.953	90.69
435.175	93.69
435.397	67.69
435.618	85.69
435.84	66.69
436.062	85.69
436.284	78.69
436.505	73.69
436.727	79.69
436.949	83.69
437.17	87.69
437.392	73.69
437.614	83.69
437.835	89.69
438.057	76.69
438.278	94.69
438.5	88.69
438.721	83.69
438.943	88.69
439.165	96.69
439.386	74.69
439.608	73.69
439.829	79.69
440.05	80.69
440.272	80.69
440.493	73.69
440.715	71.69
440.936	94.69
441.158	87.69
441.379	73.69
441.6	78.69
441.822	86.69
442.043	72.69
442.264	89.69
442.486	113.69
442.707	113.69
442.928	107.69
443.149	92.69
443.371	109.69
443.592	134.69
443.813	127.69
444.034	96.69
444.255	87.69
444.476	93.69
444.698	82.69
444.919	70.69
445.14	170.69
445.361	159.69
445.582	185.69
445.803	150.69
446.024	103.69
446.245	97.69
446.466	72.69
446.687	81.69
446.908	71.69
447.129	83.69
447.35	89.69
447.571	87.69
447.792	74.69
448.013	72.69
448.234	78.69
448.455	76.69
448.675	81.69
448.896	79.69
449.117	77.69
449.338	79.69
449.559	95.69
449.779	73.69
450	76.69
450.221	85.69
450.442	87.69
450.662	73.69
450.883	87.69
451.104	78.69
451.324	75.69
451.545	85.69
451.766	88.69
451.986	85.69
452.207	81.69
452.428	93.69
452.648	83.69
452.869	83.69
453.089	75.69
453.31	77.69
453.53	86.69
453.751	68.69
453.971	83.69
454.192	90.69
454.412	69.69
454.633	88.69
454.853	73.69
455.073	77.69
455.294	81.69
455.514	82.69
455.734	77.69
455.955	70.69
456.175	73.69
456.395	87.69
456.616	78.69
456.836	84.69
457.056	71.69
457.276	88.69
457.497	80.69
457.717	76.69
457.937	90.69
458.157	93.69
458.377	85.69
458.598	91.69
458.818	75.69
459.038	68.69
459.258	84.69
459.478	75.69
459.698	85.69
459.918	77.69
460.138	85.69
460.358	84.69
460.578	90.69
460.798	78.69
461.018	94.69
461.238	67.69
461.458	103.69
461.678	90.69
461.898	83.69
462.118	78.69
462.338	84.69
462.558	77.69
462.777	83.69
462.997	78.69
463.217	79.69
463.437	73.69
463.657	87.69
463.876	83.69
464.096	78.69
464.316	75.69
464.536	74.69
464.755	91.69
464.975	68.69
465.195	86.69
465.414	86.69
465.634	89.69
465.854	92.69
466.073	89.69
466.293	71.69
466.512	82.69
466.732	91.69
466.951	69.69
467.171	87.69
467.391	81.69
467.61	85.69
467.829	84.69
468.049	88.69
468.268	76.69
468.488	77.69
468.707	79.69
468.927	80.69
469.146	81.69
469.365	81.69
469.585	68.69
469.804	68.69
470.023	84.69
470.243	81.69
470.462	85.69
470.681	91.69
470.901	79.69
471.12	69.69
471.339	79.69
471.558	77.69
471.777	70.69
471.997	85.69
472.216	77.69
472.435	65.69
472.654	95.69
472.873	94.69
473.092	76.69
473.311	69.69
473.53	84.69
473.749	86.69
473.968	89.69
474.187	80.69
474.406	66.69
474.625	63.69
474.844	85.69
475.063	91.69
475.282	88.69
475.501	76.69
475.72	95.69
475.939	83.69
476.158	94.69
476.377	91.69
476.596	73.69
476.814	84.69
477.033	87.69
477.252	83.69
477.471	69.69
477.69	85.69
477.908	74.69
478.127	99.69
478.346	70.69
478.564	69.69
478.783	76.69
479.002	77.69
479.22	80.69
479.439	87.69
479.658	79.69
479.876	74.69
480.095	80.69
480.313	82.69
480.532	83.69
480.751	82.69
480.969	76.69
481.188	72.69
481.406	68.69
481.624	73.69
481.843	83.69
482.061	85.69
482.28	91.69
482.498	78.69
482.717	75.69
482.935	83.69
483.153	89.69
483.372	84.69
483.59	84.69
483.808	91.69
484.027	89.69
484.245	85.69
484.463	77.69
484.681	101.69
484.9	84.69
485.118	77.69
485.336	76.69
485.554	74.69
485.772	71.69
485.99	81.69
486.209	73.69
486.427	92.69
486.645	92.69
486.863	89.69
487.081	79.69
487.299	84.69
487.517	70.69
487.735	94.69
487.953	101.69
488.171	109.69
488.389	90.69
488.607	74.69
488.825	73.69
489.043	60.69
489.261	96.69
489.479	84.69
489.696	94.69
489.914	99.69
490.132	87.69
490.35	73.69
490.568	80.69
490.786	91.69
491.003	80.69
491.221	89.69
491.439	84.69
491.657	91.69
491.874	83.69
492.092	91.69
492.31	84.69
492.527	91.69
492.745	86.69
492.963	76.69
493.18	86.69
493.398	86.69
493.615	92.69
493.833	85.69
494.05	76.69
494.268	84.69
494.485	85.69
494.703	86.69
494.92	95.69
495.138	83.69
495.355	83.69
495.573	88.69
495.79	88.69
496.008	88.69
496.225	74.69
496.442	87.69
496.66	82.69
496.877	65.69
497.094	91.69
497.312	83.69
497.529	76.69
497.746	84.69
497.963	93.69
498.181	89.69
498.398	108.69
498.615	98.69
498.832	89.69
499.049	87.69
499.267	89.69
499.484	88.69
499.701	87.69
499.918	84.69
500.135	81.69
500.352	85.69
500.569	87.69
500.786	90.69
501.003	78.69
501.22	75.69
501.437	90.69
501.654	80.69
501.871	71.69
502.088	78.69
502.305	107.69
502.522	79.69
502.739	99.69
502.956	83.69
503.172	84.69
503.389	73.69
503.606	97.69
503.823	101.69
504.04	84.69
504.256	95.69
504.473	86.69
504.69	83.69
504.907	88.69
505.123	89.69
505.34	93.69
505.557	80.69
505.773	92.69
505.99	81.69
506.207	91.69
506.423	79.69
506.64	94.69
506.856	81.69
507.073	92.69
507.289	83.69
507.506	95.69
507.722	98.69
507.939	83.69
508.155	99.69
508.372	81.69
508.588	77.69
508.805	87.69
509.021	73.69
509.238	79.69
509.454	100.69
509.67	81.69
509.887	83.69
510.103	104.69
510.319	82.69
510.536	79.69
510.752	93.69
510.968	77.69
511.184	73.69
511.401	81.69
511.617	87.69
511.833	77.69
512.049	81.69
512.265	108.69
512.481	98.69
512.698	78.69
512.914	88.69
513.13	80.69
513.346	84.69
513.562	93.69
513.778	85.69
513.994	82.69
514.21	75.69
514.426	83.69
514.642	87.69
514.858	87.69
515.074	94.69
515.29	91.69
515.506	84.69
515.721	87.69
515.937	79.69
516.153	81.69
516.369	92.69
516.585	73.69
516.801	75.69
517.016	84.69
517.232	97.69
517.448	95.69
517.664	88.69
517.879	82.69
518.095	100.69
518.311	92.69
518.527	106.69
518.742	96.69
518.958	93.69
519.173	103.69
