Data from 1600_2_HRD10591_00016.txt Node
Date: Mon Jan 19 13:53:49 EST 2026
User: Yrep
Spectrometer: HR+D1059
Trigger mode: 1
Integration Time (sec): 1.000000E-1
Scans to average: 1
Electric dark correction enabled: true
Nonlinearity correction enabled: false
Boxcar width: 0
XAxis mode: Wavelengths
Number of Pixels in Spectrum: 2048
>>>>>Begin Spectral Data<<<<<
223.165	-15.94
223.4	-15.94
223.635	-15.94
223.869	-28.94
224.104	-17.94
224.338	-17.94
224.573	-14.94
224.808	-28.94
225.042	-14.94
225.277	-3.94
225.511	3.06
225.746	2.06
225.98	16.06
226.215	17.06
226.449	16.06
226.683	23.06
226.918	27.06
227.152	39.06
227.387	40.06
227.621	48.06
227.856	60.06
228.09	52.06
228.324	44.06
228.559	64.06
228.793	74.06
229.027	51.06
229.262	73.06
229.496	54.06
229.73	63.06
229.964	82.06
230.199	66.06
230.433	76.06
230.667	76.06
230.901	83.06
231.136	80.06
231.37	74.06
231.604	68.06
231.838	77.06
232.072	86.06
232.306	75.06
232.541	82.06
232.775	79.06
233.009	81.06
233.243	71.06
233.477	87.06
233.711	67.06
233.945	78.06
234.179	79.06
234.413	71.06
234.647	86.06
234.881	72.06
235.115	72.06
235.349	78.06
235.583	89.06
235.817	78.06
236.051	82.06
236.285	68.06
236.519	82.06
236.753	79.06
236.987	79.06
237.221	75.06
237.455	72.06
237.689	82.06
237.922	79.06
238.156	71.06
238.39	78.06
238.624	84.06
238.858	77.06
239.091	66.06
239.325	69.06
239.559	65.06
239.793	82.06
240.027	68.06
240.26	63.06
240.494	72.06
240.728	74.06
240.961	67.06
241.195	87.06
241.429	71.06
241.662	76.06
241.896	88.06
242.13	71.06
242.363	76.06
242.597	79.06
242.83	70.06
243.064	66.06
243.298	81.06
243.531	88.06
243.765	71.06
243.998	69.06
244.232	56.06
244.465	80.06
244.699	76.06
244.932	77.06
245.166	86.06
245.399	86.06
245.633	70.06
245.866	71.06
246.099	86.06
246.333	64.06
246.566	81.06
246.8	80.06
247.033	73.06
247.266	82.06
247.5	73.06
247.733	79.06
247.966	77.06
248.2	70.06
248.433	72.06
248.666	76.06
248.899	83.06
249.133	73.06
249.366	88.06
249.599	90.06
249.832	72.06
250.066	78.06
250.299	88.06
250.532	73.06
250.765	78.06
250.998	96.06
251.231	75.06
251.465	76.06
251.698	80.06
251.931	89.06
252.164	84.06
252.397	65.06
252.63	68.06
252.863	81.06
253.096	71.06
253.329	91.06
253.562	80.06
253.795	83.06
254.028	80.06
254.261	83.06
254.494	80.06
254.727	92.06
254.96	74.06
255.193	80.06
255.426	88.06
255.659	94.06
255.892	86.06
256.124	90.06
256.357	80.06
256.59	86.06
256.823	76.06
257.056	89.06
257.289	89.06
257.521	83.06
257.754	78.06
257.987	79.06
258.22	77.06
258.452	82.06
258.685	80.06
258.918	79.06
259.151	78.06
259.383	72.06
259.616	71.06
259.849	75.06
260.081	84.06
260.314	78.06
260.547	81.06
260.779	90.06
261.012	72.06
261.244	82.06
261.477	74.06
261.71	82.06
261.942	77.06
262.175	83.06
262.407	78.06
262.64	73.06
262.872	88.06
263.105	72.06
263.337	83.06
263.57	78.06
263.802	80.06
264.035	73.06
264.267	79.06
264.499	78.06
264.732	82.06
264.964	84.06
265.197	80.06
265.429	87.06
265.661	73.06
265.894	86.06
266.126	90.06
266.358	76.06
266.591	79.06
266.823	98.06
267.055	87.06
267.287	75.06
267.52	75.06
267.752	79.06
267.984	74.06
268.216	68.06
268.448	74.06
268.681	84.06
268.913	70.06
269.145	92.06
269.377	74.06
269.609	77.06
269.841	92.06
270.073	85.06
270.306	87.06
270.538	76.06
270.77	73.06
271.002	80.06
271.234	82.06
271.466	85.06
271.698	91.06
271.93	74.06
272.162	78.06
272.394	69.06
272.626	77.06
272.858	97.06
273.09	95.06
273.322	83.06
273.553	80.06
273.785	90.06
274.017	79.06
274.249	83.06
274.481	92.06
274.713	75.06
274.945	83.06
275.176	86.06
275.408	77.06
275.64	78.06
275.872	89.06
276.104	84.06
276.335	74.06
276.567	86.06
276.799	90.06
277.031	87.06
277.262	80.06
277.494	89.06
277.726	92.06
277.957	92.06
278.189	69.06
278.421	79.06
278.652	82.06
278.884	78.06
279.115	90.06
279.347	94.06
279.579	71.06
279.81	86.06
280.042	86.06
280.273	76.06
280.505	62.06
280.736	82.06
280.968	68.06
281.199	92.06
281.431	68.06
281.662	86.06
281.894	81.06
282.125	83.06
282.356	84.06
282.588	78.06
282.819	80.06
283.051	86.06
283.282	91.06
283.513	80.06
283.745	69.06
283.976	83.06
284.207	94.06
284.439	70.06
284.67	100.06
284.901	86.06
285.132	79.06
285.364	85.06
285.595	86.06
285.826	85.06
286.057	83.06
286.288	77.06
286.52	88.06
286.751	87.06
286.982	90.06
287.213	76.06
287.444	89.06
287.675	95.06
287.906	79.06
288.138	78.06
288.369	81.06
288.6	70.06
288.831	70.06
289.062	81.06
289.293	79.06
289.524	94.06
289.755	83.06
289.986	101.06
290.217	81.06
290.448	99.06
290.679	97.06
290.91	86.06
291.141	78.06
291.371	88.06
291.602	94.06
291.833	81.06
292.064	86.06
292.295	84.06
292.526	77.06
292.757	70.06
292.987	70.06
293.218	66.06
293.449	84.06
293.68	82.06
293.91	73.06
294.141	88.06
294.372	85.06
294.603	78.06
294.833	91.06
295.064	85.06
295.295	76.06
295.525	86.06
295.756	94.06
295.987	85.06
296.217	94.06
296.448	87.06
296.679	83.06
296.909	86.06
297.14	92.06
297.37	72.06
297.601	85.06
297.831	90.06
298.062	79.06
298.292	74.06
298.523	76.06
298.753	79.06
298.984	89.06
299.214	84.06
299.445	82.06
299.675	85.06
299.905	88.06
300.136	82.06
300.366	85.06
300.597	87.06
300.827	84.06
301.057	85.06
301.288	80.06
301.518	101.06
301.748	86.06
301.979	103.06
302.209	89.06
302.439	71.06
302.669	87.06
302.9	91.06
303.13	78.06
303.36	92.06
303.59	76.06
303.82	82.06
304.051	86.06
304.281	85.06
304.511	87.06
304.741	95.06
304.971	89.06
305.201	87.06
305.431	93.06
305.661	86.06
305.891	93.06
306.121	90.06
306.352	85.06
306.582	82.06
306.812	78.06
307.042	95.06
307.272	84.06
307.502	86.06
307.731	83.06
307.961	95.06
308.191	92.06
308.421	100.06
308.651	96.06
308.881	103.06
309.111	70.06
309.341	100.06
309.571	104.06
309.8	77.06
310.03	74.06
310.26	101.06
310.49	75.06
310.72	81.06
310.949	82.06
311.179	64.06
311.409	69.06
311.639	89.06
311.868	86.06
312.098	95.06
312.328	81.06
312.557	98.06
312.787	79.06
313.017	86.06
313.246	96.06
313.476	74.06
313.706	93.06
313.935	92.06
314.165	99.06
314.394	81.06
314.624	78.06
314.853	80.06
315.083	84.06
315.312	102.06
315.542	67.06
315.771	76.06
316.001	88.06
316.23	90.06
316.46	90.06
316.689	83.06
316.919	97.06
317.148	83.06
317.377	75.06
317.607	79.06
317.836	93.06
318.065	95.06
318.295	80.06
318.524	85.06
318.753	89.06
318.983	82.06
319.212	82.06
319.441	76.06
319.67	90.06
319.9	96.06
320.129	77.06
320.358	87.06
320.587	85.06
320.816	90.06
321.046	78.06
321.275	97.06
321.504	91.06
321.733	95.06
321.962	83.06
322.191	93.06
322.42	78.06
322.649	83.06
322.878	76.06
323.108	71.06
323.337	98.06
323.566	70.06
323.795	83.06
324.024	88.06
324.253	76.06
324.482	65.06
324.71	72.06
324.939	92.06
325.168	76.06
325.397	83.06
325.626	84.06
325.855	72.06
326.084	88.06
326.313	92.06
326.542	88.06
326.77	91.06
326.999	76.06
327.228	76.06
327.457	81.06
327.686	85.06
327.914	69.06
328.143	81.06
328.372	76.06
328.6	77.06
328.829	81.06
329.058	71.06
329.287	91.06
329.515	80.06
329.744	85.06
329.972	91.06
330.201	95.06
330.43	90.06
330.658	90.06
330.887	73.06
331.115	88.06
331.344	95.06
331.572	84.06
331.801	76.06
332.03	78.06
332.258	86.06
332.486	86.06
332.715	81.06
332.943	92.06
333.172	88.06
333.4	63.06
333.629	83.06
333.857	77.06
334.085	84.06
334.314	79.06
334.542	84.06
334.771	89.06
334.999	83.06
335.227	79.06
335.455	85.06
335.684	87.06
335.912	81.06
336.14	80.06
336.369	93.06
336.597	86.06
336.825	93.06
337.053	79.06
337.281	88.06
337.51	96.06
337.738	92.06
337.966	87.06
338.194	96.06
338.422	102.06
338.65	85.06
338.878	83.06
339.106	78.06
339.334	70.06
339.562	95.06
339.79	83.06
340.018	92.06
340.246	85.06
340.474	78.06
340.702	79.06
340.93	74.06
341.158	70.06
341.386	68.06
341.614	76.06
341.842	88.06
342.07	68.06
342.298	77.06
342.526	97.06
342.754	78.06
342.981	87.06
343.209	86.06
343.437	85.06
343.665	93.06
343.893	95.06
344.12	84.06
344.348	86.06
344.576	76.06
344.804	94.06
345.031	80.06
345.259	92.06
345.487	85.06
345.714	90.06
345.942	99.06
346.17	80.06
346.397	86.06
346.625	77.06
346.853	70.06
347.08	71.06
347.308	82.06
347.535	73.06
347.763	70.06
347.99	82.06
348.218	83.06
348.445	81.06
348.673	78.06
348.9	82.06
349.128	93.06
349.355	83.06
349.583	79.06
349.81	86.06
350.037	72.06
350.265	84.06
350.492	76.06
350.72	86.06
350.947	81.06
351.174	82.06
351.402	84.06
351.629	72.06
351.856	82.06
352.083	92.06
352.311	88.06
352.538	81.06
352.765	87.06
352.992	84.06
353.22	84.06
353.447	82.06
353.674	83.06
353.901	74.06
354.128	84.06
354.355	84.06
354.583	71.06
354.81	81.06
355.037	78.06
355.264	86.06
355.491	87.06
355.718	88.06
355.945	86.06
356.172	87.06
356.399	87.06
356.626	101.06
356.853	92.06
357.08	99.06
357.307	78.06
357.534	74.06
357.761	85.06
357.988	92.06
358.215	92.06
358.441	97.06
358.668	84.06
358.895	92.06
359.122	80.06
359.349	87.06
359.576	91.06
359.802	82.06
360.029	77.06
360.256	78.06
360.483	79.06
360.709	79.06
360.936	98.06
361.163	97.06
361.39	86.06
361.616	79.06
361.843	94.06
362.07	92.06
362.296	101.06
362.523	86.06
362.749	81.06
362.976	92.06
363.203	86.06
363.429	93.06
363.656	76.06
363.882	85.06
364.109	80.06
364.335	93.06
364.562	94.06
364.788	97.06
365.015	92.06
365.241	103.06
365.468	92.06
365.694	79.06
365.92	93.06
366.147	90.06
366.373	83.06
366.599	74.06
366.826	82.06
367.052	78.06
367.278	88.06
367.505	71.06
367.731	82.06
367.957	79.06
368.184	82.06
368.41	86.06
368.636	95.06
368.862	91.06
369.089	76.06
369.315	90.06
369.541	83.06
369.767	86.06
369.993	96.06
370.219	81.06
370.445	82.06
370.672	79.06
370.898	80.06
371.124	92.06
371.35	70.06
371.576	80.06
371.802	74.06
372.028	91.06
372.254	86.06
372.48	73.06
372.706	71.06
372.932	88.06
373.158	73.06
373.384	98.06
373.61	94.06
373.835	85.06
374.061	91.06
374.287	90.06
374.513	89.06
374.739	82.06
374.965	99.06
375.191	106.06
375.416	91.06
375.642	80.06
375.868	87.06
376.094	88.06
376.319	86.06
376.545	88.06
376.771	90.06
376.997	86.06
377.222	83.06
377.448	78.06
377.674	82.06
377.899	78.06
378.125	83.06
378.35	76.06
378.576	62.06
378.802	91.06
379.027	89.06
379.253	100.06
379.478	82.06
379.704	76.06
379.929	73.06
380.155	89.06
380.38	90.06
380.606	92.06
380.831	71.06
381.057	100.06
381.282	79.06
381.507	85.06
381.733	98.06
381.958	73.06
382.184	95.06
382.409	90.06
382.634	93.06
382.86	92.06
383.085	85.06
383.31	103.06
383.535	107.06
383.761	96.06
383.986	95.06
384.211	87.06
384.436	88.06
384.662	84.06
384.887	93.06
385.112	82.06
385.337	89.06
385.562	84.06
385.787	92.06
386.013	102.06
386.238	87.06
386.463	91.06
386.688	91.06
386.913	88.06
387.138	86.06
387.363	91.06
387.588	80.06
387.813	77.06
388.038	83.06
388.263	91.06
388.488	78.06
388.713	79.06
388.938	83.06
389.163	83.06
389.387	84.06
389.612	90.06
389.837	95.06
390.062	87.06
390.287	94.06
390.512	90.06
390.736	76.06
390.961	85.06
391.186	81.06
391.411	79.06
391.636	81.06
391.86	78.06
392.085	80.06
392.31	94.06
392.534	95.06
392.759	106.06
392.984	102.06
393.208	136.06
393.433	161.06
393.658	143.06
393.882	99.06
394.107	86.06
394.331	96.06
394.556	106.06
394.78	104.06
395.005	77.06
395.229	84.06
395.454	90.06
395.678	84.06
395.903	100.06
396.127	110.06
396.352	112.06
396.576	100.06
396.801	133.06
397.025	142.06
397.249	97.06
397.474	94.06
397.698	80.06
397.922	88.06
398.147	66.06
398.371	82.06
398.595	74.06
398.82	83.06
399.044	87.06
399.268	84.06
399.492	84.06
399.717	90.06
399.941	83.06
400.165	75.06
400.389	72.06
400.613	81.06
400.837	78.06
401.062	85.06
401.286	72.06
401.51	85.06
401.734	90.06
401.958	84.06
402.182	85.06
402.406	83.06
402.63	78.06
402.854	72.06
403.078	83.06
403.302	87.06
403.526	82.06
403.75	85.06
403.974	99.06
404.198	96.06
404.422	112.06
404.645	111.06
404.869	109.06
405.093	93.06
405.317	95.06
405.541	91.06
405.765	71.06
405.988	90.06
406.212	91.06
406.436	68.06
406.66	75.06
406.883	77.06
407.107	93.06
407.331	102.06
407.555	78.06
407.778	93.06
408.002	88.06
408.226	81.06
408.449	84.06
408.673	73.06
408.896	81.06
409.12	74.06
409.344	86.06
409.567	87.06
409.791	93.06
410.014	79.06
410.238	80.06
410.461	74.06
410.685	67.06
410.908	85.06
411.132	76.06
411.355	66.06
411.578	90.06
411.802	91.06
412.025	58.06
412.249	78.06
412.472	82.06
412.695	73.06
412.919	64.06
413.142	70.06
413.365	76.06
413.589	86.06
413.812	73.06
414.035	78.06
414.258	82.06
414.482	86.06
414.705	79.06
414.928	76.06
415.151	91.06
415.374	91.06
415.597	74.06
415.821	69.06
416.044	84.06
416.267	76.06
416.49	80.06
416.713	71.06
416.936	82.06
417.159	72.06
417.382	80.06
417.605	91.06
417.828	86.06
418.051	80.06
418.274	77.06
418.497	76.06
418.72	88.06
418.943	78.06
419.166	87.06
419.389	77.06
419.611	79.06
419.834	71.06
420.057	73.06
420.28	84.06
420.503	84.06
420.726	76.06
420.948	78.06
421.171	83.06
421.394	84.06
421.617	83.06
421.839	86.06
422.062	79.06
422.285	106.06
422.507	172.06
422.73	225.06
422.953	194.06
423.175	111.06
423.398	92.06
423.621	79.06
423.843	74.06
424.066	68.06
424.288	80.06
424.511	82.06
424.733	92.06
424.956	87.06
425.178	94.06
425.401	77.06
425.623	82.06
425.846	71.06
426.068	78.06
426.291	81.06
426.513	78.06
426.735	84.06
426.958	77.06
427.18	84.06
427.402	95.06
427.625	76.06
427.847	90.06
428.069	96.06
428.292	95.06
428.514	102.06
428.736	85.06
428.958	92.06
429.181	90.06
429.403	78.06
429.625	82.06
429.847	91.06
430.069	111.06
430.292	121.06
430.514	108.06
430.736	113.06
430.958	117.06
431.18	98.06
431.402	100.06
431.624	82.06
431.846	94.06
432.068	100.06
432.29	90.06
432.512	97.06
432.734	92.06
432.956	83.06
433.178	81.06
433.4	78.06
433.622	90.06
433.844	74.06
434.066	91.06
434.287	93.06
434.509	62.06
434.731	77.06
434.953	76.06
435.175	93.06
435.397	89.06
435.618	81.06
435.84	86.06
436.062	94.06
436.284	81.06
436.505	80.06
436.727	79.06
436.949	77.06
437.17	81.06
437.392	93.06
437.614	77.06
437.835	78.06
438.057	84.06
438.278	76.06
438.5	97.06
438.721	94.06
438.943	85.06
439.165	88.06
439.386	85.06
439.608	75.06
439.829	82.06
440.05	69.06
440.272	91.06
440.493	84.06
440.715	88.06
440.936	75.06
441.158	75.06
441.379	78.06
441.6	94.06
441.822	78.06
442.043	79.06
442.264	85.06
442.486	95.06
442.707	113.06
442.928	94.06
443.149	80.06
443.371	98.06
443.592	128.06
443.813	126.06
444.034	87.06
444.255	77.06
444.476	64.06
444.698	71.06
444.919	86.06
445.14	175.06
445.361	129.06
445.582	151.06
445.803	130.06
446.024	93.06
446.245	80.06
446.466	86.06
446.687	77.06
446.908	91.06
447.129	83.06
447.35	78.06
447.571	73.06
447.792	84.06
448.013	82.06
448.234	77.06
448.455	80.06
448.675	92.06
448.896	83.06
449.117	94.06
449.338	82.06
449.559	80.06
449.779	91.06
450	68.06
450.221	79.06
450.442	80.06
450.662	98.06
450.883	84.06
451.104	99.06
451.324	80.06
451.545	80.06
451.766	80.06
451.986	89.06
452.207	74.06
452.428	73.06
452.648	82.06
452.869	82.06
453.089	82.06
453.31	80.06
453.53	91.06
453.751	84.06
453.971	99.06
454.192	97.06
454.412	83.06
454.633	90.06
454.853	86.06
455.073	79.06
455.294	88.06
455.514	78.06
455.734	87.06
455.955	82.06
456.175	90.06
456.395	89.06
456.616	88.06
456.836	75.06
457.056	84.06
457.276	83.06
457.497	88.06
457.717	79.06
457.937	98.06
458.157	90.06
458.377	93.06
458.598	92.06
458.818	95.06
459.038	88.06
459.258	88.06
459.478	91.06
459.698	76.06
459.918	83.06
460.138	94.06
460.358	79.06
460.578	80.06
460.798	78.06
461.018	99.06
461.238	84.06
461.458	84.06
461.678	65.06
461.898	98.06
462.118	82.06
462.338	74.06
462.558	83.06
462.777	78.06
462.997	72.06
463.217	94.06
463.437	77.06
463.657	84.06
463.876	88.06
464.096	95.06
464.316	87.06
464.536	77.06
464.755	83.06
464.975	78.06
465.195	72.06
465.414	64.06
465.634	80.06
465.854	92.06
466.073	66.06
466.293	76.06
466.512	75.06
466.732	66.06
466.951	87.06
467.171	69.06
467.391	81.06
467.61	74.06
467.829	85.06
468.049	88.06
468.268	77.06
468.488	90.06
468.707	85.06
468.927	92.06
469.146	90.06
469.365	91.06
469.585	83.06
469.804	91.06
470.023	69.06
470.243	79.06
470.462	91.06
470.681	75.06
470.901	77.06
471.12	75.06
471.339	75.06
471.558	73.06
471.777	95.06
471.997	76.06
472.216	72.06
472.435	87.06
472.654	85.06
472.873	77.06
473.092	89.06
473.311	77.06
473.53	83.06
473.749	98.06
473.968	68.06
474.187	82.06
474.406	85.06
474.625	87.06
474.844	87.06
475.063	77.06
475.282	72.06
475.501	70.06
475.72	100.06
475.939	80.06
476.158	80.06
476.377	86.06
476.596	88.06
476.814	87.06
477.033	89.06
477.252	62.06
477.471	85.06
477.69	80.06
477.908	86.06
478.127	81.06
478.346	88.06
478.564	82.06
478.783	70.06
479.002	98.06
479.22	76.06
479.439	84.06
479.658	70.06
479.876	82.06
480.095	92.06
480.313	78.06
480.532	92.06
480.751	88.06
480.969	80.06
481.188	77.06
481.406	93.06
481.624	78.06
481.843	77.06
482.061	63.06
482.28	88.06
482.498	88.06
482.717	84.06
482.935	78.06
483.153	87.06
483.372	98.06
483.59	88.06
483.808	80.06
484.027	91.06
484.245	84.06
484.463	83.06
484.681	94.06
484.9	82.06
485.118	84.06
485.336	79.06
485.554	88.06
485.772	83.06
485.99	84.06
486.209	93.06
486.427	86.06
486.645	86.06
486.863	83.06
487.081	82.06
487.299	86.06
487.517	73.06
487.735	99.06
487.953	100.06
488.171	102.06
488.389	87.06
488.607	92.06
488.825	95.06
489.043	81.06
489.261	95.06
489.479	80.06
489.696	93.06
489.914	78.06
490.132	80.06
490.35	80.06
490.568	75.06
490.786	93.06
491.003	90.06
491.221	87.06
491.439	68.06
491.657	82.06
491.874	87.06
492.092	97.06
492.31	86.06
492.527	94.06
492.745	87.06
492.963	81.06
493.18	94.06
493.398	90.06
493.615	87.06
493.833	74.06
494.05	90.06
494.268	86.06
494.485	102.06
494.703	91.06
494.92	95.06
495.138	91.06
495.355	91.06
495.573	74.06
495.79	86.06
496.008	90.06
496.225	69.06
496.442	86.06
496.66	86.06
496.877	93.06
497.094	75.06
497.312	80.06
497.529	93.06
497.746	90.06
497.963	93.06
498.181	86.06
498.398	82.06
498.615	87.06
498.832	82.06
499.049	94.06
499.267	92.06
499.484	84.06
499.701	79.06
499.918	77.06
500.135	91.06
500.352	92.06
500.569	75.06
500.786	86.06
501.003	82.06
501.22	85.06
501.437	88.06
501.654	91.06
501.871	94.06
502.088	86.06
502.305	90.06
502.522	86.06
502.739	87.06
502.956	84.06
503.172	78.06
503.389	75.06
503.606	83.06
503.823	101.06
504.04	81.06
504.256	92.06
504.473	82.06
504.69	76.06
504.907	85.06
505.123	82.06
505.34	73.06
505.557	75.06
505.773	93.06
505.99	89.06
506.207	94.06
506.423	82.06
506.64	84.06
506.856	92.06
507.073	83.06
507.289	92.06
507.506	84.06
507.722	74.06
507.939	72.06
508.155	83.06
508.372	74.06
508.588	90.06
508.805	91.06
509.021	82.06
509.238	78.06
509.454	85.06
509.67	85.06
509.887	86.06
510.103	81.06
510.319	87.06
510.536	91.06
510.752	83.06
510.968	80.06
511.184	82.06
511.401	94.06
511.617	84.06
511.833	91.06
512.049	72.06
512.265	87.06
512.481	90.06
512.698	74.06
512.914	71.06
513.13	83.06
513.346	81.06
513.562	80.06
513.778	98.06
513.994	80.06
514.21	87.06
514.426	85.06
514.642	82.06
514.858	86.06
515.074	80.06
515.29	86.06
515.506	91.06
515.721	84.06
515.937	93.06
516.153	74.06
516.369	93.06
516.585	90.06
516.801	89.06
517.016	106.06
517.232	80.06
517.448	101.06
517.664	84.06
517.879	104.06
518.095	86.06
518.311	90.06
518.527	126.06
518.742	94.06
518.958	91.06
519.173	91.06
519.389	90.06
