Data from 1600_2_HRD10591_00003.txt Node
Date: Mon Jan 19 13:53:42 EST 2026
User: Yrep
Spectrometer: HR+D1059
Trigger mode: 1
Integration Time (sec): 1.000000E-1
Scans to average: 1
Electric dark correction enabled: true
Nonlinearity correction enabled: false
Boxcar width: 0
XAxis mode: Wavelengths
Number of Pixels in Spectrum: 2048
>>>>>Begin Spectral Data<<<<<
223.165	-7.75
223.4	-7.75
223.635	-7.75
223.869	-6.75
224.104	-17.75
224.338	-21.75
224.573	-13.75
224.808	-15.75
225.042	-1.75
225.277	-1.75
225.511	-5.75
225.746	0.25
225.98	14.25
226.215	17.25
226.449	16.25
226.683	4.25
226.918	16.25
227.152	24.25
227.387	21.25
227.621	40.25
227.856	51.25
228.09	42.25
228.324	70.25
228.559	58.25
228.793	40.25
229.027	51.25
229.262	55.25
229.496	76.25
229.73	71.25
229.964	71.25
230.199	70.25
230.433	82.25
230.667	62.25
230.901	68.25
231.136	69.25
231.37	76.25
231.604	72.25
231.838	84.25
232.072	74.25
232.306	83.25
232.541	79.25
232.775	85.25
233.009	80.25
233.243	75.25
233.477	76.25
233.711	76.25
233.945	89.25
234.179	65.25
234.413	87.25
234.647	86.25
234.881	90.25
235.115	92.25
235.349	79.25
235.583	89.25
235.817	82.25
236.051	78.25
236.285	84.25
236.519	75.25
236.753	88.25
236.987	78.25
237.221	85.25
237.455	84.25
237.689	84.25
237.922	75.25
238.156	62.25
238.39	85.25
238.624	77.25
238.858	71.25
239.091	69.25
239.325	67.25
239.559	72.25
239.793	59.25
240.027	74.25
240.26	76.25
240.494	65.25
240.728	85.25
240.961	84.25
241.195	87.25
241.429	72.25
241.662	84.25
241.896	88.25
242.13	76.25
242.363	71.25
242.597	78.25
242.83	72.25
243.064	76.25
243.298	75.25
243.531	71.25
243.765	77.25
243.998	68.25
244.232	74.25
244.465	76.25
244.699	84.25
244.932	79.25
245.166	89.25
245.399	90.25
245.633	76.25
245.866	76.25
246.099	63.25
246.333	75.25
246.566	69.25
246.8	84.25
247.033	62.25
247.266	88.25
247.5	74.25
247.733	73.25
247.966	71.25
248.2	78.25
248.433	67.25
248.666	70.25
248.899	75.25
249.133	94.25
249.366	82.25
249.599	84.25
249.832	86.25
250.066	76.25
250.299	87.25
250.532	80.25
250.765	79.25
250.998	81.25
251.231	92.25
251.465	81.25
251.698	82.25
251.931	98.25
252.164	86.25
252.397	67.25
252.63	82.25
252.863	65.25
253.096	67.25
253.329	84.25
253.562	78.25
253.795	88.25
254.028	74.25
254.261	79.25
254.494	76.25
254.727	77.25
254.96	79.25
255.193	86.25
255.426	98.25
255.659	84.25
255.892	85.25
256.124	80.25
256.357	65.25
256.59	74.25
256.823	90.25
257.056	83.25
257.289	73.25
257.521	77.25
257.754	84.25
257.987	91.25
258.22	87.25
258.452	67.25
258.685	73.25
258.918	78.25
259.151	82.25
259.383	84.25
259.616	88.25
259.849	88.25
260.081	74.25
260.314	90.25
260.547	89.25
260.779	68.25
261.012	92.25
261.244	80.25
261.477	82.25
261.71	80.25
261.942	75.25
262.175	92.25
262.407	82.25
262.64	92.25
262.872	84.25
263.105	74.25
263.337	77.25
263.57	80.25
263.802	83.25
264.035	83.25
264.267	83.25
264.499	77.25
264.732	86.25
264.964	86.25
265.197	77.25
265.429	82.25
265.661	73.25
265.894	90.25
266.126	100.25
266.358	89.25
266.591	103.25
266.823	71.25
267.055	85.25
267.287	87.25
267.52	68.25
267.752	83.25
267.984	94.25
268.216	73.25
268.448	86.25
268.681	88.25
268.913	99.25
269.145	103.25
269.377	79.25
269.609	70.25
269.841	93.25
270.073	86.25
270.306	90.25
270.538	70.25
270.77	83.25
271.002	82.25
271.234	80.25
271.466	84.25
271.698	83.25
271.93	96.25
272.162	86.25
272.394	76.25
272.626	74.25
272.858	74.25
273.09	77.25
273.322	86.25
273.553	82.25
273.785	85.25
274.017	73.25
274.249	80.25
274.481	91.25
274.713	85.25
274.945	75.25
275.176	78.25
275.408	67.25
275.64	88.25
275.872	86.25
276.104	72.25
276.335	82.25
276.567	89.25
276.799	83.25
277.031	84.25
277.262	85.25
277.494	86.25
277.726	88.25
277.957	87.25
278.189	73.25
278.421	84.25
278.652	94.25
278.884	88.25
279.115	102.25
279.347	86.25
279.579	81.25
279.81	78.25
280.042	84.25
280.273	92.25
280.505	85.25
280.736	92.25
280.968	79.25
281.199	101.25
281.431	98.25
281.662	80.25
281.894	79.25
282.125	79.25
282.356	85.25
282.588	92.25
282.819	83.25
283.051	92.25
283.282	97.25
283.513	96.25
283.745	84.25
283.976	81.25
284.207	84.25
284.439	90.25
284.67	95.25
284.901	87.25
285.132	82.25
285.364	87.25
285.595	80.25
285.826	100.25
286.057	81.25
286.288	82.25
286.52	89.25
286.751	92.25
286.982	94.25
287.213	90.25
287.444	97.25
287.675	83.25
287.906	85.25
288.138	85.25
288.369	79.25
288.6	76.25
288.831	82.25
289.062	94.25
289.293	75.25
289.524	80.25
289.755	91.25
289.986	82.25
290.217	88.25
290.448	82.25
290.679	74.25
290.91	79.25
291.141	78.25
291.371	90.25
291.602	94.25
291.833	86.25
292.064	82.25
292.295	79.25
292.526	76.25
292.757	90.25
292.987	90.25
293.218	87.25
293.449	98.25
293.68	85.25
293.91	80.25
294.141	101.25
294.372	70.25
294.603	83.25
294.833	80.25
295.064	84.25
295.295	84.25
295.525	90.25
295.756	90.25
295.987	75.25
296.217	91.25
296.448	80.25
296.679	89.25
296.909	75.25
297.14	89.25
297.37	86.25
297.601	82.25
297.831	77.25
298.062	97.25
298.292	74.25
298.523	70.25
298.753	64.25
298.984	78.25
299.214	78.25
299.445	85.25
299.675	78.25
299.905	94.25
300.136	88.25
300.366	90.25
300.597	98.25
300.827	74.25
301.057	87.25
301.288	95.25
301.518	88.25
301.748	101.25
301.979	91.25
302.209	93.25
302.439	88.25
302.669	77.25
302.9	74.25
303.13	94.25
303.36	70.25
303.59	79.25
303.82	92.25
304.051	90.25
304.281	92.25
304.511	80.25
304.741	84.25
304.971	94.25
305.201	94.25
305.431	83.25
305.661	86.25
305.891	82.25
306.121	84.25
306.352	95.25
306.582	90.25
306.812	97.25
307.042	79.25
307.272	87.25
307.502	91.25
307.731	86.25
307.961	94.25
308.191	91.25
308.421	87.25
308.651	86.25
308.881	87.25
309.111	94.25
309.341	83.25
309.571	89.25
309.8	86.25
310.03	91.25
310.26	100.25
310.49	83.25
310.72	83.25
310.949	76.25
311.179	91.25
311.409	86.25
311.639	80.25
311.868	92.25
312.098	92.25
312.328	81.25
312.557	90.25
312.787	96.25
313.017	84.25
313.246	91.25
313.476	88.25
313.706	97.25
313.935	100.25
314.165	103.25
314.394	89.25
314.624	101.25
314.853	78.25
315.083	80.25
315.312	84.25
315.542	96.25
315.771	88.25
316.001	83.25
316.23	83.25
316.46	83.25
316.689	83.25
316.919	87.25
317.148	86.25
317.377	87.25
317.607	82.25
317.836	89.25
318.065	74.25
318.295	86.25
318.524	78.25
318.753	75.25
318.983	89.25
319.212	85.25
319.441	90.25
319.67	81.25
319.9	90.25
320.129	78.25
320.358	89.25
320.587	90.25
320.816	86.25
321.046	89.25
321.275	84.25
321.504	74.25
321.733	89.25
321.962	83.25
322.191	80.25
322.42	93.25
322.649	89.25
322.878	87.25
323.108	84.25
323.337	80.25
323.566	80.25
323.795	94.25
324.024	88.25
324.253	78.25
324.482	77.25
324.71	95.25
324.939	85.25
325.168	81.25
325.397	83.25
325.626	80.25
325.855	98.25
326.084	86.25
326.313	89.25
326.542	83.25
326.77	100.25
326.999	86.25
327.228	96.25
327.457	101.25
327.686	92.25
327.914	87.25
328.143	87.25
328.372	72.25
328.6	79.25
328.829	80.25
329.058	80.25
329.287	82.25
329.515	94.25
329.744	86.25
329.972	90.25
330.201	96.25
330.43	98.25
330.658	89.25
330.887	90.25
331.115	83.25
331.344	104.25
331.572	90.25
331.801	87.25
332.03	82.25
332.258	84.25
332.486	94.25
332.715	81.25
332.943	82.25
333.172	74.25
333.4	90.25
333.629	85.25
333.857	88.25
334.085	97.25
334.314	88.25
334.542	83.25
334.771	76.25
334.999	91.25
335.227	97.25
335.455	99.25
335.684	94.25
335.912	85.25
336.14	83.25
336.369	98.25
336.597	69.25
336.825	91.25
337.053	88.25
337.281	76.25
337.51	92.25
337.738	80.25
337.966	77.25
338.194	74.25
338.422	82.25
338.65	98.25
338.878	92.25
339.106	87.25
339.334	88.25
339.562	93.25
339.79	86.25
340.018	96.25
340.246	94.25
340.474	88.25
340.702	88.25
340.93	103.25
341.158	82.25
341.386	91.25
341.614	85.25
341.842	90.25
342.07	93.25
342.298	75.25
342.526	78.25
342.754	86.25
342.981	88.25
343.209	83.25
343.437	99.25
343.665	78.25
343.893	86.25
344.12	92.25
344.348	70.25
344.576	100.25
344.804	88.25
345.031	80.25
345.259	83.25
345.487	87.25
345.714	96.25
345.942	91.25
346.17	96.25
346.397	71.25
346.625	81.25
346.853	92.25
347.08	92.25
347.308	96.25
347.535	94.25
347.763	90.25
347.99	102.25
348.218	80.25
348.445	87.25
348.673	76.25
348.9	95.25
349.128	96.25
349.355	84.25
349.583	76.25
349.81	88.25
350.037	86.25
350.265	88.25
350.492	77.25
350.72	92.25
350.947	104.25
351.174	99.25
351.402	101.25
351.629	78.25
351.856	101.25
352.083	88.25
352.311	92.25
352.538	88.25
352.765	71.25
352.992	102.25
353.22	102.25
353.447	88.25
353.674	103.25
353.901	89.25
354.128	83.25
354.355	98.25
354.583	80.25
354.81	91.25
355.037	95.25
355.264	76.25
355.491	93.25
355.718	79.25
355.945	81.25
356.172	85.25
356.399	91.25
356.626	94.25
356.853	94.25
357.08	87.25
357.307	92.25
357.534	83.25
357.761	104.25
357.988	109.25
358.215	102.25
358.441	88.25
358.668	95.25
358.895	90.25
359.122	80.25
359.349	91.25
359.576	88.25
359.802	86.25
360.029	118.25
360.256	95.25
360.483	87.25
360.709	71.25
360.936	94.25
361.163	91.25
361.39	90.25
361.616	82.25
361.843	87.25
362.07	84.25
362.296	96.25
362.523	95.25
362.749	89.25
362.976	98.25
363.203	101.25
363.429	106.25
363.656	76.25
363.882	90.25
364.109	98.25
364.335	98.25
364.562	91.25
364.788	96.25
365.015	80.25
365.241	86.25
365.468	89.25
365.694	74.25
365.92	85.25
366.147	105.25
366.373	107.25
366.599	92.25
366.826	90.25
367.052	79.25
367.278	88.25
367.505	94.25
367.731	82.25
367.957	83.25
368.184	90.25
368.41	70.25
368.636	98.25
368.862	97.25
369.089	85.25
369.315	84.25
369.541	91.25
369.767	100.25
369.993	77.25
370.219	85.25
370.445	84.25
370.672	89.25
370.898	86.25
371.124	80.25
371.35	78.25
371.576	94.25
371.802	95.25
372.028	95.25
372.254	86.25
372.48	99.25
372.706	85.25
372.932	91.25
373.158	79.25
373.384	94.25
373.61	97.25
373.835	105.25
374.061	88.25
374.287	91.25
374.513	87.25
374.739	98.25
374.965	89.25
375.191	92.25
375.416	77.25
375.642	86.25
375.868	87.25
376.094	86.25
376.319	81.25
376.545	94.25
376.771	98.25
376.997	85.25
377.222	89.25
377.448	102.25
377.674	84.25
377.899	90.25
378.125	83.25
378.35	82.25
378.576	94.25
378.802	82.25
379.027	91.25
379.253	75.25
379.478	84.25
379.704	82.25
379.929	88.25
380.155	88.25
380.38	78.25
380.606	96.25
380.831	86.25
381.057	98.25
381.282	82.25
381.507	76.25
381.733	100.25
381.958	94.25
382.184	99.25
382.409	91.25
382.634	107.25
382.86	94.25
383.085	88.25
383.31	95.25
383.535	97.25
383.761	103.25
383.986	97.25
384.211	101.25
384.436	87.25
384.662	83.25
384.887	89.25
385.112	84.25
385.337	97.25
385.562	104.25
385.787	77.25
386.013	93.25
386.238	87.25
386.463	87.25
386.688	89.25
386.913	85.25
387.138	84.25
387.363	84.25
387.588	82.25
387.813	83.25
388.038	95.25
388.263	86.25
388.488	82.25
388.713	90.25
388.938	85.25
389.163	77.25
389.387	97.25
389.612	94.25
389.837	76.25
390.062	84.25
390.287	92.25
390.512	66.25
390.736	87.25
390.961	70.25
391.186	83.25
391.411	106.25
391.636	87.25
391.86	91.25
392.085	87.25
392.31	91.25
392.534	89.25
392.759	97.25
392.984	96.25
393.208	105.25
393.433	123.25
393.658	118.25
393.882	88.25
394.107	112.25
394.331	97.25
394.556	103.25
394.78	85.25
395.005	87.25
395.229	88.25
395.454	91.25
395.678	92.25
395.903	97.25
396.127	88.25
396.352	109.25
396.576	100.25
396.801	121.25
397.025	120.25
397.249	104.25
397.474	101.25
397.698	100.25
397.922	86.25
398.147	98.25
398.371	83.25
398.595	89.25
398.82	75.25
399.044	93.25
399.268	77.25
399.492	87.25
399.717	89.25
399.941	90.25
400.165	90.25
400.389	77.25
400.613	98.25
400.837	95.25
401.062	94.25
401.286	99.25
401.51	75.25
401.734	89.25
401.958	67.25
402.182	93.25
402.406	93.25
402.63	82.25
402.854	69.25
403.078	96.25
403.302	80.25
403.526	84.25
403.75	87.25
403.974	94.25
404.198	90.25
404.422	104.25
404.645	119.25
404.869	109.25
405.093	94.25
405.317	84.25
405.541	94.25
405.765	82.25
405.988	70.25
406.212	86.25
406.436	91.25
406.66	94.25
406.883	96.25
407.107	84.25
407.331	102.25
407.555	75.25
407.778	87.25
408.002	95.25
408.226	87.25
408.449	98.25
408.673	88.25
408.896	98.25
409.12	87.25
409.344	85.25
409.567	94.25
409.791	94.25
410.014	91.25
410.238	100.25
410.461	82.25
410.685	83.25
410.908	79.25
411.132	90.25
411.355	82.25
411.578	92.25
411.802	81.25
412.025	87.25
412.249	90.25
412.472	94.25
412.695	90.25
412.919	75.25
413.142	76.25
413.365	95.25
413.589	90.25
413.812	84.25
414.035	82.25
414.258	88.25
414.482	72.25
414.705	86.25
414.928	88.25
415.151	89.25
415.374	72.25
415.597	75.25
415.821	82.25
416.044	94.25
416.267	87.25
416.49	82.25
416.713	83.25
416.936	88.25
417.159	79.25
417.382	87.25
417.605	98.25
417.828	89.25
418.051	86.25
418.274	85.25
418.497	95.25
418.72	93.25
418.943	101.25
419.166	89.25
419.389	86.25
419.611	76.25
419.834	88.25
420.057	89.25
420.28	80.25
420.503	84.25
420.726	97.25
420.948	87.25
421.171	86.25
421.394	107.25
421.617	99.25
421.839	91.25
422.062	101.25
422.285	124.25
422.507	126.25
422.73	184.25
422.953	182.25
423.175	133.25
423.398	96.25
423.621	104.25
423.843	91.25
424.066	92.25
424.288	90.25
424.511	89.25
424.733	87.25
424.956	83.25
425.178	85.25
425.401	95.25
425.623	94.25
425.846	83.25
426.068	95.25
426.291	100.25
426.513	86.25
426.735	82.25
426.958	81.25
427.18	92.25
427.402	99.25
427.625	94.25
427.847	93.25
428.069	76.25
428.292	96.25
428.514	103.25
428.736	91.25
428.958	109.25
429.181	100.25
429.403	87.25
429.625	95.25
429.847	86.25
430.069	99.25
430.292	116.25
430.514	103.25
430.736	99.25
430.958	89.25
431.18	99.25
431.402	80.25
431.624	80.25
431.846	83.25
432.068	84.25
432.29	85.25
432.512	71.25
432.734	85.25
432.956	96.25
433.178	88.25
433.4	90.25
433.622	88.25
433.844	85.25
434.066	88.25
434.287	83.25
434.509	75.25
434.731	81.25
434.953	86.25
435.175	92.25
435.397	84.25
435.618	73.25
435.84	83.25
436.062	77.25
436.284	84.25
436.505	73.25
436.727	83.25
436.949	77.25
437.17	93.25
437.392	71.25
437.614	84.25
437.835	91.25
438.057	76.25
438.278	75.25
438.5	84.25
438.721	85.25
438.943	77.25
439.165	89.25
439.386	76.25
439.608	98.25
439.829	89.25
440.05	82.25
440.272	92.25
440.493	88.25
440.715	92.25
440.936	84.25
441.158	71.25
441.379	85.25
441.6	85.25
441.822	83.25
442.043	96.25
442.264	89.25
442.486	92.25
442.707	100.25
442.928	95.25
443.149	85.25
443.371	115.25
443.592	111.25
443.813	103.25
444.034	97.25
444.255	82.25
444.476	74.25
444.698	84.25
444.919	87.25
445.14	169.25
445.361	139.25
445.582	139.25
445.803	106.25
446.024	89.25
446.245	89.25
446.466	85.25
446.687	88.25
446.908	83.25
447.129	85.25
447.35	91.25
447.571	92.25
447.792	82.25
448.013	90.25
448.234	86.25
448.455	74.25
448.675	68.25
448.896	97.25
449.117	82.25
449.338	87.25
449.559	82.25
449.779	84.25
450	70.25
450.221	86.25
450.442	90.25
450.662	83.25
450.883	93.25
451.104	80.25
451.324	91.25
451.545	88.25
451.766	94.25
451.986	87.25
452.207	77.25
452.428	73.25
452.648	88.25
452.869	74.25
453.089	80.25
453.31	86.25
453.53	80.25
453.751	83.25
453.971	83.25
454.192	80.25
454.412	83.25
454.633	79.25
454.853	88.25
455.073	85.25
455.294	89.25
455.514	91.25
455.734	74.25
455.955	98.25
456.175	94.25
456.395	94.25
456.616	81.25
456.836	88.25
457.056	86.25
457.276	77.25
457.497	80.25
457.717	94.25
457.937	88.25
458.157	78.25
458.377	85.25
458.598	90.25
458.818	92.25
459.038	85.25
459.258	75.25
459.478	88.25
459.698	91.25
459.918	92.25
460.138	87.25
460.358	87.25
460.578	88.25
460.798	102.25
461.018	90.25
461.238	97.25
461.458	86.25
461.678	76.25
461.898	76.25
462.118	89.25
462.338	93.25
462.558	92.25
462.777	74.25
462.997	75.25
463.217	80.25
463.437	74.25
463.657	89.25
463.876	93.25
464.096	68.25
464.316	74.25
464.536	79.25
464.755	94.25
464.975	87.25
465.195	78.25
465.414	98.25
465.634	83.25
465.854	78.25
466.073	100.25
466.293	101.25
466.512	89.25
466.732	70.25
466.951	84.25
467.171	94.25
467.391	80.25
467.61	95.25
467.829	72.25
468.049	95.25
468.268	87.25
468.488	83.25
468.707	88.25
468.927	74.25
469.146	81.25
469.365	87.25
469.585	77.25
469.804	92.25
470.023	87.25
470.243	79.25
470.462	92.25
470.681	76.25
470.901	82.25
471.12	87.25
471.339	73.25
471.558	84.25
471.777	88.25
471.997	89.25
472.216	82.25
472.435	80.25
472.654	81.25
472.873	95.25
473.092	87.25
473.311	95.25
473.53	83.25
473.749	93.25
473.968	80.25
474.187	94.25
474.406	91.25
474.625	75.25
474.844	83.25
475.063	66.25
475.282	82.25
475.501	94.25
475.72	87.25
475.939	89.25
476.158	74.25
476.377	91.25
476.596	94.25
476.814	94.25
477.033	88.25
477.252	85.25
477.471	95.25
477.69	74.25
477.908	82.25
478.127	82.25
478.346	85.25
478.564	70.25
478.783	94.25
479.002	80.25
479.22	74.25
479.439	96.25
479.658	96.25
479.876	98.25
480.095	91.25
480.313	82.25
480.532	81.25
480.751	83.25
480.969	86.25
481.188	102.25
481.406	91.25
481.624	93.25
481.843	93.25
482.061	87.25
482.28	87.25
482.498	76.25
482.717	76.25
482.935	82.25
483.153	91.25
483.372	87.25
483.59	85.25
483.808	82.25
484.027	90.25
484.245	91.25
484.463	89.25
484.681	94.25
484.9	83.25
485.118	92.25
485.336	87.25
485.554	92.25
485.772	86.25
485.99	96.25
486.209	90.25
486.427	83.25
486.645	96.25
486.863	84.25
487.081	93.25
487.299	91.25
487.517	99.25
487.735	87.25
487.953	97.25
488.171	96.25
488.389	90.25
488.607	98.25
488.825	84.25
489.043	86.25
489.261	104.25
489.479	90.25
489.696	95.25
489.914	88.25
490.132	89.25
490.35	80.25
490.568	90.25
490.786	85.25
491.003	90.25
491.221	81.25
491.439	96.25
491.657	87.25
491.874	88.25
492.092	97.25
492.31	89.25
492.527	85.25
492.745	85.25
492.963	88.25
493.18	72.25
493.398	89.25
493.615	86.25
493.833	83.25
494.05	83.25
494.268	82.25
494.485	97.25
494.703	82.25
494.92	93.25
495.138	96.25
495.355	101.25
495.573	95.25
495.79	87.25
496.008	99.25
496.225	90.25
496.442	79.25
496.66	85.25
496.877	90.25
497.094	94.25
497.312	102.25
497.529	94.25
497.746	80.25
497.963	87.25
498.181	93.25
498.398	96.25
498.615	98.25
498.832	88.25
499.049	94.25
499.267	87.25
499.484	82.25
499.701	96.25
499.918	93.25
500.135	88.25
500.352	82.25
500.569	84.25
500.786	94.25
501.003	81.25
501.22	80.25
501.437	88.25
501.654	94.25
501.871	79.25
502.088	81.25
502.305	96.25
502.522	86.25
502.739	82.25
502.956	95.25
503.172	90.25
503.389	97.25
503.606	96.25
503.823	89.25
504.04	100.25
504.256	101.25
504.473	86.25
504.69	91.25
504.907	103.25
505.123	80.25
505.34	102.25
505.557	107.25
505.773	85.25
505.99	82.25
506.207	101.25
506.423	93.25
506.64	106.25
506.856	82.25
507.073	73.25
507.289	89.25
507.506	88.25
507.722	71.25
507.939	95.25
508.155	86.25
508.372	85.25
508.588	91.25
508.805	98.25
509.021	91.25
509.238	84.25
509.454	87.25
509.67	87.25
509.887	88.25
510.103	90.25
510.319	79.25
510.536	104.25
510.752	91.25
510.968	91.25
511.184	95.25
511.401	103.25
511.617	84.25
511.833	98.25
512.049	83.25
512.265	68.25
512.481	77.25
512.698	94.25
512.914	90.25
513.13	92.25
513.346	79.25
513.562	102.25
513.778	86.25
513.994	84.25
514.21	92.25
514.426	86.25
514.642	82.25
514.858	94.25
515.074	82.25
515.29	91.25
515.506	95.25
515.721	88.25
515.937	81.25
516.153	80.25
516.369	80.25
516.585	85.25
516.801	93.25
517.016	92.25
517.232	106.25
517.448	91.25
517.664	99.25
517.879	92.25
518.095	95.25
518.311	104.25
518.527	108.25
518.742	87.25
518.958	96.25
