Data from 1600_2_HRD10591_00045.txt Node
Date: Mon Jan 19 13:54:03 EST 2026
User: Yrep
Spectrometer: HR+D1059
Trigger mode: 1
Integration Time (sec): 1.000000E-1
Scans to average: 1
Electric dark correction enabled: true
Nonlinearity correction enabled: false
Boxcar width: 0
XAxis mode: Wavelengths
Number of Pixels in Spectrum: 2048
>>>>>Begin Spectral Data<<<<<
223.165	-16.81
223.4	-16.81
223.635	-16.81
223.869	-28.81
224.104	-18.81
224.338	-11.81
224.573	-6.81
224.808	-17.81
225.042	-4.81
225.277	-1.81
225.511	0.19
225.746	-2.81
225.98	-3.81
226.215	24.19
226.449	11.19
226.683	26.19
226.918	24.19
227.152	28.19
227.387	43.19
227.621	44.19
227.856	48.19
228.09	49.19
228.324	36.19
228.559	70.19
228.793	52.19
229.027	62.19
229.262	59.19
229.496	63.19
229.73	70.19
229.964	72.19
230.199	64.19
230.433	65.19
230.667	71.19
230.901	91.19
231.136	80.19
231.37	75.19
231.604	80.19
231.838	77.19
232.072	85.19
232.306	79.19
232.541	76.19
232.775	84.19
233.009	81.19
233.243	84.19
233.477	86.19
233.711	82.19
233.945	63.19
234.179	77.19
234.413	82.19
234.647	80.19
234.881	82.19
235.115	73.19
235.349	76.19
235.583	82.19
235.817	73.19
236.051	92.19
236.285	76.19
236.519	70.19
236.753	77.19
236.987	77.19
237.221	71.19
237.455	72.19
237.689	86.19
237.922	71.19
238.156	80.19
238.39	84.19
238.624	74.19
238.858	63.19
239.091	69.19
239.325	76.19
239.559	76.19
239.793	85.19
240.027	81.19
240.26	83.19
240.494	62.19
240.728	86.19
240.961	77.19
241.195	72.19
241.429	70.19
241.662	73.19
241.896	60.19
242.13	72.19
242.363	76.19
242.597	78.19
242.83	75.19
243.064	84.19
243.298	76.19
243.531	71.19
243.765	74.19
243.998	71.19
244.232	82.19
244.465	92.19
244.699	64.19
244.932	75.19
245.166	101.19
245.399	82.19
245.633	71.19
245.866	84.19
246.099	78.19
246.333	64.19
246.566	65.19
246.8	72.19
247.033	80.19
247.266	77.19
247.5	78.19
247.733	71.19
247.966	76.19
248.2	68.19
248.433	71.19
248.666	71.19
248.899	76.19
249.133	83.19
249.366	81.19
249.599	103.19
249.832	79.19
250.066	82.19
250.299	75.19
250.532	82.19
250.765	80.19
250.998	80.19
251.231	82.19
251.465	82.19
251.698	77.19
251.931	82.19
252.164	72.19
252.397	76.19
252.63	86.19
252.863	79.19
253.096	84.19
253.329	64.19
253.562	67.19
253.795	72.19
254.028	83.19
254.261	72.19
254.494	81.19
254.727	80.19
254.96	92.19
255.193	83.19
255.426	76.19
255.659	88.19
255.892	74.19
256.124	83.19
256.357	72.19
256.59	83.19
256.823	66.19
257.056	80.19
257.289	83.19
257.521	71.19
257.754	79.19
257.987	90.19
258.22	81.19
258.452	90.19
258.685	66.19
258.918	90.19
259.151	89.19
259.383	76.19
259.616	82.19
259.849	77.19
260.081	72.19
260.314	76.19
260.547	88.19
260.779	83.19
261.012	77.19
261.244	79.19
261.477	88.19
261.71	78.19
261.942	83.19
262.175	76.19
262.407	76.19
262.64	78.19
262.872	98.19
263.105	84.19
263.337	84.19
263.57	67.19
263.802	84.19
264.035	67.19
264.267	80.19
264.499	80.19
264.732	79.19
264.964	91.19
265.197	87.19
265.429	92.19
265.661	94.19
265.894	94.19
266.126	80.19
266.358	85.19
266.591	73.19
266.823	77.19
267.055	86.19
267.287	77.19
267.52	63.19
267.752	80.19
267.984	84.19
268.216	86.19
268.448	85.19
268.681	87.19
268.913	86.19
269.145	79.19
269.377	89.19
269.609	76.19
269.841	98.19
270.073	81.19
270.306	80.19
270.538	83.19
270.77	75.19
271.002	83.19
271.234	84.19
271.466	83.19
271.698	73.19
271.93	71.19
272.162	92.19
272.394	102.19
272.626	84.19
272.858	82.19
273.09	79.19
273.322	98.19
273.553	94.19
273.785	82.19
274.017	88.19
274.249	95.19
274.481	74.19
274.713	71.19
274.945	82.19
275.176	78.19
275.408	86.19
275.64	90.19
275.872	83.19
276.104	83.19
276.335	86.19
276.567	86.19
276.799	85.19
277.031	94.19
277.262	86.19
277.494	99.19
277.726	89.19
277.957	84.19
278.189	84.19
278.421	98.19
278.652	81.19
278.884	81.19
279.115	94.19
279.347	81.19
279.579	90.19
279.81	88.19
280.042	78.19
280.273	77.19
280.505	98.19
280.736	80.19
280.968	89.19
281.199	79.19
281.431	102.19
281.662	71.19
281.894	83.19
282.125	79.19
282.356	76.19
282.588	76.19
282.819	95.19
283.051	87.19
283.282	77.19
283.513	82.19
283.745	68.19
283.976	96.19
284.207	81.19
284.439	71.19
284.67	84.19
284.901	95.19
285.132	89.19
285.364	94.19
285.595	83.19
285.826	82.19
286.057	90.19
286.288	85.19
286.52	78.19
286.751	78.19
286.982	74.19
287.213	73.19
287.444	92.19
287.675	87.19
287.906	92.19
288.138	87.19
288.369	82.19
288.6	99.19
288.831	80.19
289.062	83.19
289.293	85.19
289.524	80.19
289.755	84.19
289.986	86.19
290.217	88.19
290.448	80.19
290.679	78.19
290.91	65.19
291.141	83.19
291.371	94.19
291.602	82.19
291.833	78.19
292.064	85.19
292.295	90.19
292.526	83.19
292.757	78.19
292.987	84.19
293.218	89.19
293.449	78.19
293.68	86.19
293.91	76.19
294.141	103.19
294.372	86.19
294.603	76.19
294.833	95.19
295.064	76.19
295.295	72.19
295.525	85.19
295.756	90.19
295.987	78.19
296.217	84.19
296.448	84.19
296.679	71.19
296.909	83.19
297.14	92.19
297.37	85.19
297.601	95.19
297.831	72.19
298.062	82.19
298.292	84.19
298.523	84.19
298.753	73.19
298.984	90.19
299.214	87.19
299.445	94.19
299.675	78.19
299.905	84.19
300.136	86.19
300.366	78.19
300.597	72.19
300.827	74.19
301.057	93.19
301.288	84.19
301.518	85.19
301.748	77.19
301.979	100.19
302.209	70.19
302.439	76.19
302.669	89.19
302.9	90.19
303.13	93.19
303.36	85.19
303.59	94.19
303.82	94.19
304.051	79.19
304.281	94.19
304.511	92.19
304.741	93.19
304.971	73.19
305.201	96.19
305.431	96.19
305.661	70.19
305.891	94.19
306.121	83.19
306.352	80.19
306.582	86.19
306.812	90.19
307.042	84.19
307.272	92.19
307.502	74.19
307.731	84.19
307.961	93.19
308.191	93.19
308.421	98.19
308.651	92.19
308.881	83.19
309.111	80.19
309.341	76.19
309.571	78.19
309.8	84.19
310.03	89.19
310.26	108.19
310.49	89.19
310.72	76.19
310.949	69.19
311.179	78.19
311.409	84.19
311.639	88.19
311.868	72.19
312.098	83.19
312.328	85.19
312.557	80.19
312.787	87.19
313.017	80.19
313.246	85.19
313.476	83.19
313.706	73.19
313.935	81.19
314.165	89.19
314.394	85.19
314.624	72.19
314.853	92.19
315.083	72.19
315.312	89.19
315.542	88.19
315.771	71.19
316.001	86.19
316.23	80.19
316.46	84.19
316.689	77.19
316.919	96.19
317.148	79.19
317.377	79.19
317.607	80.19
317.836	93.19
318.065	93.19
318.295	78.19
318.524	95.19
318.753	83.19
318.983	90.19
319.212	69.19
319.441	86.19
319.67	92.19
319.9	74.19
320.129	83.19
320.358	91.19
320.587	75.19
320.816	87.19
321.046	76.19
321.275	88.19
321.504	91.19
321.733	78.19
321.962	94.19
322.191	80.19
322.42	76.19
322.649	88.19
322.878	68.19
323.108	76.19
323.337	78.19
323.566	76.19
323.795	84.19
324.024	89.19
324.253	88.19
324.482	96.19
324.71	93.19
324.939	76.19
325.168	82.19
325.397	86.19
325.626	84.19
325.855	76.19
326.084	76.19
326.313	87.19
326.542	84.19
326.77	95.19
326.999	87.19
327.228	78.19
327.457	80.19
327.686	86.19
327.914	83.19
328.143	88.19
328.372	76.19
328.6	80.19
328.829	73.19
329.058	86.19
329.287	90.19
329.515	80.19
329.744	84.19
329.972	70.19
330.201	86.19
330.43	92.19
330.658	83.19
330.887	84.19
331.115	83.19
331.344	75.19
331.572	86.19
331.801	83.19
332.03	76.19
332.258	86.19
332.486	77.19
332.715	98.19
332.943	87.19
333.172	68.19
333.4	91.19
333.629	80.19
333.857	85.19
334.085	105.19
334.314	80.19
334.542	92.19
334.771	92.19
334.999	82.19
335.227	75.19
335.455	92.19
335.684	95.19
335.912	86.19
336.14	86.19
336.369	81.19
336.597	71.19
336.825	88.19
337.053	87.19
337.281	75.19
337.51	71.19
337.738	73.19
337.966	88.19
338.194	80.19
338.422	70.19
338.65	88.19
338.878	82.19
339.106	78.19
339.334	86.19
339.562	76.19
339.79	85.19
340.018	88.19
340.246	78.19
340.474	91.19
340.702	89.19
340.93	76.19
341.158	70.19
341.386	69.19
341.614	93.19
341.842	83.19
342.07	76.19
342.298	80.19
342.526	72.19
342.754	78.19
342.981	82.19
343.209	76.19
343.437	98.19
343.665	73.19
343.893	89.19
344.12	87.19
344.348	86.19
344.576	83.19
344.804	97.19
345.031	71.19
345.259	85.19
345.487	97.19
345.714	89.19
345.942	91.19
346.17	91.19
346.397	87.19
346.625	72.19
346.853	87.19
347.08	80.19
347.308	88.19
347.535	84.19
347.763	77.19
347.99	86.19
348.218	94.19
348.445	82.19
348.673	72.19
348.9	83.19
349.128	88.19
349.355	70.19
349.583	90.19
349.81	82.19
350.037	68.19
350.265	86.19
350.492	76.19
350.72	68.19
350.947	79.19
351.174	89.19
351.402	87.19
351.629	86.19
351.856	82.19
352.083	86.19
352.311	85.19
352.538	99.19
352.765	82.19
352.992	80.19
353.22	90.19
353.447	71.19
353.674	90.19
353.901	72.19
354.128	81.19
354.355	96.19
354.583	73.19
354.81	76.19
355.037	84.19
355.264	74.19
355.491	67.19
355.718	79.19
355.945	92.19
356.172	86.19
356.399	84.19
356.626	86.19
356.853	78.19
357.08	83.19
357.307	87.19
357.534	75.19
357.761	87.19
357.988	78.19
358.215	90.19
358.441	86.19
358.668	88.19
358.895	78.19
359.122	82.19
359.349	76.19
359.576	83.19
359.802	69.19
360.029	83.19
360.256	93.19
360.483	92.19
360.709	69.19
360.936	72.19
361.163	84.19
361.39	80.19
361.616	83.19
361.843	80.19
362.07	82.19
362.296	78.19
362.523	79.19
362.749	86.19
362.976	87.19
363.203	110.19
363.429	70.19
363.656	78.19
363.882	80.19
364.109	87.19
364.335	90.19
364.562	78.19
364.788	69.19
365.015	90.19
365.241	85.19
365.468	89.19
365.694	78.19
365.92	72.19
366.147	79.19
366.373	94.19
366.599	91.19
366.826	90.19
367.052	83.19
367.278	74.19
367.505	84.19
367.731	83.19
367.957	69.19
368.184	76.19
368.41	79.19
368.636	90.19
368.862	88.19
369.089	83.19
369.315	70.19
369.541	80.19
369.767	85.19
369.993	64.19
370.219	76.19
370.445	80.19
370.672	87.19
370.898	83.19
371.124	64.19
371.35	65.19
371.576	82.19
371.802	84.19
372.028	75.19
372.254	88.19
372.48	79.19
372.706	76.19
372.932	80.19
373.158	94.19
373.384	92.19
373.61	71.19
373.835	90.19
374.061	79.19
374.287	84.19
374.513	98.19
374.739	104.19
374.965	94.19
375.191	80.19
375.416	80.19
375.642	85.19
375.868	85.19
376.094	86.19
376.319	85.19
376.545	80.19
376.771	73.19
376.997	90.19
377.222	81.19
377.448	78.19
377.674	68.19
377.899	81.19
378.125	93.19
378.35	76.19
378.576	82.19
378.802	66.19
379.027	69.19
379.253	103.19
379.478	67.19
379.704	87.19
379.929	85.19
380.155	81.19
380.38	70.19
380.606	86.19
380.831	95.19
381.057	76.19
381.282	85.19
381.507	71.19
381.733	81.19
381.958	90.19
382.184	86.19
382.409	80.19
382.634	104.19
382.86	87.19
383.085	91.19
383.31	82.19
383.535	82.19
383.761	93.19
383.986	88.19
384.211	87.19
384.436	81.19
384.662	81.19
384.887	75.19
385.112	90.19
385.337	77.19
385.562	68.19
385.787	76.19
386.013	88.19
386.238	82.19
386.463	92.19
386.688	90.19
386.913	84.19
387.138	80.19
387.363	79.19
387.588	87.19
387.813	77.19
388.038	76.19
388.263	66.19
388.488	90.19
388.713	80.19
388.938	77.19
389.163	80.19
389.387	79.19
389.612	72.19
389.837	72.19
390.062	76.19
390.287	64.19
390.512	90.19
390.736	76.19
390.961	77.19
391.186	85.19
391.411	85.19
391.636	82.19
391.86	84.19
392.085	89.19
392.31	87.19
392.534	72.19
392.759	90.19
392.984	83.19
393.208	107.19
393.433	142.19
393.658	111.19
393.882	98.19
394.107	90.19
394.331	87.19
394.556	102.19
394.78	93.19
395.005	78.19
395.229	86.19
395.454	83.19
395.678	85.19
395.903	93.19
396.127	103.19
396.352	96.19
396.576	98.19
396.801	114.19
397.025	127.19
397.249	86.19
397.474	92.19
397.698	87.19
397.922	80.19
398.147	71.19
398.371	92.19
398.595	70.19
398.82	67.19
399.044	72.19
399.268	70.19
399.492	83.19
399.717	84.19
399.941	80.19
400.165	82.19
400.389	85.19
400.613	81.19
400.837	84.19
401.062	85.19
401.286	73.19
401.51	78.19
401.734	75.19
401.958	82.19
402.182	77.19
402.406	82.19
402.63	87.19
402.854	82.19
403.078	70.19
403.302	70.19
403.526	75.19
403.75	77.19
403.974	87.19
404.198	73.19
404.422	81.19
404.645	72.19
404.869	76.19
405.093	87.19
405.317	80.19
405.541	87.19
405.765	77.19
405.988	78.19
406.212	80.19
406.436	78.19
406.66	77.19
406.883	71.19
407.107	78.19
407.331	74.19
407.555	88.19
407.778	93.19
408.002	68.19
408.226	75.19
408.449	72.19
408.673	74.19
408.896	86.19
409.12	76.19
409.344	82.19
409.567	67.19
409.791	72.19
410.014	83.19
410.238	94.19
410.461	82.19
410.685	80.19
410.908	91.19
411.132	90.19
411.355	81.19
411.578	70.19
411.802	78.19
412.025	82.19
412.249	78.19
412.472	77.19
412.695	71.19
412.919	80.19
413.142	84.19
413.365	81.19
413.589	76.19
413.812	87.19
414.035	82.19
414.258	86.19
414.482	92.19
414.705	86.19
414.928	73.19
415.151	74.19
415.374	91.19
415.597	80.19
415.821	72.19
416.044	72.19
416.267	89.19
416.49	76.19
416.713	81.19
416.936	69.19
417.159	76.19
417.382	86.19
417.605	84.19
417.828	92.19
418.051	80.19
418.274	78.19
418.497	77.19
418.72	84.19
418.943	80.19
419.166	74.19
419.389	70.19
419.611	80.19
419.834	95.19
420.057	89.19
420.28	84.19
420.503	68.19
420.726	85.19
420.948	73.19
421.171	74.19
421.394	78.19
421.617	85.19
421.839	83.19
422.062	82.19
422.285	86.19
422.507	121.19
422.73	141.19
422.953	143.19
423.175	96.19
423.398	88.19
423.621	90.19
423.843	81.19
424.066	85.19
424.288	90.19
424.511	80.19
424.733	73.19
424.956	79.19
425.178	72.19
425.401	76.19
425.623	82.19
425.846	85.19
426.068	74.19
426.291	69.19
426.513	76.19
426.735	91.19
426.958	78.19
427.18	74.19
427.402	86.19
427.625	75.19
427.847	78.19
428.069	90.19
428.292	80.19
428.514	82.19
428.736	87.19
428.958	93.19
429.181	95.19
429.403	92.19
429.625	80.19
429.847	76.19
430.069	94.19
430.292	110.19
430.514	93.19
430.736	90.19
430.958	76.19
431.18	88.19
431.402	81.19
431.624	83.19
431.846	90.19
432.068	108.19
432.29	74.19
432.512	96.19
432.734	82.19
432.956	59.19
433.178	83.19
433.4	78.19
433.622	90.19
433.844	84.19
434.066	81.19
434.287	72.19
434.509	79.19
434.731	82.19
434.953	72.19
435.175	91.19
435.397	66.19
435.618	82.19
435.84	76.19
436.062	87.19
436.284	72.19
436.505	84.19
436.727	78.19
436.949	83.19
437.17	85.19
437.392	77.19
437.614	78.19
437.835	87.19
438.057	66.19
438.278	69.19
438.5	86.19
438.721	89.19
438.943	72.19
439.165	80.19
439.386	62.19
439.608	87.19
439.829	72.19
440.05	79.19
440.272	69.19
440.493	70.19
440.715	83.19
440.936	86.19
441.158	96.19
441.379	90.19
441.6	80.19
441.822	88.19
442.043	73.19
442.264	74.19
442.486	98.19
442.707	98.19
442.928	88.19
443.149	66.19
443.371	84.19
443.592	88.19
443.813	98.19
444.034	82.19
444.255	79.19
444.476	79.19
444.698	83.19
444.919	82.19
445.14	160.19
445.361	128.19
445.582	109.19
445.803	117.19
446.024	97.19
446.245	88.19
446.466	76.19
446.687	96.19
446.908	60.19
447.129	80.19
447.35	93.19
447.571	80.19
447.792	87.19
448.013	78.19
448.234	82.19
448.455	82.19
448.675	85.19
448.896	72.19
449.117	63.19
449.338	79.19
449.559	80.19
449.779	83.19
450	65.19
450.221	82.19
450.442	92.19
450.662	73.19
450.883	69.19
451.104	82.19
451.324	86.19
451.545	82.19
451.766	86.19
451.986	64.19
452.207	84.19
452.428	80.19
452.648	76.19
452.869	79.19
453.089	90.19
453.31	84.19
453.53	83.19
453.751	84.19
453.971	92.19
454.192	87.19
454.412	63.19
454.633	77.19
454.853	77.19
455.073	76.19
455.294	82.19
455.514	82.19
455.734	66.19
455.955	66.19
456.175	72.19
456.395	77.19
456.616	80.19
456.836	78.19
457.056	79.19
457.276	75.19
457.497	58.19
457.717	82.19
457.937	84.19
458.157	79.19
458.377	78.19
458.598	81.19
458.818	72.19
459.038	76.19
459.258	85.19
459.478	82.19
459.698	97.19
459.918	94.19
460.138	79.19
460.358	93.19
460.578	93.19
460.798	80.19
461.018	94.19
461.238	77.19
461.458	78.19
461.678	69.19
461.898	78.19
462.118	99.19
462.338	70.19
462.558	74.19
462.777	72.19
462.997	80.19
463.217	77.19
463.437	86.19
463.657	89.19
463.876	90.19
464.096	86.19
464.316	76.19
464.536	82.19
464.755	87.19
464.975	90.19
465.195	71.19
465.414	70.19
465.634	81.19
465.854	91.19
466.073	73.19
466.293	85.19
466.512	75.19
466.732	90.19
466.951	68.19
467.171	65.19
467.391	76.19
467.61	80.19
467.829	71.19
468.049	78.19
468.268	84.19
468.488	76.19
468.707	79.19
468.927	88.19
469.146	79.19
469.365	71.19
469.585	89.19
469.804	82.19
470.023	71.19
470.243	72.19
470.462	72.19
470.681	65.19
470.901	64.19
471.12	62.19
471.339	92.19
471.558	82.19
471.777	84.19
471.997	82.19
472.216	92.19
472.435	91.19
472.654	95.19
472.873	80.19
473.092	78.19
473.311	82.19
473.53	92.19
473.749	71.19
473.968	69.19
474.187	90.19
474.406	87.19
474.625	86.19
474.844	79.19
475.063	77.19
475.282	69.19
475.501	90.19
475.72	78.19
475.939	86.19
476.158	82.19
476.377	85.19
476.596	79.19
476.814	85.19
477.033	82.19
477.252	90.19
477.471	80.19
477.69	88.19
477.908	92.19
478.127	82.19
478.346	70.19
478.564	89.19
478.783	78.19
479.002	73.19
479.22	90.19
479.439	88.19
479.658	80.19
479.876	80.19
480.095	76.19
480.313	76.19
480.532	85.19
480.751	77.19
480.969	76.19
481.188	86.19
481.406	84.19
481.624	81.19
481.843	94.19
482.061	86.19
482.28	68.19
482.498	78.19
482.717	85.19
482.935	86.19
483.153	80.19
483.372	90.19
483.59	81.19
483.808	76.19
484.027	82.19
484.245	77.19
484.463	85.19
484.681	85.19
484.9	91.19
485.118	95.19
485.336	85.19
485.554	80.19
485.772	96.19
485.99	85.19
486.209	69.19
486.427	81.19
486.645	69.19
486.863	83.19
487.081	68.19
487.299	82.19
487.517	81.19
487.735	93.19
487.953	101.19
488.171	84.19
488.389	77.19
488.607	88.19
488.825	79.19
489.043	84.19
489.261	92.19
489.479	84.19
489.696	83.19
489.914	64.19
490.132	80.19
490.35	83.19
490.568	82.19
490.786	85.19
491.003	75.19
491.221	84.19
491.439	75.19
491.657	76.19
491.874	88.19
492.092	80.19
492.31	78.19
492.527	92.19
492.745	80.19
492.963	70.19
493.18	84.19
493.398	88.19
493.615	74.19
493.833	84.19
494.05	77.19
494.268	82.19
494.485	92.19
494.703	81.19
494.92	79.19
495.138	84.19
495.355	83.19
495.573	78.19
495.79	83.19
496.008	79.19
496.225	90.19
496.442	102.19
496.66	74.19
496.877	74.19
497.094	84.19
497.312	76.19
497.529	81.19
497.746	94.19
497.963	85.19
498.181	105.19
498.398	94.19
498.615	91.19
498.832	80.19
499.049	92.19
499.267	87.19
499.484	77.19
499.701	94.19
499.918	79.19
500.135	88.19
500.352	87.19
500.569	81.19
500.786	94.19
501.003	88.19
501.22	78.19
501.437	78.19
501.654	90.19
501.871	93.19
502.088	75.19
502.305	103.19
502.522	78.19
502.739	81.19
502.956	78.19
503.172	82.19
503.389	85.19
503.606	90.19
503.823	90.19
504.04	83.19
504.256	78.19
504.473	84.19
504.69	80.19
504.907	96.19
505.123	82.19
505.34	84.19
505.557	84.19
505.773	83.19
505.99	82.19
506.207	90.19
506.423	79.19
506.64	78.19
506.856	84.19
507.073	78.19
507.289	87.19
507.506	86.19
507.722	87.19
507.939	96.19
508.155	86.19
508.372	86.19
508.588	72.19
508.805	80.19
509.021	80.19
509.238	94.19
509.454	98.19
509.67	86.19
509.887	74.19
510.103	82.19
510.319	79.19
510.536	78.19
510.752	89.19
510.968	82.19
511.184	84.19
511.401	86.19
511.617	99.19
511.833	84.19
512.049	74.19
512.265	69.19
512.481	94.19
512.698	85.19
512.914	80.19
513.13	96.19
513.346	91.19
513.562	70.19
513.778	81.19
513.994	94.19
514.21	81.19
514.426	87.19
514.642	87.19
514.858	87.19
515.074	81.19
515.29	85.19
515.506	87.19
515.721	86.19
515.937	79.19
516.153	88.19
516.369	84.19
516.585	74.19
516.801	74.19
517.016	82.19
517.232	103.19
517.448	103.19
517.664	94.19
517.879	83.19
518.095	83.19
518.311	95.19
518.527	100.19
518.742	83.19
518.958	91.19
519.173	89.19
519.389	75.19
519.605	72.19
519.82	84.19
