Data from 1600_2_HRD10591_00049.txt Node
Date: Mon Jan 19 13:54:05 EST 2026
User: Yrep
Spectrometer: HR+D1059
Trigger mode: 1
Integration Time (sec): 1.000000E-1
Scans to average: 1
Electric dark correction enabled: true
Nonlinearity correction enabled: false
Boxcar width: 0
XAxis mode: Wavelengths
Number of Pixels in Spectrum: 2048
>>>>>Begin Spectral Data<<<<<
223.165	-10.06
223.4	-10.06
223.635	-10.06
223.869	-15.06
224.104	-29.06
224.338	-6.06
224.573	-15.06
224.808	-11.06
225.042	-19.06
225.277	-4.06
225.511	-11.06
225.746	5.94
225.98	6.94
226.215	12.94
226.449	2.94
226.683	33.94
226.918	24.94
227.152	32.94
227.387	27.94
227.621	35.94
227.856	29.94
228.09	43.94
228.324	50.94
228.559	47.94
228.793	60.94
229.027	80.94
229.262	63.94
229.496	63.94
229.73	73.94
229.964	67.94
230.199	63.94
230.433	74.94
230.667	71.94
230.901	78.94
231.136	76.94
231.37	83.94
231.604	75.94
231.838	69.94
232.072	77.94
232.306	78.94
232.541	93.94
232.775	82.94
233.009	71.94
233.243	82.94
233.477	67.94
233.711	72.94
233.945	78.94
234.179	82.94
234.413	73.94
234.647	80.94
234.881	75.94
235.115	84.94
235.349	70.94
235.583	81.94
235.817	71.94
236.051	70.94
236.285	93.94
236.519	80.94
236.753	76.94
236.987	79.94
237.221	63.94
237.455	77.94
237.689	72.94
237.922	75.94
238.156	68.94
238.39	68.94
238.624	66.94
238.858	69.94
239.091	75.94
239.325	68.94
239.559	83.94
239.793	68.94
240.027	79.94
240.26	82.94
240.494	80.94
240.728	66.94
240.961	78.94
241.195	73.94
241.429	84.94
241.662	75.94
241.896	75.94
242.13	55.94
242.363	76.94
242.597	70.94
242.83	61.94
243.064	72.94
243.298	74.94
243.531	69.94
243.765	66.94
243.998	71.94
244.232	83.94
244.465	78.94
244.699	74.94
244.932	80.94
245.166	78.94
245.399	77.94
245.633	79.94
245.866	70.94
246.099	69.94
246.333	92.94
246.566	63.94
246.8	67.94
247.033	70.94
247.266	80.94
247.5	82.94
247.733	80.94
247.966	90.94
248.2	79.94
248.433	85.94
248.666	76.94
248.899	78.94
249.133	93.94
249.366	75.94
249.599	68.94
249.832	88.94
250.066	95.94
250.299	62.94
250.532	75.94
250.765	65.94
250.998	65.94
251.231	87.94
251.465	88.94
251.698	89.94
251.931	90.94
252.164	79.94
252.397	71.94
252.63	81.94
252.863	81.94
253.096	83.94
253.329	91.94
253.562	75.94
253.795	87.94
254.028	76.94
254.261	80.94
254.494	71.94
254.727	84.94
254.96	66.94
255.193	87.94
255.426	70.94
255.659	80.94
255.892	83.94
256.124	88.94
256.357	82.94
256.59	71.94
256.823	68.94
257.056	70.94
257.289	79.94
257.521	68.94
257.754	86.94
257.987	86.94
258.22	83.94
258.452	81.94
258.685	97.94
258.918	88.94
259.151	78.94
259.383	79.94
259.616	88.94
259.849	79.94
260.081	76.94
260.314	81.94
260.547	82.94
260.779	71.94
261.012	79.94
261.244	62.94
261.477	86.94
261.71	78.94
261.942	70.94
262.175	82.94
262.407	78.94
262.64	82.94
262.872	80.94
263.105	78.94
263.337	83.94
263.57	81.94
263.802	90.94
264.035	70.94
264.267	84.94
264.499	80.94
264.732	64.94
264.964	71.94
265.197	96.94
265.429	73.94
265.661	75.94
265.894	82.94
266.126	78.94
266.358	72.94
266.591	82.94
266.823	67.94
267.055	84.94
267.287	85.94
267.52	91.94
267.752	81.94
267.984	82.94
268.216	70.94
268.448	80.94
268.681	71.94
268.913	79.94
269.145	87.94
269.377	93.94
269.609	87.94
269.841	77.94
270.073	78.94
270.306	70.94
270.538	71.94
270.77	88.94
271.002	79.94
271.234	90.94
271.466	89.94
271.698	83.94
271.93	80.94
272.162	68.94
272.394	80.94
272.626	75.94
272.858	83.94
273.09	92.94
273.322	92.94
273.553	82.94
273.785	78.94
274.017	86.94
274.249	86.94
274.481	77.94
274.713	78.94
274.945	89.94
275.176	86.94
275.408	76.94
275.64	82.94
275.872	82.94
276.104	80.94
276.335	88.94
276.567	81.94
276.799	79.94
277.031	84.94
277.262	82.94
277.494	69.94
277.726	76.94
277.957	67.94
278.189	86.94
278.421	72.94
278.652	68.94
278.884	85.94
279.115	87.94
279.347	82.94
279.579	84.94
279.81	78.94
280.042	80.94
280.273	93.94
280.505	81.94
280.736	77.94
280.968	78.94
281.199	91.94
281.431	75.94
281.662	92.94
281.894	86.94
282.125	80.94
282.356	78.94
282.588	74.94
282.819	78.94
283.051	83.94
283.282	94.94
283.513	82.94
283.745	96.94
283.976	99.94
284.207	79.94
284.439	92.94
284.67	79.94
284.901	78.94
285.132	95.94
285.364	89.94
285.595	87.94
285.826	75.94
286.057	78.94
286.288	75.94
286.52	76.94
286.751	79.94
286.982	82.94
287.213	74.94
287.444	88.94
287.675	73.94
287.906	87.94
288.138	94.94
288.369	98.94
288.6	84.94
288.831	84.94
289.062	80.94
289.293	85.94
289.524	77.94
289.755	79.94
289.986	62.94
290.217	78.94
290.448	77.94
290.679	79.94
290.91	87.94
291.141	91.94
291.371	84.94
291.602	78.94
291.833	74.94
292.064	89.94
292.295	78.94
292.526	81.94
292.757	62.94
292.987	71.94
293.218	92.94
293.449	108.94
293.68	83.94
293.91	79.94
294.141	90.94
294.372	76.94
294.603	62.94
294.833	78.94
295.064	93.94
295.295	87.94
295.525	94.94
295.756	96.94
295.987	75.94
296.217	75.94
296.448	85.94
296.679	65.94
296.909	85.94
297.14	82.94
297.37	86.94
297.601	81.94
297.831	82.94
298.062	86.94
298.292	77.94
298.523	85.94
298.753	83.94
298.984	89.94
299.214	84.94
299.445	102.94
299.675	103.94
299.905	82.94
300.136	80.94
300.366	79.94
300.597	94.94
300.827	80.94
301.057	93.94
301.288	92.94
301.518	77.94
301.748	78.94
301.979	118.94
302.209	86.94
302.439	78.94
302.669	74.94
302.9	97.94
303.13	73.94
303.36	85.94
303.59	85.94
303.82	99.94
304.051	72.94
304.281	77.94
304.511	90.94
304.741	85.94
304.971	76.94
305.201	82.94
305.431	78.94
305.661	90.94
305.891	86.94
306.121	84.94
306.352	76.94
306.582	85.94
306.812	81.94
307.042	72.94
307.272	84.94
307.502	95.94
307.731	92.94
307.961	80.94
308.191	88.94
308.421	85.94
308.651	97.94
308.881	80.94
309.111	86.94
309.341	93.94
309.571	81.94
309.8	75.94
310.03	87.94
310.26	87.94
310.49	91.94
310.72	67.94
310.949	79.94
311.179	87.94
311.409	91.94
311.639	78.94
311.868	82.94
312.098	86.94
312.328	90.94
312.557	72.94
312.787	90.94
313.017	69.94
313.246	76.94
313.476	77.94
313.706	90.94
313.935	80.94
314.165	90.94
314.394	73.94
314.624	81.94
314.853	80.94
315.083	73.94
315.312	81.94
315.542	89.94
315.771	92.94
316.001	75.94
316.23	96.94
316.46	86.94
316.689	98.94
316.919	87.94
317.148	82.94
317.377	81.94
317.607	83.94
317.836	82.94
318.065	79.94
318.295	85.94
318.524	88.94
318.753	87.94
318.983	73.94
319.212	77.94
319.441	81.94
319.67	92.94
319.9	82.94
320.129	84.94
320.358	72.94
320.587	76.94
320.816	92.94
321.046	84.94
321.275	84.94
321.504	90.94
321.733	86.94
321.962	60.94
322.191	74.94
322.42	95.94
322.649	78.94
322.878	96.94
323.108	81.94
323.337	87.94
323.566	90.94
323.795	92.94
324.024	85.94
324.253	80.94
324.482	99.94
324.71	94.94
324.939	79.94
325.168	78.94
325.397	79.94
325.626	90.94
325.855	70.94
326.084	72.94
326.313	80.94
326.542	89.94
326.77	77.94
326.999	89.94
327.228	84.94
327.457	87.94
327.686	80.94
327.914	82.94
328.143	92.94
328.372	83.94
328.6	83.94
328.829	90.94
329.058	87.94
329.287	83.94
329.515	99.94
329.744	85.94
329.972	87.94
330.201	81.94
330.43	89.94
330.658	75.94
330.887	79.94
331.115	84.94
331.344	93.94
331.572	78.94
331.801	80.94
332.03	70.94
332.258	79.94
332.486	78.94
332.715	74.94
332.943	94.94
333.172	91.94
333.4	96.94
333.629	79.94
333.857	96.94
334.085	75.94
334.314	92.94
334.542	81.94
334.771	84.94
334.999	79.94
335.227	77.94
335.455	90.94
335.684	94.94
335.912	79.94
336.14	85.94
336.369	65.94
336.597	76.94
336.825	84.94
337.053	75.94
337.281	71.94
337.51	79.94
337.738	74.94
337.966	94.94
338.194	79.94
338.422	79.94
338.65	85.94
338.878	79.94
339.106	88.94
339.334	97.94
339.562	74.94
339.79	78.94
340.018	84.94
340.246	85.94
340.474	73.94
340.702	93.94
340.93	84.94
341.158	67.94
341.386	81.94
341.614	99.94
341.842	99.94
342.07	86.94
342.298	90.94
342.526	78.94
342.754	80.94
342.981	74.94
343.209	95.94
343.437	101.94
343.665	90.94
343.893	82.94
344.12	102.94
344.348	84.94
344.576	93.94
344.804	86.94
345.031	84.94
345.259	80.94
345.487	79.94
345.714	81.94
345.942	85.94
346.17	80.94
346.397	82.94
346.625	70.94
346.853	86.94
347.08	86.94
347.308	71.94
347.535	91.94
347.763	96.94
347.99	89.94
348.218	73.94
348.445	85.94
348.673	73.94
348.9	87.94
349.128	89.94
349.355	87.94
349.583	82.94
349.81	79.94
350.037	90.94
350.265	95.94
350.492	83.94
350.72	88.94
350.947	75.94
351.174	99.94
351.402	88.94
351.629	78.94
351.856	85.94
352.083	71.94
352.311	78.94
352.538	78.94
352.765	97.94
352.992	86.94
353.22	82.94
353.447	91.94
353.674	77.94
353.901	90.94
354.128	84.94
354.355	87.94
354.583	75.94
354.81	79.94
355.037	100.94
355.264	92.94
355.491	80.94
355.718	76.94
355.945	85.94
356.172	83.94
356.399	85.94
356.626	76.94
356.853	72.94
357.08	94.94
357.307	89.94
357.534	81.94
357.761	83.94
357.988	92.94
358.215	91.94
358.441	75.94
358.668	82.94
358.895	87.94
359.122	86.94
359.349	92.94
359.576	78.94
359.802	76.94
360.029	70.94
360.256	84.94
360.483	91.94
360.709	81.94
360.936	98.94
361.163	92.94
361.39	84.94
361.616	77.94
361.843	82.94
362.07	93.94
362.296	93.94
362.523	73.94
362.749	77.94
362.976	78.94
363.203	99.94
363.429	92.94
363.656	83.94
363.882	79.94
364.109	88.94
364.335	84.94
364.562	92.94
364.788	89.94
365.015	90.94
365.241	76.94
365.468	83.94
365.694	82.94
365.92	89.94
366.147	80.94
366.373	85.94
366.599	82.94
366.826	87.94
367.052	88.94
367.278	82.94
367.505	72.94
367.731	90.94
367.957	82.94
368.184	69.94
368.41	80.94
368.636	75.94
368.862	86.94
369.089	80.94
369.315	87.94
369.541	85.94
369.767	70.94
369.993	81.94
370.219	94.94
370.445	81.94
370.672	78.94
370.898	77.94
371.124	78.94
371.35	73.94
371.576	92.94
371.802	86.94
372.028	92.94
372.254	84.94
372.48	90.94
372.706	84.94
372.932	78.94
373.158	92.94
373.384	99.94
373.61	93.94
373.835	99.94
374.061	98.94
374.287	94.94
374.513	82.94
374.739	111.94
374.965	80.94
375.191	88.94
375.416	81.94
375.642	95.94
375.868	73.94
376.094	81.94
376.319	92.94
376.545	92.94
376.771	74.94
376.997	92.94
377.222	80.94
377.448	79.94
377.674	80.94
377.899	83.94
378.125	77.94
378.35	84.94
378.576	84.94
378.802	82.94
379.027	81.94
379.253	74.94
379.478	85.94
379.704	84.94
379.929	78.94
380.155	70.94
380.38	90.94
380.606	78.94
380.831	79.94
381.057	87.94
381.282	86.94
381.507	80.94
381.733	69.94
381.958	98.94
382.184	88.94
382.409	79.94
382.634	82.94
382.86	88.94
383.085	86.94
383.31	85.94
383.535	104.94
383.761	103.94
383.986	95.94
384.211	85.94
384.436	74.94
384.662	72.94
384.887	64.94
385.112	87.94
385.337	92.94
385.562	82.94
385.787	88.94
386.013	82.94
386.238	90.94
386.463	83.94
386.688	103.94
386.913	62.94
387.138	72.94
387.363	75.94
387.588	90.94
387.813	89.94
388.038	69.94
388.263	74.94
388.488	88.94
388.713	73.94
388.938	86.94
389.163	94.94
389.387	78.94
389.612	92.94
389.837	82.94
390.062	77.94
390.287	74.94
390.512	91.94
390.736	89.94
390.961	72.94
391.186	70.94
391.411	76.94
391.636	68.94
391.86	80.94
392.085	91.94
392.31	82.94
392.534	81.94
392.759	94.94
392.984	125.94
393.208	134.94
393.433	203.94
393.658	164.94
393.882	90.94
394.107	95.94
394.331	106.94
394.556	110.94
394.78	92.94
395.005	88.94
395.229	78.94
395.454	92.94
395.678	97.94
395.903	88.94
396.127	109.94
396.352	113.94
396.576	117.94
396.801	141.94
397.025	162.94
397.249	109.94
397.474	91.94
397.698	68.94
397.922	100.94
398.147	71.94
398.371	70.94
398.595	78.94
398.82	75.94
399.044	80.94
399.268	72.94
399.492	69.94
399.717	66.94
399.941	88.94
400.165	94.94
400.389	63.94
400.613	96.94
400.837	73.94
401.062	78.94
401.286	84.94
401.51	90.94
401.734	66.94
401.958	80.94
402.182	90.94
402.406	74.94
402.63	87.94
402.854	61.94
403.078	74.94
403.302	89.94
403.526	71.94
403.75	81.94
403.974	83.94
404.198	84.94
404.422	91.94
404.645	98.94
404.869	80.94
405.093	77.94
405.317	67.94
405.541	80.94
405.765	71.94
405.988	87.94
406.212	63.94
406.436	79.94
406.66	68.94
406.883	67.94
407.107	79.94
407.331	83.94
407.555	71.94
407.778	92.94
408.002	95.94
408.226	82.94
408.449	67.94
408.673	73.94
408.896	82.94
409.12	80.94
409.344	82.94
409.567	79.94
409.791	75.94
410.014	93.94
410.238	90.94
410.461	85.94
410.685	98.94
410.908	80.94
411.132	86.94
411.355	85.94
411.578	86.94
411.802	84.94
412.025	80.94
412.249	81.94
412.472	71.94
412.695	74.94
412.919	75.94
413.142	70.94
413.365	74.94
413.589	76.94
413.812	83.94
414.035	68.94
414.258	99.94
414.482	70.94
414.705	84.94
414.928	91.94
415.151	78.94
415.374	88.94
415.597	80.94
415.821	77.94
416.044	81.94
416.267	79.94
416.49	71.94
416.713	70.94
416.936	80.94
417.159	73.94
417.382	86.94
417.605	80.94
417.828	92.94
418.051	67.94
418.274	76.94
418.497	72.94
418.72	85.94
418.943	74.94
419.166	73.94
419.389	76.94
419.611	83.94
419.834	90.94
420.057	87.94
420.28	78.94
420.503	83.94
420.726	95.94
420.948	86.94
421.171	64.94
421.394	75.94
421.617	92.94
421.839	96.94
422.062	95.94
422.285	101.94
422.507	149.94
422.73	248.94
422.953	219.94
423.175	110.94
423.398	103.94
423.621	78.94
423.843	91.94
424.066	90.94
424.288	78.94
424.511	96.94
424.733	97.94
424.956	71.94
425.178	76.94
425.401	86.94
425.623	88.94
425.846	90.94
426.068	85.94
426.291	78.94
426.513	81.94
426.735	82.94
426.958	87.94
427.18	88.94
427.402	67.94
427.625	87.94
427.847	78.94
428.069	81.94
428.292	99.94
428.514	101.94
428.736	89.94
428.958	83.94
429.181	89.94
429.403	101.94
429.625	93.94
429.847	83.94
430.069	112.94
430.292	124.94
430.514	119.94
430.736	110.94
430.958	105.94
431.18	74.94
431.402	86.94
431.624	91.94
431.846	78.94
432.068	99.94
432.29	83.94
432.512	81.94
432.734	81.94
432.956	68.94
433.178	81.94
433.4	78.94
433.622	73.94
433.844	78.94
434.066	71.94
434.287	89.94
434.509	85.94
434.731	83.94
434.953	84.94
435.175	68.94
435.397	83.94
435.618	72.94
435.84	77.94
436.062	70.94
436.284	76.94
436.505	80.94
436.727	87.94
436.949	69.94
437.17	76.94
437.392	78.94
437.614	91.94
437.835	93.94
438.057	87.94
438.278	80.94
438.5	85.94
438.721	99.94
438.943	82.94
439.165	88.94
439.386	84.94
439.608	77.94
439.829	72.94
440.05	78.94
440.272	83.94
440.493	83.94
440.715	87.94
440.936	90.94
441.158	76.94
441.379	78.94
441.6	83.94
441.822	72.94
442.043	83.94
442.264	79.94
442.486	77.94
442.707	96.94
442.928	83.94
443.149	82.94
443.371	98.94
443.592	131.94
443.813	125.94
444.034	85.94
444.255	75.94
444.476	78.94
444.698	80.94
444.919	85.94
445.14	167.94
445.361	134.94
445.582	122.94
445.803	128.94
446.024	88.94
446.245	92.94
446.466	78.94
446.687	85.94
446.908	81.94
447.129	83.94
447.35	73.94
447.571	76.94
447.792	73.94
448.013	92.94
448.234	68.94
448.455	68.94
448.675	78.94
448.896	87.94
449.117	72.94
449.338	72.94
449.559	68.94
449.779	96.94
450	85.94
450.221	80.94
450.442	78.94
450.662	85.94
450.883	85.94
451.104	68.94
451.324	70.94
451.545	91.94
451.766	71.94
451.986	79.94
452.207	93.94
452.428	81.94
452.648	84.94
452.869	93.94
453.089	76.94
453.31	78.94
453.53	68.94
453.751	86.94
453.971	76.94
454.192	81.94
454.412	87.94
454.633	79.94
454.853	86.94
455.073	72.94
455.294	51.94
455.514	82.94
455.734	90.94
455.955	77.94
456.175	85.94
456.395	71.94
456.616	90.94
456.836	87.94
457.056	72.94
457.276	73.94
457.497	56.94
457.717	94.94
457.937	92.94
458.157	97.94
458.377	79.94
458.598	76.94
458.818	98.94
459.038	82.94
459.258	85.94
459.478	90.94
459.698	79.94
459.918	98.94
460.138	73.94
460.358	96.94
460.578	92.94
460.798	77.94
461.018	94.94
461.238	69.94
461.458	85.94
461.678	72.94
461.898	73.94
462.118	87.94
462.338	86.94
462.558	82.94
462.777	72.94
462.997	82.94
463.217	90.94
463.437	78.94
463.657	75.94
463.876	82.94
464.096	80.94
464.316	88.94
464.536	82.94
464.755	91.94
464.975	74.94
465.195	66.94
465.414	70.94
465.634	78.94
465.854	77.94
466.073	81.94
466.293	87.94
466.512	66.94
466.732	78.94
466.951	88.94
467.171	78.94
467.391	83.94
467.61	88.94
467.829	73.94
468.049	72.94
468.268	80.94
468.488	79.94
468.707	69.94
468.927	81.94
469.146	65.94
469.365	76.94
469.585	87.94
469.804	72.94
470.023	71.94
470.243	86.94
470.462	76.94
470.681	92.94
470.901	70.94
471.12	83.94
471.339	88.94
471.558	76.94
471.777	81.94
471.997	93.94
472.216	99.94
472.435	83.94
472.654	85.94
472.873	95.94
473.092	90.94
473.311	78.94
473.53	91.94
473.749	83.94
473.968	83.94
474.187	73.94
474.406	68.94
474.625	88.94
474.844	90.94
475.063	81.94
475.282	76.94
475.501	78.94
475.72	91.94
475.939	84.94
476.158	94.94
476.377	72.94
476.596	77.94
476.814	84.94
477.033	78.94
477.252	76.94
477.471	89.94
477.69	92.94
477.908	85.94
478.127	80.94
478.346	72.94
478.564	84.94
478.783	81.94
479.002	87.94
479.22	85.94
479.439	76.94
479.658	73.94
479.876	66.94
480.095	73.94
480.313	88.94
480.532	74.94
480.751	96.94
480.969	80.94
481.188	82.94
481.406	77.94
481.624	75.94
481.843	85.94
482.061	81.94
482.28	74.94
482.498	103.94
482.717	89.94
482.935	81.94
483.153	93.94
483.372	83.94
483.59	79.94
483.808	80.94
484.027	91.94
484.245	95.94
484.463	67.94
484.681	93.94
484.9	72.94
485.118	94.94
485.336	76.94
485.554	92.94
485.772	87.94
485.99	94.94
486.209	86.94
486.427	95.94
486.645	83.94
486.863	90.94
487.081	85.94
487.299	88.94
487.517	99.94
487.735	82.94
487.953	100.94
488.171	93.94
488.389	75.94
488.607	86.94
488.825	74.94
489.043	83.94
489.261	82.94
489.479	91.94
489.696	78.94
489.914	81.94
490.132	84.94
490.35	90.94
490.568	80.94
490.786	60.94
491.003	78.94
491.221	86.94
491.439	84.94
491.657	93.94
491.874	74.94
492.092	87.94
492.31	98.94
492.527	90.94
492.745	83.94
492.963	78.94
493.18	89.94
493.398	87.94
493.615	90.94
493.833	79.94
494.05	85.94
494.268	79.94
494.485	84.94
494.703	75.94
494.92	86.94
495.138	84.94
495.355	72.94
495.573	82.94
495.79	92.94
496.008	87.94
496.225	79.94
496.442	78.94
496.66	88.94
496.877	96.94
497.094	88.94
497.312	72.94
497.529	77.94
497.746	99.94
497.963	72.94
498.181	93.94
498.398	89.94
498.615	83.94
498.832	84.94
499.049	80.94
499.267	82.94
499.484	69.94
499.701	90.94
499.918	94.94
500.135	77.94
500.352	86.94
500.569	83.94
500.786	87.94
501.003	78.94
501.22	91.94
501.437	94.94
501.654	62.94
501.871	88.94
502.088	92.94
502.305	94.94
502.522	86.94
502.739	85.94
502.956	88.94
503.172	78.94
503.389	89.94
503.606	85.94
503.823	85.94
504.04	87.94
504.256	93.94
504.473	75.94
504.69	71.94
504.907	93.94
505.123	77.94
505.34	86.94
505.557	89.94
505.773	74.94
505.99	70.94
506.207	89.94
506.423	80.94
506.64	80.94
506.856	60.94
507.073	81.94
507.289	90.94
507.506	70.94
507.722	81.94
507.939	94.94
508.155	86.94
508.372	72.94
508.588	72.94
508.805	79.94
509.021	77.94
509.238	77.94
509.454	87.94
509.67	69.94
509.887	75.94
510.103	96.94
510.319	84.94
510.536	74.94
510.752	71.94
510.968	78.94
511.184	82.94
511.401	86.94
511.617	89.94
511.833	77.94
512.049	75.94
512.265	81.94
512.481	69.94
512.698	72.94
512.914	89.94
513.13	82.94
513.346	76.94
513.562	86.94
513.778	89.94
513.994	70.94
514.21	80.94
514.426	84.94
514.642	72.94
514.858	85.94
515.074	81.94
515.29	78.94
515.506	84.94
515.721	84.94
515.937	79.94
516.153	76.94
516.369	80.94
516.585	78.94
516.801	80.94
517.016	96.94
517.232	92.94
517.448	93.94
517.664	100.94
517.879	92.94
518.095	84.94
518.311	80.94
518.527	94.94
518.742	92.94
518.958	91.94
519.173	97.94
519.389	87.94
519.605	84.94
