Data from 1600_2_HRD10591_00035.txt Node
Date: Mon Jan 19 13:53:58 EST 2026
User: Yrep
Spectrometer: HR+D1059
Trigger mode: 1
Integration Time (sec): 1.000000E-1
Scans to average: 1
Electric dark correction enabled: true
Nonlinearity correction enabled: false
Boxcar width: 0
XAxis mode: Wavelengths
Number of Pixels in Spectrum: 2048
>>>>>Begin Spectral Data<<<<<
223.165	-18.31
223.4	-18.31
223.635	-18.31
223.869	-21.31
224.104	-16.31
224.338	-10.31
224.573	-24.31
224.808	-16.31
225.042	2.69
225.277	4.69
225.511	6.69
225.746	12.69
225.98	1.69
226.215	-12.31
226.449	18.69
226.683	18.69
226.918	24.69
227.152	28.69
227.387	34.69
227.621	40.69
227.856	48.69
228.09	50.69
228.324	38.69
228.559	52.69
228.793	48.69
229.027	46.69
229.262	58.69
229.496	61.69
229.73	57.69
229.964	59.69
230.199	69.69
230.433	68.69
230.667	71.69
230.901	58.69
231.136	66.69
231.37	77.69
231.604	77.69
231.838	72.69
232.072	76.69
232.306	83.69
232.541	78.69
232.775	81.69
233.009	69.69
233.243	72.69
233.477	74.69
233.711	80.69
233.945	81.69
234.179	70.69
234.413	83.69
234.647	72.69
234.881	72.69
235.115	73.69
235.349	77.69
235.583	92.69
235.817	77.69
236.051	80.69
236.285	64.69
236.519	66.69
236.753	69.69
236.987	74.69
237.221	63.69
237.455	71.69
237.689	66.69
237.922	79.69
238.156	76.69
238.39	80.69
238.624	67.69
238.858	61.69
239.091	59.69
239.325	81.69
239.559	79.69
239.793	65.69
240.027	57.69
240.26	72.69
240.494	76.69
240.728	76.69
240.961	63.69
241.195	74.69
241.429	71.69
241.662	82.69
241.896	72.69
242.13	66.69
242.363	65.69
242.597	64.69
242.83	61.69
243.064	66.69
243.298	65.69
243.531	72.69
243.765	79.69
243.998	68.69
244.232	75.69
244.465	83.69
244.699	79.69
244.932	61.69
245.166	63.69
245.399	76.69
245.633	76.69
245.866	70.69
246.099	88.69
246.333	84.69
246.566	68.69
246.8	69.69
247.033	78.69
247.266	76.69
247.5	67.69
247.733	77.69
247.966	80.69
248.2	80.69
248.433	82.69
248.666	63.69
248.899	69.69
249.133	65.69
249.366	76.69
249.599	59.69
249.832	72.69
250.066	71.69
250.299	74.69
250.532	68.69
250.765	84.69
250.998	75.69
251.231	78.69
251.465	68.69
251.698	76.69
251.931	81.69
252.164	73.69
252.397	73.69
252.63	84.69
252.863	84.69
253.096	78.69
253.329	74.69
253.562	68.69
253.795	72.69
254.028	69.69
254.261	80.69
254.494	80.69
254.727	73.69
254.96	69.69
255.193	68.69
255.426	65.69
255.659	81.69
255.892	78.69
256.124	74.69
256.357	70.69
256.59	76.69
256.823	72.69
257.056	77.69
257.289	101.69
257.521	71.69
257.754	73.69
257.987	68.69
258.22	81.69
258.452	75.69
258.685	66.69
258.918	90.69
259.151	70.69
259.383	85.69
259.616	84.69
259.849	85.69
260.081	77.69
260.314	78.69
260.547	64.69
260.779	69.69
261.012	76.69
261.244	63.69
261.477	72.69
261.71	82.69
261.942	77.69
262.175	82.69
262.407	74.69
262.64	69.69
262.872	69.69
263.105	70.69
263.337	83.69
263.57	76.69
263.802	76.69
264.035	82.69
264.267	84.69
264.499	64.69
264.732	75.69
264.964	73.69
265.197	69.69
265.429	76.69
265.661	87.69
265.894	70.69
266.126	85.69
266.358	83.69
266.591	78.69
266.823	107.69
267.055	82.69
267.287	85.69
267.52	92.69
267.752	82.69
267.984	62.69
268.216	76.69
268.448	77.69
268.681	82.69
268.913	84.69
269.145	76.69
269.377	85.69
269.609	86.69
269.841	67.69
270.073	90.69
270.306	77.69
270.538	81.69
270.77	70.69
271.002	60.69
271.234	76.69
271.466	89.69
271.698	84.69
271.93	73.69
272.162	81.69
272.394	76.69
272.626	78.69
272.858	92.69
273.09	73.69
273.322	88.69
273.553	58.69
273.785	73.69
274.017	78.69
274.249	88.69
274.481	73.69
274.713	66.69
274.945	74.69
275.176	81.69
275.408	73.69
275.64	85.69
275.872	80.69
276.104	106.69
276.335	80.69
276.567	81.69
276.799	74.69
277.031	70.69
277.262	69.69
277.494	87.69
277.726	91.69
277.957	94.69
278.189	105.69
278.421	85.69
278.652	76.69
278.884	83.69
279.115	75.69
279.347	69.69
279.579	80.69
279.81	83.69
280.042	62.69
280.273	80.69
280.505	69.69
280.736	78.69
280.968	66.69
281.199	87.69
281.431	72.69
281.662	93.69
281.894	90.69
282.125	83.69
282.356	86.69
282.588	72.69
282.819	77.69
283.051	88.69
283.282	77.69
283.513	78.69
283.745	74.69
283.976	80.69
284.207	75.69
284.439	86.69
284.67	79.69
284.901	75.69
285.132	75.69
285.364	81.69
285.595	70.69
285.826	80.69
286.057	80.69
286.288	77.69
286.52	84.69
286.751	86.69
286.982	67.69
287.213	90.69
287.444	71.69
287.675	92.69
287.906	88.69
288.138	74.69
288.369	80.69
288.6	80.69
288.831	76.69
289.062	81.69
289.293	78.69
289.524	85.69
289.755	88.69
289.986	70.69
290.217	73.69
290.448	82.69
290.679	78.69
290.91	80.69
291.141	81.69
291.371	84.69
291.602	68.69
291.833	85.69
292.064	67.69
292.295	85.69
292.526	82.69
292.757	76.69
292.987	82.69
293.218	73.69
293.449	84.69
293.68	70.69
293.91	88.69
294.141	91.69
294.372	92.69
294.603	72.69
294.833	75.69
295.064	78.69
295.295	66.69
295.525	80.69
295.756	74.69
295.987	84.69
296.217	67.69
296.448	100.69
296.679	80.69
296.909	76.69
297.14	73.69
297.37	78.69
297.601	89.69
297.831	77.69
298.062	70.69
298.292	74.69
298.523	92.69
298.753	84.69
298.984	78.69
299.214	75.69
299.445	81.69
299.675	78.69
299.905	84.69
300.136	86.69
300.366	65.69
300.597	83.69
300.827	72.69
301.057	87.69
301.288	81.69
301.518	74.69
301.748	77.69
301.979	95.69
302.209	88.69
302.439	84.69
302.669	80.69
302.9	91.69
303.13	75.69
303.36	74.69
303.59	83.69
303.82	92.69
304.051	74.69
304.281	85.69
304.511	66.69
304.741	68.69
304.971	72.69
305.201	74.69
305.431	80.69
305.661	85.69
305.891	86.69
306.121	93.69
306.352	72.69
306.582	85.69
306.812	80.69
307.042	70.69
307.272	76.69
307.502	84.69
307.731	85.69
307.961	78.69
308.191	88.69
308.421	90.69
308.651	65.69
308.881	82.69
309.111	84.69
309.341	83.69
309.571	84.69
309.8	91.69
310.03	84.69
310.26	81.69
310.49	78.69
310.72	70.69
310.949	78.69
311.179	76.69
311.409	80.69
311.639	78.69
311.868	67.69
312.098	80.69
312.328	80.69
312.557	88.69
312.787	78.69
313.017	89.69
313.246	85.69
313.476	82.69
313.706	85.69
313.935	72.69
314.165	78.69
314.394	81.69
314.624	65.69
314.853	80.69
315.083	64.69
315.312	90.69
315.542	92.69
315.771	79.69
316.001	64.69
316.23	82.69
316.46	78.69
316.689	89.69
316.919	80.69
317.148	81.69
317.377	77.69
317.607	86.69
317.836	69.69
318.065	74.69
318.295	79.69
318.524	71.69
318.753	84.69
318.983	69.69
319.212	86.69
319.441	71.69
319.67	75.69
319.9	78.69
320.129	78.69
320.358	82.69
320.587	89.69
320.816	71.69
321.046	88.69
321.275	94.69
321.504	83.69
321.733	82.69
321.962	72.69
322.191	90.69
322.42	83.69
322.649	86.69
322.878	81.69
323.108	86.69
323.337	82.69
323.566	75.69
323.795	76.69
324.024	80.69
324.253	85.69
324.482	82.69
324.71	96.69
324.939	87.69
325.168	77.69
325.397	76.69
325.626	64.69
325.855	73.69
326.084	78.69
326.313	92.69
326.542	81.69
326.77	82.69
326.999	76.69
327.228	72.69
327.457	78.69
327.686	76.69
327.914	85.69
328.143	83.69
328.372	78.69
328.6	76.69
328.829	83.69
329.058	93.69
329.287	65.69
329.515	76.69
329.744	76.69
329.972	80.69
330.201	91.69
330.43	91.69
330.658	76.69
330.887	95.69
331.115	87.69
331.344	79.69
331.572	95.69
331.801	77.69
332.03	78.69
332.258	83.69
332.486	83.69
332.715	84.69
332.943	82.69
333.172	84.69
333.4	80.69
333.629	78.69
333.857	93.69
334.085	85.69
334.314	81.69
334.542	71.69
334.771	85.69
334.999	91.69
335.227	82.69
335.455	82.69
335.684	80.69
335.912	88.69
336.14	75.69
336.369	98.69
336.597	82.69
336.825	87.69
337.053	78.69
337.281	75.69
337.51	74.69
337.738	88.69
337.966	68.69
338.194	82.69
338.422	72.69
338.65	85.69
338.878	80.69
339.106	91.69
339.334	77.69
339.562	84.69
339.79	80.69
340.018	72.69
340.246	98.69
340.474	80.69
340.702	68.69
340.93	70.69
341.158	82.69
341.386	74.69
341.614	88.69
341.842	93.69
342.07	78.69
342.298	84.69
342.526	73.69
342.754	64.69
342.981	83.69
343.209	78.69
343.437	96.69
343.665	76.69
343.893	76.69
344.12	81.69
344.348	90.69
344.576	91.69
344.804	86.69
345.031	94.69
345.259	92.69
345.487	62.69
345.714	84.69
345.942	85.69
346.17	99.69
346.397	84.69
346.625	78.69
346.853	82.69
347.08	78.69
347.308	88.69
347.535	88.69
347.763	57.69
347.99	78.69
348.218	85.69
348.445	85.69
348.673	80.69
348.9	80.69
349.128	94.69
349.355	66.69
349.583	76.69
349.81	84.69
350.037	85.69
350.265	85.69
350.492	101.69
350.72	101.69
350.947	77.69
351.174	73.69
351.402	76.69
351.629	69.69
351.856	92.69
352.083	79.69
352.311	68.69
352.538	82.69
352.765	84.69
352.992	85.69
353.22	75.69
353.447	76.69
353.674	83.69
353.901	86.69
354.128	85.69
354.355	66.69
354.583	98.69
354.81	85.69
355.037	84.69
355.264	83.69
355.491	73.69
355.718	94.69
355.945	61.69
356.172	75.69
356.399	89.69
356.626	73.69
356.853	84.69
357.08	81.69
357.307	85.69
357.534	74.69
357.761	85.69
357.988	101.69
358.215	91.69
358.441	85.69
358.668	86.69
358.895	95.69
359.122	82.69
359.349	82.69
359.576	68.69
359.802	91.69
360.029	81.69
360.256	82.69
360.483	70.69
360.709	64.69
360.936	78.69
361.163	79.69
361.39	63.69
361.616	78.69
361.843	85.69
362.07	83.69
362.296	80.69
362.523	85.69
362.749	70.69
362.976	86.69
363.203	89.69
363.429	86.69
363.656	96.69
363.882	84.69
364.109	91.69
364.335	79.69
364.562	93.69
364.788	98.69
365.015	88.69
365.241	88.69
365.468	92.69
365.694	86.69
365.92	83.69
366.147	74.69
366.373	101.69
366.599	78.69
366.826	80.69
367.052	81.69
367.278	80.69
367.505	82.69
367.731	90.69
367.957	89.69
368.184	88.69
368.41	76.69
368.636	69.69
368.862	80.69
369.089	77.69
369.315	72.69
369.541	72.69
369.767	85.69
369.993	78.69
370.219	78.69
370.445	86.69
370.672	90.69
370.898	83.69
371.124	74.69
371.35	76.69
371.576	79.69
371.802	97.69
372.028	85.69
372.254	90.69
372.48	92.69
372.706	77.69
372.932	83.69
373.158	85.69
373.384	89.69
373.61	80.69
373.835	80.69
374.061	85.69
374.287	81.69
374.513	81.69
374.739	93.69
374.965	89.69
375.191	81.69
375.416	81.69
375.642	88.69
375.868	92.69
376.094	87.69
376.319	93.69
376.545	91.69
376.771	72.69
376.997	88.69
377.222	81.69
377.448	75.69
377.674	83.69
377.899	85.69
378.125	77.69
378.35	67.69
378.576	89.69
378.802	71.69
379.027	84.69
379.253	86.69
379.478	80.69
379.704	83.69
379.929	80.69
380.155	81.69
380.38	76.69
380.606	82.69
380.831	81.69
381.057	81.69
381.282	78.69
381.507	76.69
381.733	83.69
381.958	78.69
382.184	81.69
382.409	86.69
382.634	92.69
382.86	94.69
383.085	83.69
383.31	72.69
383.535	97.69
383.761	74.69
383.986	102.69
384.211	95.69
384.436	75.69
384.662	65.69
384.887	82.69
385.112	76.69
385.337	80.69
385.562	78.69
385.787	78.69
386.013	83.69
386.238	89.69
386.463	70.69
386.688	90.69
386.913	84.69
387.138	106.69
387.363	78.69
387.588	81.69
387.813	88.69
388.038	80.69
388.263	87.69
388.488	75.69
388.713	76.69
388.938	79.69
389.163	72.69
389.387	81.69
389.612	91.69
389.837	76.69
390.062	80.69
390.287	88.69
390.512	96.69
390.736	72.69
390.961	86.69
391.186	98.69
391.411	85.69
391.636	81.69
391.86	93.69
392.085	93.69
392.31	84.69
392.534	84.69
392.759	89.69
392.984	98.69
393.208	138.69
393.433	158.69
393.658	139.69
393.882	98.69
394.107	93.69
394.331	106.69
394.556	80.69
394.78	94.69
395.005	90.69
395.229	81.69
395.454	90.69
395.678	79.69
395.903	96.69
396.127	106.69
396.352	111.69
396.576	120.69
396.801	128.69
397.025	150.69
397.249	102.69
397.474	93.69
397.698	68.69
397.922	81.69
398.147	79.69
398.371	83.69
398.595	76.69
398.82	85.69
399.044	82.69
399.268	76.69
399.492	81.69
399.717	74.69
399.941	82.69
400.165	76.69
400.389	88.69
400.613	92.69
400.837	81.69
401.062	81.69
401.286	75.69
401.51	84.69
401.734	85.69
401.958	82.69
402.182	85.69
402.406	74.69
402.63	88.69
402.854	90.69
403.078	85.69
403.302	62.69
403.526	78.69
403.75	73.69
403.974	62.69
404.198	80.69
404.422	100.69
404.645	92.69
404.869	83.69
405.093	88.69
405.317	77.69
405.541	78.69
405.765	76.69
405.988	64.69
406.212	85.69
406.436	89.69
406.66	67.69
406.883	75.69
407.107	90.69
407.331	85.69
407.555	85.69
407.778	89.69
408.002	93.69
408.226	85.69
408.449	85.69
408.673	82.69
408.896	71.69
409.12	74.69
409.344	78.69
409.567	60.69
409.791	76.69
410.014	90.69
410.238	77.69
410.461	82.69
410.685	68.69
410.908	78.69
411.132	71.69
411.355	86.69
411.578	80.69
411.802	90.69
412.025	75.69
412.249	70.69
412.472	82.69
412.695	78.69
412.919	82.69
413.142	78.69
413.365	79.69
413.589	70.69
413.812	71.69
414.035	88.69
414.258	81.69
414.482	80.69
414.705	75.69
414.928	80.69
415.151	78.69
415.374	69.69
415.597	74.69
415.821	80.69
416.044	91.69
416.267	90.69
416.49	90.69
416.713	89.69
416.936	79.69
417.159	82.69
417.382	80.69
417.605	69.69
417.828	80.69
418.051	80.69
418.274	73.69
418.497	70.69
418.72	69.69
418.943	69.69
419.166	65.69
419.389	69.69
419.611	87.69
419.834	68.69
420.057	70.69
420.28	80.69
420.503	66.69
420.726	78.69
420.948	88.69
421.171	95.69
421.394	90.69
421.617	96.69
421.839	70.69
422.062	91.69
422.285	96.69
422.507	145.69
422.73	204.69
422.953	171.69
423.175	112.69
423.398	85.69
423.621	85.69
423.843	81.69
424.066	81.69
424.288	73.69
424.511	79.69
424.733	76.69
424.956	80.69
425.178	88.69
425.401	83.69
425.623	84.69
425.846	66.69
426.068	88.69
426.291	85.69
426.513	90.69
426.735	92.69
426.958	90.69
427.18	82.69
427.402	77.69
427.625	84.69
427.847	92.69
428.069	94.69
428.292	98.69
428.514	93.69
428.736	82.69
428.958	94.69
429.181	100.69
429.403	91.69
429.625	88.69
429.847	92.69
430.069	104.69
430.292	117.69
430.514	107.69
430.736	99.69
430.958	106.69
431.18	69.69
431.402	87.69
431.624	77.69
431.846	96.69
432.068	87.69
432.29	92.69
432.512	79.69
432.734	90.69
432.956	88.69
433.178	73.69
433.4	70.69
433.622	84.69
433.844	82.69
434.066	82.69
434.287	76.69
434.509	81.69
434.731	84.69
434.953	84.69
435.175	68.69
435.397	66.69
435.618	86.69
435.84	65.69
436.062	89.69
436.284	81.69
436.505	85.69
436.727	71.69
436.949	67.69
437.17	72.69
437.392	84.69
437.614	88.69
437.835	75.69
438.057	84.69
438.278	93.69
438.5	72.69
438.721	88.69
438.943	88.69
439.165	79.69
439.386	79.69
439.608	85.69
439.829	87.69
440.05	88.69
440.272	84.69
440.493	88.69
440.715	86.69
440.936	69.69
441.158	80.69
441.379	72.69
441.6	84.69
441.822	85.69
442.043	78.69
442.264	79.69
442.486	94.69
442.707	99.69
442.928	89.69
443.149	78.69
443.371	98.69
443.592	134.69
443.813	129.69
444.034	90.69
444.255	97.69
444.476	86.69
444.698	70.69
444.919	84.69
445.14	180.69
445.361	120.69
445.582	143.69
445.803	115.69
446.024	82.69
446.245	77.69
446.466	70.69
446.687	74.69
446.908	82.69
447.129	74.69
447.35	70.69
447.571	83.69
447.792	97.69
448.013	76.69
448.234	92.69
448.455	62.69
448.675	86.69
448.896	68.69
449.117	85.69
449.338	84.69
449.559	94.69
449.779	82.69
450	83.69
450.221	70.69
450.442	78.69
450.662	76.69
450.883	91.69
451.104	81.69
451.324	76.69
451.545	81.69
451.766	84.69
451.986	74.69
452.207	80.69
452.428	72.69
452.648	83.69
452.869	81.69
453.089	88.69
453.31	84.69
453.53	76.69
453.751	68.69
453.971	82.69
454.192	69.69
454.412	80.69
454.633	90.69
454.853	78.69
455.073	76.69
455.294	79.69
455.514	90.69
455.734	80.69
455.955	71.69
456.175	68.69
456.395	83.69
456.616	79.69
456.836	80.69
457.056	89.69
457.276	81.69
457.497	77.69
457.717	84.69
457.937	80.69
458.157	81.69
458.377	86.69
458.598	76.69
458.818	81.69
459.038	81.69
459.258	79.69
459.478	63.69
459.698	77.69
459.918	80.69
460.138	81.69
460.358	74.69
460.578	83.69
460.798	83.69
461.018	83.69
461.238	86.69
461.458	79.69
461.678	77.69
461.898	89.69
462.118	83.69
462.338	87.69
462.558	72.69
462.777	81.69
462.997	68.69
463.217	73.69
463.437	80.69
463.657	83.69
463.876	74.69
464.096	88.69
464.316	54.69
464.536	78.69
464.755	83.69
464.975	97.69
465.195	84.69
465.414	80.69
465.634	82.69
465.854	87.69
466.073	79.69
466.293	68.69
466.512	74.69
466.732	78.69
466.951	76.69
467.171	80.69
467.391	82.69
467.61	78.69
467.829	73.69
468.049	67.69
468.268	76.69
468.488	84.69
468.707	84.69
468.927	94.69
469.146	80.69
469.365	84.69
469.585	85.69
469.804	82.69
470.023	99.69
470.243	86.69
470.462	82.69
470.681	78.69
470.901	83.69
471.12	94.69
471.339	89.69
471.558	75.69
471.777	91.69
471.997	83.69
472.216	84.69
472.435	71.69
472.654	90.69
472.873	77.69
473.092	84.69
473.311	74.69
473.53	81.69
473.749	90.69
473.968	82.69
474.187	80.69
474.406	76.69
474.625	97.69
474.844	85.69
475.063	91.69
475.282	89.69
475.501	66.69
475.72	86.69
475.939	90.69
476.158	66.69
476.377	84.69
476.596	79.69
476.814	95.69
477.033	79.69
477.252	88.69
477.471	81.69
477.69	80.69
477.908	74.69
478.127	87.69
478.346	78.69
478.564	75.69
478.783	80.69
479.002	83.69
479.22	78.69
479.439	92.69
479.658	91.69
479.876	71.69
480.095	86.69
480.313	76.69
480.532	73.69
480.751	85.69
480.969	74.69
481.188	90.69
481.406	78.69
481.624	85.69
481.843	94.69
482.061	94.69
482.28	102.69
482.498	69.69
482.717	80.69
482.935	88.69
483.153	84.69
483.372	67.69
483.59	82.69
483.808	73.69
484.027	78.69
484.245	78.69
484.463	77.69
484.681	77.69
484.9	88.69
485.118	75.69
485.336	83.69
485.554	86.69
485.772	85.69
485.99	76.69
486.209	81.69
486.427	81.69
486.645	73.69
486.863	91.69
487.081	89.69
487.299	85.69
487.517	88.69
487.735	84.69
487.953	101.69
488.171	100.69
488.389	85.69
488.607	81.69
488.825	100.69
489.043	83.69
489.261	88.69
489.479	89.69
489.696	104.69
489.914	76.69
490.132	82.69
490.35	79.69
490.568	82.69
490.786	86.69
491.003	84.69
491.221	80.69
491.439	79.69
491.657	81.69
491.874	77.69
492.092	77.69
492.31	83.69
492.527	80.69
492.745	86.69
492.963	82.69
493.18	82.69
493.398	105.69
493.615	83.69
493.833	76.69
494.05	81.69
494.268	76.69
494.485	87.69
494.703	84.69
494.92	83.69
495.138	81.69
495.355	91.69
495.573	92.69
495.79	79.69
496.008	89.69
496.225	83.69
496.442	80.69
496.66	80.69
496.877	97.69
497.094	87.69
497.312	94.69
497.529	82.69
497.746	80.69
497.963	88.69
498.181	76.69
498.398	75.69
498.615	90.69
498.832	60.69
499.049	69.69
499.267	76.69
499.484	94.69
499.701	78.69
499.918	82.69
500.135	77.69
500.352	77.69
500.569	81.69
500.786	84.69
501.003	78.69
501.22	76.69
501.437	88.69
501.654	93.69
501.871	77.69
502.088	65.69
502.305	60.69
502.522	82.69
502.739	76.69
502.956	70.69
503.172	93.69
503.389	78.69
503.606	80.69
503.823	84.69
504.04	90.69
504.256	79.69
504.473	84.69
504.69	84.69
504.907	94.69
505.123	82.69
505.34	91.69
505.557	74.69
505.773	95.69
505.99	61.69
506.207	84.69
506.423	92.69
506.64	83.69
506.856	83.69
507.073	82.69
507.289	90.69
507.506	77.69
507.722	82.69
507.939	85.69
508.155	80.69
508.372	73.69
508.588	63.69
508.805	84.69
509.021	84.69
509.238	80.69
509.454	74.69
509.67	87.69
509.887	77.69
510.103	92.69
510.319	82.69
510.536	78.69
510.752	65.69
510.968	98.69
511.184	86.69
511.401	87.69
511.617	61.69
511.833	92.69
512.049	83.69
512.265	75.69
512.481	83.69
512.698	72.69
512.914	85.69
513.13	84.69
513.346	90.69
513.562	79.69
513.778	70.69
513.994	79.69
514.21	75.69
514.426	69.69
514.642	66.69
514.858	74.69
515.074	64.69
515.29	104.69
515.506	90.69
515.721	79.69
515.937	93.69
516.153	76.69
516.369	81.69
516.585	74.69
516.801	76.69
517.016	81.69
517.232	86.69
517.448	88.69
517.664	76.69
517.879	91.69
518.095	74.69
518.311	74.69
518.527	95.69
518.742	88.69
518.958	99.69
519.173	107.69
519.389	74.69
519.605	77.69
