Data from SampD_HRD10591_00016.txt Node
Date: Mon Jan 19 11:50:20 EST 2026
User: Yrep
Spectrometer: HR+D1059
Trigger mode: 0
Integration Time (sec): 3.443000E-1
Scans to average: 1
Electric dark correction enabled: true
Nonlinearity correction enabled: false
Boxcar width: 0
XAxis mode: Wavelengths
Number of Pixels in Spectrum: 2048
>>>>>Begin Spectral Data<<<<<
223.165	-26.62
223.4	-26.62
223.635	-26.62
223.869	-23.62
224.104	-22.62
224.338	-10.62
224.573	-15.62
224.808	-24.62
225.042	-0.62
225.277	-3.62
225.511	0.38
225.746	12.38
225.98	3.38
226.215	20.38
226.449	19.38
226.683	17.38
226.918	20.38
227.152	34.38
227.387	29.38
227.621	39.38
227.856	40.38
228.09	40.38
228.324	44.38
228.559	58.38
228.793	60.38
229.027	56.38
229.262	49.38
229.496	60.38
229.73	73.38
229.964	81.38
230.199	75.38
230.433	71.38
230.667	74.38
230.901	83.38
231.136	81.38
231.37	79.38
231.604	81.38
231.838	82.38
232.072	83.38
232.306	77.38
232.541	85.38
232.775	95.38
233.009	82.38
233.243	79.38
233.477	81.38
233.711	97.38
233.945	87.38
234.179	85.38
234.413	87.38
234.647	94.38
234.881	92.38
235.115	90.38
235.349	95.38
235.583	92.38
235.817	75.38
236.051	66.38
236.285	89.38
236.519	73.38
236.753	81.38
236.987	85.38
237.221	74.38
237.455	95.38
237.689	81.38
237.922	75.38
238.156	81.38
238.39	95.38
238.624	81.38
238.858	107.38
239.091	79.38
239.325	61.38
239.559	79.38
239.793	83.38
240.027	91.38
240.26	83.38
240.494	92.38
240.728	73.38
240.961	92.38
241.195	90.38
241.429	75.38
241.662	69.38
241.896	80.38
242.13	85.38
242.363	85.38
242.597	86.38
242.83	77.38
243.064	91.38
243.298	85.38
243.531	93.38
243.765	90.38
243.998	75.38
244.232	105.38
244.465	96.38
244.699	82.38
244.932	96.38
245.166	83.38
245.399	90.38
245.633	85.38
245.866	103.38
246.099	90.38
246.333	85.38
246.566	92.38
246.8	85.38
247.033	81.38
247.266	80.38
247.5	87.38
247.733	81.38
247.966	86.38
248.2	95.38
248.433	93.38
248.666	92.38
248.899	83.38
249.133	104.38
249.366	106.38
249.599	87.38
249.832	104.38
250.066	108.38
250.299	95.38
250.532	90.38
250.765	96.38
250.998	103.38
251.231	87.38
251.465	86.38
251.698	78.38
251.931	102.38
252.164	100.38
252.397	85.38
252.63	101.38
252.863	81.38
253.096	83.38
253.329	86.38
253.562	86.38
253.795	90.38
254.028	114.38
254.261	91.38
254.494	89.38
254.727	93.38
254.96	104.38
255.193	96.38
255.426	92.38
255.659	94.38
255.892	100.38
256.124	89.38
256.357	83.38
256.59	96.38
256.823	84.38
257.056	92.38
257.289	95.38
257.521	107.38
257.754	97.38
257.987	87.38
258.22	90.38
258.452	89.38
258.685	105.38
258.918	107.38
259.151	84.38
259.383	92.38
259.616	85.38
259.849	100.38
260.081	101.38
260.314	104.38
260.547	90.38
260.779	104.38
261.012	109.38
261.244	96.38
261.477	106.38
261.71	98.38
261.942	92.38
262.175	104.38
262.407	107.38
262.64	92.38
262.872	98.38
263.105	97.38
263.337	90.38
263.57	99.38
263.802	90.38
264.035	99.38
264.267	89.38
264.499	106.38
264.732	96.38
264.964	89.38
265.197	89.38
265.429	101.38
265.661	89.38
265.894	93.38
266.126	100.38
266.358	97.38
266.591	120.38
266.823	101.38
267.055	97.38
267.287	96.38
267.52	97.38
267.752	105.38
267.984	108.38
268.216	100.38
268.448	112.38
268.681	88.38
268.913	104.38
269.145	93.38
269.377	103.38
269.609	93.38
269.841	105.38
270.073	100.38
270.306	108.38
270.538	97.38
270.77	87.38
271.002	101.38
271.234	110.38
271.466	99.38
271.698	93.38
271.93	90.38
272.162	96.38
272.394	122.38
272.626	105.38
272.858	97.38
273.09	92.38
273.322	103.38
273.553	103.38
273.785	109.38
274.017	103.38
274.249	95.38
274.481	103.38
274.713	104.38
274.945	113.38
275.176	120.38
275.408	99.38
275.64	107.38
275.872	102.38
276.104	108.38
276.335	105.38
276.567	103.38
276.799	98.38
277.031	99.38
277.262	97.38
277.494	116.38
277.726	103.38
277.957	108.38
278.189	100.38
278.421	89.38
278.652	108.38
278.884	106.38
279.115	113.38
279.347	103.38
279.579	120.38
279.81	94.38
280.042	116.38
280.273	100.38
280.505	99.38
280.736	101.38
280.968	123.38
281.199	110.38
281.431	120.38
281.662	114.38
281.894	111.38
282.125	119.38
282.356	101.38
282.588	105.38
282.819	104.38
283.051	112.38
283.282	118.38
283.513	128.38
283.745	112.38
283.976	106.38
284.207	121.38
284.439	115.38
284.67	117.38
284.901	121.38
285.132	114.38
285.364	117.38
285.595	107.38
285.826	119.38
286.057	100.38
286.288	116.38
286.52	120.38
286.751	108.38
286.982	106.38
287.213	97.38
287.444	127.38
287.675	120.38
287.906	125.38
288.138	107.38
288.369	114.38
288.6	114.38
288.831	118.38
289.062	112.38
289.293	122.38
289.524	104.38
289.755	106.38
289.986	121.38
290.217	133.38
290.448	101.38
290.679	103.38
290.91	110.38
291.141	121.38
291.371	101.38
291.602	146.38
291.833	111.38
292.064	120.38
292.295	119.38
292.526	109.38
292.757	125.38
292.987	103.38
293.218	97.38
293.449	119.38
293.68	122.38
293.91	107.38
294.141	140.38
294.372	120.38
294.603	117.38
294.833	113.38
295.064	100.38
295.295	122.38
295.525	112.38
295.756	128.38
295.987	130.38
296.217	124.38
296.448	107.38
296.679	111.38
296.909	118.38
297.14	111.38
297.37	127.38
297.601	133.38
297.831	117.38
298.062	114.38
298.292	121.38
298.523	129.38
298.753	124.38
298.984	122.38
299.214	131.38
299.445	119.38
299.675	127.38
299.905	138.38
300.136	123.38
300.366	121.38
300.597	116.38
300.827	122.38
301.057	112.38
301.288	129.38
301.518	121.38
301.748	129.38
301.979	168.38
302.209	125.38
302.439	115.38
302.669	124.38
302.9	124.38
303.13	132.38
303.36	111.38
303.59	105.38
303.82	108.38
304.051	143.38
304.281	124.38
304.511	132.38
304.741	114.38
304.971	111.38
305.201	115.38
305.431	124.38
305.661	116.38
305.891	121.38
306.121	123.38
306.352	104.38
306.582	125.38
306.812	111.38
307.042	129.38
307.272	135.38
307.502	116.38
307.731	123.38
307.961	119.38
308.191	107.38
308.421	125.38
308.651	126.38
308.881	128.38
309.111	115.38
309.341	106.38
309.571	111.38
309.8	115.38
310.03	115.38
310.26	121.38
310.49	117.38
310.72	116.38
310.949	134.38
311.179	117.38
311.409	122.38
311.639	124.38
311.868	133.38
312.098	126.38
312.328	123.38
312.557	124.38
312.787	115.38
313.017	119.38
313.246	109.38
313.476	109.38
313.706	119.38
313.935	123.38
314.165	132.38
314.394	121.38
314.624	122.38
314.853	127.38
315.083	113.38
315.312	121.38
315.542	119.38
315.771	147.38
316.001	110.38
316.23	119.38
316.46	103.38
316.689	119.38
316.919	137.38
317.148	121.38
317.377	127.38
317.607	118.38
317.836	113.38
318.065	122.38
318.295	117.38
318.524	122.38
318.753	138.38
318.983	122.38
319.212	115.38
319.441	130.38
319.67	129.38
319.9	124.38
320.129	128.38
320.358	115.38
320.587	129.38
320.816	121.38
321.046	136.38
321.275	143.38
321.504	117.38
321.733	117.38
321.962	136.38
322.191	124.38
322.42	138.38
322.649	130.38
322.878	122.38
323.108	128.38
323.337	119.38
323.566	141.38
323.795	132.38
324.024	124.38
324.253	129.38
324.482	133.38
324.71	129.38
324.939	150.38
325.168	129.38
325.397	117.38
325.626	137.38
325.855	137.38
326.084	139.38
326.313	122.38
326.542	137.38
326.77	139.38
326.999	132.38
327.228	127.38
327.457	124.38
327.686	122.38
327.914	132.38
328.143	139.38
328.372	130.38
328.6	124.38
328.829	129.38
329.058	127.38
329.287	121.38
329.515	123.38
329.744	149.38
329.972	138.38
330.201	127.38
330.43	122.38
330.658	137.38
330.887	134.38
331.115	129.38
331.344	130.38
331.572	136.38
331.801	122.38
332.03	145.38
332.258	140.38
332.486	138.38
332.715	136.38
332.943	139.38
333.172	154.38
333.4	149.38
333.629	145.38
333.857	138.38
334.085	161.38
334.314	159.38
334.542	157.38
334.771	159.38
334.999	137.38
335.227	109.38
335.455	132.38
335.684	150.38
335.912	143.38
336.14	152.38
336.369	148.38
336.597	141.38
336.825	133.38
337.053	139.38
337.281	143.38
337.51	121.38
337.738	144.38
337.966	140.38
338.194	133.38
338.422	146.38
338.65	148.38
338.878	129.38
339.106	134.38
339.334	148.38
339.562	133.38
339.79	141.38
340.018	113.38
340.246	114.38
340.474	135.38
340.702	150.38
340.93	123.38
341.158	124.38
341.386	117.38
341.614	132.38
341.842	132.38
342.07	134.38
342.298	129.38
342.526	130.38
342.754	132.38
342.981	126.38
343.209	141.38
343.437	168.38
343.665	123.38
343.893	145.38
344.12	152.38
344.348	145.38
344.576	130.38
344.804	119.38
345.031	131.38
345.259	147.38
345.487	121.38
345.714	131.38
345.942	133.38
346.17	124.38
346.397	128.38
346.625	132.38
346.853	134.38
347.08	137.38
347.308	131.38
347.535	136.38
347.763	123.38
347.99	141.38
348.218	123.38
348.445	133.38
348.673	131.38
348.9	133.38
349.128	140.38
349.355	135.38
349.583	119.38
349.81	128.38
350.037	132.38
350.265	126.38
350.492	123.38
350.72	120.38
350.947	121.38
351.174	140.38
351.402	132.38
351.629	129.38
351.856	122.38
352.083	123.38
352.311	131.38
352.538	132.38
352.765	135.38
352.992	153.38
353.22	137.38
353.447	122.38
353.674	130.38
353.901	140.38
354.128	127.38
354.355	132.38
354.583	132.38
354.81	147.38
355.037	146.38
355.264	131.38
355.491	126.38
355.718	129.38
355.945	119.38
356.172	134.38
356.399	144.38
356.626	117.38
356.853	134.38
357.08	128.38
357.307	144.38
357.534	133.38
357.761	137.38
357.988	137.38
358.215	128.38
358.441	126.38
358.668	137.38
358.895	133.38
359.122	136.38
359.349	115.38
359.576	122.38
359.802	123.38
360.029	116.38
360.256	121.38
360.483	127.38
360.709	129.38
360.936	140.38
361.163	118.38
361.39	133.38
361.616	125.38
361.843	131.38
362.07	140.38
362.296	143.38
362.523	119.38
362.749	143.38
362.976	120.38
363.203	147.38
363.429	118.38
363.656	130.38
363.882	121.38
364.109	126.38
364.335	131.38
364.562	139.38
364.788	133.38
365.015	154.38
365.241	117.38
365.468	139.38
365.694	118.38
365.92	142.38
366.147	135.38
366.373	138.38
366.599	126.38
366.826	136.38
367.052	132.38
367.278	134.38
367.505	127.38
367.731	138.38
367.957	124.38
368.184	135.38
368.41	116.38
368.636	125.38
368.862	131.38
369.089	125.38
369.315	120.38
369.541	135.38
369.767	117.38
369.993	132.38
370.219	115.38
370.445	137.38
370.672	137.38
370.898	127.38
371.124	125.38
371.35	131.38
371.576	155.38
371.802	137.38
372.028	135.38
372.254	134.38
372.48	140.38
372.706	147.38
372.932	137.38
373.158	134.38
373.384	139.38
373.61	147.38
373.835	119.38
374.061	140.38
374.287	148.38
374.513	145.38
374.739	130.38
374.965	137.38
375.191	145.38
375.416	144.38
375.642	130.38
375.868	147.38
376.094	147.38
376.319	118.38
376.545	133.38
376.771	133.38
376.997	132.38
377.222	125.38
377.448	138.38
377.674	143.38
377.899	134.38
378.125	130.38
378.35	140.38
378.576	148.38
378.802	141.38
379.027	139.38
379.253	150.38
379.478	125.38
379.704	144.38
379.929	125.38
380.155	139.38
380.38	146.38
380.606	160.38
380.831	140.38
381.057	157.38
381.282	147.38
381.507	139.38
381.733	143.38
381.958	144.38
382.184	136.38
382.409	132.38
382.634	146.38
382.86	150.38
383.085	158.38
383.31	120.38
383.535	153.38
383.761	138.38
383.986	143.38
384.211	149.38
384.436	155.38
384.662	162.38
384.887	155.38
385.112	150.38
385.337	171.38
385.562	163.38
385.787	152.38
386.013	143.38
386.238	148.38
386.463	155.38
386.688	188.38
386.913	146.38
387.138	163.38
387.363	157.38
387.588	146.38
387.813	159.38
388.038	147.38
388.263	164.38
388.488	167.38
388.713	169.38
388.938	160.38
389.163	157.38
389.387	152.38
389.612	148.38
389.837	161.38
390.062	140.38
390.287	156.38
390.512	149.38
390.736	144.38
390.961	165.38
391.186	170.38
391.411	170.38
391.636	165.38
391.86	155.38
392.085	183.38
392.31	170.38
392.534	181.38
392.759	158.38
392.984	162.38
393.208	183.38
393.433	154.38
393.658	149.38
393.882	160.38
394.107	159.38
394.331	171.38
394.556	164.38
394.78	167.38
395.005	171.38
395.229	180.38
395.454	176.38
395.678	168.38
395.903	191.38
396.127	161.38
396.352	157.38
396.576	167.38
396.801	152.38
397.025	171.38
397.249	170.38
397.474	180.38
397.698	167.38
397.922	167.38
398.147	164.38
398.371	178.38
398.595	189.38
398.82	183.38
399.044	196.38
399.268	211.38
399.492	224.38
399.717	233.38
399.941	232.38
400.165	217.38
400.389	195.38
400.613	189.38
400.837	201.38
401.062	182.38
401.286	181.38
401.51	171.38
401.734	196.38
401.958	180.38
402.182	189.38
402.406	190.38
402.63	180.38
402.854	218.38
403.078	205.38
403.302	189.38
403.526	202.38
403.75	196.38
403.974	204.38
404.198	207.38
404.422	203.38
404.645	200.38
404.869	191.38
405.093	195.38
405.317	208.38
405.541	187.38
405.765	183.38
405.988	192.38
406.212	192.38
406.436	193.38
406.66	205.38
406.883	192.38
407.107	215.38
407.331	231.38
407.555	218.38
407.778	190.38
408.002	202.38
408.226	203.38
408.449	203.38
408.673	199.38
408.896	189.38
409.12	184.38
409.344	203.38
409.567	201.38
409.791	202.38
410.014	198.38
410.238	211.38
410.461	190.38
410.685	190.38
410.908	194.38
411.132	191.38
411.355	197.38
411.578	207.38
411.802	207.38
412.025	191.38
412.249	201.38
412.472	191.38
412.695	183.38
412.919	192.38
413.142	185.38
413.365	185.38
413.589	183.38
413.812	177.38
414.035	203.38
414.258	188.38
414.482	181.38
414.705	191.38
414.928	200.38
415.151	185.38
415.374	176.38
415.597	176.38
415.821	190.38
416.044	179.38
416.267	194.38
416.49	176.38
416.713	187.38
416.936	189.38
417.159	197.38
417.382	184.38
417.605	178.38
417.828	178.38
418.051	200.38
418.274	196.38
418.497	194.38
418.72	197.38
418.943	200.38
419.166	217.38
419.389	191.38
419.611	201.38
419.834	190.38
420.057	197.38
420.28	195.38
420.503	181.38
420.726	193.38
420.948	182.38
421.171	188.38
421.394	200.38
421.617	192.38
421.839	176.38
422.062	210.38
422.285	186.38
422.507	209.38
422.73	192.38
422.953	219.38
423.175	206.38
423.398	201.38
423.621	199.38
423.843	192.38
424.066	197.38
424.288	211.38
424.511	192.38
424.733	202.38
424.956	221.38
425.178	196.38
425.401	188.38
425.623	193.38
425.846	189.38
426.068	190.38
426.291	194.38
426.513	191.38
426.735	175.38
426.958	179.38
427.18	187.38
427.402	179.38
427.625	193.38
427.847	166.38
428.069	173.38
428.292	187.38
428.514	167.38
428.736	179.38
428.958	167.38
429.181	184.38
429.403	170.38
429.625	177.38
429.847	185.38
430.069	180.38
430.292	189.38
430.514	176.38
430.736	159.38
430.958	184.38
431.18	179.38
431.402	173.38
431.624	166.38
431.846	179.38
432.068	167.38
432.29	169.38
432.512	168.38
432.734	190.38
432.956	185.38
433.178	180.38
433.4	194.38
433.622	180.38
433.844	188.38
434.066	173.38
434.287	173.38
434.509	175.38
434.731	166.38
434.953	194.38
435.175	187.38
435.397	188.38
435.618	185.38
435.84	178.38
436.062	192.38
436.284	168.38
436.505	172.38
436.727	170.38
436.949	180.38
437.17	176.38
437.392	157.38
437.614	183.38
437.835	146.38
438.057	164.38
438.278	171.38
438.5	177.38
438.721	188.38
438.943	198.38
439.165	201.38
439.386	187.38
439.608	193.38
439.829	175.38
440.05	194.38
440.272	217.38
440.493	201.38
440.715	187.38
440.936	202.38
441.158	208.38
441.379	191.38
441.6	206.38
441.822	219.38
442.043	185.38
442.264	199.38
442.486	207.38
442.707	196.38
442.928	184.38
443.149	201.38
443.371	199.38
443.592	186.38
443.813	210.38
444.034	212.38
444.255	223.38
444.476	223.38
444.698	209.38
444.919	218.38
445.14	488.38
445.361	317.38
445.582	201.38
445.803	191.38
446.024	195.38
446.245	201.38
446.466	217.38
446.687	197.38
446.908	184.38
447.129	176.38
447.35	195.38
447.571	188.38
447.792	184.38
448.013	166.38
448.234	173.38
448.455	179.38
448.675	201.38
448.896	177.38
449.117	160.38
449.338	178.38
449.559	171.38
449.779	176.38
450	170.38
450.221	177.38
450.442	187.38
450.662	172.38
450.883	172.38
451.104	180.38
451.324	176.38
451.545	178.38
451.766	177.38
451.986	168.38
452.207	164.38
452.428	180.38
452.648	192.38
452.869	179.38
453.089	181.38
453.31	165.38
453.53	154.38
453.751	153.38
453.971	153.38
454.192	170.38
454.412	170.38
454.633	154.38
454.853	155.38
455.073	164.38
455.294	149.38
455.514	165.38
455.734	171.38
455.955	171.38
456.175	172.38
456.395	149.38
456.616	144.38
456.836	146.38
457.056	155.38
457.276	151.38
457.497	142.38
457.717	148.38
457.937	157.38
458.157	148.38
458.377	159.38
458.598	157.38
458.818	173.38
459.038	151.38
459.258	147.38
459.478	158.38
459.698	162.38
459.918	178.38
460.138	179.38
460.358	189.38
460.578	197.38
460.798	203.38
461.018	191.38
461.238	185.38
461.458	184.38
461.678	202.38
461.898	192.38
462.118	190.38
462.338	191.38
462.558	198.38
462.777	185.38
462.997	216.38
463.217	209.38
463.437	217.38
463.657	217.38
463.876	215.38
464.096	225.38
464.316	221.38
464.536	211.38
464.755	208.38
464.975	196.38
465.195	212.38
465.414	194.38
465.634	188.38
465.854	185.38
466.073	177.38
466.293	179.38
466.512	177.38
466.732	167.38
466.951	183.38
467.171	186.38
467.391	186.38
467.61	189.38
467.829	188.38
468.049	182.38
468.268	180.38
468.488	173.38
468.707	188.38
468.927	173.38
469.146	183.38
469.365	188.38
469.585	187.38
469.804	194.38
470.023	187.38
470.243	198.38
470.462	195.38
470.681	189.38
470.901	158.38
471.12	192.38
471.339	199.38
471.558	179.38
471.777	171.38
471.997	180.38
472.216	181.38
472.435	179.38
472.654	176.38
472.873	181.38
473.092	169.38
473.311	177.38
473.53	163.38
473.749	170.38
473.968	187.38
474.187	172.38
474.406	171.38
474.625	166.38
474.844	163.38
475.063	158.38
475.282	183.38
475.501	173.38
475.72	189.38
475.939	193.38
476.158	185.38
476.377	189.38
476.596	168.38
476.814	173.38
477.033	170.38
477.252	173.38
477.471	172.38
477.69	194.38
477.908	180.38
478.127	195.38
478.346	168.38
478.564	183.38
478.783	195.38
479.002	205.38
479.22	191.38
479.439	212.38
479.658	192.38
479.876	195.38
480.095	179.38
480.313	219.38
480.532	195.38
480.751	197.38
480.969	171.38
481.188	177.38
481.406	172.38
481.624	168.38
481.843	162.38
482.061	177.38
482.28	186.38
482.498	177.38
482.717	183.38
482.935	191.38
483.153	203.38
483.372	211.38
483.59	200.38
483.808	189.38
484.027	192.38
484.245	183.38
484.463	195.38
484.681	207.38
484.9	199.38
485.118	193.38
485.336	194.38
485.554	190.38
485.772	161.38
485.99	172.38
486.209	189.38
486.427	165.38
486.645	198.38
486.863	204.38
487.081	202.38
487.299	189.38
487.517	201.38
487.735	205.38
487.953	214.38
488.171	223.38
488.389	216.38
488.607	209.38
488.825	183.38
489.043	188.38
489.261	209.38
489.479	195.38
489.696	199.38
489.914	190.38
490.132	198.38
490.35	221.38
490.568	209.38
490.786	216.38
491.003	212.38
491.221	207.38
491.439	227.38
491.657	224.38
491.874	234.38
492.092	255.38
492.31	252.38
492.527	234.38
492.745	236.38
492.963	241.38
493.18	251.38
493.398	235.38
493.615	209.38
493.833	219.38
494.05	211.38
494.268	211.38
494.485	221.38
494.703	228.38
494.92	229.38
495.138	207.38
495.355	240.38
495.573	227.38
495.79	219.38
496.008	244.38
496.225	239.38
496.442	223.38
496.66	243.38
496.877	236.38
497.094	213.38
497.312	221.38
497.529	234.38
497.746	229.38
497.963	214.38
498.181	218.38
498.398	237.38
498.615	207.38
498.832	235.38
499.049	248.38
499.267	280.38
499.484	275.38
499.701	293.38
499.918	354.38
500.135	354.38
500.352	402.38
500.569	407.38
500.786	404.38
501.003	370.38
501.22	365.38
501.437	307.38
501.654	277.38
501.871	276.38
502.088	271.38
502.305	272.38
502.522	247.38
502.739	246.38
502.956	231.38
503.172	199.38
503.389	203.38
503.606	197.38
503.823	209.38
504.04	218.38
504.256	230.38
504.473	218.38
504.69	226.38
504.907	228.38
