Data from SampD_HRD10591_00029.txt Node
Date: Mon Jan 19 11:50:25 EST 2026
User: Yrep
Spectrometer: HR+D1059
Trigger mode: 0
Integration Time (sec): 3.443000E-1
Scans to average: 1
Electric dark correction enabled: true
Nonlinearity correction enabled: false
Boxcar width: 0
XAxis mode: Wavelengths
Number of Pixels in Spectrum: 2048
>>>>>Begin Spectral Data<<<<<
223.165	-29.69
223.4	-29.69
223.635	-29.69
223.869	-16.69
224.104	-30.69
224.338	-16.69
224.573	-14.69
224.808	-11.69
225.042	-4.69
225.277	-5.69
225.511	-2.69
225.746	4.31
225.98	9.31
226.215	13.31
226.449	25.31
226.683	12.31
226.918	27.31
227.152	41.31
227.387	34.31
227.621	35.31
227.856	42.31
228.09	55.31
228.324	50.31
228.559	48.31
228.793	51.31
229.027	76.31
229.262	50.31
229.496	81.31
229.73	88.31
229.964	70.31
230.199	78.31
230.433	68.31
230.667	91.31
230.901	78.31
231.136	74.31
231.37	70.31
231.604	88.31
231.838	73.31
232.072	83.31
232.306	73.31
232.541	86.31
232.775	73.31
233.009	77.31
233.243	73.31
233.477	84.31
233.711	91.31
233.945	83.31
234.179	88.31
234.413	88.31
234.647	89.31
234.881	80.31
235.115	67.31
235.349	81.31
235.583	84.31
235.817	86.31
236.051	64.31
236.285	77.31
236.519	88.31
236.753	91.31
236.987	82.31
237.221	76.31
237.455	75.31
237.689	73.31
237.922	79.31
238.156	79.31
238.39	55.31
238.624	74.31
238.858	77.31
239.091	82.31
239.325	76.31
239.559	75.31
239.793	77.31
240.027	88.31
240.26	78.31
240.494	71.31
240.728	82.31
240.961	63.31
241.195	88.31
241.429	73.31
241.662	75.31
241.896	81.31
242.13	81.31
242.363	80.31
242.597	73.31
242.83	84.31
243.064	77.31
243.298	75.31
243.531	88.31
243.765	80.31
243.998	55.31
244.232	76.31
244.465	79.31
244.699	58.31
244.932	91.31
245.166	80.31
245.399	68.31
245.633	83.31
245.866	78.31
246.099	84.31
246.333	83.31
246.566	89.31
246.8	99.31
247.033	81.31
247.266	79.31
247.5	91.31
247.733	78.31
247.966	80.31
248.2	91.31
248.433	78.31
248.666	69.31
248.899	92.31
249.133	68.31
249.366	98.31
249.599	80.31
249.832	87.31
250.066	83.31
250.299	91.31
250.532	81.31
250.765	82.31
250.998	67.31
251.231	80.31
251.465	79.31
251.698	76.31
251.931	86.31
252.164	86.31
252.397	86.31
252.63	95.31
252.863	79.31
253.096	71.31
253.329	86.31
253.562	82.31
253.795	90.31
254.028	94.31
254.261	90.31
254.494	75.31
254.727	92.31
254.96	74.31
255.193	64.31
255.426	89.31
255.659	92.31
255.892	85.31
256.124	78.31
256.357	96.31
256.59	93.31
256.823	91.31
257.056	96.31
257.289	91.31
257.521	89.31
257.754	91.31
257.987	99.31
258.22	91.31
258.452	90.31
258.685	95.31
258.918	82.31
259.151	101.31
259.383	90.31
259.616	86.31
259.849	76.31
260.081	88.31
260.314	92.31
260.547	94.31
260.779	92.31
261.012	71.31
261.244	94.31
261.477	100.31
261.71	73.31
261.942	92.31
262.175	76.31
262.407	85.31
262.64	100.31
262.872	83.31
263.105	72.31
263.337	88.31
263.57	90.31
263.802	88.31
264.035	80.31
264.267	93.31
264.499	95.31
264.732	99.31
264.964	92.31
265.197	93.31
265.429	85.31
265.661	91.31
265.894	96.31
266.126	107.31
266.358	106.31
266.591	82.31
266.823	88.31
267.055	89.31
267.287	85.31
267.52	85.31
267.752	97.31
267.984	91.31
268.216	83.31
268.448	100.31
268.681	83.31
268.913	95.31
269.145	94.31
269.377	94.31
269.609	94.31
269.841	95.31
270.073	92.31
270.306	86.31
270.538	90.31
270.77	85.31
271.002	84.31
271.234	99.31
271.466	99.31
271.698	89.31
271.93	86.31
272.162	91.31
272.394	107.31
272.626	81.31
272.858	83.31
273.09	104.31
273.322	91.31
273.553	82.31
273.785	90.31
274.017	97.31
274.249	98.31
274.481	98.31
274.713	96.31
274.945	94.31
275.176	99.31
275.408	96.31
275.64	94.31
275.872	91.31
276.104	99.31
276.335	88.31
276.567	102.31
276.799	101.31
277.031	84.31
277.262	108.31
277.494	122.31
277.726	93.31
277.957	75.31
278.189	83.31
278.421	84.31
278.652	93.31
278.884	91.31
279.115	82.31
279.347	102.31
279.579	98.31
279.81	113.31
280.042	88.31
280.273	96.31
280.505	83.31
280.736	96.31
280.968	105.31
281.199	96.31
281.431	102.31
281.662	88.31
281.894	99.31
282.125	102.31
282.356	107.31
282.588	99.31
282.819	89.31
283.051	86.31
283.282	92.31
283.513	114.31
283.745	108.31
283.976	95.31
284.207	98.31
284.439	107.31
284.67	95.31
284.901	99.31
285.132	97.31
285.364	95.31
285.595	106.31
285.826	90.31
286.057	100.31
286.288	90.31
286.52	99.31
286.751	114.31
286.982	90.31
287.213	92.31
287.444	86.31
287.675	93.31
287.906	92.31
288.138	91.31
288.369	96.31
288.6	107.31
288.831	100.31
289.062	99.31
289.293	95.31
289.524	97.31
289.755	97.31
289.986	101.31
290.217	99.31
290.448	104.31
290.679	99.31
290.91	105.31
291.141	97.31
291.371	114.31
291.602	102.31
291.833	97.31
292.064	104.31
292.295	114.31
292.526	95.31
292.757	84.31
292.987	101.31
293.218	101.31
293.449	103.31
293.68	95.31
293.91	97.31
294.141	117.31
294.372	100.31
294.603	96.31
294.833	104.31
295.064	104.31
295.295	99.31
295.525	93.31
295.756	102.31
295.987	99.31
296.217	117.31
296.448	109.31
296.679	111.31
296.909	117.31
297.14	101.31
297.37	116.31
297.601	98.31
297.831	87.31
298.062	107.31
298.292	101.31
298.523	111.31
298.753	114.31
298.984	104.31
299.214	106.31
299.445	96.31
299.675	104.31
299.905	118.31
300.136	112.31
300.366	120.31
300.597	106.31
300.827	121.31
301.057	103.31
301.288	90.31
301.518	99.31
301.748	99.31
301.979	145.31
302.209	99.31
302.439	96.31
302.669	91.31
302.9	90.31
303.13	113.31
303.36	112.31
303.59	82.31
303.82	119.31
304.051	107.31
304.281	96.31
304.511	105.31
304.741	93.31
304.971	99.31
305.201	117.31
305.431	99.31
305.661	92.31
305.891	109.31
306.121	106.31
306.352	103.31
306.582	112.31
306.812	113.31
307.042	90.31
307.272	105.31
307.502	102.31
307.731	106.31
307.961	114.31
308.191	98.31
308.421	95.31
308.651	107.31
308.881	117.31
309.111	102.31
309.341	104.31
309.571	95.31
309.8	94.31
310.03	89.31
310.26	98.31
310.49	106.31
310.72	103.31
310.949	112.31
311.179	101.31
311.409	105.31
311.639	118.31
311.868	108.31
312.098	118.31
312.328	111.31
312.557	108.31
312.787	118.31
313.017	118.31
313.246	107.31
313.476	107.31
313.706	108.31
313.935	97.31
314.165	115.31
314.394	109.31
314.624	118.31
314.853	104.31
315.083	114.31
315.312	99.31
315.542	111.31
315.771	88.31
316.001	103.31
316.23	107.31
316.46	105.31
316.689	107.31
316.919	97.31
317.148	105.31
317.377	101.31
317.607	98.31
317.836	98.31
318.065	94.31
318.295	118.31
318.524	96.31
318.753	93.31
318.983	110.31
319.212	105.31
319.441	123.31
319.67	109.31
319.9	107.31
320.129	104.31
320.358	95.31
320.587	92.31
320.816	104.31
321.046	119.31
321.275	104.31
321.504	105.31
321.733	100.31
321.962	87.31
322.191	112.31
322.42	100.31
322.649	112.31
322.878	100.31
323.108	113.31
323.337	94.31
323.566	101.31
323.795	100.31
324.024	109.31
324.253	109.31
324.482	105.31
324.71	96.31
324.939	104.31
325.168	106.31
325.397	107.31
325.626	113.31
325.855	98.31
326.084	92.31
326.313	101.31
326.542	108.31
326.77	126.31
326.999	101.31
327.228	105.31
327.457	119.31
327.686	116.31
327.914	111.31
328.143	120.31
328.372	102.31
328.6	108.31
328.829	106.31
329.058	104.31
329.287	112.31
329.515	112.31
329.744	117.31
329.972	103.31
330.201	112.31
330.43	117.31
330.658	106.31
330.887	96.31
331.115	109.31
331.344	118.31
331.572	115.31
331.801	110.31
332.03	124.31
332.258	118.31
332.486	107.31
332.715	111.31
332.943	122.31
333.172	112.31
333.4	112.31
333.629	115.31
333.857	113.31
334.085	110.31
334.314	115.31
334.542	108.31
334.771	119.31
334.999	95.31
335.227	127.31
335.455	113.31
335.684	108.31
335.912	115.31
336.14	108.31
336.369	102.31
336.597	105.31
336.825	107.31
337.053	113.31
337.281	113.31
337.51	128.31
337.738	124.31
337.966	115.31
338.194	108.31
338.422	121.31
338.65	110.31
338.878	111.31
339.106	100.31
339.334	107.31
339.562	111.31
339.79	105.31
340.018	106.31
340.246	94.31
340.474	96.31
340.702	104.31
340.93	107.31
341.158	118.31
341.386	117.31
341.614	107.31
341.842	103.31
342.07	81.31
342.298	103.31
342.526	107.31
342.754	103.31
342.981	111.31
343.209	100.31
343.437	135.31
343.665	107.31
343.893	110.31
344.12	122.31
344.348	102.31
344.576	116.31
344.804	109.31
345.031	98.31
345.259	117.31
345.487	120.31
345.714	110.31
345.942	110.31
346.17	99.31
346.397	107.31
346.625	110.31
346.853	105.31
347.08	107.31
347.308	97.31
347.535	120.31
347.763	104.31
347.99	111.31
348.218	111.31
348.445	99.31
348.673	98.31
348.9	109.31
349.128	122.31
349.355	105.31
349.583	115.31
349.81	106.31
350.037	101.31
350.265	103.31
350.492	95.31
350.72	107.31
350.947	107.31
351.174	114.31
351.402	129.31
351.629	106.31
351.856	103.31
352.083	108.31
352.311	108.31
352.538	101.31
352.765	108.31
352.992	114.31
353.22	117.31
353.447	104.31
353.674	114.31
353.901	106.31
354.128	96.31
354.355	114.31
354.583	105.31
354.81	108.31
355.037	110.31
355.264	106.31
355.491	104.31
355.718	104.31
355.945	103.31
356.172	108.31
356.399	132.31
356.626	110.31
356.853	106.31
357.08	115.31
357.307	106.31
357.534	115.31
357.761	119.31
357.988	103.31
358.215	117.31
358.441	99.31
358.668	114.31
358.895	109.31
359.122	104.31
359.349	113.31
359.576	103.31
359.802	114.31
360.029	101.31
360.256	116.31
360.483	102.31
360.709	101.31
360.936	110.31
361.163	119.31
361.39	110.31
361.616	113.31
361.843	98.31
362.07	99.31
362.296	94.31
362.523	119.31
362.749	99.31
362.976	104.31
363.203	127.31
363.429	115.31
363.656	123.31
363.882	98.31
364.109	105.31
364.335	105.31
364.562	97.31
364.788	110.31
365.015	108.31
365.241	109.31
365.468	115.31
365.694	112.31
365.92	117.31
366.147	100.31
366.373	101.31
366.599	104.31
366.826	112.31
367.052	116.31
367.278	118.31
367.505	123.31
367.731	129.31
367.957	113.31
368.184	107.31
368.41	106.31
368.636	119.31
368.862	111.31
369.089	116.31
369.315	111.31
369.541	107.31
369.767	108.31
369.993	111.31
370.219	118.31
370.445	100.31
370.672	105.31
370.898	97.31
371.124	103.31
371.35	108.31
371.576	112.31
371.802	115.31
372.028	119.31
372.254	100.31
372.48	102.31
372.706	108.31
372.932	132.31
373.158	104.31
373.384	119.31
373.61	109.31
373.835	105.31
374.061	105.31
374.287	124.31
374.513	124.31
374.739	103.31
374.965	124.31
375.191	122.31
375.416	102.31
375.642	118.31
375.868	112.31
376.094	117.31
376.319	109.31
376.545	95.31
376.771	117.31
376.997	120.31
377.222	102.31
377.448	122.31
377.674	115.31
377.899	108.31
378.125	104.31
378.35	113.31
378.576	103.31
378.802	107.31
379.027	120.31
379.253	106.31
379.478	115.31
379.704	121.31
379.929	95.31
380.155	100.31
380.38	119.31
380.606	111.31
380.831	113.31
381.057	125.31
381.282	123.31
381.507	121.31
381.733	117.31
381.958	103.31
382.184	130.31
382.409	123.31
382.634	116.31
382.86	121.31
383.085	131.31
383.31	127.31
383.535	131.31
383.761	118.31
383.986	105.31
384.211	113.31
384.436	129.31
384.662	124.31
384.887	113.31
385.112	126.31
385.337	131.31
385.562	128.31
385.787	114.31
386.013	135.31
386.238	137.31
386.463	137.31
386.688	148.31
386.913	126.31
387.138	118.31
387.363	101.31
387.588	132.31
387.813	116.31
388.038	112.31
388.263	130.31
388.488	130.31
388.713	122.31
388.938	119.31
389.163	121.31
389.387	116.31
389.612	115.31
389.837	119.31
390.062	122.31
390.287	90.31
390.512	118.31
390.736	117.31
390.961	125.31
391.186	137.31
391.411	119.31
391.636	118.31
391.86	121.31
392.085	117.31
392.31	123.31
392.534	128.31
392.759	114.31
392.984	144.31
393.208	124.31
393.433	126.31
393.658	114.31
393.882	121.31
394.107	121.31
394.331	124.31
394.556	116.31
394.78	128.31
395.005	128.31
395.229	128.31
395.454	124.31
395.678	130.31
395.903	118.31
396.127	145.31
396.352	130.31
396.576	131.31
396.801	115.31
397.025	129.31
397.249	132.31
397.474	136.31
397.698	135.31
397.922	127.31
398.147	114.31
398.371	137.31
398.595	143.31
398.82	133.31
399.044	139.31
399.268	147.31
399.492	159.31
399.717	179.31
399.941	142.31
400.165	140.31
400.389	128.31
400.613	134.31
400.837	138.31
401.062	129.31
401.286	133.31
401.51	122.31
401.734	127.31
401.958	135.31
402.182	141.31
402.406	131.31
402.63	149.31
402.854	146.31
403.078	133.31
403.302	148.31
403.526	151.31
403.75	137.31
403.974	142.31
404.198	131.31
404.422	132.31
404.645	142.31
404.869	139.31
405.093	143.31
405.317	126.31
405.541	141.31
405.765	136.31
405.988	149.31
406.212	140.31
406.436	148.31
406.66	168.31
406.883	142.31
407.107	154.31
407.331	135.31
407.555	150.31
407.778	164.31
408.002	141.31
408.226	136.31
408.449	133.31
408.673	132.31
408.896	138.31
409.12	140.31
409.344	138.31
409.567	143.31
409.791	164.31
410.014	143.31
410.238	154.31
410.461	133.31
410.685	148.31
410.908	142.31
411.132	160.31
411.355	130.31
411.578	143.31
411.802	136.31
412.025	145.31
412.249	144.31
412.472	124.31
412.695	148.31
412.919	152.31
413.142	131.31
413.365	132.31
413.589	135.31
413.812	150.31
414.035	150.31
414.258	129.31
414.482	127.31
414.705	145.31
414.928	134.31
415.151	130.31
415.374	142.31
415.597	137.31
415.821	131.31
416.044	114.31
416.267	127.31
416.49	119.31
416.713	134.31
416.936	143.31
417.159	134.31
417.382	139.31
417.605	142.31
417.828	146.31
418.051	117.31
418.274	146.31
418.497	134.31
418.72	137.31
418.943	134.31
419.166	147.31
419.389	138.31
419.611	145.31
419.834	144.31
420.057	147.31
420.28	133.31
420.503	141.31
420.726	143.31
420.948	134.31
421.171	134.31
421.394	143.31
421.617	138.31
421.839	150.31
422.062	140.31
422.285	144.31
422.507	126.31
422.73	144.31
422.953	153.31
423.175	140.31
423.398	126.31
423.621	147.31
423.843	130.31
424.066	128.31
424.288	150.31
424.511	148.31
424.733	148.31
424.956	145.31
425.178	132.31
425.401	136.31
425.623	134.31
425.846	112.31
426.068	137.31
426.291	145.31
426.513	136.31
426.735	134.31
426.958	129.31
427.18	140.31
427.402	131.31
427.625	134.31
427.847	126.31
428.069	133.31
428.292	136.31
428.514	129.31
428.736	136.31
428.958	131.31
429.181	127.31
429.403	125.31
429.625	112.31
429.847	139.31
430.069	130.31
430.292	127.31
430.514	127.31
430.736	132.31
430.958	126.31
431.18	139.31
431.402	126.31
431.624	126.31
431.846	119.31
432.068	145.31
432.29	114.31
432.512	132.31
432.734	135.31
432.956	148.31
433.178	144.31
433.4	123.31
433.622	140.31
433.844	117.31
434.066	127.31
434.287	130.31
434.509	118.31
434.731	129.31
434.953	137.31
435.175	145.31
435.397	143.31
435.618	120.31
435.84	135.31
436.062	126.31
436.284	129.31
436.505	132.31
436.727	131.31
436.949	139.31
437.17	125.31
437.392	139.31
437.614	137.31
437.835	129.31
438.057	119.31
438.278	124.31
438.5	116.31
438.721	122.31
438.943	140.31
439.165	129.31
439.386	130.31
439.608	148.31
439.829	138.31
440.05	143.31
440.272	136.31
440.493	142.31
440.715	150.31
440.936	155.31
441.158	149.31
441.379	143.31
441.6	154.31
441.822	148.31
442.043	153.31
442.264	122.31
442.486	123.31
442.707	137.31
442.928	142.31
443.149	146.31
443.371	145.31
443.592	138.31
443.813	132.31
444.034	129.31
444.255	149.31
444.476	147.31
444.698	139.31
444.919	127.31
445.14	364.31
445.361	231.31
445.582	139.31
445.803	132.31
446.024	140.31
446.245	156.31
446.466	149.31
446.687	132.31
446.908	129.31
447.129	160.31
447.35	129.31
447.571	139.31
447.792	135.31
448.013	133.31
448.234	124.31
448.455	138.31
448.675	137.31
448.896	127.31
449.117	146.31
449.338	139.31
449.559	133.31
449.779	123.31
450	135.31
450.221	114.31
450.442	142.31
450.662	130.31
450.883	132.31
451.104	142.31
451.324	121.31
451.545	125.31
451.766	143.31
451.986	119.31
452.207	139.31
452.428	124.31
452.648	136.31
452.869	134.31
453.089	130.31
453.31	118.31
453.53	113.31
453.751	121.31
453.971	109.31
454.192	125.31
454.412	104.31
454.633	115.31
454.853	123.31
455.073	124.31
455.294	132.31
455.514	116.31
455.734	104.31
455.955	122.31
456.175	121.31
456.395	121.31
456.616	108.31
456.836	117.31
457.056	112.31
457.276	117.31
457.497	106.31
457.717	122.31
457.937	105.31
458.157	134.31
458.377	116.31
458.598	125.31
458.818	115.31
459.038	127.31
459.258	103.31
459.478	112.31
459.698	124.31
459.918	127.31
460.138	142.31
460.358	137.31
460.578	152.31
460.798	140.31
461.018	135.31
461.238	129.31
461.458	135.31
461.678	148.31
461.898	153.31
462.118	126.31
462.338	146.31
462.558	136.31
462.777	146.31
462.997	135.31
463.217	158.31
463.437	153.31
463.657	131.31
463.876	134.31
464.096	141.31
464.316	145.31
464.536	148.31
464.755	146.31
464.975	145.31
465.195	132.31
465.414	127.31
465.634	118.31
465.854	130.31
466.073	139.31
466.293	133.31
466.512	130.31
466.732	139.31
466.951	122.31
467.171	138.31
467.391	123.31
467.61	136.31
467.829	127.31
468.049	142.31
468.268	124.31
468.488	152.31
468.707	131.31
468.927	122.31
469.146	127.31
469.365	141.31
469.585	133.31
469.804	139.31
470.023	151.31
470.243	138.31
470.462	146.31
470.681	143.31
470.901	152.31
471.12	134.31
471.339	133.31
471.558	127.31
471.777	148.31
471.997	146.31
472.216	139.31
472.435	115.31
472.654	110.31
472.873	125.31
473.092	133.31
473.311	131.31
473.53	130.31
473.749	124.31
473.968	126.31
474.187	130.31
474.406	129.31
474.625	148.31
474.844	144.31
475.063	125.31
475.282	130.31
475.501	122.31
475.72	136.31
475.939	135.31
476.158	145.31
476.377	140.31
476.596	128.31
476.814	137.31
477.033	120.31
477.252	133.31
477.471	128.31
477.69	136.31
477.908	160.31
478.127	138.31
478.346	156.31
478.564	139.31
478.783	150.31
479.002	155.31
479.22	162.31
479.439	140.31
479.658	124.31
479.876	143.31
480.095	138.31
480.313	138.31
480.532	163.31
480.751	148.31
480.969	126.31
481.188	135.31
481.406	128.31
481.624	127.31
481.843	118.31
482.061	127.31
482.28	135.31
482.498	140.31
482.717	147.31
482.935	140.31
483.153	137.31
483.372	142.31
483.59	149.31
483.808	122.31
484.027	138.31
484.245	139.31
484.463	133.31
484.681	137.31
484.9	137.31
485.118	129.31
485.336	126.31
485.554	144.31
485.772	136.31
485.99	138.31
486.209	116.31
486.427	132.31
486.645	123.31
486.863	132.31
487.081	147.31
487.299	145.31
487.517	130.31
487.735	144.31
487.953	150.31
488.171	164.31
488.389	156.31
488.607	144.31
488.825	140.31
489.043	129.31
489.261	138.31
489.479	145.31
489.696	160.31
489.914	151.31
490.132	155.31
490.35	138.31
490.568	137.31
490.786	159.31
491.003	158.31
491.221	151.31
491.439	151.31
491.657	155.31
491.874	159.31
492.092	172.31
492.31	167.31
492.527	170.31
492.745	147.31
492.963	156.31
493.18	170.31
493.398	145.31
493.615	149.31
493.833	149.31
494.05	149.31
494.268	144.31
494.485	145.31
494.703	162.31
494.92	165.31
495.138	146.31
495.355	159.31
495.573	147.31
495.79	144.31
496.008	162.31
496.225	142.31
496.442	152.31
496.66	175.31
496.877	150.31
497.094	164.31
497.312	159.31
497.529	161.31
497.746	161.31
497.963	153.31
498.181	147.31
498.398	145.31
498.615	146.31
498.832	152.31
499.049	152.31
499.267	182.31
499.484	197.31
499.701	200.31
499.918	210.31
500.135	230.31
500.352	248.31
500.569	242.31
500.786	241.31
501.003	225.31
501.22	229.31
501.437	195.31
501.654	185.31
501.871	173.31
502.088	177.31
502.305	177.31
502.522	154.31
502.739	162.31
502.956	164.31
503.172	151.31
503.389	158.31
503.606	170.31
503.823	155.31
504.04	147.31
504.256	157.31
504.473	138.31
504.69	164.31
504.907	165.31
505.123	145.31
505.34	149.31
505.557	154.31
505.773	143.31
505.99	132.31
506.207	142.31
506.423	122.31
506.64	125.31
506.856	136.31
507.073	125.31
