Data from SampD_HRD10591_00052.txt Node
Date: Mon Jan 19 11:50:33 EST 2026
User: Yrep
Spectrometer: HR+D1059
Trigger mode: 0
Integration Time (sec): 3.443000E-1
Scans to average: 1
Electric dark correction enabled: true
Nonlinearity correction enabled: false
Boxcar width: 0
XAxis mode: Wavelengths
Number of Pixels in Spectrum: 2048
>>>>>Begin Spectral Data<<<<<
223.165	-11.94
223.4	-11.94
223.635	-11.94
223.869	-14.94
224.104	-30.94
224.338	-26.94
224.573	-16.94
224.808	-22.94
225.042	-10.94
225.277	-1.94
225.511	-1.94
225.746	12.06
225.98	13.06
226.215	19.06
226.449	22.06
226.683	21.06
226.918	25.06
227.152	27.06
227.387	33.06
227.621	41.06
227.856	58.06
228.09	51.06
228.324	50.06
228.559	50.06
228.793	66.06
229.027	76.06
229.262	71.06
229.496	75.06
229.73	66.06
229.964	65.06
230.199	81.06
230.433	71.06
230.667	76.06
230.901	74.06
231.136	80.06
231.37	74.06
231.604	99.06
231.838	85.06
232.072	98.06
232.306	98.06
232.541	92.06
232.775	68.06
233.009	85.06
233.243	84.06
233.477	87.06
233.711	89.06
233.945	88.06
234.179	99.06
234.413	77.06
234.647	92.06
234.881	82.06
235.115	95.06
235.349	75.06
235.583	100.06
235.817	84.06
236.051	77.06
236.285	86.06
236.519	94.06
236.753	82.06
236.987	87.06
237.221	75.06
237.455	85.06
237.689	70.06
237.922	83.06
238.156	73.06
238.39	91.06
238.624	81.06
238.858	76.06
239.091	76.06
239.325	75.06
239.559	85.06
239.793	83.06
240.027	93.06
240.26	83.06
240.494	89.06
240.728	72.06
240.961	105.06
241.195	86.06
241.429	83.06
241.662	77.06
241.896	83.06
242.13	76.06
242.363	68.06
242.597	79.06
242.83	92.06
243.064	75.06
243.298	87.06
243.531	71.06
243.765	89.06
243.998	91.06
244.232	106.06
244.465	99.06
244.699	93.06
244.932	73.06
245.166	82.06
245.399	92.06
245.633	89.06
245.866	99.06
246.099	79.06
246.333	95.06
246.566	92.06
246.8	92.06
247.033	85.06
247.266	76.06
247.5	76.06
247.733	93.06
247.966	91.06
248.2	82.06
248.433	85.06
248.666	80.06
248.899	100.06
249.133	100.06
249.366	108.06
249.599	89.06
249.832	92.06
250.066	110.06
250.299	89.06
250.532	106.06
250.765	84.06
250.998	86.06
251.231	84.06
251.465	95.06
251.698	88.06
251.931	97.06
252.164	90.06
252.397	81.06
252.63	88.06
252.863	87.06
253.096	90.06
253.329	98.06
253.562	84.06
253.795	106.06
254.028	92.06
254.261	94.06
254.494	86.06
254.727	104.06
254.96	80.06
255.193	87.06
255.426	80.06
255.659	83.06
255.892	83.06
256.124	92.06
256.357	87.06
256.59	103.06
256.823	87.06
257.056	90.06
257.289	105.06
257.521	97.06
257.754	100.06
257.987	84.06
258.22	105.06
258.452	76.06
258.685	102.06
258.918	99.06
259.151	81.06
259.383	91.06
259.616	97.06
259.849	80.06
260.081	98.06
260.314	96.06
260.547	99.06
260.779	88.06
261.012	97.06
261.244	90.06
261.477	109.06
261.71	98.06
261.942	99.06
262.175	96.06
262.407	84.06
262.64	92.06
262.872	92.06
263.105	110.06
263.337	95.06
263.57	112.06
263.802	84.06
264.035	88.06
264.267	105.06
264.499	104.06
264.732	114.06
264.964	118.06
265.197	101.06
265.429	87.06
265.661	104.06
265.894	80.06
266.126	112.06
266.358	85.06
266.591	97.06
266.823	108.06
267.055	94.06
267.287	103.06
267.52	97.06
267.752	101.06
267.984	96.06
268.216	95.06
268.448	110.06
268.681	100.06
268.913	111.06
269.145	106.06
269.377	113.06
269.609	91.06
269.841	99.06
270.073	90.06
270.306	97.06
270.538	100.06
270.77	96.06
271.002	84.06
271.234	86.06
271.466	92.06
271.698	109.06
271.93	87.06
272.162	115.06
272.394	108.06
272.626	97.06
272.858	104.06
273.09	109.06
273.322	95.06
273.553	91.06
273.785	103.06
274.017	91.06
274.249	102.06
274.481	104.06
274.713	96.06
274.945	106.06
275.176	89.06
275.408	116.06
275.64	116.06
275.872	100.06
276.104	119.06
276.335	101.06
276.567	98.06
276.799	112.06
277.031	99.06
277.262	100.06
277.494	100.06
277.726	116.06
277.957	100.06
278.189	105.06
278.421	118.06
278.652	114.06
278.884	112.06
279.115	109.06
279.347	113.06
279.579	84.06
279.81	105.06
280.042	111.06
280.273	116.06
280.505	106.06
280.736	98.06
280.968	124.06
281.199	119.06
281.431	112.06
281.662	109.06
281.894	107.06
282.125	107.06
282.356	109.06
282.588	105.06
282.819	102.06
283.051	99.06
283.282	107.06
283.513	120.06
283.745	122.06
283.976	119.06
284.207	110.06
284.439	112.06
284.67	105.06
284.901	117.06
285.132	121.06
285.364	114.06
285.595	113.06
285.826	112.06
286.057	121.06
286.288	98.06
286.52	118.06
286.751	116.06
286.982	127.06
287.213	109.06
287.444	123.06
287.675	121.06
287.906	118.06
288.138	111.06
288.369	113.06
288.6	129.06
288.831	116.06
289.062	123.06
289.293	121.06
289.524	115.06
289.755	97.06
289.986	117.06
290.217	115.06
290.448	129.06
290.679	129.06
290.91	110.06
291.141	128.06
291.371	122.06
291.602	121.06
291.833	119.06
292.064	114.06
292.295	110.06
292.526	111.06
292.757	116.06
292.987	110.06
293.218	119.06
293.449	100.06
293.68	121.06
293.91	112.06
294.141	119.06
294.372	127.06
294.603	109.06
294.833	123.06
295.064	104.06
295.295	109.06
295.525	129.06
295.756	125.06
295.987	116.06
296.217	107.06
296.448	119.06
296.679	123.06
296.909	114.06
297.14	106.06
297.37	116.06
297.601	129.06
297.831	121.06
298.062	124.06
298.292	114.06
298.523	117.06
298.753	123.06
298.984	115.06
299.214	121.06
299.445	124.06
299.675	141.06
299.905	120.06
300.136	120.06
300.366	114.06
300.597	119.06
300.827	113.06
301.057	125.06
301.288	123.06
301.518	127.06
301.748	124.06
301.979	159.06
302.209	119.06
302.439	116.06
302.669	133.06
302.9	113.06
303.13	120.06
303.36	147.06
303.59	120.06
303.82	119.06
304.051	120.06
304.281	113.06
304.511	119.06
304.741	117.06
304.971	130.06
305.201	131.06
305.431	139.06
305.661	131.06
305.891	120.06
306.121	127.06
306.352	135.06
306.582	143.06
306.812	107.06
307.042	110.06
307.272	132.06
307.502	120.06
307.731	131.06
307.961	136.06
308.191	130.06
308.421	119.06
308.651	107.06
308.881	124.06
309.111	129.06
309.341	120.06
309.571	132.06
309.8	131.06
310.03	105.06
310.26	121.06
310.49	121.06
310.72	113.06
310.949	118.06
311.179	107.06
311.409	102.06
311.639	133.06
311.868	117.06
312.098	133.06
312.328	127.06
312.557	129.06
312.787	106.06
313.017	134.06
313.246	131.06
313.476	140.06
313.706	135.06
313.935	122.06
314.165	113.06
314.394	121.06
314.624	120.06
314.853	134.06
315.083	128.06
315.312	120.06
315.542	117.06
315.771	132.06
316.001	120.06
316.23	115.06
316.46	115.06
316.689	120.06
316.919	132.06
317.148	123.06
317.377	121.06
317.607	117.06
317.836	125.06
318.065	132.06
318.295	125.06
318.524	120.06
318.753	117.06
318.983	117.06
319.212	143.06
319.441	134.06
319.67	121.06
319.9	136.06
320.129	131.06
320.358	117.06
320.587	124.06
320.816	126.06
321.046	124.06
321.275	129.06
321.504	130.06
321.733	130.06
321.962	114.06
322.191	121.06
322.42	120.06
322.649	132.06
322.878	114.06
323.108	115.06
323.337	112.06
323.566	126.06
323.795	123.06
324.024	137.06
324.253	125.06
324.482	123.06
324.71	113.06
324.939	130.06
325.168	130.06
325.397	120.06
325.626	132.06
325.855	129.06
326.084	144.06
326.313	128.06
326.542	121.06
326.77	132.06
326.999	134.06
327.228	115.06
327.457	131.06
327.686	124.06
327.914	116.06
328.143	126.06
328.372	113.06
328.6	130.06
328.829	137.06
329.058	121.06
329.287	129.06
329.515	124.06
329.744	136.06
329.972	135.06
330.201	119.06
330.43	123.06
330.658	107.06
330.887	139.06
331.115	134.06
331.344	140.06
331.572	110.06
331.801	123.06
332.03	144.06
332.258	122.06
332.486	135.06
332.715	127.06
332.943	141.06
333.172	153.06
333.4	149.06
333.629	140.06
333.857	142.06
334.085	164.06
334.314	144.06
334.542	144.06
334.771	138.06
334.999	133.06
335.227	148.06
335.455	133.06
335.684	143.06
335.912	144.06
336.14	137.06
336.369	145.06
336.597	139.06
336.825	141.06
337.053	119.06
337.281	132.06
337.51	131.06
337.738	135.06
337.966	135.06
338.194	138.06
338.422	146.06
338.65	142.06
338.878	145.06
339.106	126.06
339.334	131.06
339.562	122.06
339.79	122.06
340.018	124.06
340.246	131.06
340.474	131.06
340.702	132.06
340.93	115.06
341.158	124.06
341.386	138.06
341.614	122.06
341.842	143.06
342.07	123.06
342.298	133.06
342.526	132.06
342.754	124.06
342.981	137.06
343.209	124.06
343.437	175.06
343.665	148.06
343.893	139.06
344.12	155.06
344.348	146.06
344.576	132.06
344.804	135.06
345.031	127.06
345.259	126.06
345.487	131.06
345.714	123.06
345.942	117.06
346.17	131.06
346.397	129.06
346.625	134.06
346.853	142.06
347.08	124.06
347.308	132.06
347.535	135.06
347.763	132.06
347.99	128.06
348.218	145.06
348.445	131.06
348.673	132.06
348.9	138.06
349.128	140.06
349.355	130.06
349.583	135.06
349.81	126.06
350.037	128.06
350.265	128.06
350.492	147.06
350.72	116.06
350.947	118.06
351.174	124.06
351.402	126.06
351.629	131.06
351.856	136.06
352.083	122.06
352.311	132.06
352.538	129.06
352.765	129.06
352.992	159.06
353.22	124.06
353.447	136.06
353.674	131.06
353.901	135.06
354.128	123.06
354.355	112.06
354.583	122.06
354.81	115.06
355.037	119.06
355.264	133.06
355.491	136.06
355.718	124.06
355.945	132.06
356.172	132.06
356.399	133.06
356.626	136.06
356.853	125.06
357.08	126.06
357.307	137.06
357.534	117.06
357.761	133.06
357.988	129.06
358.215	140.06
358.441	120.06
358.668	122.06
358.895	109.06
359.122	126.06
359.349	122.06
359.576	139.06
359.802	135.06
360.029	125.06
360.256	145.06
360.483	130.06
360.709	126.06
360.936	152.06
361.163	107.06
361.39	133.06
361.616	123.06
361.843	135.06
362.07	149.06
362.296	124.06
362.523	121.06
362.749	132.06
362.976	134.06
363.203	139.06
363.429	133.06
363.656	117.06
363.882	123.06
364.109	119.06
364.335	117.06
364.562	129.06
364.788	123.06
365.015	127.06
365.241	116.06
365.468	147.06
365.694	127.06
365.92	130.06
366.147	123.06
366.373	129.06
366.599	132.06
366.826	127.06
367.052	133.06
367.278	122.06
367.505	124.06
367.731	145.06
367.957	135.06
368.184	143.06
368.41	145.06
368.636	144.06
368.862	145.06
369.089	147.06
369.315	129.06
369.541	143.06
369.767	139.06
369.993	135.06
370.219	136.06
370.445	138.06
370.672	129.06
370.898	138.06
371.124	138.06
371.35	148.06
371.576	140.06
371.802	143.06
372.028	146.06
372.254	129.06
372.48	155.06
372.706	141.06
372.932	147.06
373.158	135.06
373.384	145.06
373.61	158.06
373.835	151.06
374.061	124.06
374.287	139.06
374.513	142.06
374.739	146.06
374.965	137.06
375.191	148.06
375.416	140.06
375.642	145.06
375.868	135.06
376.094	131.06
376.319	144.06
376.545	143.06
376.771	139.06
376.997	129.06
377.222	143.06
377.448	131.06
377.674	130.06
377.899	136.06
378.125	140.06
378.35	147.06
378.576	150.06
378.802	139.06
379.027	131.06
379.253	145.06
379.478	149.06
379.704	130.06
379.929	140.06
380.155	132.06
380.38	148.06
380.606	143.06
380.831	146.06
381.057	154.06
381.282	142.06
381.507	136.06
381.733	149.06
381.958	141.06
382.184	140.06
382.409	144.06
382.634	151.06
382.86	129.06
383.085	145.06
383.31	146.06
383.535	143.06
383.761	149.06
383.986	166.06
384.211	153.06
384.436	148.06
384.662	160.06
384.887	147.06
385.112	139.06
385.337	153.06
385.562	140.06
385.787	147.06
386.013	155.06
386.238	151.06
386.463	144.06
386.688	193.06
386.913	148.06
387.138	147.06
387.363	150.06
387.588	151.06
387.813	163.06
388.038	175.06
388.263	153.06
388.488	151.06
388.713	166.06
388.938	150.06
389.163	137.06
389.387	157.06
389.612	168.06
389.837	154.06
390.062	154.06
390.287	164.06
390.512	154.06
390.736	155.06
390.961	150.06
391.186	168.06
391.411	156.06
391.636	175.06
391.86	155.06
392.085	159.06
392.31	148.06
392.534	153.06
392.759	175.06
392.984	162.06
393.208	174.06
393.433	154.06
393.658	163.06
393.882	162.06
394.107	165.06
394.331	157.06
394.556	152.06
394.78	183.06
395.005	169.06
395.229	160.06
395.454	152.06
395.678	159.06
395.903	163.06
396.127	171.06
396.352	166.06
396.576	149.06
396.801	165.06
397.025	159.06
397.249	189.06
397.474	203.06
397.698	168.06
397.922	183.06
398.147	169.06
398.371	159.06
398.595	175.06
398.82	185.06
399.044	181.06
399.268	195.06
399.492	218.06
399.717	211.06
399.941	237.06
400.165	208.06
400.389	195.06
400.613	183.06
400.837	186.06
401.062	189.06
401.286	174.06
401.51	183.06
401.734	189.06
401.958	178.06
402.182	166.06
402.406	177.06
402.63	198.06
402.854	197.06
403.078	185.06
403.302	163.06
403.526	199.06
403.75	203.06
403.974	207.06
404.198	194.06
404.422	203.06
404.645	186.06
404.869	204.06
405.093	193.06
405.317	195.06
405.541	190.06
405.765	194.06
405.988	171.06
406.212	187.06
406.436	181.06
406.66	214.06
406.883	179.06
407.107	193.06
407.331	201.06
407.555	204.06
407.778	219.06
408.002	203.06
408.226	201.06
408.449	196.06
408.673	191.06
408.896	186.06
409.12	186.06
409.344	187.06
409.567	202.06
409.791	189.06
410.014	220.06
410.238	195.06
410.461	204.06
410.685	199.06
410.908	188.06
411.132	194.06
411.355	163.06
411.578	182.06
411.802	191.06
412.025	190.06
412.249	177.06
412.472	174.06
412.695	179.06
412.919	167.06
413.142	187.06
413.365	185.06
413.589	187.06
413.812	193.06
414.035	191.06
414.258	178.06
414.482	205.06
414.705	188.06
414.928	190.06
415.151	192.06
415.374	185.06
415.597	172.06
415.821	201.06
416.044	202.06
416.267	193.06
416.49	180.06
416.713	181.06
416.936	164.06
417.159	193.06
417.382	169.06
417.605	176.06
417.828	187.06
418.051	186.06
418.274	186.06
418.497	193.06
418.72	191.06
418.943	189.06
419.166	207.06
419.389	198.06
419.611	186.06
419.834	196.06
420.057	193.06
420.28	210.06
420.503	181.06
420.726	199.06
420.948	180.06
421.171	178.06
421.394	180.06
421.617	182.06
421.839	189.06
422.062	191.06
422.285	185.06
422.507	187.06
422.73	186.06
422.953	185.06
423.175	190.06
423.398	193.06
423.621	194.06
423.843	196.06
424.066	202.06
424.288	211.06
424.511	201.06
424.733	207.06
424.956	183.06
425.178	194.06
425.401	198.06
425.623	194.06
425.846	193.06
426.068	199.06
426.291	175.06
426.513	188.06
426.735	191.06
426.958	181.06
427.18	199.06
427.402	177.06
427.625	185.06
427.847	193.06
428.069	180.06
428.292	172.06
428.514	177.06
428.736	164.06
428.958	165.06
429.181	170.06
429.403	160.06
429.625	177.06
429.847	182.06
430.069	172.06
430.292	179.06
430.514	169.06
430.736	173.06
430.958	169.06
431.18	170.06
431.402	168.06
431.624	169.06
431.846	183.06
432.068	167.06
432.29	164.06
432.512	181.06
432.734	155.06
432.956	170.06
433.178	202.06
433.4	189.06
433.622	193.06
433.844	189.06
434.066	190.06
434.287	166.06
434.509	168.06
434.731	164.06
434.953	185.06
435.175	187.06
435.397	187.06
435.618	181.06
435.84	173.06
436.062	179.06
436.284	168.06
436.505	177.06
436.727	178.06
436.949	168.06
437.17	174.06
437.392	173.06
437.614	175.06
437.835	159.06
438.057	164.06
438.278	176.06
438.5	175.06
438.721	182.06
438.943	192.06
439.165	182.06
439.386	178.06
439.608	189.06
439.829	177.06
440.05	192.06
440.272	198.06
440.493	181.06
440.715	184.06
440.936	184.06
441.158	201.06
441.379	195.06
441.6	197.06
441.822	196.06
442.043	207.06
442.264	187.06
442.486	184.06
442.707	180.06
442.928	200.06
443.149	193.06
443.371	196.06
443.592	195.06
443.813	190.06
444.034	184.06
444.255	196.06
444.476	206.06
444.698	202.06
444.919	200.06
445.14	465.06
445.361	313.06
445.582	191.06
445.803	197.06
446.024	197.06
446.245	185.06
446.466	194.06
446.687	178.06
446.908	195.06
447.129	198.06
447.35	195.06
447.571	183.06
447.792	181.06
448.013	179.06
448.234	181.06
448.455	173.06
448.675	167.06
448.896	185.06
449.117	186.06
449.338	165.06
449.559	186.06
449.779	183.06
450	157.06
450.221	176.06
450.442	168.06
450.662	183.06
450.883	171.06
451.104	168.06
451.324	179.06
451.545	178.06
451.766	177.06
451.986	165.06
452.207	164.06
452.428	164.06
452.648	156.06
452.869	168.06
453.089	165.06
453.31	169.06
453.53	139.06
453.751	162.06
453.971	159.06
454.192	161.06
454.412	174.06
454.633	173.06
454.853	155.06
455.073	164.06
455.294	163.06
455.514	163.06
455.734	151.06
455.955	168.06
456.175	155.06
456.395	139.06
456.616	165.06
456.836	162.06
457.056	136.06
457.276	151.06
457.497	158.06
457.717	147.06
457.937	167.06
458.157	159.06
458.377	148.06
458.598	135.06
458.818	161.06
459.038	162.06
459.258	167.06
459.478	159.06
459.698	139.06
459.918	146.06
460.138	172.06
460.358	177.06
460.578	194.06
460.798	187.06
461.018	167.06
461.238	188.06
461.458	179.06
461.678	187.06
461.898	197.06
462.118	196.06
462.338	185.06
462.558	185.06
462.777	195.06
462.997	227.06
463.217	219.06
463.437	211.06
463.657	217.06
463.876	201.06
464.096	183.06
464.316	201.06
464.536	208.06
464.755	204.06
464.975	192.06
465.195	201.06
465.414	189.06
465.634	189.06
465.854	177.06
466.073	188.06
466.293	175.06
466.512	187.06
466.732	180.06
466.951	165.06
467.171	176.06
467.391	177.06
467.61	164.06
467.829	177.06
468.049	171.06
468.268	166.06
468.488	176.06
468.707	188.06
468.927	192.06
469.146	170.06
469.365	168.06
469.585	166.06
469.804	178.06
470.023	185.06
470.243	191.06
470.462	192.06
470.681	189.06
470.901	171.06
471.12	177.06
471.339	183.06
471.558	177.06
471.777	180.06
471.997	172.06
472.216	174.06
472.435	169.06
472.654	183.06
472.873	160.06
473.092	166.06
473.311	183.06
473.53	171.06
473.749	176.06
473.968	179.06
474.187	188.06
474.406	159.06
474.625	169.06
474.844	167.06
475.063	173.06
475.282	171.06
475.501	164.06
475.72	159.06
475.939	185.06
476.158	168.06
476.377	179.06
476.596	164.06
476.814	177.06
477.033	164.06
477.252	165.06
477.471	169.06
477.69	175.06
477.908	192.06
478.127	201.06
478.346	188.06
478.564	180.06
478.783	200.06
479.002	198.06
479.22	187.06
479.439	207.06
479.658	171.06
479.876	181.06
480.095	173.06
480.313	185.06
480.532	196.06
480.751	197.06
480.969	163.06
481.188	168.06
481.406	186.06
481.624	168.06
481.843	156.06
482.061	173.06
482.28	183.06
482.498	182.06
482.717	177.06
482.935	186.06
483.153	202.06
483.372	217.06
483.59	201.06
483.808	189.06
484.027	198.06
484.245	196.06
484.463	196.06
484.681	211.06
484.9	190.06
485.118	188.06
485.336	181.06
485.554	163.06
485.772	178.06
485.99	176.06
486.209	176.06
486.427	180.06
486.645	197.06
486.863	211.06
487.081	203.06
487.299	183.06
487.517	182.06
487.735	210.06
487.953	217.06
488.171	223.06
488.389	193.06
488.607	184.06
488.825	163.06
489.043	172.06
489.261	195.06
489.479	180.06
489.696	203.06
489.914	188.06
490.132	208.06
490.35	212.06
490.568	208.06
490.786	214.06
491.003	224.06
491.221	212.06
491.439	216.06
491.657	223.06
491.874	226.06
492.092	255.06
492.31	268.06
492.527	208.06
492.745	226.06
492.963	230.06
493.18	214.06
493.398	219.06
493.615	219.06
493.833	225.06
494.05	219.06
494.268	209.06
494.485	213.06
494.703	216.06
494.92	237.06
495.138	225.06
495.355	212.06
495.573	210.06
495.79	196.06
496.008	211.06
496.225	227.06
496.442	220.06
496.66	239.06
496.877	219.06
497.094	235.06
497.312	207.06
497.529	218.06
497.746	243.06
497.963	217.06
498.181	226.06
498.398	220.06
498.615	235.06
498.832	214.06
499.049	232.06
499.267	263.06
499.484	275.06
499.701	297.06
499.918	307.06
500.135	361.06
500.352	392.06
500.569	396.06
500.786	408.06
501.003	355.06
501.22	327.06
501.437	313.06
501.654	266.06
501.871	263.06
502.088	248.06
502.305	258.06
502.522	241.06
502.739	233.06
502.956	224.06
503.172	219.06
503.389	203.06
503.606	189.06
503.823	210.06
504.04	224.06
504.256	215.06
504.473	197.06
504.69	216.06
504.907	213.06
