Data from SampD_HRD10591_00019.txt Node
Date: Mon Jan 19 11:50:21 EST 2026
User: Yrep
Spectrometer: HR+D1059
Trigger mode: 0
Integration Time (sec): 3.443000E-1
Scans to average: 1
Electric dark correction enabled: true
Nonlinearity correction enabled: false
Boxcar width: 0
XAxis mode: Wavelengths
Number of Pixels in Spectrum: 2048
>>>>>Begin Spectral Data<<<<<
223.165	-17.75
223.4	-17.75
223.635	-17.75
223.869	-31.75
224.104	-21.75
224.338	-19.75
224.573	-17.75
224.808	-15.75
225.042	1.25
225.277	-10.75
225.511	-5.75
225.746	11.25
225.98	10.25
226.215	26.25
226.449	16.25
226.683	16.25
226.918	22.25
227.152	37.25
227.387	45.25
227.621	45.25
227.856	49.25
228.09	46.25
228.324	57.25
228.559	65.25
228.793	64.25
229.027	66.25
229.262	77.25
229.496	79.25
229.73	63.25
229.964	75.25
230.199	76.25
230.433	81.25
230.667	86.25
230.901	75.25
231.136	79.25
231.37	88.25
231.604	91.25
231.838	86.25
232.072	95.25
232.306	80.25
232.541	83.25
232.775	79.25
233.009	67.25
233.243	91.25
233.477	90.25
233.711	79.25
233.945	81.25
234.179	74.25
234.413	72.25
234.647	92.25
234.881	77.25
235.115	79.25
235.349	81.25
235.583	88.25
235.817	87.25
236.051	93.25
236.285	95.25
236.519	80.25
236.753	99.25
236.987	87.25
237.221	59.25
237.455	90.25
237.689	81.25
237.922	84.25
238.156	94.25
238.39	93.25
238.624	95.25
238.858	84.25
239.091	80.25
239.325	75.25
239.559	81.25
239.793	80.25
240.027	85.25
240.26	90.25
240.494	79.25
240.728	82.25
240.961	79.25
241.195	80.25
241.429	77.25
241.662	72.25
241.896	78.25
242.13	71.25
242.363	79.25
242.597	81.25
242.83	68.25
243.064	85.25
243.298	81.25
243.531	89.25
243.765	81.25
243.998	85.25
244.232	80.25
244.465	84.25
244.699	87.25
244.932	86.25
245.166	74.25
245.399	72.25
245.633	100.25
245.866	87.25
246.099	86.25
246.333	97.25
246.566	99.25
246.8	80.25
247.033	81.25
247.266	87.25
247.5	97.25
247.733	75.25
247.966	73.25
248.2	86.25
248.433	83.25
248.666	85.25
248.899	92.25
249.133	90.25
249.366	98.25
249.599	83.25
249.832	91.25
250.066	93.25
250.299	73.25
250.532	95.25
250.765	96.25
250.998	107.25
251.231	92.25
251.465	96.25
251.698	95.25
251.931	79.25
252.164	92.25
252.397	74.25
252.63	83.25
252.863	89.25
253.096	81.25
253.329	104.25
253.562	83.25
253.795	81.25
254.028	86.25
254.261	104.25
254.494	96.25
254.727	113.25
254.96	85.25
255.193	103.25
255.426	92.25
255.659	74.25
255.892	99.25
256.124	81.25
256.357	88.25
256.59	85.25
256.823	99.25
257.056	90.25
257.289	86.25
257.521	86.25
257.754	95.25
257.987	85.25
258.22	104.25
258.452	91.25
258.685	110.25
258.918	119.25
259.151	83.25
259.383	99.25
259.616	87.25
259.849	89.25
260.081	92.25
260.314	88.25
260.547	97.25
260.779	100.25
261.012	109.25
261.244	106.25
261.477	121.25
261.71	87.25
261.942	90.25
262.175	95.25
262.407	97.25
262.64	91.25
262.872	95.25
263.105	90.25
263.337	111.25
263.57	95.25
263.802	106.25
264.035	84.25
264.267	104.25
264.499	86.25
264.732	101.25
264.964	110.25
265.197	98.25
265.429	104.25
265.661	97.25
265.894	102.25
266.126	118.25
266.358	103.25
266.591	98.25
266.823	98.25
267.055	89.25
267.287	91.25
267.52	100.25
267.752	93.25
267.984	112.25
268.216	91.25
268.448	102.25
268.681	103.25
268.913	93.25
269.145	97.25
269.377	117.25
269.609	106.25
269.841	108.25
270.073	102.25
270.306	101.25
270.538	88.25
270.77	101.25
271.002	106.25
271.234	104.25
271.466	109.25
271.698	94.25
271.93	103.25
272.162	102.25
272.394	107.25
272.626	89.25
272.858	96.25
273.09	100.25
273.322	107.25
273.553	103.25
273.785	108.25
274.017	103.25
274.249	100.25
274.481	99.25
274.713	106.25
274.945	104.25
275.176	91.25
275.408	105.25
275.64	116.25
275.872	122.25
276.104	115.25
276.335	106.25
276.567	91.25
276.799	98.25
277.031	98.25
277.262	103.25
277.494	103.25
277.726	110.25
277.957	108.25
278.189	97.25
278.421	108.25
278.652	96.25
278.884	100.25
279.115	103.25
279.347	92.25
279.579	115.25
279.81	100.25
280.042	105.25
280.273	107.25
280.505	99.25
280.736	114.25
280.968	103.25
281.199	99.25
281.431	93.25
281.662	112.25
281.894	109.25
282.125	106.25
282.356	103.25
282.588	116.25
282.819	123.25
283.051	104.25
283.282	120.25
283.513	119.25
283.745	109.25
283.976	113.25
284.207	109.25
284.439	108.25
284.67	114.25
284.901	119.25
285.132	101.25
285.364	109.25
285.595	106.25
285.826	107.25
286.057	107.25
286.288	118.25
286.52	115.25
286.751	111.25
286.982	106.25
287.213	108.25
287.444	109.25
287.675	103.25
287.906	95.25
288.138	115.25
288.369	118.25
288.6	115.25
288.831	111.25
289.062	121.25
289.293	117.25
289.524	110.25
289.755	109.25
289.986	113.25
290.217	122.25
290.448	109.25
290.679	111.25
290.91	113.25
291.141	124.25
291.371	120.25
291.602	112.25
291.833	112.25
292.064	119.25
292.295	111.25
292.526	114.25
292.757	107.25
292.987	103.25
293.218	100.25
293.449	112.25
293.68	122.25
293.91	103.25
294.141	112.25
294.372	108.25
294.603	109.25
294.833	118.25
295.064	112.25
295.295	113.25
295.525	114.25
295.756	108.25
295.987	120.25
296.217	113.25
296.448	118.25
296.679	122.25
296.909	125.25
297.14	121.25
297.37	133.25
297.601	111.25
297.831	110.25
298.062	117.25
298.292	116.25
298.523	133.25
298.753	120.25
298.984	110.25
299.214	106.25
299.445	118.25
299.675	140.25
299.905	114.25
300.136	121.25
300.366	114.25
300.597	125.25
300.827	121.25
301.057	114.25
301.288	112.25
301.518	125.25
301.748	129.25
301.979	158.25
302.209	118.25
302.439	123.25
302.669	120.25
302.9	117.25
303.13	113.25
303.36	110.25
303.59	118.25
303.82	132.25
304.051	130.25
304.281	139.25
304.511	124.25
304.741	125.25
304.971	115.25
305.201	114.25
305.431	115.25
305.661	126.25
305.891	120.25
306.121	132.25
306.352	116.25
306.582	123.25
306.812	122.25
307.042	115.25
307.272	107.25
307.502	117.25
307.731	105.25
307.961	115.25
308.191	116.25
308.421	114.25
308.651	118.25
308.881	109.25
309.111	114.25
309.341	115.25
309.571	111.25
309.8	109.25
310.03	118.25
310.26	115.25
310.49	118.25
310.72	128.25
310.949	114.25
311.179	136.25
311.409	114.25
311.639	127.25
311.868	126.25
312.098	130.25
312.328	132.25
312.557	132.25
312.787	121.25
313.017	117.25
313.246	119.25
313.476	127.25
313.706	122.25
313.935	122.25
314.165	133.25
314.394	131.25
314.624	131.25
314.853	107.25
315.083	130.25
315.312	115.25
315.542	120.25
315.771	126.25
316.001	114.25
316.23	134.25
316.46	147.25
316.689	123.25
316.919	119.25
317.148	113.25
317.377	125.25
317.607	111.25
317.836	128.25
318.065	120.25
318.295	128.25
318.524	121.25
318.753	126.25
318.983	109.25
319.212	124.25
319.441	120.25
319.67	116.25
319.9	125.25
320.129	128.25
320.358	127.25
320.587	117.25
320.816	132.25
321.046	118.25
321.275	99.25
321.504	123.25
321.733	107.25
321.962	111.25
322.191	119.25
322.42	132.25
322.649	130.25
322.878	125.25
323.108	128.25
323.337	109.25
323.566	120.25
323.795	123.25
324.024	127.25
324.253	130.25
324.482	136.25
324.71	138.25
324.939	133.25
325.168	137.25
325.397	124.25
325.626	113.25
325.855	140.25
326.084	128.25
326.313	119.25
326.542	127.25
326.77	120.25
326.999	131.25
327.228	123.25
327.457	124.25
327.686	133.25
327.914	135.25
328.143	126.25
328.372	122.25
328.6	131.25
328.829	123.25
329.058	123.25
329.287	133.25
329.515	124.25
329.744	142.25
329.972	124.25
330.201	119.25
330.43	115.25
330.658	118.25
330.887	124.25
331.115	132.25
331.344	129.25
331.572	127.25
331.801	130.25
332.03	132.25
332.258	132.25
332.486	148.25
332.715	132.25
332.943	135.25
333.172	131.25
333.4	153.25
333.629	142.25
333.857	138.25
334.085	148.25
334.314	148.25
334.542	141.25
334.771	134.25
334.999	145.25
335.227	149.25
335.455	139.25
335.684	136.25
335.912	135.25
336.14	134.25
336.369	143.25
336.597	131.25
336.825	148.25
337.053	138.25
337.281	127.25
337.51	115.25
337.738	123.25
337.966	118.25
338.194	147.25
338.422	133.25
338.65	130.25
338.878	137.25
339.106	133.25
339.334	139.25
339.562	129.25
339.79	121.25
340.018	133.25
340.246	130.25
340.474	143.25
340.702	134.25
340.93	134.25
341.158	127.25
341.386	120.25
341.614	120.25
341.842	125.25
342.07	120.25
342.298	126.25
342.526	132.25
342.754	122.25
342.981	138.25
343.209	120.25
343.437	167.25
343.665	149.25
343.893	143.25
344.12	153.25
344.348	140.25
344.576	143.25
344.804	133.25
345.031	143.25
345.259	123.25
345.487	135.25
345.714	133.25
345.942	115.25
346.17	137.25
346.397	140.25
346.625	119.25
346.853	138.25
347.08	136.25
347.308	137.25
347.535	130.25
347.763	135.25
347.99	133.25
348.218	143.25
348.445	113.25
348.673	118.25
348.9	120.25
349.128	132.25
349.355	135.25
349.583	129.25
349.81	122.25
350.037	141.25
350.265	136.25
350.492	131.25
350.72	131.25
350.947	124.25
351.174	130.25
351.402	122.25
351.629	149.25
351.856	126.25
352.083	115.25
352.311	131.25
352.538	130.25
352.765	118.25
352.992	139.25
353.22	125.25
353.447	133.25
353.674	127.25
353.901	154.25
354.128	124.25
354.355	127.25
354.583	135.25
354.81	133.25
355.037	149.25
355.264	138.25
355.491	131.25
355.718	111.25
355.945	124.25
356.172	141.25
356.399	139.25
356.626	127.25
356.853	121.25
357.08	143.25
357.307	134.25
357.534	115.25
357.761	137.25
357.988	158.25
358.215	140.25
358.441	127.25
358.668	124.25
358.895	136.25
359.122	140.25
359.349	138.25
359.576	128.25
359.802	115.25
360.029	129.25
360.256	133.25
360.483	121.25
360.709	138.25
360.936	143.25
361.163	139.25
361.39	149.25
361.616	118.25
361.843	121.25
362.07	136.25
362.296	140.25
362.523	132.25
362.749	120.25
362.976	121.25
363.203	153.25
363.429	141.25
363.656	147.25
363.882	121.25
364.109	151.25
364.335	127.25
364.562	116.25
364.788	132.25
365.015	136.25
365.241	127.25
365.468	128.25
365.694	120.25
365.92	128.25
366.147	138.25
366.373	115.25
366.599	121.25
366.826	128.25
367.052	130.25
367.278	134.25
367.505	132.25
367.731	160.25
367.957	112.25
368.184	118.25
368.41	140.25
368.636	140.25
368.862	136.25
369.089	140.25
369.315	130.25
369.541	138.25
369.767	117.25
369.993	133.25
370.219	138.25
370.445	126.25
370.672	153.25
370.898	145.25
371.124	135.25
371.35	138.25
371.576	148.25
371.802	145.25
372.028	114.25
372.254	134.25
372.48	138.25
372.706	144.25
372.932	133.25
373.158	141.25
373.384	136.25
373.61	144.25
373.835	147.25
374.061	131.25
374.287	143.25
374.513	151.25
374.739	145.25
374.965	140.25
375.191	138.25
375.416	128.25
375.642	146.25
375.868	148.25
376.094	144.25
376.319	148.25
376.545	139.25
376.771	152.25
376.997	128.25
377.222	157.25
377.448	154.25
377.674	145.25
377.899	147.25
378.125	121.25
378.35	141.25
378.576	140.25
378.802	136.25
379.027	132.25
379.253	152.25
379.478	148.25
379.704	138.25
379.929	138.25
380.155	136.25
380.38	131.25
380.606	134.25
380.831	130.25
381.057	146.25
381.282	138.25
381.507	136.25
381.733	140.25
381.958	130.25
382.184	141.25
382.409	141.25
382.634	146.25
382.86	145.25
383.085	152.25
383.31	164.25
383.535	161.25
383.761	160.25
383.986	170.25
384.211	160.25
384.436	161.25
384.662	162.25
384.887	152.25
385.112	159.25
385.337	155.25
385.562	153.25
385.787	155.25
386.013	167.25
386.238	173.25
386.463	148.25
386.688	200.25
386.913	163.25
387.138	138.25
387.363	155.25
387.588	181.25
387.813	166.25
388.038	172.25
388.263	157.25
388.488	156.25
388.713	155.25
388.938	149.25
389.163	162.25
389.387	162.25
389.612	153.25
389.837	144.25
390.062	164.25
390.287	148.25
390.512	156.25
390.736	152.25
390.961	164.25
391.186	151.25
391.411	163.25
391.636	151.25
391.86	172.25
392.085	167.25
392.31	165.25
392.534	163.25
392.759	172.25
392.984	157.25
393.208	165.25
393.433	173.25
393.658	169.25
393.882	157.25
394.107	169.25
394.331	157.25
394.556	161.25
394.78	165.25
395.005	161.25
395.229	176.25
395.454	181.25
395.678	165.25
395.903	171.25
396.127	173.25
396.352	173.25
396.576	151.25
396.801	156.25
397.025	166.25
397.249	185.25
397.474	174.25
397.698	171.25
397.922	183.25
398.147	169.25
398.371	181.25
398.595	174.25
398.82	185.25
399.044	186.25
399.268	211.25
399.492	223.25
399.717	226.25
399.941	229.25
400.165	209.25
400.389	188.25
400.613	164.25
400.837	182.25
401.062	191.25
401.286	200.25
401.51	182.25
401.734	180.25
401.958	209.25
402.182	182.25
402.406	189.25
402.63	195.25
402.854	191.25
403.078	204.25
403.302	183.25
403.526	202.25
403.75	188.25
403.974	212.25
404.198	203.25
404.422	208.25
404.645	179.25
404.869	194.25
405.093	186.25
405.317	197.25
405.541	202.25
405.765	213.25
405.988	182.25
406.212	228.25
406.436	209.25
406.66	208.25
406.883	201.25
407.107	219.25
407.331	197.25
407.555	219.25
407.778	213.25
408.002	205.25
408.226	203.25
408.449	190.25
408.673	199.25
408.896	213.25
409.12	213.25
409.344	210.25
409.567	191.25
409.791	208.25
410.014	223.25
410.238	201.25
410.461	187.25
410.685	219.25
410.908	187.25
411.132	209.25
411.355	174.25
411.578	205.25
411.802	189.25
412.025	194.25
412.249	184.25
412.472	185.25
412.695	185.25
412.919	189.25
413.142	208.25
413.365	202.25
413.589	183.25
413.812	189.25
414.035	198.25
414.258	173.25
414.482	181.25
414.705	189.25
414.928	197.25
415.151	190.25
415.374	190.25
415.597	195.25
415.821	174.25
416.044	193.25
416.267	194.25
416.49	191.25
416.713	186.25
416.936	199.25
417.159	176.25
417.382	186.25
417.605	173.25
417.828	196.25
418.051	183.25
418.274	185.25
418.497	206.25
418.72	196.25
418.943	211.25
419.166	208.25
419.389	226.25
419.611	219.25
419.834	196.25
420.057	198.25
420.28	191.25
420.503	203.25
420.726	191.25
420.948	193.25
421.171	178.25
421.394	186.25
421.617	192.25
421.839	198.25
422.062	208.25
422.285	190.25
422.507	192.25
422.73	192.25
422.953	182.25
423.175	193.25
423.398	185.25
423.621	217.25
423.843	200.25
424.066	199.25
424.288	205.25
424.511	204.25
424.733	217.25
424.956	195.25
425.178	196.25
425.401	194.25
425.623	189.25
425.846	193.25
426.068	191.25
426.291	182.25
426.513	180.25
426.735	177.25
426.958	188.25
427.18	198.25
427.402	187.25
427.625	186.25
427.847	182.25
428.069	176.25
428.292	174.25
428.514	171.25
428.736	186.25
428.958	169.25
429.181	196.25
429.403	173.25
429.625	186.25
429.847	189.25
430.069	180.25
430.292	171.25
430.514	174.25
430.736	166.25
430.958	171.25
431.18	172.25
431.402	178.25
431.624	183.25
431.846	167.25
432.068	165.25
432.29	161.25
432.512	174.25
432.734	173.25
432.956	190.25
433.178	208.25
433.4	190.25
433.622	207.25
433.844	196.25
434.066	175.25
434.287	163.25
434.509	171.25
434.731	201.25
434.953	182.25
435.175	195.25
435.397	198.25
435.618	187.25
435.84	165.25
436.062	173.25
436.284	182.25
436.505	170.25
436.727	188.25
436.949	164.25
437.17	169.25
437.392	174.25
437.614	177.25
437.835	160.25
438.057	160.25
438.278	151.25
438.5	173.25
438.721	181.25
438.943	207.25
439.165	182.25
439.386	197.25
439.608	208.25
439.829	207.25
440.05	196.25
440.272	187.25
440.493	187.25
440.715	191.25
440.936	184.25
441.158	201.25
441.379	195.25
441.6	203.25
441.822	208.25
442.043	184.25
442.264	213.25
442.486	191.25
442.707	205.25
442.928	192.25
443.149	196.25
443.371	222.25
443.592	203.25
443.813	184.25
444.034	199.25
444.255	204.25
444.476	211.25
444.698	220.25
444.919	210.25
445.14	389.25
445.361	287.25
445.582	202.25
445.803	198.25
446.024	193.25
446.245	210.25
446.466	196.25
446.687	183.25
446.908	183.25
447.129	182.25
447.35	196.25
447.571	193.25
447.792	177.25
448.013	183.25
448.234	192.25
448.455	193.25
448.675	170.25
448.896	182.25
449.117	170.25
449.338	183.25
449.559	179.25
449.779	171.25
450	195.25
450.221	178.25
450.442	183.25
450.662	172.25
450.883	197.25
451.104	181.25
451.324	179.25
451.545	191.25
451.766	181.25
451.986	176.25
452.207	206.25
452.428	180.25
452.648	173.25
452.869	199.25
453.089	160.25
453.31	163.25
453.53	160.25
453.751	164.25
453.971	169.25
454.192	154.25
454.412	161.25
454.633	151.25
454.853	143.25
455.073	162.25
455.294	153.25
455.514	169.25
455.734	182.25
455.955	169.25
456.175	151.25
456.395	153.25
456.616	140.25
456.836	160.25
457.056	162.25
457.276	151.25
457.497	165.25
457.717	162.25
457.937	171.25
458.157	153.25
458.377	147.25
458.598	159.25
458.818	160.25
459.038	148.25
459.258	164.25
459.478	168.25
459.698	176.25
459.918	163.25
460.138	187.25
460.358	187.25
460.578	185.25
460.798	186.25
461.018	190.25
461.238	209.25
461.458	197.25
461.678	199.25
461.898	179.25
462.118	212.25
462.338	202.25
462.558	199.25
462.777	208.25
462.997	218.25
463.217	223.25
463.437	200.25
463.657	193.25
463.876	213.25
464.096	205.25
464.316	200.25
464.536	210.25
464.755	183.25
464.975	178.25
465.195	205.25
465.414	198.25
465.634	181.25
465.854	189.25
466.073	184.25
466.293	174.25
466.512	173.25
466.732	172.25
466.951	194.25
467.171	192.25
467.391	180.25
467.61	167.25
467.829	176.25
468.049	189.25
468.268	178.25
468.488	174.25
468.707	187.25
468.927	184.25
469.146	176.25
469.365	185.25
469.585	180.25
469.804	171.25
470.023	184.25
470.243	187.25
470.462	194.25
470.681	188.25
470.901	194.25
471.12	184.25
471.339	177.25
471.558	181.25
471.777	188.25
471.997	181.25
472.216	179.25
472.435	164.25
472.654	171.25
472.873	165.25
473.092	184.25
473.311	191.25
473.53	186.25
473.749	166.25
473.968	184.25
474.187	164.25
474.406	174.25
474.625	163.25
474.844	187.25
475.063	172.25
475.282	177.25
475.501	159.25
475.72	165.25
475.939	175.25
476.158	177.25
476.377	164.25
476.596	169.25
476.814	173.25
477.033	165.25
477.252	180.25
477.471	171.25
477.69	199.25
477.908	199.25
478.127	200.25
478.346	195.25
478.564	183.25
478.783	215.25
479.002	215.25
479.22	194.25
479.439	199.25
479.658	197.25
479.876	190.25
480.095	188.25
480.313	195.25
480.532	213.25
480.751	195.25
480.969	183.25
481.188	176.25
481.406	183.25
481.624	163.25
481.843	164.25
482.061	179.25
482.28	146.25
482.498	173.25
482.717	173.25
482.935	182.25
483.153	210.25
483.372	196.25
483.59	210.25
483.808	196.25
484.027	193.25
484.245	196.25
484.463	199.25
484.681	207.25
484.9	189.25
485.118	196.25
485.336	195.25
485.554	193.25
485.772	179.25
485.99	186.25
486.209	176.25
486.427	161.25
486.645	188.25
486.863	210.25
487.081	190.25
487.299	178.25
487.517	197.25
487.735	217.25
487.953	219.25
488.171	225.25
488.389	223.25
488.607	192.25
488.825	190.25
489.043	182.25
489.261	221.25
489.479	171.25
489.696	196.25
489.914	177.25
490.132	187.25
490.35	202.25
490.568	212.25
490.786	219.25
491.003	214.25
491.221	220.25
491.439	220.25
491.657	232.25
491.874	234.25
492.092	248.25
492.31	262.25
492.527	252.25
492.745	235.25
492.963	229.25
493.18	221.25
493.398	237.25
493.615	212.25
493.833	226.25
494.05	215.25
494.268	227.25
494.485	227.25
494.703	231.25
494.92	221.25
495.138	226.25
495.355	223.25
495.573	219.25
495.79	215.25
496.008	227.25
496.225	226.25
496.442	217.25
496.66	231.25
496.877	215.25
497.094	226.25
497.312	229.25
497.529	223.25
497.746	228.25
497.963	217.25
498.181	201.25
498.398	220.25
498.615	239.25
498.832	231.25
499.049	248.25
499.267	256.25
499.484	284.25
499.701	320.25
499.918	355.25
500.135	382.25
500.352	379.25
500.569	413.25
500.786	396.25
501.003	364.25
501.22	324.25
501.437	291.25
501.654	283.25
501.871	267.25
502.088	237.25
502.305	248.25
502.522	241.25
502.739	256.25
502.956	224.25
503.172	222.25
503.389	212.25
503.606	219.25
503.823	207.25
504.04	206.25
504.256	211.25
504.473	207.25
504.69	224.25
504.907	234.25
