Data from SampD_HRD10591_00035.txt Node
Date: Mon Jan 19 11:50:27 EST 2026
User: Yrep
Spectrometer: HR+D1059
Trigger mode: 0
Integration Time (sec): 3.443000E-1
Scans to average: 1
Electric dark correction enabled: true
Nonlinearity correction enabled: false
Boxcar width: 0
XAxis mode: Wavelengths
Number of Pixels in Spectrum: 2048
>>>>>Begin Spectral Data<<<<<
223.165	-31.5
223.4	-31.5
223.635	-31.5
223.869	-24.5
224.104	-19.5
224.338	-13.5
224.573	-9.5
224.808	-5.5
225.042	1.5
225.277	-11.5
225.511	-3.5
225.746	2.5
225.98	3.5
226.215	21.5
226.449	10.5
226.683	22.5
226.918	20.5
227.152	36.5
227.387	39.5
227.621	48.5
227.856	48.5
228.09	51.5
228.324	62.5
228.559	69.5
228.793	66.5
229.027	58.5
229.262	59.5
229.496	79.5
229.73	56.5
229.964	82.5
230.199	72.5
230.433	96.5
230.667	74.5
230.901	83.5
231.136	70.5
231.37	90.5
231.604	79.5
231.838	94.5
232.072	82.5
232.306	105.5
232.541	82.5
232.775	82.5
233.009	91.5
233.243	79.5
233.477	68.5
233.711	78.5
233.945	76.5
234.179	86.5
234.413	83.5
234.647	82.5
234.881	72.5
235.115	70.5
235.349	95.5
235.583	76.5
235.817	81.5
236.051	87.5
236.285	82.5
236.519	70.5
236.753	84.5
236.987	90.5
237.221	73.5
237.455	63.5
237.689	81.5
237.922	82.5
238.156	69.5
238.39	90.5
238.624	66.5
238.858	83.5
239.091	78.5
239.325	89.5
239.559	89.5
239.793	82.5
240.027	88.5
240.26	73.5
240.494	89.5
240.728	72.5
240.961	86.5
241.195	85.5
241.429	76.5
241.662	86.5
241.896	75.5
242.13	77.5
242.363	93.5
242.597	71.5
242.83	94.5
243.064	73.5
243.298	84.5
243.531	93.5
243.765	79.5
243.998	71.5
244.232	92.5
244.465	81.5
244.699	69.5
244.932	87.5
245.166	85.5
245.399	87.5
245.633	106.5
245.866	80.5
246.099	97.5
246.333	82.5
246.566	84.5
246.8	79.5
247.033	94.5
247.266	89.5
247.5	88.5
247.733	92.5
247.966	90.5
248.2	74.5
248.433	91.5
248.666	91.5
248.899	90.5
249.133	78.5
249.366	94.5
249.599	89.5
249.832	82.5
250.066	97.5
250.299	86.5
250.532	99.5
250.765	106.5
250.998	102.5
251.231	91.5
251.465	101.5
251.698	82.5
251.931	80.5
252.164	87.5
252.397	96.5
252.63	87.5
252.863	83.5
253.096	90.5
253.329	79.5
253.562	92.5
253.795	98.5
254.028	90.5
254.261	100.5
254.494	98.5
254.727	95.5
254.96	80.5
255.193	100.5
255.426	87.5
255.659	84.5
255.892	101.5
256.124	100.5
256.357	99.5
256.59	87.5
256.823	90.5
257.056	98.5
257.289	88.5
257.521	93.5
257.754	96.5
257.987	91.5
258.22	107.5
258.452	106.5
258.685	100.5
258.918	112.5
259.151	98.5
259.383	90.5
259.616	101.5
259.849	116.5
260.081	84.5
260.314	83.5
260.547	80.5
260.779	96.5
261.012	99.5
261.244	91.5
261.477	100.5
261.71	85.5
261.942	103.5
262.175	96.5
262.407	94.5
262.64	97.5
262.872	86.5
263.105	84.5
263.337	101.5
263.57	92.5
263.802	106.5
264.035	94.5
264.267	98.5
264.499	94.5
264.732	97.5
264.964	118.5
265.197	90.5
265.429	112.5
265.661	91.5
265.894	95.5
266.126	105.5
266.358	89.5
266.591	118.5
266.823	118.5
267.055	101.5
267.287	89.5
267.52	98.5
267.752	111.5
267.984	107.5
268.216	107.5
268.448	121.5
268.681	101.5
268.913	111.5
269.145	98.5
269.377	122.5
269.609	107.5
269.841	106.5
270.073	98.5
270.306	90.5
270.538	114.5
270.77	99.5
271.002	107.5
271.234	103.5
271.466	109.5
271.698	103.5
271.93	102.5
272.162	114.5
272.394	98.5
272.626	108.5
272.858	100.5
273.09	107.5
273.322	101.5
273.553	100.5
273.785	113.5
274.017	115.5
274.249	105.5
274.481	106.5
274.713	103.5
274.945	113.5
275.176	114.5
275.408	111.5
275.64	96.5
275.872	93.5
276.104	105.5
276.335	94.5
276.567	112.5
276.799	110.5
277.031	100.5
277.262	112.5
277.494	102.5
277.726	114.5
277.957	115.5
278.189	101.5
278.421	100.5
278.652	113.5
278.884	120.5
279.115	118.5
279.347	101.5
279.579	108.5
279.81	102.5
280.042	99.5
280.273	89.5
280.505	107.5
280.736	99.5
280.968	116.5
281.199	116.5
281.431	112.5
281.662	124.5
281.894	106.5
282.125	114.5
282.356	110.5
282.588	114.5
282.819	105.5
283.051	103.5
283.282	100.5
283.513	122.5
283.745	115.5
283.976	110.5
284.207	113.5
284.439	123.5
284.67	107.5
284.901	114.5
285.132	123.5
285.364	107.5
285.595	110.5
285.826	120.5
286.057	122.5
286.288	105.5
286.52	120.5
286.751	105.5
286.982	112.5
287.213	109.5
287.444	123.5
287.675	127.5
287.906	115.5
288.138	127.5
288.369	113.5
288.6	109.5
288.831	108.5
289.062	120.5
289.293	101.5
289.524	100.5
289.755	121.5
289.986	131.5
290.217	107.5
290.448	106.5
290.679	111.5
290.91	104.5
291.141	124.5
291.371	134.5
291.602	119.5
291.833	101.5
292.064	107.5
292.295	123.5
292.526	106.5
292.757	112.5
292.987	121.5
293.218	111.5
293.449	111.5
293.68	118.5
293.91	106.5
294.141	138.5
294.372	126.5
294.603	123.5
294.833	140.5
295.064	125.5
295.295	118.5
295.525	112.5
295.756	126.5
295.987	114.5
296.217	106.5
296.448	128.5
296.679	125.5
296.909	122.5
297.14	130.5
297.37	139.5
297.601	128.5
297.831	117.5
298.062	134.5
298.292	133.5
298.523	112.5
298.753	107.5
298.984	121.5
299.214	131.5
299.445	118.5
299.675	118.5
299.905	127.5
300.136	132.5
300.366	112.5
300.597	131.5
300.827	123.5
301.057	131.5
301.288	124.5
301.518	128.5
301.748	129.5
301.979	162.5
302.209	135.5
302.439	125.5
302.669	135.5
302.9	137.5
303.13	125.5
303.36	115.5
303.59	106.5
303.82	132.5
304.051	132.5
304.281	129.5
304.511	132.5
304.741	142.5
304.971	126.5
305.201	136.5
305.431	130.5
305.661	130.5
305.891	123.5
306.121	120.5
306.352	129.5
306.582	129.5
306.812	121.5
307.042	102.5
307.272	108.5
307.502	134.5
307.731	122.5
307.961	123.5
308.191	118.5
308.421	139.5
308.651	122.5
308.881	134.5
309.111	117.5
309.341	118.5
309.571	125.5
309.8	124.5
310.03	119.5
310.26	127.5
310.49	132.5
310.72	125.5
310.949	119.5
311.179	122.5
311.409	120.5
311.639	116.5
311.868	128.5
312.098	122.5
312.328	126.5
312.557	130.5
312.787	135.5
313.017	135.5
313.246	112.5
313.476	138.5
313.706	118.5
313.935	120.5
314.165	124.5
314.394	124.5
314.624	150.5
314.853	119.5
315.083	116.5
315.312	147.5
315.542	136.5
315.771	124.5
316.001	129.5
316.23	122.5
316.46	118.5
316.689	126.5
316.919	123.5
317.148	131.5
317.377	136.5
317.607	122.5
317.836	123.5
318.065	116.5
318.295	121.5
318.524	121.5
318.753	119.5
318.983	142.5
319.212	136.5
319.441	120.5
319.67	111.5
319.9	122.5
320.129	114.5
320.358	127.5
320.587	131.5
320.816	127.5
321.046	132.5
321.275	126.5
321.504	132.5
321.733	124.5
321.962	125.5
322.191	138.5
322.42	140.5
322.649	132.5
322.878	135.5
323.108	127.5
323.337	120.5
323.566	121.5
323.795	124.5
324.024	126.5
324.253	122.5
324.482	126.5
324.71	128.5
324.939	132.5
325.168	133.5
325.397	141.5
325.626	137.5
325.855	110.5
326.084	116.5
326.313	134.5
326.542	124.5
326.77	121.5
326.999	116.5
327.228	123.5
327.457	132.5
327.686	135.5
327.914	137.5
328.143	156.5
328.372	128.5
328.6	123.5
328.829	137.5
329.058	145.5
329.287	98.5
329.515	142.5
329.744	137.5
329.972	129.5
330.201	127.5
330.43	137.5
330.658	145.5
330.887	127.5
331.115	133.5
331.344	131.5
331.572	142.5
331.801	131.5
332.03	133.5
332.258	136.5
332.486	145.5
332.715	132.5
332.943	148.5
333.172	154.5
333.4	144.5
333.629	164.5
333.857	139.5
334.085	168.5
334.314	140.5
334.542	145.5
334.771	145.5
334.999	148.5
335.227	144.5
335.455	146.5
335.684	151.5
335.912	139.5
336.14	135.5
336.369	148.5
336.597	134.5
336.825	153.5
337.053	130.5
337.281	132.5
337.51	133.5
337.738	139.5
337.966	137.5
338.194	114.5
338.422	124.5
338.65	136.5
338.878	136.5
339.106	138.5
339.334	154.5
339.562	119.5
339.79	139.5
340.018	132.5
340.246	135.5
340.474	123.5
340.702	137.5
340.93	127.5
341.158	138.5
341.386	132.5
341.614	128.5
341.842	125.5
342.07	132.5
342.298	125.5
342.526	139.5
342.754	133.5
342.981	132.5
343.209	133.5
343.437	183.5
343.665	139.5
343.893	146.5
344.12	146.5
344.348	137.5
344.576	148.5
344.804	132.5
345.031	139.5
345.259	144.5
345.487	139.5
345.714	124.5
345.942	142.5
346.17	112.5
346.397	138.5
346.625	131.5
346.853	124.5
347.08	121.5
347.308	139.5
347.535	133.5
347.763	135.5
347.99	125.5
348.218	121.5
348.445	122.5
348.673	120.5
348.9	128.5
349.128	142.5
349.355	121.5
349.583	129.5
349.81	120.5
350.037	128.5
350.265	132.5
350.492	121.5
350.72	116.5
350.947	126.5
351.174	132.5
351.402	143.5
351.629	136.5
351.856	132.5
352.083	123.5
352.311	133.5
352.538	108.5
352.765	121.5
352.992	132.5
353.22	125.5
353.447	147.5
353.674	136.5
353.901	167.5
354.128	134.5
354.355	139.5
354.583	115.5
354.81	124.5
355.037	139.5
355.264	141.5
355.491	138.5
355.718	130.5
355.945	131.5
356.172	131.5
356.399	136.5
356.626	114.5
356.853	133.5
357.08	138.5
357.307	122.5
357.534	121.5
357.761	130.5
357.988	132.5
358.215	138.5
358.441	136.5
358.668	121.5
358.895	118.5
359.122	133.5
359.349	143.5
359.576	120.5
359.802	120.5
360.029	126.5
360.256	129.5
360.483	118.5
360.709	132.5
360.936	139.5
361.163	139.5
361.39	131.5
361.616	127.5
361.843	137.5
362.07	131.5
362.296	136.5
362.523	135.5
362.749	113.5
362.976	119.5
363.203	161.5
363.429	133.5
363.656	137.5
363.882	141.5
364.109	146.5
364.335	128.5
364.562	150.5
364.788	138.5
365.015	154.5
365.241	140.5
365.468	160.5
365.694	135.5
365.92	138.5
366.147	129.5
366.373	118.5
366.599	108.5
366.826	132.5
367.052	130.5
367.278	127.5
367.505	145.5
367.731	144.5
367.957	135.5
368.184	130.5
368.41	107.5
368.636	133.5
368.862	153.5
369.089	133.5
369.315	129.5
369.541	120.5
369.767	142.5
369.993	150.5
370.219	143.5
370.445	127.5
370.672	127.5
370.898	130.5
371.124	128.5
371.35	123.5
371.576	144.5
371.802	130.5
372.028	135.5
372.254	136.5
372.48	135.5
372.706	134.5
372.932	133.5
373.158	142.5
373.384	158.5
373.61	147.5
373.835	142.5
374.061	142.5
374.287	160.5
374.513	142.5
374.739	136.5
374.965	147.5
375.191	144.5
375.416	140.5
375.642	162.5
375.868	147.5
376.094	162.5
376.319	144.5
376.545	135.5
376.771	147.5
376.997	140.5
377.222	144.5
377.448	145.5
377.674	146.5
377.899	135.5
378.125	129.5
378.35	136.5
378.576	129.5
378.802	128.5
379.027	136.5
379.253	135.5
379.478	125.5
379.704	132.5
379.929	156.5
380.155	141.5
380.38	145.5
380.606	147.5
380.831	143.5
381.057	158.5
381.282	140.5
381.507	134.5
381.733	122.5
381.958	167.5
382.184	148.5
382.409	140.5
382.634	143.5
382.86	172.5
383.085	164.5
383.31	152.5
383.535	163.5
383.761	147.5
383.986	169.5
384.211	158.5
384.436	157.5
384.662	144.5
384.887	144.5
385.112	148.5
385.337	167.5
385.562	150.5
385.787	147.5
386.013	148.5
386.238	170.5
386.463	151.5
386.688	173.5
386.913	154.5
387.138	167.5
387.363	164.5
387.588	175.5
387.813	166.5
388.038	147.5
388.263	159.5
388.488	152.5
388.713	157.5
388.938	151.5
389.163	156.5
389.387	155.5
389.612	160.5
389.837	167.5
390.062	153.5
390.287	149.5
390.512	170.5
390.736	158.5
390.961	168.5
391.186	168.5
391.411	146.5
391.636	161.5
391.86	181.5
392.085	171.5
392.31	168.5
392.534	165.5
392.759	154.5
392.984	168.5
393.208	178.5
393.433	180.5
393.658	176.5
393.882	165.5
394.107	173.5
394.331	171.5
394.556	162.5
394.78	158.5
395.005	163.5
395.229	156.5
395.454	172.5
395.678	161.5
395.903	173.5
396.127	174.5
396.352	157.5
396.576	173.5
396.801	163.5
397.025	181.5
397.249	186.5
397.474	186.5
397.698	185.5
397.922	168.5
398.147	172.5
398.371	179.5
398.595	180.5
398.82	182.5
399.044	194.5
399.268	204.5
399.492	226.5
399.717	241.5
399.941	226.5
400.165	226.5
400.389	196.5
400.613	209.5
400.837	184.5
401.062	203.5
401.286	185.5
401.51	194.5
401.734	183.5
401.958	187.5
402.182	186.5
402.406	181.5
402.63	183.5
402.854	167.5
403.078	191.5
403.302	187.5
403.526	211.5
403.75	222.5
403.974	214.5
404.198	209.5
404.422	206.5
404.645	195.5
404.869	207.5
405.093	194.5
405.317	196.5
405.541	208.5
405.765	198.5
405.988	196.5
406.212	203.5
406.436	214.5
406.66	207.5
406.883	200.5
407.107	193.5
407.331	212.5
407.555	209.5
407.778	221.5
408.002	213.5
408.226	185.5
408.449	196.5
408.673	206.5
408.896	202.5
409.12	188.5
409.344	203.5
409.567	228.5
409.791	199.5
410.014	201.5
410.238	209.5
410.461	211.5
410.685	205.5
410.908	190.5
411.132	195.5
411.355	211.5
411.578	203.5
411.802	182.5
412.025	194.5
412.249	187.5
412.472	192.5
412.695	195.5
412.919	199.5
413.142	202.5
413.365	177.5
413.589	201.5
413.812	180.5
414.035	199.5
414.258	176.5
414.482	195.5
414.705	186.5
414.928	201.5
415.151	197.5
415.374	200.5
415.597	207.5
415.821	186.5
416.044	179.5
416.267	169.5
416.49	191.5
416.713	210.5
416.936	178.5
417.159	199.5
417.382	177.5
417.605	202.5
417.828	209.5
418.051	204.5
418.274	202.5
418.497	190.5
418.72	196.5
418.943	196.5
419.166	196.5
419.389	207.5
419.611	209.5
419.834	200.5
420.057	200.5
420.28	193.5
420.503	187.5
420.726	196.5
420.948	192.5
421.171	196.5
421.394	196.5
421.617	196.5
421.839	200.5
422.062	207.5
422.285	206.5
422.507	179.5
422.73	196.5
422.953	201.5
423.175	197.5
423.398	195.5
423.621	210.5
423.843	192.5
424.066	199.5
424.288	202.5
424.511	218.5
424.733	208.5
424.956	199.5
425.178	192.5
425.401	201.5
425.623	200.5
425.846	208.5
426.068	192.5
426.291	184.5
426.513	185.5
426.735	183.5
426.958	177.5
427.18	184.5
427.402	173.5
427.625	183.5
427.847	178.5
428.069	184.5
428.292	184.5
428.514	192.5
428.736	182.5
428.958	190.5
429.181	188.5
429.403	202.5
429.625	183.5
429.847	182.5
430.069	174.5
430.292	183.5
430.514	192.5
430.736	163.5
430.958	184.5
431.18	178.5
431.402	196.5
431.624	180.5
431.846	169.5
432.068	158.5
432.29	165.5
432.512	183.5
432.734	190.5
432.956	190.5
433.178	215.5
433.4	184.5
433.622	195.5
433.844	179.5
434.066	193.5
434.287	181.5
434.509	171.5
434.731	161.5
434.953	195.5
435.175	204.5
435.397	199.5
435.618	195.5
435.84	178.5
436.062	184.5
436.284	181.5
436.505	182.5
436.727	179.5
436.949	200.5
437.17	179.5
437.392	172.5
437.614	163.5
437.835	156.5
438.057	173.5
438.278	166.5
438.5	172.5
438.721	182.5
438.943	202.5
439.165	190.5
439.386	183.5
439.608	199.5
439.829	197.5
440.05	193.5
440.272	183.5
440.493	192.5
440.715	190.5
440.936	208.5
441.158	215.5
441.379	202.5
441.6	206.5
441.822	214.5
442.043	197.5
442.264	197.5
442.486	225.5
442.707	191.5
442.928	200.5
443.149	214.5
443.371	209.5
443.592	168.5
443.813	210.5
444.034	208.5
444.255	201.5
444.476	204.5
444.698	204.5
444.919	225.5
445.14	410.5
445.361	266.5
445.582	210.5
445.803	199.5
446.024	187.5
446.245	207.5
446.466	200.5
446.687	216.5
446.908	209.5
447.129	214.5
447.35	187.5
447.571	193.5
447.792	196.5
448.013	183.5
448.234	194.5
448.455	172.5
448.675	189.5
448.896	175.5
449.117	188.5
449.338	186.5
449.559	164.5
449.779	179.5
450	179.5
450.221	167.5
450.442	173.5
450.662	176.5
450.883	193.5
451.104	176.5
451.324	187.5
451.545	174.5
451.766	183.5
451.986	186.5
452.207	175.5
452.428	170.5
452.648	192.5
452.869	168.5
453.089	178.5
453.31	162.5
453.53	156.5
453.751	148.5
453.971	159.5
454.192	159.5
454.412	169.5
454.633	172.5
454.853	177.5
455.073	192.5
455.294	167.5
455.514	171.5
455.734	183.5
455.955	156.5
456.175	159.5
456.395	160.5
456.616	147.5
456.836	164.5
457.056	174.5
457.276	159.5
457.497	154.5
457.717	171.5
457.937	140.5
458.157	156.5
458.377	149.5
458.598	144.5
458.818	160.5
459.038	164.5
459.258	174.5
459.478	168.5
459.698	155.5
459.918	172.5
460.138	177.5
460.358	191.5
460.578	198.5
460.798	181.5
461.018	203.5
461.238	203.5
461.458	195.5
461.678	195.5
461.898	199.5
462.118	207.5
462.338	202.5
462.558	214.5
462.777	198.5
462.997	222.5
463.217	234.5
463.437	215.5
463.657	208.5
463.876	212.5
464.096	233.5
464.316	196.5
464.536	214.5
464.755	212.5
464.975	206.5
465.195	206.5
465.414	186.5
465.634	178.5
465.854	188.5
466.073	178.5
466.293	179.5
466.512	184.5
466.732	184.5
466.951	192.5
467.171	198.5
467.391	183.5
467.61	197.5
467.829	170.5
468.049	197.5
468.268	186.5
468.488	192.5
468.707	179.5
468.927	185.5
469.146	202.5
469.365	187.5
469.585	188.5
469.804	190.5
470.023	190.5
470.243	201.5
470.462	189.5
470.681	183.5
470.901	209.5
471.12	185.5
471.339	185.5
471.558	183.5
471.777	178.5
471.997	190.5
472.216	178.5
472.435	160.5
472.654	176.5
472.873	173.5
473.092	179.5
473.311	182.5
473.53	174.5
473.749	176.5
473.968	189.5
474.187	183.5
474.406	171.5
474.625	172.5
474.844	164.5
475.063	179.5
475.282	161.5
475.501	177.5
475.72	163.5
475.939	162.5
476.158	180.5
476.377	188.5
476.596	176.5
476.814	164.5
477.033	160.5
477.252	184.5
477.471	194.5
477.69	189.5
477.908	204.5
478.127	218.5
478.346	191.5
478.564	204.5
478.783	193.5
479.002	217.5
479.22	190.5
479.439	197.5
479.658	179.5
479.876	187.5
480.095	198.5
480.313	197.5
480.532	208.5
480.751	191.5
480.969	176.5
481.188	194.5
481.406	186.5
481.624	178.5
481.843	176.5
482.061	175.5
482.28	180.5
482.498	168.5
482.717	179.5
482.935	198.5
483.153	221.5
483.372	222.5
483.59	217.5
483.808	185.5
484.027	186.5
484.245	183.5
484.463	199.5
484.681	211.5
484.9	181.5
485.118	200.5
485.336	195.5
485.554	181.5
485.772	188.5
485.99	188.5
486.209	189.5
486.427	190.5
486.645	197.5
486.863	189.5
487.081	205.5
487.299	203.5
487.517	209.5
487.735	227.5
487.953	228.5
488.171	220.5
488.389	215.5
488.607	209.5
488.825	203.5
489.043	197.5
489.261	207.5
489.479	189.5
489.696	219.5
489.914	193.5
490.132	190.5
490.35	220.5
490.568	203.5
490.786	222.5
491.003	220.5
491.221	227.5
491.439	251.5
491.657	230.5
491.874	233.5
492.092	249.5
492.31	266.5
492.527	249.5
492.745	233.5
492.963	239.5
493.18	226.5
493.398	234.5
493.615	222.5
493.833	220.5
494.05	217.5
494.268	218.5
494.485	229.5
494.703	230.5
494.92	221.5
495.138	225.5
495.355	240.5
495.573	241.5
495.79	234.5
496.008	228.5
496.225	226.5
496.442	228.5
496.66	240.5
496.877	226.5
497.094	239.5
497.312	233.5
497.529	227.5
497.746	229.5
497.963	224.5
498.181	206.5
498.398	223.5
498.615	243.5
498.832	239.5
499.049	250.5
499.267	292.5
499.484	295.5
499.701	300.5
499.918	360.5
500.135	389.5
500.352	419.5
500.569	439.5
500.786	447.5
501.003	371.5
501.22	356.5
501.437	323.5
501.654	299.5
501.871	257.5
502.088	284.5
502.305	268.5
502.522	246.5
502.739	233.5
502.956	227.5
503.172	216.5
503.389	230.5
503.606	209.5
503.823	206.5
504.04	220.5
504.256	198.5
504.473	204.5
504.69	227.5
504.907	222.5
505.123	208.5
505.34	214.5
505.557	210.5
505.773	197.5
505.99	212.5
506.207	199.5
506.423	207.5
506.64	183.5
506.856	172.5
507.073	176.5
507.289	203.5
507.506	173.5
507.722	166.5
507.939	168.5
508.155	187.5
508.372	177.5
508.588	183.5
508.805	169.5
509.021	170.5
509.238	191.5
509.454	155.5
509.67	155.5
509.887	150.5
510.103	171.5
510.319	164.5
510.536	165.5
510.752	171.5
510.968	162.5
511.184	134.5
511.401	136.5
511.617	162.5
511.833	146.5
512.049	170.5
512.265	172.5
512.481	178.5
512.698	169.5
512.914	155.5
513.13	156.5
513.346	158.5
513.562	146.5
513.778	172.5
513.994	162.5
514.21	146.5
514.426	195.5
514.642	179.5
514.858	164.5
515.074	171.5
515.29	165.5
515.506	165.5
515.721	173.5
515.937	174.5
516.153	158.5
516.369	178.5
516.585	191.5
516.801	175.5
517.016	191.5
517.232	190.5
517.448	183.5
517.664	193.5
517.879	196.5
518.095	210.5
518.311	191.5
518.527	194.5
518.742	192.5
518.958	192.5
519.173	171.5
519.389	167.5
519.605	172.5
519.82	176.5
520.036	172.5
520.251	176.5
520.467	190.5
520.682	168.5
520.898	133.5
521.113	148.5
521.329	168.5
521.544	150.5
521.76	145.5
521.975	171.5
522.19	168.5
522.406	161.5
522.621	158.5
522.836	168.5
523.052	165.5
