Data from SampD_HRD10591_00080.txt Node
Date: Mon Jan 19 11:50:42 EST 2026
User: Yrep
Spectrometer: HR+D1059
Trigger mode: 0
Integration Time (sec): 3.443000E-1
Scans to average: 1
Electric dark correction enabled: true
Nonlinearity correction enabled: false
Boxcar width: 0
XAxis mode: Wavelengths
Number of Pixels in Spectrum: 2048
>>>>>Begin Spectral Data<<<<<
223.165	-21
223.4	-21
223.635	-21
223.869	-36
224.104	-30
224.338	1
224.573	-16
224.808	-15
225.042	-3
225.277	12
225.511	2
225.746	6
225.98	12
226.215	9
226.449	26
226.683	18
226.918	11
227.152	24
227.387	30
227.621	43
227.856	45
228.09	50
228.324	56
228.559	66
228.793	58
229.027	68
229.262	67
229.496	74
229.73	66
229.964	80
230.199	71
230.433	84
230.667	100
230.901	76
231.136	72
231.37	90
231.604	93
231.838	84
232.072	84
232.306	73
232.541	80
232.775	82
233.009	77
233.243	73
233.477	97
233.711	87
233.945	90
234.179	72
234.413	85
234.647	83
234.881	84
235.115	86
235.349	77
235.583	88
235.817	83
236.051	69
236.285	85
236.519	87
236.753	72
236.987	92
237.221	79
237.455	86
237.689	85
237.922	83
238.156	87
238.39	93
238.624	76
238.858	94
239.091	88
239.325	85
239.559	76
239.793	78
240.027	85
240.26	85
240.494	75
240.728	85
240.961	83
241.195	87
241.429	92
241.662	69
241.896	82
242.13	79
242.363	73
242.597	71
242.83	77
243.064	89
243.298	86
243.531	77
243.765	88
243.998	80
244.232	86
244.465	84
244.699	108
244.932	85
245.166	94
245.399	92
245.633	90
245.866	91
246.099	83
246.333	86
246.566	93
246.8	108
247.033	90
247.266	87
247.5	91
247.733	104
247.966	92
248.2	81
248.433	79
248.666	92
248.899	89
249.133	94
249.366	96
249.599	81
249.832	97
250.066	105
250.299	102
250.532	95
250.765	90
250.998	94
251.231	93
251.465	98
251.698	92
251.931	97
252.164	98
252.397	106
252.63	90
252.863	72
253.096	92
253.329	93
253.562	81
253.795	104
254.028	90
254.261	95
254.494	87
254.727	100
254.96	89
255.193	91
255.426	92
255.659	101
255.892	110
256.124	94
256.357	85
256.59	86
256.823	101
257.056	105
257.289	85
257.521	96
257.754	92
257.987	93
258.22	116
258.452	102
258.685	101
258.918	108
259.151	88
259.383	107
259.616	102
259.849	94
260.081	89
260.314	97
260.547	83
260.779	104
261.012	97
261.244	106
261.477	113
261.71	104
261.942	89
262.175	78
262.407	106
262.64	99
262.872	108
263.105	101
263.337	94
263.57	99
263.802	99
264.035	86
264.267	94
264.499	94
264.732	80
264.964	89
265.197	100
265.429	93
265.661	96
265.894	113
266.126	115
266.358	103
266.591	102
266.823	113
267.055	95
267.287	110
267.52	112
267.752	96
267.984	100
268.216	108
268.448	104
268.681	90
268.913	100
269.145	109
269.377	103
269.609	103
269.841	106
270.073	105
270.306	106
270.538	85
270.77	90
271.002	105
271.234	129
271.466	121
271.698	106
271.93	105
272.162	109
272.394	109
272.626	109
272.858	107
273.09	116
273.322	100
273.553	105
273.785	101
274.017	112
274.249	113
274.481	104
274.713	114
274.945	117
275.176	93
275.408	123
275.64	104
275.872	100
276.104	102
276.335	113
276.567	114
276.799	120
277.031	110
277.262	116
277.494	118
277.726	112
277.957	107
278.189	107
278.421	114
278.652	101
278.884	102
279.115	107
279.347	93
279.579	101
279.81	113
280.042	110
280.273	128
280.505	115
280.736	116
280.968	117
281.199	114
281.431	109
281.662	118
281.894	120
282.125	109
282.356	109
282.588	108
282.819	123
283.051	123
283.282	117
283.513	100
283.745	122
283.976	101
284.207	129
284.439	104
284.67	119
284.901	123
285.132	121
285.364	117
285.595	106
285.826	113
286.057	120
286.288	123
286.52	124
286.751	127
286.982	125
287.213	116
287.444	116
287.675	114
287.906	136
288.138	118
288.369	121
288.6	121
288.831	113
289.062	108
289.293	124
289.524	122
289.755	110
289.986	117
290.217	124
290.448	124
290.679	128
290.91	120
291.141	125
291.371	111
291.602	121
291.833	129
292.064	134
292.295	125
292.526	118
292.757	125
292.987	118
293.218	114
293.449	124
293.68	105
293.91	129
294.141	128
294.372	122
294.603	119
294.833	109
295.064	113
295.295	119
295.525	120
295.756	120
295.987	119
296.217	106
296.448	108
296.679	125
296.909	131
297.14	138
297.37	124
297.601	118
297.831	114
298.062	123
298.292	123
298.523	125
298.753	122
298.984	126
299.214	129
299.445	133
299.675	121
299.905	127
300.136	120
300.366	120
300.597	117
300.827	110
301.057	118
301.288	124
301.518	126
301.748	117
301.979	158
302.209	128
302.439	118
302.669	117
302.9	135
303.13	133
303.36	119
303.59	129
303.82	117
304.051	117
304.281	122
304.511	130
304.741	131
304.971	128
305.201	128
305.431	137
305.661	116
305.891	123
306.121	133
306.352	121
306.582	129
306.812	115
307.042	126
307.272	116
307.502	124
307.731	123
307.961	130
308.191	116
308.421	113
308.651	129
308.881	119
309.111	114
309.341	118
309.571	121
309.8	124
310.03	123
310.26	129
310.49	116
310.72	120
310.949	113
311.179	118
311.409	128
311.639	120
311.868	125
312.098	137
312.328	123
312.557	123
312.787	129
313.017	136
313.246	135
313.476	129
313.706	109
313.935	112
314.165	138
314.394	129
314.624	136
314.853	124
315.083	123
315.312	130
315.542	123
315.771	129
316.001	119
316.23	133
316.46	133
316.689	128
316.919	132
317.148	123
317.377	129
317.607	122
317.836	134
318.065	144
318.295	129
318.524	123
318.753	124
318.983	114
319.212	137
319.441	131
319.67	129
319.9	124
320.129	129
320.358	121
320.587	121
320.816	117
321.046	130
321.275	141
321.504	129
321.733	131
321.962	121
322.191	130
322.42	122
322.649	131
322.878	132
323.108	136
323.337	133
323.566	141
323.795	113
324.024	144
324.253	124
324.482	126
324.71	119
324.939	134
325.168	128
325.397	136
325.626	140
325.855	120
326.084	126
326.313	136
326.542	134
326.77	138
326.999	129
327.228	135
327.457	120
327.686	138
327.914	142
328.143	126
328.372	130
328.6	128
328.829	130
329.058	139
329.287	150
329.515	128
329.744	142
329.972	137
330.201	135
330.43	127
330.658	156
330.887	142
331.115	146
331.344	153
331.572	136
331.801	138
332.03	143
332.258	125
332.486	133
332.715	133
332.943	135
333.172	173
333.4	171
333.629	169
333.857	148
334.085	152
334.314	154
334.542	148
334.771	149
334.999	144
335.227	136
335.455	156
335.684	138
335.912	148
336.14	152
336.369	130
336.597	149
336.825	162
337.053	139
337.281	158
337.51	145
337.738	158
337.966	138
338.194	130
338.422	139
338.65	141
338.878	133
339.106	133
339.334	147
339.562	141
339.79	138
340.018	141
340.246	132
340.474	128
340.702	133
340.93	139
341.158	129
341.386	126
341.614	139
341.842	114
342.07	140
342.298	126
342.526	114
342.754	136
342.981	133
343.209	137
343.437	166
343.665	161
343.893	131
344.12	150
344.348	142
344.576	145
344.804	155
345.031	141
345.259	139
345.487	138
345.714	137
345.942	139
346.17	133
346.397	134
346.625	134
346.853	122
347.08	135
347.308	139
347.535	121
347.763	126
347.99	134
348.218	124
348.445	145
348.673	131
348.9	131
349.128	149
349.355	141
349.583	131
349.81	120
350.037	137
350.265	141
350.492	130
350.72	125
350.947	137
351.174	139
351.402	132
351.629	137
351.856	126
352.083	123
352.311	105
352.538	124
352.765	125
352.992	142
353.22	160
353.447	118
353.674	144
353.901	138
354.128	137
354.355	132
354.583	138
354.81	128
355.037	127
355.264	128
355.491	137
355.718	133
355.945	140
356.172	130
356.399	122
356.626	138
356.853	125
357.08	148
357.307	132
357.534	130
357.761	131
357.988	137
358.215	124
358.441	141
358.668	131
358.895	129
359.122	129
359.349	137
359.576	130
359.802	123
360.029	139
360.256	142
360.483	119
360.709	138
360.936	148
361.163	126
361.39	130
361.616	136
361.843	122
362.07	128
362.296	135
362.523	136
362.749	132
362.976	150
363.203	133
363.429	133
363.656	131
363.882	140
364.109	135
364.335	136
364.562	141
364.788	139
365.015	132
365.241	131
365.468	144
365.694	128
365.92	133
366.147	131
366.373	122
366.599	135
366.826	139
367.052	133
367.278	129
367.505	144
367.731	156
367.957	136
368.184	135
368.41	137
368.636	130
368.862	150
369.089	124
369.315	127
369.541	142
369.767	152
369.993	140
370.219	129
370.445	142
370.672	138
370.898	135
371.124	143
371.35	147
371.576	128
371.802	138
372.028	129
372.254	152
372.48	139
372.706	129
372.932	153
373.158	148
373.384	160
373.61	136
373.835	133
374.061	135
374.287	165
374.513	134
374.739	141
374.965	158
375.191	157
375.416	147
375.642	149
375.868	168
376.094	160
376.319	144
376.545	146
376.771	133
376.997	131
377.222	157
377.448	141
377.674	138
377.899	136
378.125	127
378.35	154
378.576	132
378.802	137
379.027	146
379.253	134
379.478	147
379.704	147
379.929	153
380.155	151
380.38	139
380.606	148
380.831	157
381.057	161
381.282	154
381.507	145
381.733	153
381.958	142
382.184	138
382.409	137
382.634	151
382.86	146
383.085	148
383.31	152
383.535	170
383.761	166
383.986	155
384.211	164
384.436	149
384.662	153
384.887	173
385.112	146
385.337	147
385.562	156
385.787	162
386.013	163
386.238	168
386.463	161
386.688	192
386.913	144
387.138	150
387.363	152
387.588	165
387.813	152
388.038	152
388.263	158
388.488	135
388.713	172
388.938	168
389.163	147
389.387	167
389.612	154
389.837	177
390.062	179
390.287	146
390.512	142
390.736	155
390.961	152
391.186	160
391.411	185
391.636	171
391.86	174
392.085	175
392.31	172
392.534	172
392.759	160
392.984	174
393.208	166
393.433	171
393.658	172
393.882	152
394.107	181
394.331	176
394.556	171
394.78	167
395.005	168
395.229	173
395.454	185
395.678	180
395.903	170
396.127	170
396.352	170
396.576	161
396.801	176
397.025	192
397.249	188
397.474	193
397.698	164
397.922	175
398.147	167
398.371	175
398.595	192
398.82	179
399.044	194
399.268	213
399.492	245
399.717	251
399.941	219
400.165	213
400.389	200
400.613	188
400.837	187
401.062	174
401.286	194
401.51	210
401.734	181
401.958	196
402.182	179
402.406	192
402.63	179
402.854	197
403.078	203
403.302	201
403.526	195
403.75	203
403.974	228
404.198	218
404.422	202
404.645	194
404.869	192
405.093	212
405.317	202
405.541	200
405.765	203
405.988	195
406.212	215
406.436	201
406.66	205
406.883	200
407.107	200
407.331	215
407.555	212
407.778	218
408.002	211
408.226	226
408.449	192
408.673	197
408.896	195
409.12	202
409.344	213
409.567	204
409.791	208
410.014	241
410.238	217
410.461	193
410.685	183
410.908	200
411.132	194
411.355	195
411.578	199
411.802	196
412.025	196
412.249	186
412.472	184
412.695	180
412.919	181
413.142	176
413.365	200
413.589	201
413.812	190
414.035	208
414.258	201
414.482	184
414.705	192
414.928	207
415.151	200
415.374	202
415.597	169
415.821	186
416.044	197
416.267	190
416.49	182
416.713	198
416.936	205
417.159	189
417.382	192
417.605	183
417.828	180
418.051	195
418.274	198
418.497	204
418.72	190
418.943	211
419.166	208
419.389	201
419.611	188
419.834	216
420.057	209
420.28	185
420.503	202
420.726	186
420.948	195
421.171	203
421.394	206
421.617	197
421.839	204
422.062	197
422.285	184
422.507	190
422.73	188
422.953	204
423.175	187
423.398	190
423.621	201
423.843	189
424.066	205
424.288	193
424.511	191
424.733	196
424.956	199
425.178	204
425.401	178
425.623	191
425.846	182
426.068	177
426.291	183
426.513	170
426.735	200
426.958	180
427.18	175
427.402	199
427.625	180
427.847	178
428.069	192
428.292	183
428.514	182
428.736	167
428.958	174
429.181	188
429.403	190
429.625	182
429.847	188
430.069	177
430.292	184
430.514	180
430.736	179
430.958	177
431.18	182
431.402	181
431.624	187
431.846	167
432.068	176
432.29	170
432.512	169
432.734	187
432.956	177
433.178	211
433.4	200
433.622	216
433.844	190
434.066	186
434.287	173
434.509	182
434.731	184
434.953	183
435.175	205
435.397	198
435.618	176
435.84	170
436.062	166
436.284	173
436.505	164
436.727	184
436.949	177
437.17	179
437.392	163
437.614	162
437.835	161
438.057	156
438.278	166
438.5	175
438.721	194
438.943	184
439.165	178
439.386	190
439.608	201
439.829	181
440.05	204
440.272	184
440.493	189
440.715	191
440.936	198
441.158	205
441.379	188
441.6	193
441.822	197
442.043	189
442.264	210
442.486	210
442.707	198
442.928	189
443.149	194
443.371	201
443.592	213
443.813	197
444.034	202
444.255	187
444.476	197
444.698	228
444.919	222
445.14	456
445.361	314
445.582	208
445.803	192
446.024	203
446.245	204
446.466	202
446.687	200
446.908	201
447.129	193
447.35	190
447.571	185
447.792	183
448.013	184
448.234	186
448.455	187
448.675	173
448.896	185
449.117	182
449.338	182
449.559	170
449.779	171
450	165
450.221	168
450.442	176
450.662	186
450.883	186
451.104	191
451.324	190
451.545	168
451.766	176
451.986	182
452.207	183
452.428	169
452.648	163
452.869	160
453.089	168
453.31	161
453.53	165
453.751	175
453.971	170
454.192	165
454.412	164
454.633	162
454.853	171
455.073	167
455.294	155
455.514	176
455.734	171
455.955	180
456.175	165
456.395	146
456.616	164
456.836	149
457.056	168
457.276	156
457.497	173
457.717	157
457.937	164
458.157	159
458.377	150
458.598	155
458.818	162
459.038	157
459.258	159
459.478	184
459.698	167
459.918	182
460.138	186
460.358	182
460.578	208
460.798	212
461.018	192
461.238	205
461.458	186
461.678	186
461.898	186
462.118	205
462.338	212
462.558	212
462.777	221
462.997	216
463.217	233
463.437	233
463.657	226
463.876	215
464.096	201
464.316	218
464.536	200
464.755	195
464.975	191
465.195	215
465.414	188
465.634	176
465.854	178
466.073	170
466.293	188
466.512	171
466.732	172
466.951	196
467.171	186
467.391	177
467.61	196
467.829	217
468.049	187
468.268	181
468.488	178
468.707	184
468.927	189
469.146	181
469.365	197
469.585	187
469.804	171
470.023	184
470.243	199
470.462	189
470.681	203
470.901	192
471.12	182
471.339	182
471.558	192
471.777	189
471.997	183
472.216	178
472.435	166
472.654	162
472.873	173
473.092	178
473.311	184
473.53	174
473.749	179
473.968	197
474.187	160
474.406	172
474.625	185
474.844	175
475.063	168
475.282	182
475.501	157
475.72	182
475.939	170
476.158	162
476.377	177
476.596	178
476.814	176
477.033	164
477.252	179
477.471	192
477.69	184
477.908	183
478.127	202
478.346	186
478.564	190
478.783	192
479.002	205
479.22	198
479.439	199
479.658	182
479.876	197
480.095	179
480.313	196
480.532	199
480.751	194
480.969	174
481.188	189
481.406	188
481.624	162
481.843	174
482.061	186
482.28	180
482.498	174
482.717	174
482.935	205
483.153	189
483.372	191
483.59	200
483.808	189
484.027	203
484.245	192
484.463	200
484.681	209
484.9	201
485.118	199
485.336	194
485.554	182
485.772	187
485.99	180
486.209	183
486.427	182
486.645	211
486.863	180
487.081	201
487.299	196
487.517	200
487.735	216
487.953	219
488.171	219
488.389	215
488.607	201
488.825	202
489.043	202
489.261	199
489.479	187
489.696	211
489.914	207
490.132	202
490.35	201
490.568	209
490.786	217
491.003	223
491.221	198
491.439	226
491.657	215
491.874	253
492.092	234
492.31	272
492.527	237
492.745	222
492.963	226
493.18	219
493.398	219
493.615	233
493.833	241
494.05	221
494.268	221
494.485	220
494.703	227
494.92	234
495.138	220
495.355	220
495.573	228
495.79	226
496.008	236
496.225	228
496.442	212
496.66	224
496.877	225
497.094	234
497.312	218
497.529	221
497.746	232
497.963	224
498.181	231
498.398	230
498.615	226
498.832	249
499.049	246
499.267	262
499.484	299
499.701	326
499.918	365
500.135	365
500.352	416
500.569	434
500.786	405
501.003	379
501.22	342
501.437	306
501.654	285
501.871	265
502.088	259
502.305	273
502.522	234
502.739	245
502.956	228
503.172	224
503.389	192
503.606	202
503.823	215
504.04	212
504.256	226
504.473	211
504.69	220
504.907	234
505.123	212
505.34	190
505.557	208
505.773	192
505.99	200
506.207	192
506.423	192
506.64	180
506.856	203
507.073	176
507.289	175
507.506	182
507.722	166
507.939	178
508.155	179
508.372	187
508.588	186
508.805	187
509.021	174
509.238	171
509.454	167
509.67	154
509.887	166
510.103	171
510.319	158
510.536	166
510.752	136
510.968	150
511.184	160
511.401	155
511.617	166
511.833	142
512.049	164
512.265	152
512.481	166
512.698	177
512.914	171
513.13	163
513.346	162
513.562	160
513.778	164
513.994	186
514.21	147
514.426	167
514.642	166
514.858	162
515.074	176
515.29	178
515.506	174
515.721	156
515.937	177
516.153	179
516.369	177
516.585	166
516.801	175
517.016	182
517.232	188
517.448	204
517.664	197
517.879	194
518.095	196
518.311	204
518.527	190
518.742	185
518.958	173
519.173	177
519.389	184
519.605	183
519.82	165
520.036	165
520.251	167
520.467	171
520.682	181
520.898	169
521.113	163
521.329	154
521.544	166
521.76	169
521.975	160
522.19	158
522.406	162
522.621	175
522.836	160
523.052	174
523.267	155
523.482	168
523.698	180
523.913	169
524.128	169
524.343	171
524.559	184
524.774	166
524.989	176
525.204	174
525.419	192
525.634	170
525.849	173
526.064	171
526.28	172
526.495	163
526.71	140
526.925	149
527.14	134
527.355	152
527.57	150
527.785	143
527.999	150
528.214	175
528.429	163
528.644	175
528.859	182
529.074	178
529.289	205
529.503	178
529.718	180
529.933	178
530.148	171
530.363	160
530.577	152
530.792	152
531.007	171
531.221	152
531.436	151
531.651	160
531.865	176
532.08	155
532.295	140
532.509	142
532.724	151
532.938	163
533.153	164
533.367	176
533.582	193
533.796	181
534.011	173
534.225	172
534.44	140
534.654	167
534.868	156
535.083	172
535.297	154
535.511	172
535.726	151
535.94	162
536.154	147
536.369	149
536.583	155
536.797	152
537.011	145
537.225	140
537.44	150
537.654	146
537.868	148
538.082	160
538.296	148
538.51	151
538.724	168
538.938	176
539.153	169
539.367	167
539.581	185
539.795	166
540.009	163
540.222	155
540.436	164
540.65	150
540.864	172
541.078	160
541.292	182
541.506	199
541.72	209
541.934	204
542.147	202
542.361	183
542.575	185
542.789	174
543.002	179
543.216	170
543.43	164
543.644	159
543.857	182
544.071	190
544.285	189
544.498	188
544.712	180
544.925	189
545.139	188
545.352	182
545.566	190
545.779	188
545.993	190
546.206	190
546.42	180
546.633	190
546.847	210
547.06	187
547.274	196
547.487	214
547.7	199
547.914	192
548.127	198
548.34	194
548.554	189
548.767	204
548.98	200
549.193	202
549.407	194
549.62	192
549.833	201
550.046	186
550.259	183
550.473	187
550.686	193
550.899	174
551.112	205
551.325	171
551.538	179
551.751	166
551.964	173
552.177	174
552.39	161
552.603	195
552.816	176
553.029	189
553.242	194
553.455	202
553.667	215
553.88	197
554.093	195
554.306	196
554.519	192
554.732	189
554.944	184
555.157	185
555.37	176
555.583	184
555.795	176
556.008	169
556.221	173
556.433	179
556.646	164
556.859	178
557.071	173
557.284	160
557.496	166
557.709	161
557.921	179
558.134	187
558.346	169
558.559	166
558.771	169
558.984	159
559.196	170
559.409	160
559.621	181
559.833	160
560.046	162
560.258	149
560.47	174
560.683	171
560.895	160
561.107	154
561.32	156
561.532	164
561.744	149
561.956	176
562.168	186
562.381	171
562.593	171
562.805	170
563.017	160
563.229	170
563.441	150
563.653	162
563.865	154
564.077	140
564.289	168
564.501	168
564.713	156
564.925	153
565.137	153
565.349	152
565.561	166
565.773	181
565.985	162
566.197	180
566.408	192
566.62	189
566.832	183
