Data from SampD_HRD10591_00045.txt Node
Date: Mon Jan 19 11:50:30 EST 2026
User: Yrep
Spectrometer: HR+D1059
Trigger mode: 0
Integration Time (sec): 3.443000E-1
Scans to average: 1
Electric dark correction enabled: true
Nonlinearity correction enabled: false
Boxcar width: 0
XAxis mode: Wavelengths
Number of Pixels in Spectrum: 2048
>>>>>Begin Spectral Data<<<<<
223.165	-13.81
223.4	-13.81
223.635	-13.81
223.869	-33.81
224.104	-27.81
224.338	-18.81
224.573	-26.81
224.808	-21.81
225.042	-8.81
225.277	3.19
225.511	10.19
225.746	8.19
225.98	22.19
226.215	24.19
226.449	18.19
226.683	18.19
226.918	26.19
227.152	21.19
227.387	34.19
227.621	46.19
227.856	41.19
228.09	39.19
228.324	55.19
228.559	60.19
228.793	66.19
229.027	66.19
229.262	58.19
229.496	73.19
229.73	71.19
229.964	85.19
230.199	72.19
230.433	77.19
230.667	81.19
230.901	82.19
231.136	74.19
231.37	81.19
231.604	92.19
231.838	73.19
232.072	87.19
232.306	80.19
232.541	70.19
232.775	81.19
233.009	77.19
233.243	88.19
233.477	87.19
233.711	85.19
233.945	94.19
234.179	89.19
234.413	89.19
234.647	84.19
234.881	77.19
235.115	66.19
235.349	81.19
235.583	72.19
235.817	88.19
236.051	71.19
236.285	85.19
236.519	74.19
236.753	75.19
236.987	78.19
237.221	77.19
237.455	78.19
237.689	69.19
237.922	71.19
238.156	81.19
238.39	81.19
238.624	70.19
238.858	100.19
239.091	81.19
239.325	86.19
239.559	88.19
239.793	92.19
240.027	97.19
240.26	66.19
240.494	97.19
240.728	72.19
240.961	90.19
241.195	70.19
241.429	81.19
241.662	81.19
241.896	68.19
242.13	71.19
242.363	76.19
242.597	95.19
242.83	69.19
243.064	86.19
243.298	85.19
243.531	101.19
243.765	95.19
243.998	86.19
244.232	83.19
244.465	95.19
244.699	89.19
244.932	77.19
245.166	82.19
245.399	87.19
245.633	74.19
245.866	82.19
246.099	81.19
246.333	90.19
246.566	88.19
246.8	78.19
247.033	90.19
247.266	97.19
247.5	77.19
247.733	100.19
247.966	98.19
248.2	93.19
248.433	71.19
248.666	93.19
248.899	104.19
249.133	91.19
249.366	95.19
249.599	99.19
249.832	97.19
250.066	106.19
250.299	82.19
250.532	95.19
250.765	85.19
250.998	89.19
251.231	87.19
251.465	86.19
251.698	86.19
251.931	99.19
252.164	84.19
252.397	84.19
252.63	97.19
252.863	89.19
253.096	94.19
253.329	83.19
253.562	84.19
253.795	106.19
254.028	83.19
254.261	100.19
254.494	100.19
254.727	104.19
254.96	101.19
255.193	79.19
255.426	81.19
255.659	84.19
255.892	95.19
256.124	89.19
256.357	82.19
256.59	102.19
256.823	91.19
257.056	97.19
257.289	87.19
257.521	90.19
257.754	84.19
257.987	99.19
258.22	101.19
258.452	89.19
258.685	101.19
258.918	101.19
259.151	93.19
259.383	89.19
259.616	91.19
259.849	80.19
260.081	98.19
260.314	92.19
260.547	95.19
260.779	106.19
261.012	85.19
261.244	84.19
261.477	103.19
261.71	86.19
261.942	94.19
262.175	107.19
262.407	98.19
262.64	82.19
262.872	94.19
263.105	94.19
263.337	101.19
263.57	112.19
263.802	105.19
264.035	95.19
264.267	97.19
264.499	102.19
264.732	111.19
264.964	100.19
265.197	106.19
265.429	102.19
265.661	102.19
265.894	101.19
266.126	109.19
266.358	98.19
266.591	98.19
266.823	104.19
267.055	88.19
267.287	95.19
267.52	98.19
267.752	98.19
267.984	101.19
268.216	101.19
268.448	103.19
268.681	105.19
268.913	110.19
269.145	105.19
269.377	114.19
269.609	85.19
269.841	106.19
270.073	111.19
270.306	106.19
270.538	107.19
270.77	94.19
271.002	102.19
271.234	94.19
271.466	98.19
271.698	107.19
271.93	106.19
272.162	119.19
272.394	97.19
272.626	104.19
272.858	105.19
273.09	104.19
273.322	119.19
273.553	92.19
273.785	98.19
274.017	107.19
274.249	95.19
274.481	113.19
274.713	98.19
274.945	93.19
275.176	90.19
275.408	111.19
275.64	109.19
275.872	111.19
276.104	112.19
276.335	105.19
276.567	99.19
276.799	107.19
277.031	115.19
277.262	128.19
277.494	116.19
277.726	107.19
277.957	90.19
278.189	99.19
278.421	98.19
278.652	110.19
278.884	112.19
279.115	106.19
279.347	107.19
279.579	106.19
279.81	113.19
280.042	110.19
280.273	99.19
280.505	106.19
280.736	106.19
280.968	110.19
281.199	111.19
281.431	98.19
281.662	113.19
281.894	119.19
282.125	109.19
282.356	118.19
282.588	106.19
282.819	115.19
283.051	95.19
283.282	106.19
283.513	115.19
283.745	104.19
283.976	115.19
284.207	115.19
284.439	94.19
284.67	110.19
284.901	108.19
285.132	118.19
285.364	117.19
285.595	121.19
285.826	119.19
286.057	115.19
286.288	112.19
286.52	112.19
286.751	105.19
286.982	112.19
287.213	105.19
287.444	127.19
287.675	119.19
287.906	122.19
288.138	131.19
288.369	108.19
288.6	117.19
288.831	115.19
289.062	128.19
289.293	121.19
289.524	119.19
289.755	122.19
289.986	109.19
290.217	122.19
290.448	98.19
290.679	114.19
290.91	128.19
291.141	118.19
291.371	124.19
291.602	121.19
291.833	113.19
292.064	122.19
292.295	110.19
292.526	115.19
292.757	112.19
292.987	117.19
293.218	115.19
293.449	114.19
293.68	126.19
293.91	107.19
294.141	116.19
294.372	114.19
294.603	113.19
294.833	126.19
295.064	120.19
295.295	127.19
295.525	114.19
295.756	123.19
295.987	111.19
296.217	128.19
296.448	113.19
296.679	112.19
296.909	113.19
297.14	118.19
297.37	122.19
297.601	117.19
297.831	126.19
298.062	118.19
298.292	122.19
298.523	118.19
298.753	116.19
298.984	110.19
299.214	116.19
299.445	111.19
299.675	109.19
299.905	115.19
300.136	106.19
300.366	104.19
300.597	130.19
300.827	121.19
301.057	125.19
301.288	116.19
301.518	124.19
301.748	106.19
301.979	159.19
302.209	123.19
302.439	100.19
302.669	130.19
302.9	110.19
303.13	133.19
303.36	111.19
303.59	112.19
303.82	123.19
304.051	113.19
304.281	126.19
304.511	136.19
304.741	118.19
304.971	120.19
305.201	117.19
305.431	129.19
305.661	110.19
305.891	113.19
306.121	132.19
306.352	114.19
306.582	136.19
306.812	125.19
307.042	129.19
307.272	125.19
307.502	116.19
307.731	119.19
307.961	133.19
308.191	116.19
308.421	117.19
308.651	112.19
308.881	120.19
309.111	127.19
309.341	125.19
309.571	118.19
309.8	123.19
310.03	110.19
310.26	116.19
310.49	125.19
310.72	121.19
310.949	127.19
311.179	123.19
311.409	115.19
311.639	127.19
311.868	112.19
312.098	130.19
312.328	114.19
312.557	109.19
312.787	113.19
313.017	133.19
313.246	131.19
313.476	109.19
313.706	125.19
313.935	127.19
314.165	131.19
314.394	142.19
314.624	109.19
314.853	124.19
315.083	122.19
315.312	130.19
315.542	115.19
315.771	131.19
316.001	126.19
316.23	106.19
316.46	128.19
316.689	132.19
316.919	129.19
317.148	131.19
317.377	130.19
317.607	127.19
317.836	118.19
318.065	120.19
318.295	111.19
318.524	127.19
318.753	119.19
318.983	120.19
319.212	133.19
319.441	128.19
319.67	122.19
319.9	141.19
320.129	128.19
320.358	132.19
320.587	120.19
320.816	112.19
321.046	114.19
321.275	135.19
321.504	123.19
321.733	116.19
321.962	122.19
322.191	127.19
322.42	129.19
322.649	117.19
322.878	147.19
323.108	130.19
323.337	126.19
323.566	130.19
323.795	135.19
324.024	129.19
324.253	119.19
324.482	124.19
324.71	119.19
324.939	136.19
325.168	142.19
325.397	122.19
325.626	137.19
325.855	128.19
326.084	132.19
326.313	120.19
326.542	123.19
326.77	137.19
326.999	126.19
327.228	125.19
327.457	138.19
327.686	135.19
327.914	115.19
328.143	126.19
328.372	129.19
328.6	138.19
328.829	117.19
329.058	136.19
329.287	127.19
329.515	134.19
329.744	126.19
329.972	140.19
330.201	138.19
330.43	126.19
330.658	121.19
330.887	116.19
331.115	119.19
331.344	128.19
331.572	161.19
331.801	134.19
332.03	130.19
332.258	131.19
332.486	136.19
332.715	148.19
332.943	135.19
333.172	154.19
333.4	153.19
333.629	162.19
333.857	148.19
334.085	147.19
334.314	148.19
334.542	146.19
334.771	142.19
334.999	131.19
335.227	134.19
335.455	151.19
335.684	149.19
335.912	139.19
336.14	151.19
336.369	130.19
336.597	137.19
336.825	128.19
337.053	125.19
337.281	127.19
337.51	142.19
337.738	151.19
337.966	137.19
338.194	132.19
338.422	130.19
338.65	136.19
338.878	142.19
339.106	129.19
339.334	154.19
339.562	133.19
339.79	133.19
340.018	134.19
340.246	127.19
340.474	126.19
340.702	133.19
340.93	126.19
341.158	121.19
341.386	122.19
341.614	138.19
341.842	158.19
342.07	130.19
342.298	143.19
342.526	130.19
342.754	127.19
342.981	134.19
343.209	137.19
343.437	171.19
343.665	148.19
343.893	146.19
344.12	160.19
344.348	150.19
344.576	140.19
344.804	137.19
345.031	150.19
345.259	130.19
345.487	135.19
345.714	132.19
345.942	123.19
346.17	135.19
346.397	142.19
346.625	141.19
346.853	120.19
347.08	123.19
347.308	125.19
347.535	124.19
347.763	128.19
347.99	148.19
348.218	146.19
348.445	145.19
348.673	131.19
348.9	130.19
349.128	128.19
349.355	137.19
349.583	127.19
349.81	136.19
350.037	133.19
350.265	135.19
350.492	133.19
350.72	119.19
350.947	119.19
351.174	114.19
351.402	130.19
351.629	121.19
351.856	129.19
352.083	133.19
352.311	125.19
352.538	116.19
352.765	114.19
352.992	145.19
353.22	118.19
353.447	129.19
353.674	138.19
353.901	142.19
354.128	128.19
354.355	111.19
354.583	138.19
354.81	124.19
355.037	132.19
355.264	128.19
355.491	129.19
355.718	117.19
355.945	129.19
356.172	127.19
356.399	124.19
356.626	118.19
356.853	121.19
357.08	118.19
357.307	124.19
357.534	128.19
357.761	133.19
357.988	141.19
358.215	143.19
358.441	134.19
358.668	123.19
358.895	126.19
359.122	148.19
359.349	127.19
359.576	134.19
359.802	120.19
360.029	127.19
360.256	134.19
360.483	126.19
360.709	128.19
360.936	124.19
361.163	120.19
361.39	115.19
361.616	137.19
361.843	133.19
362.07	134.19
362.296	136.19
362.523	130.19
362.749	117.19
362.976	133.19
363.203	147.19
363.429	117.19
363.656	133.19
363.882	119.19
364.109	138.19
364.335	147.19
364.562	130.19
364.788	131.19
365.015	140.19
365.241	131.19
365.468	124.19
365.694	111.19
365.92	133.19
366.147	130.19
366.373	127.19
366.599	130.19
366.826	118.19
367.052	131.19
367.278	135.19
367.505	141.19
367.731	163.19
367.957	126.19
368.184	127.19
368.41	124.19
368.636	121.19
368.862	139.19
369.089	118.19
369.315	123.19
369.541	131.19
369.767	125.19
369.993	141.19
370.219	134.19
370.445	136.19
370.672	148.19
370.898	119.19
371.124	150.19
371.35	134.19
371.576	128.19
371.802	143.19
372.028	128.19
372.254	130.19
372.48	149.19
372.706	145.19
372.932	131.19
373.158	143.19
373.384	143.19
373.61	142.19
373.835	133.19
374.061	123.19
374.287	137.19
374.513	155.19
374.739	133.19
374.965	128.19
375.191	139.19
375.416	158.19
375.642	152.19
375.868	136.19
376.094	130.19
376.319	125.19
376.545	136.19
376.771	143.19
376.997	129.19
377.222	133.19
377.448	141.19
377.674	141.19
377.899	133.19
378.125	133.19
378.35	130.19
378.576	138.19
378.802	126.19
379.027	144.19
379.253	138.19
379.478	133.19
379.704	144.19
379.929	149.19
380.155	131.19
380.38	157.19
380.606	143.19
380.831	138.19
381.057	165.19
381.282	139.19
381.507	147.19
381.733	134.19
381.958	166.19
382.184	141.19
382.409	133.19
382.634	135.19
382.86	154.19
383.085	148.19
383.31	143.19
383.535	145.19
383.761	155.19
383.986	155.19
384.211	145.19
384.436	169.19
384.662	157.19
384.887	142.19
385.112	143.19
385.337	155.19
385.562	168.19
385.787	167.19
386.013	166.19
386.238	133.19
386.463	159.19
386.688	187.19
386.913	138.19
387.138	157.19
387.363	169.19
387.588	164.19
387.813	159.19
388.038	158.19
388.263	157.19
388.488	146.19
388.713	155.19
388.938	149.19
389.163	154.19
389.387	155.19
389.612	136.19
389.837	152.19
390.062	168.19
390.287	148.19
390.512	155.19
390.736	150.19
390.961	138.19
391.186	144.19
391.411	165.19
391.636	165.19
391.86	170.19
392.085	188.19
392.31	165.19
392.534	161.19
392.759	167.19
392.984	163.19
393.208	162.19
393.433	160.19
393.658	161.19
393.882	158.19
394.107	152.19
394.331	147.19
394.556	167.19
394.78	170.19
395.005	170.19
395.229	147.19
395.454	163.19
395.678	168.19
395.903	179.19
396.127	161.19
396.352	171.19
396.576	171.19
396.801	170.19
397.025	169.19
397.249	165.19
397.474	183.19
397.698	171.19
397.922	168.19
398.147	171.19
398.371	167.19
398.595	175.19
398.82	181.19
399.044	190.19
399.268	203.19
399.492	239.19
399.717	233.19
399.941	237.19
400.165	206.19
400.389	189.19
400.613	174.19
400.837	181.19
401.062	189.19
401.286	177.19
401.51	174.19
401.734	181.19
401.958	190.19
402.182	180.19
402.406	195.19
402.63	183.19
402.854	189.19
403.078	186.19
403.302	192.19
403.526	199.19
403.75	188.19
403.974	202.19
404.198	193.19
404.422	207.19
404.645	193.19
404.869	190.19
405.093	206.19
405.317	196.19
405.541	197.19
405.765	195.19
405.988	186.19
406.212	205.19
406.436	197.19
406.66	202.19
406.883	200.19
407.107	197.19
407.331	200.19
407.555	223.19
407.778	209.19
408.002	215.19
408.226	196.19
408.449	216.19
408.673	186.19
408.896	178.19
409.12	192.19
409.344	197.19
409.567	208.19
409.791	185.19
410.014	191.19
410.238	201.19
410.461	214.19
410.685	205.19
410.908	194.19
411.132	216.19
411.355	179.19
411.578	200.19
411.802	198.19
412.025	193.19
412.249	192.19
412.472	190.19
412.695	193.19
412.919	171.19
413.142	179.19
413.365	198.19
413.589	189.19
413.812	183.19
414.035	221.19
414.258	188.19
414.482	185.19
414.705	185.19
414.928	184.19
415.151	180.19
415.374	194.19
415.597	203.19
415.821	197.19
416.044	191.19
416.267	189.19
416.49	199.19
416.713	187.19
416.936	185.19
417.159	187.19
417.382	182.19
417.605	190.19
417.828	185.19
418.051	196.19
418.274	199.19
418.497	192.19
418.72	200.19
418.943	198.19
419.166	207.19
419.389	197.19
419.611	189.19
419.834	197.19
420.057	201.19
420.28	199.19
420.503	195.19
420.726	200.19
420.948	170.19
421.171	181.19
421.394	194.19
421.617	221.19
421.839	206.19
422.062	184.19
422.285	184.19
422.507	182.19
422.73	183.19
422.953	198.19
423.175	190.19
423.398	189.19
423.621	201.19
423.843	192.19
424.066	195.19
424.288	199.19
424.511	200.19
424.733	196.19
424.956	213.19
425.178	194.19
425.401	181.19
425.623	191.19
425.846	193.19
426.068	197.19
426.291	175.19
426.513	170.19
426.735	191.19
426.958	192.19
427.18	180.19
427.402	179.19
427.625	189.19
427.847	181.19
428.069	185.19
428.292	172.19
428.514	178.19
428.736	175.19
428.958	174.19
429.181	171.19
429.403	174.19
429.625	169.19
429.847	194.19
430.069	198.19
430.292	173.19
430.514	176.19
430.736	167.19
430.958	187.19
431.18	182.19
431.402	168.19
431.624	184.19
431.846	163.19
432.068	176.19
432.29	170.19
432.512	181.19
432.734	177.19
432.956	182.19
433.178	197.19
433.4	168.19
433.622	195.19
433.844	192.19
434.066	171.19
434.287	160.19
434.509	168.19
434.731	177.19
434.953	166.19
435.175	181.19
435.397	191.19
435.618	180.19
435.84	163.19
436.062	186.19
436.284	191.19
436.505	195.19
436.727	174.19
436.949	193.19
437.17	168.19
437.392	182.19
437.614	174.19
437.835	175.19
438.057	169.19
438.278	154.19
438.5	194.19
438.721	184.19
438.943	172.19
439.165	175.19
439.386	173.19
439.608	181.19
439.829	182.19
440.05	201.19
440.272	197.19
440.493	174.19
440.715	183.19
440.936	191.19
441.158	193.19
441.379	190.19
441.6	214.19
441.822	179.19
442.043	201.19
442.264	201.19
442.486	185.19
442.707	199.19
442.928	187.19
443.149	191.19
443.371	194.19
443.592	192.19
443.813	184.19
444.034	191.19
444.255	207.19
444.476	205.19
444.698	216.19
444.919	230.19
445.14	461.19
445.361	313.19
445.582	219.19
445.803	189.19
446.024	193.19
446.245	196.19
446.466	175.19
446.687	196.19
446.908	184.19
447.129	206.19
447.35	205.19
447.571	182.19
447.792	173.19
448.013	183.19
448.234	179.19
448.455	180.19
448.675	162.19
448.896	177.19
449.117	190.19
449.338	185.19
449.559	177.19
449.779	182.19
450	183.19
450.221	171.19
450.442	192.19
450.662	185.19
450.883	182.19
451.104	182.19
451.324	167.19
451.545	193.19
451.766	171.19
451.986	161.19
452.207	183.19
452.428	163.19
452.648	174.19
452.869	157.19
453.089	173.19
453.31	169.19
453.53	142.19
453.751	149.19
453.971	165.19
454.192	158.19
454.412	163.19
454.633	171.19
454.853	173.19
455.073	157.19
455.294	168.19
455.514	173.19
455.734	154.19
455.955	162.19
456.175	149.19
456.395	151.19
456.616	162.19
456.836	156.19
457.056	152.19
457.276	151.19
457.497	155.19
457.717	145.19
457.937	132.19
458.157	166.19
458.377	152.19
458.598	153.19
458.818	158.19
459.038	156.19
459.258	162.19
459.478	166.19
459.698	169.19
459.918	167.19
460.138	194.19
460.358	191.19
460.578	194.19
460.798	193.19
461.018	193.19
461.238	179.19
461.458	189.19
461.678	190.19
461.898	213.19
462.118	186.19
462.338	205.19
462.558	202.19
462.777	203.19
462.997	235.19
463.217	217.19
463.437	229.19
463.657	213.19
463.876	190.19
464.096	219.19
464.316	213.19
464.536	194.19
464.755	204.19
464.975	187.19
465.195	185.19
465.414	179.19
465.634	178.19
465.854	182.19
466.073	183.19
466.293	186.19
466.512	184.19
466.732	182.19
466.951	181.19
467.171	181.19
467.391	183.19
467.61	184.19
467.829	185.19
468.049	178.19
468.268	169.19
468.488	180.19
468.707	185.19
468.927	170.19
469.146	180.19
469.365	176.19
469.585	187.19
469.804	193.19
470.023	194.19
470.243	188.19
470.462	182.19
470.681	184.19
470.901	177.19
471.12	200.19
471.339	206.19
471.558	182.19
471.777	173.19
471.997	194.19
472.216	181.19
472.435	159.19
472.654	171.19
472.873	161.19
473.092	157.19
473.311	171.19
473.53	168.19
473.749	170.19
473.968	177.19
474.187	169.19
474.406	176.19
474.625	184.19
474.844	187.19
475.063	176.19
475.282	182.19
475.501	168.19
475.72	181.19
475.939	150.19
476.158	180.19
476.377	190.19
476.596	157.19
476.814	171.19
477.033	151.19
477.252	184.19
477.471	191.19
477.69	191.19
477.908	197.19
478.127	203.19
478.346	203.19
478.564	189.19
478.783	191.19
479.002	214.19
479.22	209.19
479.439	197.19
479.658	181.19
479.876	198.19
480.095	195.19
480.313	171.19
480.532	193.19
480.751	198.19
480.969	181.19
481.188	174.19
481.406	172.19
481.624	155.19
481.843	166.19
482.061	171.19
482.28	193.19
482.498	153.19
482.717	183.19
482.935	192.19
483.153	190.19
483.372	188.19
483.59	194.19
483.808	189.19
484.027	190.19
484.245	186.19
484.463	202.19
484.681	223.19
484.9	194.19
485.118	208.19
485.336	203.19
485.554	182.19
485.772	165.19
485.99	148.19
486.209	180.19
486.427	181.19
486.645	188.19
486.863	205.19
487.081	209.19
487.299	186.19
487.517	191.19
487.735	219.19
487.953	232.19
488.171	234.19
488.389	214.19
488.607	204.19
488.825	179.19
489.043	186.19
489.261	185.19
489.479	194.19
489.696	209.19
489.914	194.19
490.132	219.19
490.35	209.19
490.568	217.19
490.786	207.19
491.003	217.19
491.221	223.19
491.439	219.19
491.657	229.19
491.874	226.19
492.092	234.19
492.31	235.19
492.527	240.19
492.745	230.19
492.963	241.19
493.18	243.19
493.398	223.19
493.615	220.19
493.833	226.19
494.05	213.19
494.268	218.19
494.485	221.19
494.703	234.19
494.92	222.19
495.138	216.19
495.355	228.19
495.573	226.19
495.79	207.19
496.008	222.19
496.225	245.19
496.442	194.19
496.66	241.19
496.877	235.19
497.094	232.19
497.312	225.19
497.529	234.19
497.746	230.19
497.963	230.19
498.181	218.19
498.398	220.19
498.615	231.19
498.832	235.19
499.049	255.19
499.267	263.19
499.484	271.19
499.701	305.19
499.918	350.19
500.135	370.19
500.352	418.19
500.569	408.19
500.786	372.19
501.003	375.19
501.22	335.19
501.437	324.19
501.654	282.19
501.871	281.19
502.088	259.19
502.305	238.19
502.522	231.19
502.739	225.19
502.956	238.19
503.172	214.19
503.389	217.19
503.606	205.19
503.823	208.19
504.04	213.19
504.256	223.19
504.473	198.19
504.69	201.19
504.907	221.19
