Data from SampD_HRD10591_00018.txt Node
Date: Mon Jan 19 11:50:21 EST 2026
User: Yrep
Spectrometer: HR+D1059
Trigger mode: 0
Integration Time (sec): 3.443000E-1
Scans to average: 1
Electric dark correction enabled: true
Nonlinearity correction enabled: false
Boxcar width: 0
XAxis mode: Wavelengths
Number of Pixels in Spectrum: 2048
>>>>>Begin Spectral Data<<<<<
223.165	-14.94
223.4	-14.94
223.635	-14.94
223.869	-12.94
224.104	-26.94
224.338	-18.94
224.573	-10.94
224.808	-6.94
225.042	-3.94
225.277	-16.94
225.511	-2.94
225.746	19.06
225.98	0.06
226.215	-5.94
226.449	8.06
226.683	22.06
226.918	29.06
227.152	43.06
227.387	49.06
227.621	36.06
227.856	49.06
228.09	51.06
228.324	40.06
228.559	75.06
228.793	61.06
229.027	64.06
229.262	67.06
229.496	58.06
229.73	76.06
229.964	75.06
230.199	63.06
230.433	68.06
230.667	76.06
230.901	87.06
231.136	73.06
231.37	81.06
231.604	84.06
231.838	89.06
232.072	81.06
232.306	88.06
232.541	76.06
232.775	79.06
233.009	93.06
233.243	93.06
233.477	91.06
233.711	80.06
233.945	75.06
234.179	89.06
234.413	86.06
234.647	80.06
234.881	89.06
235.115	71.06
235.349	70.06
235.583	84.06
235.817	82.06
236.051	87.06
236.285	82.06
236.519	78.06
236.753	76.06
236.987	81.06
237.221	76.06
237.455	74.06
237.689	83.06
237.922	74.06
238.156	69.06
238.39	66.06
238.624	80.06
238.858	64.06
239.091	68.06
239.325	82.06
239.559	61.06
239.793	70.06
240.027	94.06
240.26	90.06
240.494	77.06
240.728	75.06
240.961	75.06
241.195	97.06
241.429	92.06
241.662	73.06
241.896	71.06
242.13	84.06
242.363	63.06
242.597	65.06
242.83	74.06
243.064	76.06
243.298	71.06
243.531	82.06
243.765	91.06
243.998	98.06
244.232	76.06
244.465	83.06
244.699	69.06
244.932	83.06
245.166	73.06
245.399	79.06
245.633	72.06
245.866	80.06
246.099	95.06
246.333	80.06
246.566	62.06
246.8	72.06
247.033	72.06
247.266	72.06
247.5	69.06
247.733	85.06
247.966	76.06
248.2	95.06
248.433	87.06
248.666	87.06
248.899	96.06
249.133	70.06
249.366	91.06
249.599	72.06
249.832	88.06
250.066	87.06
250.299	86.06
250.532	99.06
250.765	92.06
250.998	90.06
251.231	87.06
251.465	99.06
251.698	79.06
251.931	96.06
252.164	90.06
252.397	70.06
252.63	84.06
252.863	70.06
253.096	96.06
253.329	106.06
253.562	81.06
253.795	84.06
254.028	92.06
254.261	73.06
254.494	72.06
254.727	88.06
254.96	93.06
255.193	86.06
255.426	83.06
255.659	92.06
255.892	100.06
256.124	81.06
256.357	100.06
256.59	85.06
256.823	89.06
257.056	95.06
257.289	86.06
257.521	95.06
257.754	77.06
257.987	94.06
258.22	94.06
258.452	86.06
258.685	83.06
258.918	82.06
259.151	79.06
259.383	93.06
259.616	89.06
259.849	84.06
260.081	79.06
260.314	97.06
260.547	68.06
260.779	84.06
261.012	86.06
261.244	100.06
261.477	101.06
261.71	97.06
261.942	91.06
262.175	90.06
262.407	87.06
262.64	98.06
262.872	90.06
263.105	105.06
263.337	97.06
263.57	91.06
263.802	94.06
264.035	91.06
264.267	83.06
264.499	106.06
264.732	93.06
264.964	89.06
265.197	107.06
265.429	94.06
265.661	72.06
265.894	87.06
266.126	91.06
266.358	105.06
266.591	90.06
266.823	100.06
267.055	102.06
267.287	97.06
267.52	75.06
267.752	84.06
267.984	103.06
268.216	89.06
268.448	103.06
268.681	103.06
268.913	95.06
269.145	99.06
269.377	97.06
269.609	99.06
269.841	87.06
270.073	87.06
270.306	100.06
270.538	96.06
270.77	97.06
271.002	104.06
271.234	86.06
271.466	100.06
271.698	90.06
271.93	89.06
272.162	96.06
272.394	98.06
272.626	88.06
272.858	90.06
273.09	92.06
273.322	81.06
273.553	74.06
273.785	99.06
274.017	80.06
274.249	89.06
274.481	101.06
274.713	85.06
274.945	104.06
275.176	90.06
275.408	90.06
275.64	84.06
275.872	84.06
276.104	112.06
276.335	93.06
276.567	96.06
276.799	102.06
277.031	91.06
277.262	93.06
277.494	114.06
277.726	103.06
277.957	101.06
278.189	93.06
278.421	87.06
278.652	97.06
278.884	87.06
279.115	95.06
279.347	99.06
279.579	84.06
279.81	76.06
280.042	99.06
280.273	81.06
280.505	102.06
280.736	109.06
280.968	101.06
281.199	81.06
281.431	114.06
281.662	97.06
281.894	115.06
282.125	87.06
282.356	83.06
282.588	105.06
282.819	100.06
283.051	99.06
283.282	87.06
283.513	116.06
283.745	109.06
283.976	103.06
284.207	89.06
284.439	86.06
284.67	84.06
284.901	91.06
285.132	89.06
285.364	100.06
285.595	115.06
285.826	103.06
286.057	119.06
286.288	97.06
286.52	109.06
286.751	100.06
286.982	98.06
287.213	85.06
287.444	102.06
287.675	99.06
287.906	117.06
288.138	107.06
288.369	108.06
288.6	105.06
288.831	98.06
289.062	96.06
289.293	103.06
289.524	99.06
289.755	89.06
289.986	106.06
290.217	91.06
290.448	107.06
290.679	104.06
290.91	109.06
291.141	100.06
291.371	104.06
291.602	91.06
291.833	87.06
292.064	102.06
292.295	95.06
292.526	105.06
292.757	94.06
292.987	103.06
293.218	97.06
293.449	101.06
293.68	100.06
293.91	97.06
294.141	104.06
294.372	87.06
294.603	95.06
294.833	97.06
295.064	91.06
295.295	98.06
295.525	97.06
295.756	121.06
295.987	88.06
296.217	95.06
296.448	90.06
296.679	94.06
296.909	103.06
297.14	111.06
297.37	101.06
297.601	92.06
297.831	98.06
298.062	104.06
298.292	90.06
298.523	105.06
298.753	111.06
298.984	96.06
299.214	103.06
299.445	95.06
299.675	108.06
299.905	111.06
300.136	98.06
300.366	108.06
300.597	101.06
300.827	95.06
301.057	96.06
301.288	94.06
301.518	114.06
301.748	106.06
301.979	132.06
302.209	122.06
302.439	97.06
302.669	105.06
302.9	107.06
303.13	103.06
303.36	105.06
303.59	103.06
303.82	107.06
304.051	90.06
304.281	98.06
304.511	113.06
304.741	90.06
304.971	95.06
305.201	107.06
305.431	110.06
305.661	103.06
305.891	100.06
306.121	115.06
306.352	104.06
306.582	101.06
306.812	100.06
307.042	114.06
307.272	111.06
307.502	96.06
307.731	106.06
307.961	106.06
308.191	111.06
308.421	120.06
308.651	97.06
308.881	102.06
309.111	108.06
309.341	108.06
309.571	105.06
309.8	99.06
310.03	109.06
310.26	106.06
310.49	103.06
310.72	101.06
310.949	84.06
311.179	95.06
311.409	86.06
311.639	99.06
311.868	102.06
312.098	123.06
312.328	120.06
312.557	121.06
312.787	91.06
313.017	103.06
313.246	112.06
313.476	103.06
313.706	111.06
313.935	92.06
314.165	85.06
314.394	96.06
314.624	100.06
314.853	111.06
315.083	89.06
315.312	104.06
315.542	107.06
315.771	105.06
316.001	105.06
316.23	104.06
316.46	91.06
316.689	92.06
316.919	104.06
317.148	92.06
317.377	111.06
317.607	99.06
317.836	104.06
318.065	88.06
318.295	109.06
318.524	89.06
318.753	100.06
318.983	104.06
319.212	115.06
319.441	110.06
319.67	112.06
319.9	92.06
320.129	111.06
320.358	104.06
320.587	97.06
320.816	103.06
321.046	100.06
321.275	98.06
321.504	112.06
321.733	114.06
321.962	103.06
322.191	108.06
322.42	105.06
322.649	99.06
322.878	103.06
323.108	96.06
323.337	97.06
323.566	87.06
323.795	108.06
324.024	109.06
324.253	113.06
324.482	101.06
324.71	104.06
324.939	120.06
325.168	102.06
325.397	101.06
325.626	91.06
325.855	106.06
326.084	105.06
326.313	101.06
326.542	104.06
326.77	113.06
326.999	91.06
327.228	108.06
327.457	91.06
327.686	108.06
327.914	107.06
328.143	113.06
328.372	92.06
328.6	104.06
328.829	104.06
329.058	112.06
329.287	114.06
329.515	99.06
329.744	124.06
329.972	86.06
330.201	110.06
330.43	115.06
330.658	108.06
330.887	101.06
331.115	104.06
331.344	105.06
331.572	120.06
331.801	119.06
332.03	122.06
332.258	112.06
332.486	111.06
332.715	113.06
332.943	114.06
333.172	102.06
333.4	116.06
333.629	128.06
333.857	130.06
334.085	128.06
334.314	104.06
334.542	108.06
334.771	118.06
334.999	115.06
335.227	116.06
335.455	96.06
335.684	99.06
335.912	116.06
336.14	115.06
336.369	115.06
336.597	118.06
336.825	114.06
337.053	90.06
337.281	113.06
337.51	117.06
337.738	108.06
337.966	104.06
338.194	109.06
338.422	123.06
338.65	104.06
338.878	123.06
339.106	99.06
339.334	117.06
339.562	104.06
339.79	113.06
340.018	122.06
340.246	95.06
340.474	105.06
340.702	97.06
340.93	105.06
341.158	110.06
341.386	118.06
341.614	115.06
341.842	104.06
342.07	101.06
342.298	119.06
342.526	104.06
342.754	108.06
342.981	105.06
343.209	109.06
343.437	145.06
343.665	123.06
343.893	118.06
344.12	128.06
344.348	112.06
344.576	116.06
344.804	97.06
345.031	96.06
345.259	115.06
345.487	96.06
345.714	90.06
345.942	106.06
346.17	113.06
346.397	103.06
346.625	105.06
346.853	99.06
347.08	92.06
347.308	105.06
347.535	103.06
347.763	105.06
347.99	117.06
348.218	118.06
348.445	107.06
348.673	116.06
348.9	106.06
349.128	118.06
349.355	101.06
349.583	103.06
349.81	104.06
350.037	121.06
350.265	104.06
350.492	101.06
350.72	109.06
350.947	97.06
351.174	95.06
351.402	107.06
351.629	105.06
351.856	107.06
352.083	117.06
352.311	106.06
352.538	119.06
352.765	83.06
352.992	106.06
353.22	104.06
353.447	99.06
353.674	109.06
353.901	116.06
354.128	115.06
354.355	105.06
354.583	105.06
354.81	108.06
355.037	103.06
355.264	111.06
355.491	95.06
355.718	89.06
355.945	106.06
356.172	102.06
356.399	104.06
356.626	103.06
356.853	116.06
357.08	118.06
357.307	117.06
357.534	91.06
357.761	106.06
357.988	105.06
358.215	116.06
358.441	101.06
358.668	104.06
358.895	105.06
359.122	102.06
359.349	118.06
359.576	106.06
359.802	103.06
360.029	99.06
360.256	86.06
360.483	91.06
360.709	104.06
360.936	123.06
361.163	101.06
361.39	101.06
361.616	98.06
361.843	119.06
362.07	108.06
362.296	99.06
362.523	111.06
362.749	103.06
362.976	110.06
363.203	115.06
363.429	103.06
363.656	108.06
363.882	107.06
364.109	109.06
364.335	117.06
364.562	117.06
364.788	97.06
365.015	104.06
365.241	117.06
365.468	122.06
365.694	101.06
365.92	106.06
366.147	117.06
366.373	96.06
366.599	105.06
366.826	110.06
367.052	112.06
367.278	106.06
367.505	108.06
367.731	121.06
367.957	110.06
368.184	111.06
368.41	109.06
368.636	108.06
368.862	109.06
369.089	99.06
369.315	109.06
369.541	92.06
369.767	108.06
369.993	108.06
370.219	101.06
370.445	103.06
370.672	115.06
370.898	114.06
371.124	121.06
371.35	95.06
371.576	116.06
371.802	109.06
372.028	128.06
372.254	120.06
372.48	103.06
372.706	108.06
372.932	109.06
373.158	114.06
373.384	128.06
373.61	107.06
373.835	118.06
374.061	104.06
374.287	104.06
374.513	128.06
374.739	112.06
374.965	110.06
375.191	116.06
375.416	100.06
375.642	107.06
375.868	112.06
376.094	127.06
376.319	110.06
376.545	122.06
376.771	118.06
376.997	111.06
377.222	103.06
377.448	127.06
377.674	117.06
377.899	115.06
378.125	99.06
378.35	114.06
378.576	98.06
378.802	120.06
379.027	108.06
379.253	115.06
379.478	120.06
379.704	108.06
379.929	113.06
380.155	103.06
380.38	105.06
380.606	98.06
380.831	108.06
381.057	122.06
381.282	106.06
381.507	115.06
381.733	114.06
381.958	115.06
382.184	116.06
382.409	105.06
382.634	116.06
382.86	124.06
383.085	115.06
383.31	115.06
383.535	120.06
383.761	122.06
383.986	111.06
384.211	109.06
384.436	107.06
384.662	124.06
384.887	113.06
385.112	122.06
385.337	132.06
385.562	112.06
385.787	113.06
386.013	125.06
386.238	130.06
386.463	114.06
386.688	148.06
386.913	128.06
387.138	120.06
387.363	98.06
387.588	106.06
387.813	104.06
388.038	116.06
388.263	123.06
388.488	103.06
388.713	104.06
388.938	127.06
389.163	115.06
389.387	124.06
389.612	118.06
389.837	115.06
390.062	127.06
390.287	117.06
390.512	117.06
390.736	110.06
390.961	113.06
391.186	115.06
391.411	118.06
391.636	122.06
391.86	116.06
392.085	132.06
392.31	110.06
392.534	117.06
392.759	125.06
392.984	117.06
393.208	126.06
393.433	108.06
393.658	122.06
393.882	120.06
394.107	121.06
394.331	128.06
394.556	114.06
394.78	131.06
395.005	124.06
395.229	120.06
395.454	131.06
395.678	136.06
395.903	140.06
396.127	131.06
396.352	126.06
396.576	127.06
396.801	129.06
397.025	112.06
397.249	122.06
397.474	130.06
397.698	132.06
397.922	132.06
398.147	146.06
398.371	121.06
398.595	132.06
398.82	128.06
399.044	125.06
399.268	156.06
399.492	159.06
399.717	159.06
399.941	146.06
400.165	138.06
400.389	146.06
400.613	143.06
400.837	129.06
401.062	141.06
401.286	143.06
401.51	125.06
401.734	132.06
401.958	145.06
402.182	130.06
402.406	128.06
402.63	134.06
402.854	160.06
403.078	143.06
403.302	124.06
403.526	145.06
403.75	138.06
403.974	139.06
404.198	140.06
404.422	140.06
404.645	143.06
404.869	122.06
405.093	163.06
405.317	126.06
405.541	131.06
405.765	143.06
405.988	123.06
406.212	127.06
406.436	139.06
406.66	146.06
406.883	163.06
407.107	129.06
407.331	129.06
407.555	149.06
407.778	161.06
408.002	128.06
408.226	133.06
408.449	115.06
408.673	139.06
408.896	146.06
409.12	137.06
409.344	150.06
409.567	165.06
409.791	136.06
410.014	149.06
410.238	143.06
410.461	148.06
410.685	152.06
410.908	138.06
411.132	137.06
411.355	138.06
411.578	147.06
411.802	130.06
412.025	138.06
412.249	143.06
412.472	141.06
412.695	145.06
412.919	130.06
413.142	129.06
413.365	144.06
413.589	128.06
413.812	138.06
414.035	155.06
414.258	140.06
414.482	149.06
414.705	138.06
414.928	144.06
415.151	138.06
415.374	147.06
415.597	148.06
415.821	147.06
416.044	137.06
416.267	137.06
416.49	131.06
416.713	122.06
416.936	133.06
417.159	133.06
417.382	136.06
417.605	144.06
417.828	119.06
418.051	139.06
418.274	129.06
418.497	134.06
418.72	142.06
418.943	132.06
419.166	136.06
419.389	162.06
419.611	160.06
419.834	134.06
420.057	146.06
420.28	147.06
420.503	139.06
420.726	129.06
420.948	146.06
421.171	128.06
421.394	125.06
421.617	136.06
421.839	122.06
422.062	151.06
422.285	136.06
422.507	140.06
422.73	130.06
422.953	131.06
423.175	146.06
423.398	146.06
423.621	139.06
423.843	130.06
424.066	132.06
424.288	145.06
424.511	157.06
424.733	136.06
424.956	155.06
425.178	127.06
425.401	116.06
425.623	131.06
425.846	137.06
426.068	125.06
426.291	135.06
426.513	133.06
426.735	134.06
426.958	123.06
427.18	143.06
427.402	155.06
427.625	135.06
427.847	135.06
428.069	132.06
428.292	132.06
428.514	119.06
428.736	130.06
428.958	133.06
429.181	129.06
429.403	130.06
429.625	120.06
429.847	133.06
430.069	137.06
430.292	141.06
430.514	129.06
430.736	130.06
430.958	122.06
431.18	122.06
431.402	130.06
431.624	138.06
431.846	122.06
432.068	124.06
432.29	124.06
432.512	135.06
432.734	140.06
432.956	136.06
433.178	121.06
433.4	135.06
433.622	136.06
433.844	136.06
434.066	136.06
434.287	135.06
434.509	113.06
434.731	135.06
434.953	132.06
435.175	123.06
435.397	144.06
435.618	134.06
435.84	111.06
436.062	129.06
436.284	124.06
436.505	137.06
436.727	141.06
436.949	119.06
437.17	126.06
437.392	126.06
437.614	136.06
437.835	113.06
438.057	124.06
438.278	125.06
438.5	123.06
438.721	122.06
438.943	125.06
439.165	132.06
439.386	122.06
439.608	143.06
439.829	127.06
440.05	145.06
440.272	129.06
440.493	139.06
440.715	131.06
440.936	128.06
441.158	132.06
441.379	130.06
441.6	143.06
441.822	144.06
442.043	152.06
442.264	146.06
442.486	139.06
442.707	136.06
442.928	143.06
443.149	116.06
443.371	139.06
443.592	148.06
443.813	139.06
444.034	149.06
444.255	134.06
444.476	149.06
444.698	164.06
444.919	160.06
445.14	358.06
445.361	225.06
445.582	157.06
445.803	144.06
446.024	124.06
446.245	135.06
446.466	145.06
446.687	130.06
446.908	135.06
447.129	127.06
447.35	133.06
447.571	141.06
447.792	131.06
448.013	123.06
448.234	132.06
448.455	135.06
448.675	126.06
448.896	124.06
449.117	127.06
449.338	116.06
449.559	128.06
449.779	130.06
450	147.06
450.221	131.06
450.442	136.06
450.662	122.06
450.883	121.06
451.104	154.06
451.324	139.06
451.545	124.06
451.766	139.06
451.986	137.06
452.207	138.06
452.428	138.06
452.648	135.06
452.869	121.06
453.089	115.06
453.31	122.06
453.53	118.06
453.751	115.06
453.971	101.06
454.192	127.06
454.412	118.06
454.633	130.06
454.853	111.06
455.073	131.06
455.294	122.06
455.514	125.06
455.734	115.06
455.955	116.06
456.175	121.06
456.395	133.06
456.616	103.06
456.836	104.06
457.056	130.06
457.276	123.06
457.497	115.06
457.717	106.06
457.937	117.06
458.157	115.06
458.377	107.06
458.598	106.06
458.818	128.06
459.038	128.06
459.258	113.06
459.478	116.06
459.698	124.06
459.918	135.06
460.138	124.06
460.358	148.06
460.578	150.06
460.798	147.06
461.018	147.06
461.238	137.06
461.458	133.06
461.678	143.06
461.898	131.06
462.118	145.06
462.338	135.06
462.558	150.06
462.777	137.06
462.997	144.06
463.217	157.06
463.437	154.06
463.657	155.06
463.876	140.06
464.096	163.06
464.316	151.06
464.536	136.06
464.755	138.06
464.975	129.06
465.195	139.06
465.414	139.06
465.634	136.06
465.854	134.06
466.073	136.06
466.293	139.06
466.512	139.06
466.732	122.06
466.951	123.06
467.171	138.06
467.391	139.06
467.61	132.06
467.829	136.06
468.049	127.06
468.268	134.06
468.488	127.06
468.707	130.06
468.927	119.06
469.146	128.06
469.365	127.06
469.585	134.06
469.804	144.06
470.023	139.06
470.243	131.06
470.462	136.06
470.681	131.06
470.901	129.06
471.12	147.06
471.339	130.06
471.558	127.06
471.777	151.06
471.997	123.06
472.216	128.06
472.435	105.06
472.654	129.06
472.873	136.06
473.092	124.06
473.311	129.06
473.53	134.06
473.749	133.06
473.968	131.06
474.187	131.06
474.406	125.06
474.625	132.06
474.844	136.06
475.063	147.06
475.282	133.06
475.501	116.06
475.72	160.06
475.939	118.06
476.158	143.06
476.377	134.06
476.596	132.06
476.814	123.06
477.033	116.06
477.252	138.06
477.471	131.06
477.69	132.06
477.908	139.06
478.127	136.06
478.346	140.06
478.564	121.06
478.783	125.06
479.002	151.06
479.22	159.06
479.439	133.06
479.658	135.06
479.876	139.06
480.095	130.06
480.313	156.06
480.532	152.06
480.751	144.06
480.969	149.06
481.188	116.06
481.406	132.06
481.624	120.06
481.843	131.06
482.061	118.06
482.28	128.06
482.498	129.06
482.717	122.06
482.935	136.06
483.153	149.06
483.372	143.06
483.59	148.06
483.808	136.06
484.027	147.06
484.245	146.06
484.463	138.06
484.681	170.06
484.9	135.06
485.118	130.06
485.336	135.06
485.554	129.06
485.772	137.06
485.99	143.06
486.209	135.06
486.427	130.06
486.645	131.06
486.863	143.06
487.081	149.06
487.299	135.06
487.517	165.06
487.735	138.06
487.953	153.06
488.171	166.06
488.389	165.06
488.607	151.06
488.825	130.06
489.043	127.06
489.261	148.06
489.479	139.06
489.696	128.06
489.914	129.06
490.132	150.06
490.35	137.06
490.568	144.06
490.786	161.06
491.003	152.06
491.221	150.06
491.439	154.06
491.657	143.06
491.874	149.06
492.092	161.06
492.31	174.06
492.527	167.06
492.745	168.06
492.963	162.06
493.18	161.06
493.398	171.06
493.615	163.06
493.833	153.06
494.05	152.06
494.268	154.06
494.485	153.06
494.703	145.06
494.92	145.06
495.138	157.06
495.355	162.06
495.573	162.06
495.79	156.06
496.008	155.06
496.225	169.06
496.442	152.06
496.66	173.06
496.877	151.06
497.094	144.06
497.312	152.06
497.529	155.06
497.746	162.06
497.963	149.06
498.181	144.06
498.398	155.06
498.615	163.06
498.832	159.06
499.049	186.06
499.267	179.06
499.484	183.06
499.701	213.06
499.918	208.06
500.135	229.06
500.352	260.06
500.569	245.06
500.786	232.06
501.003	218.06
501.22	192.06
501.437	209.06
501.654	187.06
501.871	180.06
502.088	179.06
502.305	160.06
502.522	159.06
502.739	176.06
502.956	155.06
503.172	166.06
503.389	138.06
503.606	140.06
503.823	138.06
504.04	152.06
504.256	145.06
504.473	140.06
504.69	157.06
504.907	163.06
505.123	152.06
505.34	139.06
505.557	146.06
505.773	146.06
505.99	128.06
506.207	145.06
506.423	139.06
506.64	125.06
506.856	122.06
507.073	145.06
