Data from SampD_HRD10591_00084.txt Node
Date: Mon Jan 19 11:50:44 EST 2026
User: Yrep
Spectrometer: HR+D1059
Trigger mode: 0
Integration Time (sec): 3.443000E-1
Scans to average: 1
Electric dark correction enabled: true
Nonlinearity correction enabled: false
Boxcar width: 0
XAxis mode: Wavelengths
Number of Pixels in Spectrum: 2048
>>>>>Begin Spectral Data<<<<<
223.165	-10
223.4	-10
223.635	-10
223.869	-32
224.104	-32
224.338	-12
224.573	-12
224.808	-12
225.042	-17
225.277	-7
225.511	-8
225.746	10
225.98	12
226.215	22
226.449	19
226.683	28
226.918	23
227.152	28
227.387	30
227.621	39
227.856	45
228.09	28
228.324	57
228.559	48
228.793	71
229.027	76
229.262	68
229.496	74
229.73	94
229.964	81
230.199	68
230.433	73
230.667	77
230.901	68
231.136	82
231.37	80
231.604	83
231.838	69
232.072	86
232.306	66
232.541	68
232.775	76
233.009	81
233.243	80
233.477	89
233.711	70
233.945	87
234.179	67
234.413	95
234.647	87
234.881	76
235.115	71
235.349	82
235.583	101
235.817	98
236.051	98
236.285	79
236.519	67
236.753	97
236.987	78
237.221	80
237.455	80
237.689	81
237.922	61
238.156	89
238.39	76
238.624	68
238.858	80
239.091	90
239.325	81
239.559	94
239.793	82
240.027	97
240.26	88
240.494	76
240.728	72
240.961	66
241.195	91
241.429	78
241.662	78
241.896	61
242.13	82
242.363	85
242.597	68
242.83	86
243.064	66
243.298	83
243.531	77
243.765	81
243.998	80
244.232	74
244.465	89
244.699	69
244.932	69
245.166	87
245.399	80
245.633	86
245.866	95
246.099	91
246.333	69
246.566	92
246.8	92
247.033	97
247.266	92
247.5	91
247.733	90
247.966	90
248.2	81
248.433	67
248.666	90
248.899	101
249.133	73
249.366	92
249.599	77
249.832	93
250.066	106
250.299	80
250.532	88
250.765	81
250.998	86
251.231	81
251.465	73
251.698	86
251.931	93
252.164	92
252.397	93
252.63	98
252.863	77
253.096	87
253.329	90
253.562	93
253.795	100
254.028	105
254.261	89
254.494	90
254.727	118
254.96	85
255.193	82
255.426	86
255.659	83
255.892	90
256.124	83
256.357	94
256.59	115
256.823	88
257.056	89
257.289	90
257.521	89
257.754	85
257.987	89
258.22	92
258.452	84
258.685	97
258.918	100
259.151	88
259.383	108
259.616	84
259.849	96
260.081	97
260.314	74
260.547	86
260.779	98
261.012	84
261.244	98
261.477	115
261.71	90
261.942	100
262.175	96
262.407	105
262.64	101
262.872	112
263.105	98
263.337	94
263.57	98
263.802	104
264.035	85
264.267	112
264.499	89
264.732	102
264.964	103
265.197	89
265.429	103
265.661	101
265.894	95
266.126	88
266.358	101
266.591	101
266.823	104
267.055	95
267.287	94
267.52	82
267.752	89
267.984	103
268.216	108
268.448	110
268.681	102
268.913	95
269.145	95
269.377	122
269.609	104
269.841	117
270.073	96
270.306	96
270.538	101
270.77	88
271.002	104
271.234	106
271.466	107
271.698	101
271.93	100
272.162	92
272.394	103
272.626	106
272.858	105
273.09	110
273.322	106
273.553	96
273.785	111
274.017	110
274.249	91
274.481	95
274.713	103
274.945	113
275.176	87
275.408	102
275.64	103
275.872	115
276.104	101
276.335	112
276.567	101
276.799	94
277.031	113
277.262	110
277.494	90
277.726	109
277.957	97
278.189	113
278.421	95
278.652	124
278.884	105
279.115	95
279.347	113
279.579	98
279.81	92
280.042	102
280.273	113
280.505	113
280.736	111
280.968	108
281.199	112
281.431	109
281.662	109
281.894	109
282.125	111
282.356	119
282.588	115
282.819	111
283.051	100
283.282	110
283.513	126
283.745	103
283.976	128
284.207	98
284.439	111
284.67	112
284.901	118
285.132	120
285.364	111
285.595	106
285.826	111
286.057	122
286.288	109
286.52	117
286.751	113
286.982	117
287.213	119
287.444	125
287.675	113
287.906	113
288.138	123
288.369	108
288.6	121
288.831	110
289.062	128
289.293	111
289.524	106
289.755	111
289.986	105
290.217	110
290.448	98
290.679	118
290.91	133
291.141	121
291.371	113
291.602	126
291.833	111
292.064	114
292.295	115
292.526	122
292.757	110
292.987	123
293.218	105
293.449	118
293.68	126
293.91	119
294.141	129
294.372	117
294.603	106
294.833	101
295.064	121
295.295	121
295.525	117
295.756	126
295.987	127
296.217	125
296.448	124
296.679	119
296.909	118
297.14	110
297.37	106
297.601	121
297.831	127
298.062	113
298.292	109
298.523	116
298.753	113
298.984	133
299.214	110
299.445	117
299.675	130
299.905	128
300.136	116
300.366	124
300.597	117
300.827	125
301.057	122
301.288	134
301.518	128
301.748	120
301.979	148
302.209	112
302.439	104
302.669	130
302.9	114
303.13	114
303.36	124
303.59	110
303.82	129
304.051	126
304.281	124
304.511	128
304.741	135
304.971	127
305.201	127
305.431	127
305.661	122
305.891	123
306.121	125
306.352	124
306.582	115
306.812	125
307.042	123
307.272	117
307.502	112
307.731	121
307.961	139
308.191	125
308.421	131
308.651	117
308.881	125
309.111	124
309.341	132
309.571	126
309.8	118
310.03	112
310.26	114
310.49	116
310.72	115
310.949	128
311.179	124
311.409	115
311.639	117
311.868	122
312.098	134
312.328	134
312.557	127
312.787	115
313.017	127
313.246	140
313.476	135
313.706	125
313.935	131
314.165	127
314.394	129
314.624	125
314.853	128
315.083	128
315.312	126
315.542	129
315.771	119
316.001	114
316.23	118
316.46	136
316.689	122
316.919	124
317.148	113
317.377	138
317.607	130
317.836	126
318.065	117
318.295	123
318.524	107
318.753	126
318.983	112
319.212	121
319.441	105
319.67	134
319.9	115
320.129	130
320.358	125
320.587	114
320.816	121
321.046	108
321.275	116
321.504	113
321.733	136
321.962	133
322.191	122
322.42	119
322.649	137
322.878	118
323.108	123
323.337	116
323.566	119
323.795	124
324.024	122
324.253	114
324.482	133
324.71	125
324.939	144
325.168	133
325.397	137
325.626	118
325.855	155
326.084	127
326.313	119
326.542	116
326.77	135
326.999	124
327.228	117
327.457	140
327.686	121
327.914	128
328.143	157
328.372	118
328.6	112
328.829	128
329.058	133
329.287	123
329.515	103
329.744	131
329.972	113
330.201	128
330.43	129
330.658	127
330.887	116
331.115	137
331.344	128
331.572	133
331.801	137
332.03	145
332.258	134
332.486	119
332.715	128
332.943	134
333.172	141
333.4	133
333.629	152
333.857	135
334.085	160
334.314	148
334.542	139
334.771	144
334.999	130
335.227	160
335.455	137
335.684	150
335.912	144
336.14	147
336.369	146
336.597	140
336.825	141
337.053	128
337.281	130
337.51	135
337.738	131
337.966	135
338.194	131
338.422	134
338.65	127
338.878	152
339.106	130
339.334	135
339.562	136
339.79	133
340.018	138
340.246	140
340.474	145
340.702	136
340.93	130
341.158	124
341.386	128
341.614	126
341.842	133
342.07	130
342.298	127
342.526	126
342.754	134
342.981	135
343.209	135
343.437	166
343.665	131
343.893	133
344.12	147
344.348	156
344.576	123
344.804	132
345.031	119
345.259	128
345.487	134
345.714	140
345.942	125
346.17	137
346.397	126
346.625	127
346.853	134
347.08	120
347.308	120
347.535	145
347.763	148
347.99	157
348.218	119
348.445	128
348.673	120
348.9	133
349.128	124
349.355	121
349.583	129
349.81	129
350.037	128
350.265	141
350.492	132
350.72	129
350.947	120
351.174	125
351.402	117
351.629	129
351.856	130
352.083	114
352.311	132
352.538	135
352.765	135
352.992	139
353.22	133
353.447	137
353.674	145
353.901	137
354.128	132
354.355	144
354.583	141
354.81	140
355.037	147
355.264	140
355.491	122
355.718	136
355.945	143
356.172	111
356.399	120
356.626	126
356.853	131
357.08	130
357.307	142
357.534	120
357.761	122
357.988	146
358.215	128
358.441	124
358.668	127
358.895	133
359.122	124
359.349	125
359.576	123
359.802	112
360.029	142
360.256	126
360.483	128
360.709	117
360.936	136
361.163	121
361.39	126
361.616	118
361.843	124
362.07	133
362.296	121
362.523	133
362.749	138
362.976	134
363.203	120
363.429	125
363.656	126
363.882	121
364.109	133
364.335	126
364.562	117
364.788	120
365.015	132
365.241	141
365.468	152
365.694	130
365.92	130
366.147	150
366.373	127
366.599	117
366.826	121
367.052	129
367.278	130
367.505	138
367.731	162
367.957	119
368.184	124
368.41	127
368.636	142
368.862	155
369.089	137
369.315	118
369.541	136
369.767	127
369.993	146
370.219	130
370.445	129
370.672	140
370.898	135
371.124	140
371.35	130
371.576	140
371.802	129
372.028	136
372.254	138
372.48	113
372.706	124
372.932	138
373.158	128
373.384	145
373.61	148
373.835	160
374.061	115
374.287	134
374.513	138
374.739	138
374.965	138
375.191	161
375.416	144
375.642	146
375.868	152
376.094	124
376.319	153
376.545	133
376.771	136
376.997	134
377.222	124
377.448	134
377.674	152
377.899	142
378.125	124
378.35	144
378.576	144
378.802	134
379.027	151
379.253	153
379.478	123
379.704	135
379.929	136
380.155	140
380.38	136
380.606	141
380.831	142
381.057	162
381.282	128
381.507	157
381.733	153
381.958	144
382.184	135
382.409	133
382.634	145
382.86	141
383.085	171
383.31	145
383.535	159
383.761	139
383.986	160
384.211	133
384.436	156
384.662	140
384.887	141
385.112	144
385.337	174
385.562	168
385.787	154
386.013	167
386.238	161
386.463	179
386.688	201
386.913	168
387.138	165
387.363	153
387.588	164
387.813	160
388.038	150
388.263	168
388.488	158
388.713	163
388.938	162
389.163	162
389.387	157
389.612	168
389.837	156
390.062	146
390.287	164
390.512	160
390.736	153
390.961	147
391.186	162
391.411	165
391.636	169
391.86	160
392.085	169
392.31	169
392.534	161
392.759	149
392.984	164
393.208	163
393.433	167
393.658	171
393.882	153
394.107	164
394.331	152
394.556	170
394.78	186
395.005	169
395.229	162
395.454	180
395.678	163
395.903	181
396.127	185
396.352	166
396.576	168
396.801	176
397.025	179
397.249	186
397.474	188
397.698	157
397.922	180
398.147	167
398.371	165
398.595	187
398.82	182
399.044	195
399.268	214
399.492	234
399.717	253
399.941	225
400.165	210
400.389	194
400.613	197
400.837	174
401.062	198
401.286	197
401.51	169
401.734	176
401.958	170
402.182	184
402.406	184
402.63	210
402.854	197
403.078	197
403.302	180
403.526	210
403.75	211
403.974	215
404.198	208
404.422	196
404.645	197
404.869	204
405.093	203
405.317	181
405.541	216
405.765	208
405.988	192
406.212	198
406.436	187
406.66	204
406.883	221
407.107	209
407.331	192
407.555	225
407.778	217
408.002	218
408.226	195
408.449	217
408.673	197
408.896	190
409.12	195
409.344	184
409.567	210
409.791	212
410.014	197
410.238	198
410.461	205
410.685	197
410.908	202
411.132	207
411.355	181
411.578	205
411.802	192
412.025	180
412.249	184
412.472	191
412.695	186
412.919	156
413.142	202
413.365	198
413.589	190
413.812	178
414.035	192
414.258	199
414.482	201
414.705	193
414.928	192
415.151	190
415.374	191
415.597	194
415.821	196
416.044	183
416.267	194
416.49	184
416.713	196
416.936	179
417.159	197
417.382	200
417.605	177
417.828	200
418.051	188
418.274	210
418.497	192
418.72	179
418.943	197
419.166	212
419.389	210
419.611	208
419.834	207
420.057	200
420.28	204
420.503	198
420.726	206
420.948	189
421.171	184
421.394	207
421.617	198
421.839	206
422.062	199
422.285	192
422.507	202
422.73	192
422.953	186
423.175	195
423.398	206
423.621	199
423.843	199
424.066	185
424.288	207
424.511	208
424.733	187
424.956	208
425.178	189
425.401	196
425.623	200
425.846	185
426.068	172
426.291	200
426.513	194
426.735	202
426.958	166
427.18	181
427.402	194
427.625	169
427.847	169
428.069	190
428.292	183
428.514	187
428.736	181
428.958	192
429.181	197
429.403	186
429.625	179
429.847	182
430.069	162
430.292	173
430.514	193
430.736	178
430.958	173
431.18	178
431.402	179
431.624	175
431.846	165
432.068	163
432.29	169
432.512	174
432.734	180
432.956	191
433.178	196
433.4	191
433.622	201
433.844	197
434.066	184
434.287	183
434.509	173
434.731	174
434.953	197
435.175	201
435.397	178
435.618	181
435.84	180
436.062	172
436.284	184
436.505	186
436.727	186
436.949	197
437.17	172
437.392	182
437.614	180
437.835	160
438.057	169
438.278	165
438.5	166
438.721	186
438.943	166
439.165	174
439.386	189
439.608	201
439.829	193
440.05	193
440.272	186
440.493	196
440.715	196
440.936	192
441.158	194
441.379	193
441.6	202
441.822	197
442.043	198
442.264	192
442.486	180
442.707	182
442.928	192
443.149	201
443.371	198
443.592	201
443.813	206
444.034	196
444.255	190
444.476	208
444.698	233
444.919	217
445.14	468
445.361	312
445.582	221
445.803	197
446.024	193
446.245	205
446.466	205
446.687	195
446.908	198
447.129	176
447.35	174
447.571	201
447.792	192
448.013	187
448.234	195
448.455	175
448.675	168
448.896	169
449.117	173
449.338	177
449.559	177
449.779	181
450	161
450.221	181
450.442	174
450.662	184
450.883	184
451.104	185
451.324	179
451.545	200
451.766	187
451.986	172
452.207	175
452.428	181
452.648	178
452.869	177
453.089	161
453.31	164
453.53	159
453.751	168
453.971	166
454.192	174
454.412	161
454.633	179
454.853	169
455.073	187
455.294	177
455.514	156
455.734	166
455.955	179
456.175	162
456.395	146
456.616	160
456.836	141
457.056	154
457.276	158
457.497	160
457.717	161
457.937	159
458.157	156
458.377	160
458.598	142
458.818	156
459.038	158
459.258	162
459.478	177
459.698	175
459.918	194
460.138	169
460.358	183
460.578	196
460.798	190
461.018	195
461.238	190
461.458	197
461.678	215
461.898	184
462.118	199
462.338	210
462.558	208
462.777	206
462.997	230
463.217	231
463.437	237
463.657	223
463.876	211
464.096	197
464.316	223
464.536	214
464.755	221
464.975	213
465.195	197
465.414	184
465.634	193
465.854	182
466.073	169
466.293	174
466.512	182
466.732	166
466.951	177
467.171	196
467.391	192
467.61	196
467.829	184
468.049	187
468.268	156
468.488	180
468.707	173
468.927	168
469.146	189
469.365	199
469.585	205
469.804	179
470.023	195
470.243	186
470.462	197
470.681	200
470.901	194
471.12	188
471.339	196
471.558	181
471.777	190
471.997	185
472.216	176
472.435	169
472.654	163
472.873	166
473.092	159
473.311	180
473.53	174
473.749	185
473.968	180
474.187	169
474.406	167
474.625	165
474.844	179
475.063	182
475.282	181
475.501	161
475.72	180
475.939	178
476.158	181
476.377	177
476.596	157
476.814	181
477.033	188
477.252	178
477.471	176
477.69	173
477.908	210
478.127	208
478.346	185
478.564	207
478.783	201
479.002	200
479.22	204
479.439	201
479.658	199
479.876	194
480.095	200
480.313	199
480.532	207
480.751	198
480.969	165
481.188	174
481.406	179
481.624	160
481.843	160
482.061	158
482.28	171
482.498	188
482.717	199
482.935	185
483.153	213
483.372	185
483.59	186
483.808	207
484.027	183
484.245	193
484.463	188
484.681	225
484.9	192
485.118	200
485.336	189
485.554	197
485.772	170
485.99	200
486.209	185
486.427	179
486.645	184
486.863	198
487.081	208
487.299	199
487.517	193
487.735	225
487.953	226
488.171	210
488.389	225
488.607	194
488.825	206
489.043	191
489.261	189
489.479	195
489.696	202
489.914	201
490.132	205
490.35	218
490.568	226
490.786	232
491.003	238
491.221	218
491.439	210
491.657	226
491.874	252
492.092	252
492.31	266
492.527	254
492.745	236
492.963	233
493.18	231
493.398	221
493.615	233
493.833	218
494.05	236
494.268	224
494.485	212
494.703	217
494.92	214
495.138	220
495.355	228
495.573	224
495.79	212
496.008	216
496.225	217
496.442	223
496.66	226
496.877	234
497.094	236
497.312	234
497.529	238
497.746	220
497.963	212
498.181	210
498.398	232
498.615	232
498.832	229
499.049	250
499.267	282
499.484	307
499.701	314
499.918	342
500.135	380
500.352	412
500.569	418
500.786	431
501.003	397
501.22	345
501.437	327
501.654	302
501.871	276
502.088	260
502.305	260
502.522	236
502.739	244
502.956	239
503.172	208
503.389	217
503.606	213
503.823	216
504.04	222
504.256	217
504.473	213
504.69	218
504.907	229
505.123	212
505.34	206
505.557	216
505.773	200
505.99	172
506.207	193
506.423	188
506.64	194
506.856	180
507.073	176
507.289	196
507.506	173
507.722	192
507.939	180
508.155	179
508.372	185
508.588	176
508.805	199
509.021	177
509.238	167
509.454	166
509.67	166
509.887	158
510.103	159
510.319	163
510.536	186
510.752	168
510.968	146
511.184	157
511.401	148
511.617	169
511.833	148
512.049	159
512.265	163
512.481	177
512.698	170
512.914	167
513.13	174
513.346	155
513.562	156
513.778	165
513.994	160
514.21	157
514.426	166
514.642	167
514.858	163
515.074	175
515.29	186
515.506	181
515.721	169
515.937	183
516.153	176
516.369	166
516.585	168
516.801	188
517.016	173
517.232	171
517.448	200
517.664	212
517.879	212
518.095	205
518.311	199
518.527	190
518.742	182
518.958	184
519.173	179
519.389	199
519.605	196
519.82	167
520.036	170
520.251	160
520.467	169
520.682	171
520.898	162
521.113	155
521.329	169
521.544	154
521.76	144
521.975	146
522.19	180
522.406	166
522.621	169
522.836	157
523.052	172
523.267	161
523.482	166
523.698	158
523.913	161
524.128	163
524.343	159
524.559	169
524.774	179
524.989	182
525.204	173
525.419	161
525.634	176
525.849	165
526.064	170
526.28	170
526.495	156
526.71	162
526.925	129
527.14	156
527.355	152
527.57	145
527.785	160
527.999	155
528.214	169
528.429	175
528.644	167
528.859	169
529.074	193
529.289	200
529.503	191
529.718	173
529.933	156
530.148	176
530.363	147
530.577	150
530.792	126
531.007	150
531.221	148
531.436	156
531.651	162
531.865	133
532.08	149
532.295	162
532.509	170
532.724	150
532.938	148
533.153	160
533.367	178
533.582	168
533.796	174
534.011	178
534.225	159
534.44	144
534.654	164
534.868	147
535.083	151
535.297	151
535.511	160
535.726	163
535.94	155
536.154	161
536.369	149
536.583	146
536.797	149
537.011	146
537.225	152
537.44	153
537.654	136
537.868	152
538.082	157
538.296	143
538.51	160
538.724	156
538.938	160
539.153	167
539.367	167
539.581	164
539.795	145
540.009	141
540.222	152
540.436	151
540.65	164
540.864	186
541.078	167
541.292	182
541.506	182
541.72	197
541.934	189
542.147	210
542.361	210
542.575	192
542.789	197
543.002	163
543.216	177
543.43	159
543.644	176
543.857	186
544.071	188
544.285	178
544.498	175
544.712	183
544.925	169
545.139	175
545.352	184
545.566	180
545.779	189
545.993	183
546.206	176
546.42	192
546.633	181
546.847	193
547.06	189
547.274	204
547.487	210
547.7	198
547.914	196
548.127	189
548.34	187
548.554	181
548.767	189
548.98	189
549.193	182
549.407	200
549.62	179
549.833	188
550.046	181
550.259	184
550.473	170
550.686	170
550.899	202
551.112	169
551.325	165
551.538	157
551.751	150
551.964	183
552.177	182
552.39	185
552.603	186
552.816	185
553.029	188
553.242	192
553.455	198
553.667	211
553.88	198
554.093	191
554.306	188
554.519	170
554.732	181
554.944	181
555.157	168
555.37	164
555.583	176
555.795	180
556.008	152
556.221	164
556.433	163
556.646	165
556.859	170
557.071	165
557.284	174
557.496	195
557.709	153
557.921	175
558.134	165
558.346	141
558.559	168
558.771	166
558.984	156
559.196	176
559.409	165
559.621	147
559.833	160
560.046	158
560.258	139
560.47	159
560.683	161
560.895	162
561.107	168
561.32	164
561.532	140
561.744	167
561.956	160
562.168	148
562.381	149
562.593	158
562.805	169
563.017	166
563.229	158
563.441	153
563.653	166
563.865	154
564.077	148
564.289	148
564.501	149
564.713	171
564.925	150
565.137	161
565.349	169
565.561	161
565.773	176
565.985	168
566.197	168
566.408	190
566.62	202
566.832	202
567.044	214
567.255	208
