Data from SampD_HRD10591_00032.txt Node
Date: Mon Jan 19 11:50:26 EST 2026
User: Yrep
Spectrometer: HR+D1059
Trigger mode: 0
Integration Time (sec): 3.443000E-1
Scans to average: 1
Electric dark correction enabled: true
Nonlinearity correction enabled: false
Boxcar width: 0
XAxis mode: Wavelengths
Number of Pixels in Spectrum: 2048
>>>>>Begin Spectral Data<<<<<
223.165	-15.25
223.4	-15.25
223.635	-15.25
223.869	-29.25
224.104	-29.25
224.338	-13.25
224.573	-13.25
224.808	-20.25
225.042	-10.25
225.277	10.75
225.511	-3.25
225.746	27.75
225.98	12.75
226.215	11.75
226.449	-6.25
226.683	29.75
226.918	21.75
227.152	25.75
227.387	32.75
227.621	32.75
227.856	52.75
228.09	44.75
228.324	58.75
228.559	53.75
228.793	77.75
229.027	84.75
229.262	80.75
229.496	73.75
229.73	67.75
229.964	84.75
230.199	71.75
230.433	75.75
230.667	92.75
230.901	92.75
231.136	80.75
231.37	82.75
231.604	86.75
231.838	86.75
232.072	80.75
232.306	94.75
232.541	87.75
232.775	86.75
233.009	91.75
233.243	87.75
233.477	76.75
233.711	91.75
233.945	92.75
234.179	90.75
234.413	93.75
234.647	99.75
234.881	80.75
235.115	82.75
235.349	72.75
235.583	74.75
235.817	83.75
236.051	90.75
236.285	68.75
236.519	84.75
236.753	81.75
236.987	84.75
237.221	72.75
237.455	77.75
237.689	65.75
237.922	65.75
238.156	75.75
238.39	70.75
238.624	71.75
238.858	82.75
239.091	83.75
239.325	77.75
239.559	90.75
239.793	86.75
240.027	88.75
240.26	84.75
240.494	101.75
240.728	92.75
240.961	86.75
241.195	86.75
241.429	104.75
241.662	84.75
241.896	86.75
242.13	76.75
242.363	90.75
242.597	85.75
242.83	90.75
243.064	94.75
243.298	84.75
243.531	85.75
243.765	81.75
243.998	82.75
244.232	94.75
244.465	91.75
244.699	91.75
244.932	98.75
245.166	89.75
245.399	99.75
245.633	92.75
245.866	101.75
246.099	92.75
246.333	100.75
246.566	75.75
246.8	86.75
247.033	84.75
247.266	82.75
247.5	84.75
247.733	87.75
247.966	93.75
248.2	93.75
248.433	88.75
248.666	89.75
248.899	90.75
249.133	93.75
249.366	86.75
249.599	102.75
249.832	108.75
250.066	106.75
250.299	93.75
250.532	84.75
250.765	84.75
250.998	98.75
251.231	90.75
251.465	109.75
251.698	101.75
251.931	93.75
252.164	99.75
252.397	86.75
252.63	100.75
252.863	96.75
253.096	106.75
253.329	90.75
253.562	104.75
253.795	81.75
254.028	97.75
254.261	80.75
254.494	100.75
254.727	82.75
254.96	105.75
255.193	93.75
255.426	98.75
255.659	88.75
255.892	101.75
256.124	89.75
256.357	99.75
256.59	110.75
256.823	95.75
257.056	98.75
257.289	106.75
257.521	89.75
257.754	90.75
257.987	100.75
258.22	107.75
258.452	105.75
258.685	96.75
258.918	94.75
259.151	101.75
259.383	102.75
259.616	100.75
259.849	91.75
260.081	103.75
260.314	102.75
260.547	103.75
260.779	88.75
261.012	106.75
261.244	97.75
261.477	101.75
261.71	92.75
261.942	90.75
262.175	109.75
262.407	94.75
262.64	89.75
262.872	104.75
263.105	102.75
263.337	101.75
263.57	95.75
263.802	101.75
264.035	119.75
264.267	83.75
264.499	109.75
264.732	111.75
264.964	102.75
265.197	108.75
265.429	103.75
265.661	98.75
265.894	100.75
266.126	103.75
266.358	86.75
266.591	99.75
266.823	96.75
267.055	96.75
267.287	102.75
267.52	99.75
267.752	122.75
267.984	101.75
268.216	103.75
268.448	104.75
268.681	98.75
268.913	102.75
269.145	110.75
269.377	110.75
269.609	94.75
269.841	112.75
270.073	100.75
270.306	105.75
270.538	108.75
270.77	114.75
271.002	110.75
271.234	107.75
271.466	103.75
271.698	107.75
271.93	111.75
272.162	112.75
272.394	109.75
272.626	106.75
272.858	116.75
273.09	109.75
273.322	100.75
273.553	113.75
273.785	116.75
274.017	114.75
274.249	105.75
274.481	98.75
274.713	100.75
274.945	96.75
275.176	112.75
275.408	108.75
275.64	103.75
275.872	109.75
276.104	110.75
276.335	116.75
276.567	121.75
276.799	114.75
277.031	116.75
277.262	94.75
277.494	104.75
277.726	117.75
277.957	104.75
278.189	106.75
278.421	106.75
278.652	103.75
278.884	129.75
279.115	110.75
279.347	100.75
279.579	122.75
279.81	114.75
280.042	108.75
280.273	104.75
280.505	100.75
280.736	109.75
280.968	110.75
281.199	103.75
281.431	123.75
281.662	115.75
281.894	115.75
282.125	108.75
282.356	119.75
282.588	109.75
282.819	124.75
283.051	113.75
283.282	120.75
283.513	107.75
283.745	98.75
283.976	113.75
284.207	116.75
284.439	105.75
284.67	119.75
284.901	111.75
285.132	104.75
285.364	114.75
285.595	117.75
285.826	133.75
286.057	117.75
286.288	119.75
286.52	100.75
286.751	110.75
286.982	119.75
287.213	119.75
287.444	128.75
287.675	131.75
287.906	116.75
288.138	115.75
288.369	121.75
288.6	124.75
288.831	118.75
289.062	130.75
289.293	123.75
289.524	124.75
289.755	112.75
289.986	100.75
290.217	117.75
290.448	121.75
290.679	123.75
290.91	126.75
291.141	117.75
291.371	113.75
291.602	128.75
291.833	117.75
292.064	107.75
292.295	98.75
292.526	102.75
292.757	103.75
292.987	111.75
293.218	122.75
293.449	125.75
293.68	116.75
293.91	105.75
294.141	133.75
294.372	119.75
294.603	120.75
294.833	115.75
295.064	122.75
295.295	128.75
295.525	122.75
295.756	119.75
295.987	116.75
296.217	102.75
296.448	125.75
296.679	121.75
296.909	118.75
297.14	120.75
297.37	131.75
297.601	109.75
297.831	121.75
298.062	114.75
298.292	117.75
298.523	133.75
298.753	120.75
298.984	120.75
299.214	113.75
299.445	123.75
299.675	119.75
299.905	126.75
300.136	120.75
300.366	116.75
300.597	124.75
300.827	124.75
301.057	122.75
301.288	126.75
301.518	116.75
301.748	128.75
301.979	168.75
302.209	126.75
302.439	114.75
302.669	139.75
302.9	123.75
303.13	120.75
303.36	123.75
303.59	123.75
303.82	115.75
304.051	129.75
304.281	131.75
304.511	133.75
304.741	128.75
304.971	115.75
305.201	133.75
305.431	121.75
305.661	119.75
305.891	129.75
306.121	125.75
306.352	114.75
306.582	135.75
306.812	120.75
307.042	110.75
307.272	120.75
307.502	123.75
307.731	137.75
307.961	133.75
308.191	141.75
308.421	127.75
308.651	134.75
308.881	118.75
309.111	124.75
309.341	124.75
309.571	117.75
309.8	126.75
310.03	118.75
310.26	123.75
310.49	124.75
310.72	132.75
310.949	125.75
311.179	126.75
311.409	142.75
311.639	129.75
311.868	123.75
312.098	125.75
312.328	132.75
312.557	129.75
312.787	131.75
313.017	127.75
313.246	119.75
313.476	118.75
313.706	120.75
313.935	130.75
314.165	118.75
314.394	131.75
314.624	117.75
314.853	130.75
315.083	134.75
315.312	131.75
315.542	121.75
315.771	118.75
316.001	121.75
316.23	124.75
316.46	112.75
316.689	124.75
316.919	111.75
317.148	129.75
317.377	157.75
317.607	134.75
317.836	128.75
318.065	124.75
318.295	124.75
318.524	123.75
318.753	122.75
318.983	111.75
319.212	131.75
319.441	120.75
319.67	118.75
319.9	136.75
320.129	122.75
320.358	110.75
320.587	112.75
320.816	139.75
321.046	123.75
321.275	137.75
321.504	119.75
321.733	132.75
321.962	118.75
322.191	128.75
322.42	119.75
322.649	117.75
322.878	139.75
323.108	127.75
323.337	127.75
323.566	103.75
323.795	122.75
324.024	136.75
324.253	125.75
324.482	137.75
324.71	124.75
324.939	117.75
325.168	142.75
325.397	142.75
325.626	134.75
325.855	131.75
326.084	144.75
326.313	120.75
326.542	119.75
326.77	133.75
326.999	131.75
327.228	135.75
327.457	134.75
327.686	133.75
327.914	147.75
328.143	150.75
328.372	124.75
328.6	127.75
328.829	131.75
329.058	114.75
329.287	125.75
329.515	134.75
329.744	150.75
329.972	116.75
330.201	145.75
330.43	136.75
330.658	141.75
330.887	138.75
331.115	140.75
331.344	144.75
331.572	152.75
331.801	141.75
332.03	147.75
332.258	148.75
332.486	124.75
332.715	136.75
332.943	143.75
333.172	160.75
333.4	149.75
333.629	167.75
333.857	164.75
334.085	170.75
334.314	146.75
334.542	154.75
334.771	144.75
334.999	148.75
335.227	136.75
335.455	140.75
335.684	156.75
335.912	140.75
336.14	152.75
336.369	148.75
336.597	151.75
336.825	138.75
337.053	144.75
337.281	141.75
337.51	132.75
337.738	138.75
337.966	138.75
338.194	140.75
338.422	133.75
338.65	139.75
338.878	145.75
339.106	154.75
339.334	152.75
339.562	134.75
339.79	132.75
340.018	135.75
340.246	129.75
340.474	140.75
340.702	144.75
340.93	148.75
341.158	126.75
341.386	121.75
341.614	123.75
341.842	140.75
342.07	132.75
342.298	129.75
342.526	131.75
342.754	136.75
342.981	144.75
343.209	127.75
343.437	172.75
343.665	139.75
343.893	160.75
344.12	156.75
344.348	140.75
344.576	153.75
344.804	145.75
345.031	116.75
345.259	124.75
345.487	126.75
345.714	128.75
345.942	148.75
346.17	143.75
346.397	126.75
346.625	124.75
346.853	126.75
347.08	133.75
347.308	134.75
347.535	128.75
347.763	145.75
347.99	120.75
348.218	144.75
348.445	136.75
348.673	129.75
348.9	123.75
349.128	126.75
349.355	134.75
349.583	136.75
349.81	119.75
350.037	130.75
350.265	131.75
350.492	131.75
350.72	124.75
350.947	151.75
351.174	128.75
351.402	123.75
351.629	113.75
351.856	143.75
352.083	120.75
352.311	122.75
352.538	142.75
352.765	134.75
352.992	149.75
353.22	134.75
353.447	136.75
353.674	136.75
353.901	138.75
354.128	137.75
354.355	130.75
354.583	120.75
354.81	144.75
355.037	145.75
355.264	137.75
355.491	117.75
355.718	124.75
355.945	129.75
356.172	130.75
356.399	138.75
356.626	118.75
356.853	125.75
357.08	134.75
357.307	110.75
357.534	117.75
357.761	146.75
357.988	116.75
358.215	126.75
358.441	136.75
358.668	138.75
358.895	140.75
359.122	116.75
359.349	123.75
359.576	124.75
359.802	123.75
360.029	124.75
360.256	105.75
360.483	124.75
360.709	126.75
360.936	139.75
361.163	141.75
361.39	120.75
361.616	118.75
361.843	133.75
362.07	141.75
362.296	136.75
362.523	130.75
362.749	125.75
362.976	139.75
363.203	145.75
363.429	119.75
363.656	148.75
363.882	139.75
364.109	135.75
364.335	129.75
364.562	118.75
364.788	131.75
365.015	133.75
365.241	131.75
365.468	138.75
365.694	141.75
365.92	137.75
366.147	140.75
366.373	140.75
366.599	117.75
366.826	153.75
367.052	131.75
367.278	139.75
367.505	119.75
367.731	149.75
367.957	135.75
368.184	130.75
368.41	131.75
368.636	133.75
368.862	145.75
369.089	146.75
369.315	133.75
369.541	131.75
369.767	153.75
369.993	137.75
370.219	140.75
370.445	140.75
370.672	150.75
370.898	156.75
371.124	141.75
371.35	126.75
371.576	154.75
371.802	138.75
372.028	144.75
372.254	160.75
372.48	150.75
372.706	123.75
372.932	142.75
373.158	145.75
373.384	149.75
373.61	145.75
373.835	152.75
374.061	136.75
374.287	136.75
374.513	139.75
374.739	130.75
374.965	150.75
375.191	150.75
375.416	120.75
375.642	150.75
375.868	153.75
376.094	145.75
376.319	137.75
376.545	148.75
376.771	152.75
376.997	135.75
377.222	134.75
377.448	129.75
377.674	132.75
377.899	142.75
378.125	133.75
378.35	134.75
378.576	140.75
378.802	140.75
379.027	149.75
379.253	154.75
379.478	134.75
379.704	132.75
379.929	137.75
380.155	146.75
380.38	158.75
380.606	146.75
380.831	164.75
381.057	159.75
381.282	144.75
381.507	131.75
381.733	146.75
381.958	137.75
382.184	144.75
382.409	150.75
382.634	146.75
382.86	145.75
383.085	158.75
383.31	139.75
383.535	157.75
383.761	152.75
383.986	158.75
384.211	136.75
384.436	155.75
384.662	147.75
384.887	152.75
385.112	158.75
385.337	163.75
385.562	173.75
385.787	169.75
386.013	171.75
386.238	173.75
386.463	167.75
386.688	205.75
386.913	157.75
387.138	150.75
387.363	144.75
387.588	167.75
387.813	160.75
388.038	164.75
388.263	170.75
388.488	157.75
388.713	156.75
388.938	165.75
389.163	153.75
389.387	134.75
389.612	140.75
389.837	136.75
390.062	166.75
390.287	147.75
390.512	147.75
390.736	186.75
390.961	158.75
391.186	163.75
391.411	170.75
391.636	171.75
391.86	168.75
392.085	173.75
392.31	170.75
392.534	171.75
392.759	173.75
392.984	158.75
393.208	178.75
393.433	176.75
393.658	141.75
393.882	182.75
394.107	156.75
394.331	168.75
394.556	170.75
394.78	181.75
395.005	162.75
395.229	192.75
395.454	181.75
395.678	156.75
395.903	186.75
396.127	178.75
396.352	163.75
396.576	170.75
396.801	175.75
397.025	168.75
397.249	171.75
397.474	167.75
397.698	179.75
397.922	176.75
398.147	174.75
398.371	166.75
398.595	183.75
398.82	183.75
399.044	182.75
399.268	180.75
399.492	242.75
399.717	238.75
399.941	218.75
400.165	212.75
400.389	193.75
400.613	164.75
400.837	185.75
401.062	186.75
401.286	194.75
401.51	199.75
401.734	194.75
401.958	186.75
402.182	188.75
402.406	186.75
402.63	189.75
402.854	198.75
403.078	207.75
403.302	192.75
403.526	213.75
403.75	198.75
403.974	205.75
404.198	199.75
404.422	229.75
404.645	227.75
404.869	222.75
405.093	204.75
405.317	198.75
405.541	197.75
405.765	197.75
405.988	220.75
406.212	199.75
406.436	210.75
406.66	209.75
406.883	212.75
407.107	204.75
407.331	202.75
407.555	213.75
407.778	215.75
408.002	220.75
408.226	209.75
408.449	222.75
408.673	197.75
408.896	215.75
409.12	198.75
409.344	202.75
409.567	205.75
409.791	200.75
410.014	214.75
410.238	219.75
410.461	202.75
410.685	212.75
410.908	201.75
411.132	192.75
411.355	185.75
411.578	193.75
411.802	186.75
412.025	208.75
412.249	206.75
412.472	197.75
412.695	197.75
412.919	184.75
413.142	206.75
413.365	187.75
413.589	199.75
413.812	184.75
414.035	198.75
414.258	192.75
414.482	198.75
414.705	194.75
414.928	213.75
415.151	195.75
415.374	187.75
415.597	194.75
415.821	198.75
416.044	196.75
416.267	181.75
416.49	201.75
416.713	192.75
416.936	206.75
417.159	189.75
417.382	180.75
417.605	188.75
417.828	202.75
418.051	202.75
418.274	206.75
418.497	188.75
418.72	194.75
418.943	198.75
419.166	209.75
419.389	199.75
419.611	199.75
419.834	188.75
420.057	197.75
420.28	185.75
420.503	194.75
420.726	194.75
420.948	184.75
421.171	191.75
421.394	186.75
421.617	195.75
421.839	201.75
422.062	200.75
422.285	202.75
422.507	182.75
422.73	203.75
422.953	209.75
423.175	180.75
423.398	200.75
423.621	212.75
423.843	205.75
424.066	202.75
424.288	211.75
424.511	210.75
424.733	209.75
424.956	216.75
425.178	184.75
425.401	183.75
425.623	210.75
425.846	203.75
426.068	192.75
426.291	187.75
426.513	197.75
426.735	186.75
426.958	186.75
427.18	193.75
427.402	187.75
427.625	174.75
427.847	183.75
428.069	191.75
428.292	189.75
428.514	189.75
428.736	180.75
428.958	186.75
429.181	193.75
429.403	181.75
429.625	186.75
429.847	178.75
430.069	172.75
430.292	190.75
430.514	180.75
430.736	170.75
430.958	197.75
431.18	189.75
431.402	178.75
431.624	168.75
431.846	175.75
432.068	152.75
432.29	172.75
432.512	188.75
432.734	173.75
432.956	178.75
433.178	197.75
433.4	192.75
433.622	195.75
433.844	187.75
434.066	189.75
434.287	180.75
434.509	177.75
434.731	180.75
434.953	173.75
435.175	190.75
435.397	198.75
435.618	177.75
435.84	176.75
436.062	173.75
436.284	180.75
436.505	188.75
436.727	182.75
436.949	195.75
437.17	182.75
437.392	191.75
437.614	173.75
437.835	171.75
438.057	177.75
438.278	160.75
438.5	181.75
438.721	170.75
438.943	179.75
439.165	181.75
439.386	186.75
439.608	192.75
439.829	195.75
440.05	203.75
440.272	188.75
440.493	193.75
440.715	181.75
440.936	189.75
441.158	211.75
441.379	226.75
441.6	220.75
441.822	197.75
442.043	208.75
442.264	206.75
442.486	192.75
442.707	195.75
442.928	197.75
443.149	206.75
443.371	202.75
443.592	197.75
443.813	203.75
444.034	212.75
444.255	205.75
444.476	205.75
444.698	233.75
444.919	224.75
445.14	406.75
445.361	290.75
445.582	212.75
445.803	199.75
446.024	201.75
446.245	205.75
446.466	214.75
446.687	171.75
446.908	191.75
447.129	202.75
447.35	181.75
447.571	189.75
447.792	183.75
448.013	188.75
448.234	196.75
448.455	171.75
448.675	171.75
448.896	179.75
449.117	185.75
449.338	181.75
449.559	194.75
449.779	177.75
450	179.75
450.221	183.75
450.442	170.75
450.662	194.75
450.883	193.75
451.104	170.75
451.324	166.75
451.545	179.75
451.766	165.75
451.986	165.75
452.207	180.75
452.428	180.75
452.648	171.75
452.869	185.75
453.089	166.75
453.31	165.75
453.53	159.75
453.751	164.75
453.971	162.75
454.192	148.75
454.412	171.75
454.633	173.75
454.853	168.75
455.073	178.75
455.294	165.75
455.514	180.75
455.734	169.75
455.955	183.75
456.175	162.75
456.395	160.75
456.616	150.75
456.836	162.75
457.056	158.75
457.276	149.75
457.497	170.75
457.717	162.75
457.937	155.75
458.157	168.75
458.377	168.75
458.598	150.75
458.818	161.75
459.038	157.75
459.258	166.75
459.478	168.75
459.698	171.75
459.918	169.75
460.138	195.75
460.358	203.75
460.578	182.75
460.798	201.75
461.018	205.75
461.238	189.75
461.458	218.75
461.678	199.75
461.898	208.75
462.118	208.75
462.338	201.75
462.558	225.75
462.777	200.75
462.997	228.75
463.217	242.75
463.437	235.75
463.657	206.75
463.876	203.75
464.096	205.75
464.316	210.75
464.536	217.75
464.755	200.75
464.975	187.75
465.195	201.75
465.414	194.75
465.634	193.75
465.854	182.75
466.073	189.75
466.293	189.75
466.512	193.75
466.732	205.75
466.951	202.75
467.171	189.75
467.391	188.75
467.61	173.75
467.829	176.75
468.049	196.75
468.268	159.75
468.488	173.75
468.707	175.75
468.927	181.75
469.146	197.75
469.365	202.75
469.585	177.75
469.804	184.75
470.023	206.75
470.243	180.75
470.462	191.75
470.681	209.75
470.901	180.75
471.12	181.75
471.339	200.75
471.558	203.75
471.777	202.75
471.997	185.75
472.216	182.75
472.435	175.75
472.654	172.75
472.873	186.75
473.092	187.75
473.311	181.75
473.53	152.75
473.749	162.75
473.968	198.75
474.187	176.75
474.406	172.75
474.625	178.75
474.844	166.75
475.063	162.75
475.282	179.75
475.501	163.75
475.72	183.75
475.939	168.75
476.158	168.75
476.377	186.75
476.596	176.75
476.814	178.75
477.033	168.75
477.252	193.75
477.471	182.75
477.69	210.75
477.908	206.75
478.127	207.75
478.346	196.75
478.564	192.75
478.783	211.75
479.002	204.75
479.22	221.75
479.439	205.75
479.658	198.75
479.876	172.75
480.095	171.75
480.313	188.75
480.532	202.75
480.751	183.75
480.969	164.75
481.188	192.75
481.406	150.75
481.624	160.75
481.843	177.75
482.061	172.75
482.28	182.75
482.498	191.75
482.717	170.75
482.935	170.75
483.153	188.75
483.372	199.75
483.59	211.75
483.808	194.75
484.027	183.75
484.245	186.75
484.463	198.75
484.681	218.75
484.9	197.75
485.118	207.75
485.336	192.75
485.554	187.75
485.772	190.75
485.99	185.75
486.209	193.75
486.427	197.75
486.645	200.75
486.863	189.75
487.081	202.75
487.299	200.75
487.517	213.75
487.735	225.75
487.953	232.75
488.171	232.75
488.389	218.75
488.607	203.75
488.825	197.75
489.043	197.75
489.261	202.75
489.479	196.75
489.696	209.75
489.914	204.75
490.132	212.75
490.35	226.75
490.568	196.75
490.786	218.75
491.003	210.75
491.221	219.75
491.439	216.75
491.657	230.75
491.874	251.75
492.092	245.75
492.31	267.75
492.527	233.75
492.745	250.75
492.963	236.75
493.18	231.75
493.398	237.75
493.615	232.75
493.833	200.75
494.05	213.75
494.268	227.75
494.485	221.75
494.703	230.75
494.92	221.75
495.138	220.75
495.355	232.75
495.573	225.75
495.79	220.75
496.008	243.75
496.225	250.75
496.442	229.75
496.66	237.75
496.877	230.75
497.094	221.75
497.312	234.75
497.529	224.75
497.746	230.75
497.963	211.75
498.181	221.75
498.398	260.75
498.615	248.75
498.832	259.75
499.049	255.75
499.267	275.75
499.484	293.75
499.701	321.75
499.918	325.75
500.135	388.75
500.352	411.75
500.569	434.75
500.786	412.75
501.003	390.75
501.22	353.75
501.437	320.75
501.654	280.75
501.871	290.75
502.088	281.75
502.305	274.75
502.522	252.75
502.739	249.75
502.956	236.75
503.172	233.75
503.389	222.75
503.606	204.75
503.823	205.75
504.04	216.75
504.256	217.75
504.473	209.75
