Data from SampD_HRD10591_00090.txt Node
Date: Mon Jan 19 11:50:46 EST 2026
User: Yrep
Spectrometer: HR+D1059
Trigger mode: 0
Integration Time (sec): 3.443000E-1
Scans to average: 1
Electric dark correction enabled: true
Nonlinearity correction enabled: false
Boxcar width: 0
XAxis mode: Wavelengths
Number of Pixels in Spectrum: 2048
>>>>>Begin Spectral Data<<<<<
223.165	-16.94
223.4	-16.94
223.635	-16.94
223.869	-17.94
224.104	-21.94
224.338	-9.94
224.573	-28.94
224.808	-18.94
225.042	-5.94
225.277	-14.94
225.511	-0.94
225.746	19.06
225.98	1.06
226.215	1.06
226.449	24.06
226.683	23.06
226.918	36.06
227.152	32.06
227.387	24.06
227.621	41.06
227.856	53.06
228.09	44.06
228.324	45.06
228.559	68.06
228.793	55.06
229.027	67.06
229.262	65.06
229.496	76.06
229.73	72.06
229.964	74.06
230.199	76.06
230.433	82.06
230.667	84.06
230.901	74.06
231.136	74.06
231.37	70.06
231.604	82.06
231.838	85.06
232.072	83.06
232.306	86.06
232.541	82.06
232.775	86.06
233.009	86.06
233.243	95.06
233.477	85.06
233.711	88.06
233.945	85.06
234.179	85.06
234.413	84.06
234.647	73.06
234.881	83.06
235.115	86.06
235.349	70.06
235.583	79.06
235.817	73.06
236.051	74.06
236.285	74.06
236.519	80.06
236.753	72.06
236.987	85.06
237.221	68.06
237.455	86.06
237.689	87.06
237.922	83.06
238.156	62.06
238.39	70.06
238.624	83.06
238.858	81.06
239.091	80.06
239.325	80.06
239.559	72.06
239.793	83.06
240.027	93.06
240.26	76.06
240.494	77.06
240.728	69.06
240.961	83.06
241.195	72.06
241.429	76.06
241.662	75.06
241.896	64.06
242.13	83.06
242.363	86.06
242.597	80.06
242.83	79.06
243.064	79.06
243.298	68.06
243.531	73.06
243.765	86.06
243.998	73.06
244.232	90.06
244.465	83.06
244.699	81.06
244.932	84.06
245.166	70.06
245.399	85.06
245.633	93.06
245.866	79.06
246.099	80.06
246.333	71.06
246.566	73.06
246.8	70.06
247.033	81.06
247.266	81.06
247.5	61.06
247.733	77.06
247.966	83.06
248.2	71.06
248.433	77.06
248.666	77.06
248.899	83.06
249.133	74.06
249.366	84.06
249.599	83.06
249.832	85.06
250.066	98.06
250.299	92.06
250.532	90.06
250.765	73.06
250.998	81.06
251.231	82.06
251.465	88.06
251.698	85.06
251.931	89.06
252.164	88.06
252.397	84.06
252.63	83.06
252.863	88.06
253.096	92.06
253.329	92.06
253.562	86.06
253.795	90.06
254.028	91.06
254.261	74.06
254.494	87.06
254.727	90.06
254.96	89.06
255.193	96.06
255.426	87.06
255.659	89.06
255.892	88.06
256.124	82.06
256.357	87.06
256.59	92.06
256.823	90.06
257.056	77.06
257.289	75.06
257.521	94.06
257.754	91.06
257.987	82.06
258.22	103.06
258.452	87.06
258.685	86.06
258.918	100.06
259.151	74.06
259.383	87.06
259.616	82.06
259.849	87.06
260.081	83.06
260.314	101.06
260.547	81.06
260.779	94.06
261.012	92.06
261.244	81.06
261.477	100.06
261.71	106.06
261.942	89.06
262.175	85.06
262.407	88.06
262.64	82.06
262.872	76.06
263.105	92.06
263.337	86.06
263.57	79.06
263.802	97.06
264.035	93.06
264.267	94.06
264.499	97.06
264.732	111.06
264.964	88.06
265.197	97.06
265.429	90.06
265.661	90.06
265.894	93.06
266.126	88.06
266.358	75.06
266.591	102.06
266.823	103.06
267.055	69.06
267.287	98.06
267.52	91.06
267.752	91.06
267.984	94.06
268.216	91.06
268.448	83.06
268.681	100.06
268.913	100.06
269.145	86.06
269.377	71.06
269.609	95.06
269.841	92.06
270.073	98.06
270.306	88.06
270.538	89.06
270.77	85.06
271.002	102.06
271.234	100.06
271.466	90.06
271.698	94.06
271.93	86.06
272.162	97.06
272.394	109.06
272.626	86.06
272.858	91.06
273.09	83.06
273.322	86.06
273.553	87.06
273.785	82.06
274.017	88.06
274.249	105.06
274.481	82.06
274.713	84.06
274.945	95.06
275.176	98.06
275.408	96.06
275.64	92.06
275.872	75.06
276.104	97.06
276.335	87.06
276.567	91.06
276.799	95.06
277.031	101.06
277.262	96.06
277.494	105.06
277.726	110.06
277.957	87.06
278.189	90.06
278.421	98.06
278.652	88.06
278.884	101.06
279.115	106.06
279.347	92.06
279.579	95.06
279.81	94.06
280.042	99.06
280.273	99.06
280.505	97.06
280.736	105.06
280.968	109.06
281.199	96.06
281.431	100.06
281.662	103.06
281.894	105.06
282.125	104.06
282.356	92.06
282.588	101.06
282.819	109.06
283.051	99.06
283.282	83.06
283.513	111.06
283.745	103.06
283.976	100.06
284.207	99.06
284.439	98.06
284.67	111.06
284.901	109.06
285.132	106.06
285.364	80.06
285.595	98.06
285.826	97.06
286.057	94.06
286.288	101.06
286.52	93.06
286.751	87.06
286.982	102.06
287.213	102.06
287.444	107.06
287.675	105.06
287.906	91.06
288.138	80.06
288.369	106.06
288.6	94.06
288.831	96.06
289.062	113.06
289.293	107.06
289.524	102.06
289.755	103.06
289.986	108.06
290.217	94.06
290.448	115.06
290.679	112.06
290.91	104.06
291.141	98.06
291.371	108.06
291.602	115.06
291.833	87.06
292.064	90.06
292.295	99.06
292.526	95.06
292.757	109.06
292.987	100.06
293.218	97.06
293.449	101.06
293.68	90.06
293.91	91.06
294.141	103.06
294.372	108.06
294.603	99.06
294.833	116.06
295.064	101.06
295.295	105.06
295.525	89.06
295.756	113.06
295.987	114.06
296.217	101.06
296.448	104.06
296.679	103.06
296.909	109.06
297.14	116.06
297.37	99.06
297.601	87.06
297.831	89.06
298.062	107.06
298.292	101.06
298.523	115.06
298.753	98.06
298.984	100.06
299.214	99.06
299.445	100.06
299.675	98.06
299.905	105.06
300.136	97.06
300.366	115.06
300.597	99.06
300.827	105.06
301.057	91.06
301.288	103.06
301.518	99.06
301.748	104.06
301.979	120.06
302.209	115.06
302.439	106.06
302.669	112.06
302.9	99.06
303.13	113.06
303.36	114.06
303.59	106.06
303.82	100.06
304.051	98.06
304.281	111.06
304.511	107.06
304.741	116.06
304.971	103.06
305.201	101.06
305.431	95.06
305.661	114.06
305.891	98.06
306.121	112.06
306.352	101.06
306.582	107.06
306.812	100.06
307.042	94.06
307.272	106.06
307.502	99.06
307.731	96.06
307.961	107.06
308.191	108.06
308.421	107.06
308.651	98.06
308.881	105.06
309.111	105.06
309.341	100.06
309.571	108.06
309.8	96.06
310.03	103.06
310.26	101.06
310.49	92.06
310.72	97.06
310.949	91.06
311.179	110.06
311.409	102.06
311.639	95.06
311.868	93.06
312.098	98.06
312.328	101.06
312.557	114.06
312.787	103.06
313.017	113.06
313.246	100.06
313.476	105.06
313.706	95.06
313.935	102.06
314.165	91.06
314.394	96.06
314.624	103.06
314.853	120.06
315.083	104.06
315.312	105.06
315.542	100.06
315.771	104.06
316.001	101.06
316.23	107.06
316.46	97.06
316.689	105.06
316.919	101.06
317.148	104.06
317.377	107.06
317.607	106.06
317.836	101.06
318.065	94.06
318.295	101.06
318.524	92.06
318.753	91.06
318.983	110.06
319.212	108.06
319.441	100.06
319.67	106.06
319.9	118.06
320.129	80.06
320.358	108.06
320.587	120.06
320.816	114.06
321.046	103.06
321.275	105.06
321.504	99.06
321.733	104.06
321.962	107.06
322.191	113.06
322.42	96.06
322.649	101.06
322.878	99.06
323.108	106.06
323.337	100.06
323.566	87.06
323.795	95.06
324.024	110.06
324.253	112.06
324.482	101.06
324.71	97.06
324.939	112.06
325.168	99.06
325.397	98.06
325.626	101.06
325.855	98.06
326.084	110.06
326.313	110.06
326.542	106.06
326.77	105.06
326.999	101.06
327.228	115.06
327.457	115.06
327.686	100.06
327.914	122.06
328.143	109.06
328.372	94.06
328.6	97.06
328.829	99.06
329.058	119.06
329.287	102.06
329.515	103.06
329.744	109.06
329.972	87.06
330.201	114.06
330.43	117.06
330.658	113.06
330.887	110.06
331.115	111.06
331.344	103.06
331.572	113.06
331.801	107.06
332.03	116.06
332.258	104.06
332.486	99.06
332.715	94.06
332.943	118.06
333.172	105.06
333.4	109.06
333.629	126.06
333.857	107.06
334.085	116.06
334.314	113.06
334.542	123.06
334.771	106.06
334.999	109.06
335.227	111.06
335.455	109.06
335.684	102.06
335.912	118.06
336.14	117.06
336.369	114.06
336.597	112.06
336.825	110.06
337.053	109.06
337.281	108.06
337.51	106.06
337.738	112.06
337.966	93.06
338.194	99.06
338.422	124.06
338.65	113.06
338.878	118.06
339.106	104.06
339.334	123.06
339.562	106.06
339.79	109.06
340.018	99.06
340.246	95.06
340.474	108.06
340.702	124.06
340.93	108.06
341.158	115.06
341.386	124.06
341.614	116.06
341.842	113.06
342.07	103.06
342.298	104.06
342.526	114.06
342.754	120.06
342.981	100.06
343.209	105.06
343.437	136.06
343.665	107.06
343.893	124.06
344.12	124.06
344.348	120.06
344.576	97.06
344.804	110.06
345.031	98.06
345.259	100.06
345.487	116.06
345.714	109.06
345.942	97.06
346.17	97.06
346.397	94.06
346.625	96.06
346.853	115.06
347.08	95.06
347.308	114.06
347.535	97.06
347.763	112.06
347.99	114.06
348.218	121.06
348.445	95.06
348.673	107.06
348.9	106.06
349.128	117.06
349.355	109.06
349.583	100.06
349.81	118.06
350.037	101.06
350.265	120.06
350.492	111.06
350.72	92.06
350.947	94.06
351.174	119.06
351.402	113.06
351.629	110.06
351.856	104.06
352.083	104.06
352.311	108.06
352.538	99.06
352.765	109.06
352.992	117.06
353.22	105.06
353.447	103.06
353.674	107.06
353.901	114.06
354.128	119.06
354.355	107.06
354.583	99.06
354.81	104.06
355.037	104.06
355.264	96.06
355.491	103.06
355.718	108.06
355.945	114.06
356.172	108.06
356.399	108.06
356.626	112.06
356.853	99.06
357.08	114.06
357.307	97.06
357.534	94.06
357.761	107.06
357.988	114.06
358.215	105.06
358.441	101.06
358.668	100.06
358.895	111.06
359.122	112.06
359.349	118.06
359.576	107.06
359.802	108.06
360.029	93.06
360.256	107.06
360.483	112.06
360.709	104.06
360.936	112.06
361.163	103.06
361.39	111.06
361.616	115.06
361.843	111.06
362.07	108.06
362.296	104.06
362.523	101.06
362.749	107.06
362.976	115.06
363.203	137.06
363.429	106.06
363.656	111.06
363.882	103.06
364.109	113.06
364.335	114.06
364.562	115.06
364.788	108.06
365.015	109.06
365.241	107.06
365.468	113.06
365.694	109.06
365.92	99.06
366.147	97.06
366.373	115.06
366.599	119.06
366.826	118.06
367.052	112.06
367.278	116.06
367.505	113.06
367.731	125.06
367.957	105.06
368.184	103.06
368.41	102.06
368.636	107.06
368.862	109.06
369.089	106.06
369.315	115.06
369.541	112.06
369.767	109.06
369.993	108.06
370.219	106.06
370.445	104.06
370.672	98.06
370.898	107.06
371.124	111.06
371.35	110.06
371.576	104.06
371.802	118.06
372.028	115.06
372.254	117.06
372.48	117.06
372.706	101.06
372.932	98.06
373.158	113.06
373.384	118.06
373.61	113.06
373.835	105.06
374.061	102.06
374.287	108.06
374.513	109.06
374.739	106.06
374.965	116.06
375.191	110.06
375.416	106.06
375.642	117.06
375.868	115.06
376.094	111.06
376.319	111.06
376.545	112.06
376.771	112.06
376.997	113.06
377.222	108.06
377.448	111.06
377.674	100.06
377.899	107.06
378.125	114.06
378.35	109.06
378.576	101.06
378.802	115.06
379.027	112.06
379.253	116.06
379.478	112.06
379.704	106.06
379.929	89.06
380.155	114.06
380.38	115.06
380.606	112.06
380.831	120.06
381.057	130.06
381.282	104.06
381.507	116.06
381.733	115.06
381.958	109.06
382.184	109.06
382.409	116.06
382.634	128.06
382.86	131.06
383.085	121.06
383.31	111.06
383.535	129.06
383.761	121.06
383.986	117.06
384.211	123.06
384.436	129.06
384.662	123.06
384.887	113.06
385.112	116.06
385.337	109.06
385.562	133.06
385.787	116.06
386.013	129.06
386.238	117.06
386.463	118.06
386.688	135.06
386.913	125.06
387.138	119.06
387.363	108.06
387.588	137.06
387.813	114.06
388.038	122.06
388.263	125.06
388.488	116.06
388.713	111.06
388.938	112.06
389.163	114.06
389.387	106.06
389.612	99.06
389.837	122.06
390.062	125.06
390.287	115.06
390.512	109.06
390.736	106.06
390.961	121.06
391.186	119.06
391.411	115.06
391.636	131.06
391.86	103.06
392.085	137.06
392.31	120.06
392.534	115.06
392.759	118.06
392.984	132.06
393.208	122.06
393.433	116.06
393.658	131.06
393.882	122.06
394.107	125.06
394.331	121.06
394.556	129.06
394.78	132.06
395.005	116.06
395.229	120.06
395.454	120.06
395.678	115.06
395.903	121.06
396.127	140.06
396.352	120.06
396.576	136.06
396.801	116.06
397.025	116.06
397.249	125.06
397.474	132.06
397.698	125.06
397.922	122.06
398.147	123.06
398.371	124.06
398.595	127.06
398.82	140.06
399.044	153.06
399.268	139.06
399.492	161.06
399.717	160.06
399.941	149.06
400.165	160.06
400.389	139.06
400.613	124.06
400.837	126.06
401.062	121.06
401.286	130.06
401.51	136.06
401.734	135.06
401.958	129.06
402.182	119.06
402.406	127.06
402.63	133.06
402.854	126.06
403.078	156.06
403.302	140.06
403.526	144.06
403.75	123.06
403.974	129.06
404.198	144.06
404.422	147.06
404.645	158.06
404.869	136.06
405.093	150.06
405.317	131.06
405.541	147.06
405.765	133.06
405.988	133.06
406.212	151.06
406.436	138.06
406.66	143.06
406.883	137.06
407.107	128.06
407.331	148.06
407.555	154.06
407.778	144.06
408.002	147.06
408.226	128.06
408.449	159.06
408.673	136.06
408.896	135.06
409.12	134.06
409.344	133.06
409.567	126.06
409.791	136.06
410.014	153.06
410.238	132.06
410.461	135.06
410.685	138.06
410.908	135.06
411.132	145.06
411.355	123.06
411.578	136.06
411.802	127.06
412.025	138.06
412.249	124.06
412.472	146.06
412.695	124.06
412.919	129.06
413.142	125.06
413.365	111.06
413.589	136.06
413.812	134.06
414.035	146.06
414.258	145.06
414.482	126.06
414.705	138.06
414.928	144.06
415.151	136.06
415.374	137.06
415.597	138.06
415.821	141.06
416.044	134.06
416.267	119.06
416.49	131.06
416.713	149.06
416.936	139.06
417.159	137.06
417.382	141.06
417.605	134.06
417.828	147.06
418.051	127.06
418.274	130.06
418.497	148.06
418.72	137.06
418.943	134.06
419.166	148.06
419.389	145.06
419.611	138.06
419.834	136.06
420.057	147.06
420.28	137.06
420.503	130.06
420.726	124.06
420.948	134.06
421.171	139.06
421.394	131.06
421.617	134.06
421.839	139.06
422.062	141.06
422.285	133.06
422.507	132.06
422.73	144.06
422.953	129.06
423.175	138.06
423.398	129.06
423.621	145.06
423.843	148.06
424.066	137.06
424.288	142.06
424.511	146.06
424.733	136.06
424.956	148.06
425.178	131.06
425.401	134.06
425.623	134.06
425.846	143.06
426.068	127.06
426.291	123.06
426.513	114.06
426.735	118.06
426.958	136.06
427.18	127.06
427.402	133.06
427.625	130.06
427.847	140.06
428.069	127.06
428.292	129.06
428.514	127.06
428.736	128.06
428.958	111.06
429.181	119.06
429.403	125.06
429.625	143.06
429.847	143.06
430.069	136.06
430.292	121.06
430.514	125.06
430.736	128.06
430.958	127.06
431.18	127.06
431.402	135.06
431.624	136.06
431.846	128.06
432.068	131.06
432.29	136.06
432.512	128.06
432.734	120.06
432.956	135.06
433.178	129.06
433.4	130.06
433.622	125.06
433.844	156.06
434.066	148.06
434.287	130.06
434.509	108.06
434.731	122.06
434.953	137.06
435.175	134.06
435.397	155.06
435.618	133.06
435.84	128.06
436.062	124.06
436.284	133.06
436.505	133.06
436.727	136.06
436.949	143.06
437.17	124.06
437.392	131.06
437.614	129.06
437.835	126.06
438.057	124.06
438.278	114.06
438.5	117.06
438.721	123.06
438.943	129.06
439.165	130.06
439.386	132.06
439.608	147.06
439.829	132.06
440.05	129.06
440.272	120.06
440.493	121.06
440.715	123.06
440.936	143.06
441.158	159.06
441.379	133.06
441.6	149.06
441.822	141.06
442.043	143.06
442.264	134.06
442.486	141.06
442.707	140.06
442.928	139.06
443.149	131.06
443.371	137.06
443.592	141.06
443.813	150.06
444.034	127.06
444.255	149.06
444.476	127.06
444.698	161.06
444.919	146.06
445.14	402.06
445.361	262.06
445.582	146.06
445.803	136.06
446.024	134.06
446.245	150.06
446.466	139.06
446.687	119.06
446.908	124.06
447.129	130.06
447.35	113.06
447.571	139.06
447.792	125.06
448.013	133.06
448.234	132.06
448.455	122.06
448.675	147.06
448.896	132.06
449.117	132.06
449.338	122.06
449.559	134.06
449.779	127.06
450	144.06
450.221	134.06
450.442	120.06
450.662	124.06
450.883	132.06
451.104	132.06
451.324	132.06
451.545	124.06
451.766	136.06
451.986	118.06
452.207	123.06
452.428	113.06
452.648	125.06
452.869	108.06
453.089	118.06
453.31	113.06
453.53	130.06
453.751	125.06
453.971	115.06
454.192	126.06
454.412	121.06
454.633	132.06
454.853	116.06
455.073	118.06
455.294	116.06
455.514	120.06
455.734	103.06
455.955	105.06
456.175	109.06
456.395	102.06
456.616	122.06
456.836	121.06
457.056	113.06
457.276	125.06
457.497	115.06
457.717	123.06
457.937	127.06
458.157	119.06
458.377	133.06
458.598	121.06
458.818	114.06
459.038	128.06
459.258	132.06
459.478	122.06
459.698	115.06
459.918	133.06
460.138	120.06
460.358	116.06
460.578	124.06
460.798	123.06
461.018	146.06
461.238	127.06
461.458	129.06
461.678	131.06
461.898	132.06
462.118	130.06
462.338	143.06
462.558	151.06
462.777	145.06
462.997	150.06
463.217	145.06
463.437	159.06
463.657	148.06
463.876	146.06
464.096	148.06
464.316	131.06
464.536	135.06
464.755	136.06
464.975	143.06
465.195	142.06
465.414	144.06
465.634	123.06
465.854	133.06
466.073	119.06
466.293	126.06
466.512	134.06
466.732	133.06
466.951	136.06
467.171	125.06
467.391	122.06
467.61	135.06
467.829	126.06
468.049	118.06
468.268	134.06
468.488	128.06
468.707	121.06
468.927	135.06
469.146	122.06
469.365	129.06
469.585	127.06
469.804	135.06
470.023	131.06
470.243	124.06
470.462	129.06
470.681	122.06
470.901	150.06
471.12	138.06
471.339	142.06
471.558	134.06
471.777	125.06
471.997	120.06
472.216	130.06
472.435	123.06
472.654	126.06
472.873	131.06
473.092	133.06
473.311	140.06
473.53	120.06
473.749	136.06
473.968	144.06
474.187	132.06
474.406	120.06
474.625	135.06
474.844	127.06
475.063	121.06
475.282	127.06
475.501	112.06
475.72	125.06
475.939	135.06
476.158	133.06
476.377	128.06
476.596	116.06
476.814	130.06
477.033	146.06
477.252	114.06
477.471	131.06
477.69	128.06
477.908	140.06
478.127	146.06
478.346	149.06
478.564	136.06
478.783	130.06
479.002	141.06
479.22	127.06
479.439	145.06
479.658	129.06
479.876	140.06
480.095	136.06
480.313	144.06
480.532	138.06
480.751	137.06
480.969	113.06
481.188	116.06
481.406	114.06
481.624	123.06
481.843	133.06
482.061	135.06
482.28	125.06
482.498	135.06
482.717	133.06
482.935	135.06
483.153	123.06
483.372	133.06
483.59	154.06
483.808	140.06
484.027	145.06
484.245	136.06
484.463	140.06
484.681	151.06
484.9	143.06
485.118	129.06
485.336	149.06
485.554	129.06
485.772	130.06
485.99	123.06
486.209	130.06
486.427	122.06
486.645	133.06
486.863	134.06
487.081	151.06
487.299	135.06
487.517	145.06
487.735	149.06
487.953	171.06
488.171	165.06
488.389	144.06
488.607	143.06
488.825	122.06
489.043	122.06
489.261	152.06
489.479	130.06
489.696	139.06
489.914	135.06
490.132	147.06
490.35	143.06
490.568	137.06
490.786	139.06
491.003	153.06
491.221	150.06
491.439	137.06
491.657	156.06
491.874	172.06
492.092	159.06
492.31	165.06
492.527	157.06
492.745	143.06
492.963	167.06
493.18	157.06
493.398	146.06
493.615	163.06
493.833	152.06
494.05	147.06
494.268	139.06
494.485	150.06
494.703	153.06
494.92	144.06
495.138	148.06
495.355	161.06
495.573	140.06
495.79	139.06
496.008	159.06
496.225	143.06
496.442	163.06
496.66	158.06
496.877	169.06
497.094	155.06
497.312	157.06
497.529	143.06
497.746	156.06
497.963	147.06
498.181	153.06
498.398	143.06
498.615	156.06
498.832	145.06
499.049	154.06
499.267	185.06
499.484	199.06
499.701	192.06
499.918	227.06
500.135	233.06
500.352	223.06
500.569	251.06
500.786	248.06
501.003	249.06
501.22	213.06
501.437	198.06
501.654	183.06
501.871	173.06
502.088	159.06
502.305	171.06
502.522	161.06
502.739	188.06
502.956	139.06
503.172	153.06
503.389	144.06
503.606	145.06
503.823	150.06
504.04	149.06
504.256	165.06
504.473	136.06
504.69	157.06
504.907	152.06
505.123	146.06
505.34	137.06
505.557	129.06
505.773	130.06
505.99	135.06
506.207	134.06
506.423	122.06
506.64	139.06
506.856	152.06
