Data from SampD_HRD10591_00001.txt Node
Date: Mon Jan 19 11:50:15 EST 2026
User: Yrep
Spectrometer: HR+D1059
Trigger mode: 0
Integration Time (sec): 3.443000E-1
Scans to average: 1
Electric dark correction enabled: true
Nonlinearity correction enabled: false
Boxcar width: 0
XAxis mode: Wavelengths
Number of Pixels in Spectrum: 2048
>>>>>Begin Spectral Data<<<<<
223.165	-22.06
223.4	-22.06
223.635	-22.06
223.869	-30.06
224.104	-26.06
224.338	-3.06
224.573	-24.06
224.808	-8.06
225.042	-2.06
225.277	-5.06
225.511	-10.06
225.746	6.94
225.98	5.94
226.215	18.94
226.449	17.94
226.683	29.94
226.918	28.94
227.152	21.94
227.387	29.94
227.621	41.94
227.856	39.94
228.09	53.94
228.324	52.94
228.559	61.94
228.793	59.94
229.027	62.94
229.262	62.94
229.496	78.94
229.73	78.94
229.964	84.94
230.199	90.94
230.433	75.94
230.667	83.94
230.901	78.94
231.136	79.94
231.37	91.94
231.604	92.94
231.838	93.94
232.072	75.94
232.306	76.94
232.541	79.94
232.775	85.94
233.009	95.94
233.243	84.94
233.477	95.94
233.711	92.94
233.945	87.94
234.179	77.94
234.413	74.94
234.647	93.94
234.881	82.94
235.115	76.94
235.349	78.94
235.583	83.94
235.817	86.94
236.051	81.94
236.285	77.94
236.519	85.94
236.753	84.94
236.987	89.94
237.221	87.94
237.455	78.94
237.689	85.94
237.922	102.94
238.156	77.94
238.39	67.94
238.624	73.94
238.858	75.94
239.091	75.94
239.325	92.94
239.559	79.94
239.793	74.94
240.027	94.94
240.26	89.94
240.494	90.94
240.728	99.94
240.961	77.94
241.195	78.94
241.429	87.94
241.662	97.94
241.896	87.94
242.13	88.94
242.363	71.94
242.597	71.94
242.83	84.94
243.064	92.94
243.298	95.94
243.531	89.94
243.765	91.94
243.998	94.94
244.232	94.94
244.465	89.94
244.699	76.94
244.932	83.94
245.166	107.94
245.399	94.94
245.633	90.94
245.866	84.94
246.099	87.94
246.333	89.94
246.566	104.94
246.8	86.94
247.033	86.94
247.266	82.94
247.5	83.94
247.733	90.94
247.966	86.94
248.2	87.94
248.433	92.94
248.666	93.94
248.899	84.94
249.133	86.94
249.366	107.94
249.599	91.94
249.832	79.94
250.066	97.94
250.299	92.94
250.532	95.94
250.765	90.94
250.998	92.94
251.231	88.94
251.465	88.94
251.698	108.94
251.931	100.94
252.164	80.94
252.397	94.94
252.63	104.94
252.863	105.94
253.096	103.94
253.329	85.94
253.562	94.94
253.795	103.94
254.028	95.94
254.261	91.94
254.494	103.94
254.727	106.94
254.96	93.94
255.193	99.94
255.426	89.94
255.659	93.94
255.892	107.94
256.124	99.94
256.357	103.94
256.59	90.94
256.823	71.94
257.056	97.94
257.289	105.94
257.521	106.94
257.754	108.94
257.987	95.94
258.22	96.94
258.452	105.94
258.685	90.94
258.918	102.94
259.151	106.94
259.383	97.94
259.616	81.94
259.849	109.94
260.081	91.94
260.314	107.94
260.547	104.94
260.779	97.94
261.012	91.94
261.244	103.94
261.477	114.94
261.71	96.94
261.942	88.94
262.175	96.94
262.407	99.94
262.64	89.94
262.872	92.94
263.105	94.94
263.337	99.94
263.57	99.94
263.802	105.94
264.035	98.94
264.267	96.94
264.499	97.94
264.732	118.94
264.964	100.94
265.197	100.94
265.429	93.94
265.661	99.94
265.894	97.94
266.126	105.94
266.358	99.94
266.591	90.94
266.823	104.94
267.055	95.94
267.287	117.94
267.52	106.94
267.752	97.94
267.984	103.94
268.216	118.94
268.448	119.94
268.681	109.94
268.913	106.94
269.145	103.94
269.377	111.94
269.609	121.94
269.841	106.94
270.073	93.94
270.306	100.94
270.538	115.94
270.77	92.94
271.002	103.94
271.234	106.94
271.466	105.94
271.698	100.94
271.93	103.94
272.162	107.94
272.394	106.94
272.626	101.94
272.858	99.94
273.09	111.94
273.322	108.94
273.553	99.94
273.785	113.94
274.017	107.94
274.249	111.94
274.481	110.94
274.713	107.94
274.945	106.94
275.176	110.94
275.408	103.94
275.64	117.94
275.872	98.94
276.104	111.94
276.335	110.94
276.567	102.94
276.799	111.94
277.031	96.94
277.262	101.94
277.494	115.94
277.726	106.94
277.957	113.94
278.189	102.94
278.421	111.94
278.652	112.94
278.884	117.94
279.115	109.94
279.347	106.94
279.579	104.94
279.81	110.94
280.042	104.94
280.273	120.94
280.505	108.94
280.736	123.94
280.968	125.94
281.199	123.94
281.431	115.94
281.662	118.94
281.894	107.94
282.125	114.94
282.356	123.94
282.588	122.94
282.819	111.94
283.051	123.94
283.282	110.94
283.513	119.94
283.745	123.94
283.976	103.94
284.207	109.94
284.439	118.94
284.67	133.94
284.901	115.94
285.132	101.94
285.364	118.94
285.595	124.94
285.826	108.94
286.057	95.94
286.288	113.94
286.52	106.94
286.751	101.94
286.982	124.94
287.213	115.94
287.444	115.94
287.675	119.94
287.906	126.94
288.138	120.94
288.369	106.94
288.6	117.94
288.831	106.94
289.062	112.94
289.293	106.94
289.524	117.94
289.755	120.94
289.986	123.94
290.217	118.94
290.448	105.94
290.679	115.94
290.91	127.94
291.141	128.94
291.371	133.94
291.602	121.94
291.833	117.94
292.064	119.94
292.295	130.94
292.526	109.94
292.757	125.94
292.987	111.94
293.218	109.94
293.449	115.94
293.68	110.94
293.91	123.94
294.141	122.94
294.372	102.94
294.603	110.94
294.833	103.94
295.064	118.94
295.295	120.94
295.525	122.94
295.756	135.94
295.987	130.94
296.217	121.94
296.448	111.94
296.679	110.94
296.909	121.94
297.14	111.94
297.37	130.94
297.601	122.94
297.831	117.94
298.062	118.94
298.292	109.94
298.523	117.94
298.753	125.94
298.984	131.94
299.214	128.94
299.445	125.94
299.675	125.94
299.905	127.94
300.136	118.94
300.366	118.94
300.597	121.94
300.827	122.94
301.057	136.94
301.288	127.94
301.518	118.94
301.748	136.94
301.979	150.94
302.209	125.94
302.439	124.94
302.669	125.94
302.9	113.94
303.13	136.94
303.36	116.94
303.59	125.94
303.82	126.94
304.051	125.94
304.281	130.94
304.511	130.94
304.741	124.94
304.971	125.94
305.201	125.94
305.431	135.94
305.661	138.94
305.891	117.94
306.121	120.94
306.352	107.94
306.582	120.94
306.812	119.94
307.042	126.94
307.272	132.94
307.502	123.94
307.731	133.94
307.961	121.94
308.191	127.94
308.421	105.94
308.651	121.94
308.881	125.94
309.111	137.94
309.341	116.94
309.571	129.94
309.8	107.94
310.03	127.94
310.26	110.94
310.49	122.94
310.72	137.94
310.949	139.94
311.179	117.94
311.409	115.94
311.639	124.94
311.868	112.94
312.098	118.94
312.328	126.94
312.557	125.94
312.787	123.94
313.017	142.94
313.246	145.94
313.476	126.94
313.706	120.94
313.935	115.94
314.165	134.94
314.394	133.94
314.624	130.94
314.853	129.94
315.083	137.94
315.312	129.94
315.542	137.94
315.771	125.94
316.001	137.94
316.23	134.94
316.46	129.94
316.689	120.94
316.919	116.94
317.148	134.94
317.377	138.94
317.607	131.94
317.836	138.94
318.065	121.94
318.295	120.94
318.524	131.94
318.753	131.94
318.983	130.94
319.212	119.94
319.441	123.94
319.67	124.94
319.9	126.94
320.129	133.94
320.358	133.94
320.587	126.94
320.816	127.94
321.046	131.94
321.275	135.94
321.504	142.94
321.733	130.94
321.962	125.94
322.191	120.94
322.42	140.94
322.649	135.94
322.878	131.94
323.108	134.94
323.337	125.94
323.566	117.94
323.795	132.94
324.024	145.94
324.253	128.94
324.482	125.94
324.71	137.94
324.939	131.94
325.168	126.94
325.397	128.94
325.626	115.94
325.855	141.94
326.084	143.94
326.313	145.94
326.542	127.94
326.77	141.94
326.999	139.94
327.228	129.94
327.457	126.94
327.686	140.94
327.914	138.94
328.143	152.94
328.372	133.94
328.6	136.94
328.829	135.94
329.058	125.94
329.287	133.94
329.515	127.94
329.744	141.94
329.972	133.94
330.201	140.94
330.43	131.94
330.658	131.94
330.887	138.94
331.115	126.94
331.344	140.94
331.572	131.94
331.801	137.94
332.03	137.94
332.258	147.94
332.486	138.94
332.715	135.94
332.943	145.94
333.172	149.94
333.4	145.94
333.629	158.94
333.857	165.94
334.085	169.94
334.314	146.94
334.542	143.94
334.771	170.94
334.999	151.94
335.227	142.94
335.455	147.94
335.684	159.94
335.912	151.94
336.14	160.94
336.369	142.94
336.597	156.94
336.825	149.94
337.053	126.94
337.281	136.94
337.51	137.94
337.738	155.94
337.966	135.94
338.194	138.94
338.422	143.94
338.65	131.94
338.878	131.94
339.106	124.94
339.334	141.94
339.562	131.94
339.79	122.94
340.018	123.94
340.246	118.94
340.474	142.94
340.702	131.94
340.93	127.94
341.158	129.94
341.386	142.94
341.614	130.94
341.842	138.94
342.07	129.94
342.298	137.94
342.526	155.94
342.754	150.94
342.981	130.94
343.209	130.94
343.437	162.94
343.665	147.94
343.893	155.94
344.12	168.94
344.348	151.94
344.576	150.94
344.804	164.94
345.031	130.94
345.259	136.94
345.487	151.94
345.714	142.94
345.942	124.94
346.17	142.94
346.397	148.94
346.625	132.94
346.853	146.94
347.08	127.94
347.308	142.94
347.535	139.94
347.763	131.94
347.99	151.94
348.218	136.94
348.445	126.94
348.673	127.94
348.9	135.94
349.128	138.94
349.355	129.94
349.583	129.94
349.81	128.94
350.037	149.94
350.265	121.94
350.492	124.94
350.72	148.94
350.947	136.94
351.174	137.94
351.402	115.94
351.629	129.94
351.856	125.94
352.083	131.94
352.311	141.94
352.538	132.94
352.765	141.94
352.992	144.94
353.22	133.94
353.447	161.94
353.674	145.94
353.901	151.94
354.128	119.94
354.355	136.94
354.583	136.94
354.81	119.94
355.037	142.94
355.264	132.94
355.491	124.94
355.718	140.94
355.945	129.94
356.172	121.94
356.399	136.94
356.626	124.94
356.853	113.94
357.08	135.94
357.307	140.94
357.534	126.94
357.761	120.94
357.988	161.94
358.215	126.94
358.441	123.94
358.668	125.94
358.895	137.94
359.122	143.94
359.349	127.94
359.576	112.94
359.802	121.94
360.029	147.94
360.256	149.94
360.483	140.94
360.709	133.94
360.936	137.94
361.163	149.94
361.39	121.94
361.616	127.94
361.843	143.94
362.07	132.94
362.296	141.94
362.523	138.94
362.749	126.94
362.976	131.94
363.203	144.94
363.429	139.94
363.656	138.94
363.882	128.94
364.109	127.94
364.335	127.94
364.562	142.94
364.788	130.94
365.015	133.94
365.241	134.94
365.468	131.94
365.694	134.94
365.92	136.94
366.147	138.94
366.373	137.94
366.599	145.94
366.826	134.94
367.052	129.94
367.278	128.94
367.505	132.94
367.731	147.94
367.957	132.94
368.184	130.94
368.41	137.94
368.636	135.94
368.862	147.94
369.089	149.94
369.315	130.94
369.541	135.94
369.767	155.94
369.993	145.94
370.219	136.94
370.445	147.94
370.672	138.94
370.898	138.94
371.124	142.94
371.35	147.94
371.576	152.94
371.802	124.94
372.028	146.94
372.254	146.94
372.48	136.94
372.706	136.94
372.932	150.94
373.158	143.94
373.384	158.94
373.61	167.94
373.835	156.94
374.061	141.94
374.287	140.94
374.513	140.94
374.739	162.94
374.965	152.94
375.191	141.94
375.416	162.94
375.642	150.94
375.868	162.94
376.094	153.94
376.319	153.94
376.545	157.94
376.771	145.94
376.997	147.94
377.222	145.94
377.448	146.94
377.674	147.94
377.899	153.94
378.125	138.94
378.35	160.94
378.576	152.94
378.802	139.94
379.027	162.94
379.253	151.94
379.478	141.94
379.704	148.94
379.929	154.94
380.155	135.94
380.38	138.94
380.606	149.94
380.831	157.94
381.057	174.94
381.282	149.94
381.507	153.94
381.733	150.94
381.958	149.94
382.184	150.94
382.409	138.94
382.634	147.94
382.86	154.94
383.085	165.94
383.31	147.94
383.535	157.94
383.761	153.94
383.986	148.94
384.211	159.94
384.436	147.94
384.662	168.94
384.887	163.94
385.112	170.94
385.337	163.94
385.562	167.94
385.787	151.94
386.013	173.94
386.238	165.94
386.463	170.94
386.688	188.94
386.913	171.94
387.138	163.94
387.363	161.94
387.588	175.94
387.813	174.94
388.038	175.94
388.263	175.94
388.488	170.94
388.713	169.94
388.938	159.94
389.163	166.94
389.387	168.94
389.612	154.94
389.837	167.94
390.062	187.94
390.287	170.94
390.512	179.94
390.736	168.94
390.961	152.94
391.186	170.94
391.411	159.94
391.636	177.94
391.86	171.94
392.085	181.94
392.31	173.94
392.534	181.94
392.759	162.94
392.984	165.94
393.208	179.94
393.433	171.94
393.658	165.94
393.882	180.94
394.107	173.94
394.331	173.94
394.556	165.94
394.78	191.94
395.005	182.94
395.229	189.94
395.454	194.94
395.678	183.94
395.903	173.94
396.127	189.94
396.352	181.94
396.576	159.94
396.801	170.94
397.025	176.94
397.249	176.94
397.474	177.94
397.698	182.94
397.922	176.94
398.147	180.94
398.371	181.94
398.595	196.94
398.82	181.94
399.044	190.94
399.268	233.94
399.492	233.94
399.717	259.94
399.941	248.94
400.165	219.94
400.389	215.94
400.613	210.94
400.837	190.94
401.062	189.94
401.286	189.94
401.51	192.94
401.734	189.94
401.958	192.94
402.182	205.94
402.406	202.94
402.63	193.94
402.854	206.94
403.078	211.94
403.302	191.94
403.526	216.94
403.75	208.94
403.974	224.94
404.198	213.94
404.422	232.94
404.645	221.94
404.869	214.94
405.093	219.94
405.317	207.94
405.541	214.94
405.765	197.94
405.988	206.94
406.212	202.94
406.436	205.94
406.66	204.94
406.883	206.94
407.107	206.94
407.331	209.94
407.555	209.94
407.778	226.94
408.002	219.94
408.226	201.94
408.449	200.94
408.673	204.94
408.896	225.94
409.12	213.94
409.344	212.94
409.567	201.94
409.791	231.94
410.014	219.94
410.238	211.94
410.461	209.94
410.685	195.94
410.908	215.94
411.132	217.94
411.355	196.94
411.578	211.94
411.802	218.94
412.025	202.94
412.249	226.94
412.472	194.94
412.695	199.94
412.919	206.94
413.142	202.94
413.365	194.94
413.589	204.94
413.812	202.94
414.035	192.94
414.258	210.94
414.482	201.94
414.705	185.94
414.928	209.94
415.151	190.94
415.374	182.94
415.597	197.94
415.821	188.94
416.044	197.94
416.267	206.94
416.49	195.94
416.713	192.94
416.936	196.94
417.159	201.94
417.382	197.94
417.605	203.94
417.828	220.94
418.051	197.94
418.274	209.94
418.497	198.94
418.72	203.94
418.943	211.94
419.166	216.94
419.389	219.94
419.611	202.94
419.834	213.94
420.057	215.94
420.28	213.94
420.503	205.94
420.726	198.94
420.948	200.94
421.171	203.94
421.394	215.94
421.617	201.94
421.839	206.94
422.062	197.94
422.285	211.94
422.507	204.94
422.73	199.94
422.953	194.94
423.175	221.94
423.398	208.94
423.621	211.94
423.843	197.94
424.066	204.94
424.288	219.94
424.511	205.94
424.733	213.94
424.956	212.94
425.178	201.94
425.401	219.94
425.623	205.94
425.846	200.94
426.068	191.94
426.291	183.94
426.513	189.94
426.735	194.94
426.958	203.94
427.18	180.94
427.402	195.94
427.625	197.94
427.847	191.94
428.069	190.94
428.292	187.94
428.514	186.94
428.736	182.94
428.958	178.94
429.181	177.94
429.403	179.94
429.625	197.94
429.847	195.94
430.069	184.94
430.292	202.94
430.514	185.94
430.736	193.94
430.958	195.94
431.18	187.94
431.402	176.94
431.624	179.94
431.846	168.94
432.068	186.94
432.29	179.94
432.512	181.94
432.734	197.94
432.956	175.94
433.178	207.94
433.4	188.94
433.622	187.94
433.844	202.94
434.066	189.94
434.287	175.94
434.509	167.94
434.731	197.94
434.953	198.94
435.175	200.94
435.397	193.94
435.618	187.94
435.84	178.94
436.062	189.94
436.284	181.94
436.505	183.94
436.727	188.94
436.949	186.94
437.17	184.94
437.392	193.94
437.614	187.94
437.835	189.94
438.057	168.94
438.278	186.94
438.5	175.94
438.721	179.94
438.943	174.94
439.165	197.94
439.386	193.94
439.608	204.94
439.829	190.94
440.05	197.94
440.272	211.94
440.493	206.94
440.715	211.94
440.936	221.94
441.158	203.94
441.379	197.94
441.6	207.94
441.822	209.94
442.043	207.94
442.264	198.94
442.486	200.94
442.707	207.94
442.928	198.94
443.149	211.94
443.371	203.94
443.592	204.94
443.813	212.94
444.034	209.94
444.255	200.94
444.476	220.94
444.698	231.94
444.919	227.94
445.14	453.94
445.361	310.94
445.582	210.94
445.803	203.94
446.024	201.94
446.245	209.94
446.466	212.94
446.687	209.94
446.908	199.94
447.129	203.94
447.35	195.94
447.571	209.94
447.792	195.94
448.013	193.94
448.234	194.94
448.455	178.94
448.675	191.94
448.896	180.94
449.117	187.94
449.338	183.94
449.559	199.94
449.779	191.94
450	190.94
450.221	176.94
450.442	195.94
450.662	186.94
450.883	185.94
451.104	202.94
451.324	186.94
451.545	177.94
451.766	186.94
451.986	165.94
452.207	168.94
452.428	191.94
452.648	189.94
452.869	169.94
453.089	178.94
453.31	165.94
453.53	170.94
453.751	168.94
453.971	175.94
454.192	155.94
454.412	175.94
454.633	173.94
454.853	161.94
455.073	166.94
455.294	159.94
455.514	175.94
455.734	183.94
455.955	180.94
456.175	163.94
456.395	168.94
456.616	163.94
456.836	163.94
457.056	154.94
457.276	156.94
457.497	142.94
457.717	178.94
457.937	170.94
458.157	174.94
458.377	166.94
458.598	168.94
458.818	151.94
459.038	159.94
459.258	181.94
459.478	150.94
459.698	168.94
459.918	169.94
460.138	190.94
460.358	191.94
460.578	195.94
460.798	197.94
461.018	194.94
461.238	191.94
461.458	191.94
461.678	207.94
461.898	202.94
462.118	194.94
462.338	226.94
462.558	217.94
462.777	219.94
462.997	231.94
463.217	243.94
463.437	227.94
463.657	215.94
463.876	205.94
464.096	209.94
464.316	208.94
464.536	213.94
464.755	207.94
464.975	210.94
465.195	201.94
465.414	192.94
465.634	179.94
465.854	178.94
466.073	169.94
466.293	187.94
466.512	188.94
466.732	202.94
466.951	193.94
467.171	195.94
467.391	190.94
467.61	202.94
467.829	187.94
468.049	185.94
468.268	188.94
468.488	193.94
468.707	179.94
468.927	192.94
469.146	182.94
469.365	174.94
469.585	176.94
469.804	195.94
470.023	198.94
470.243	193.94
470.462	188.94
470.681	215.94
470.901	200.94
471.12	193.94
471.339	179.94
471.558	190.94
471.777	191.94
471.997	198.94
472.216	198.94
472.435	167.94
472.654	154.94
472.873	179.94
473.092	171.94
473.311	177.94
473.53	177.94
473.749	187.94
473.968	189.94
474.187	174.94
474.406	181.94
474.625	179.94
474.844	183.94
475.063	180.94
475.282	178.94
475.501	175.94
475.72	182.94
475.939	178.94
476.158	193.94
476.377	178.94
476.596	171.94
476.814	179.94
477.033	164.94
477.252	185.94
477.471	197.94
477.69	206.94
477.908	182.94
478.127	187.94
478.346	192.94
478.564	202.94
478.783	198.94
479.002	217.94
479.22	209.94
479.439	220.94
479.658	180.94
479.876	189.94
480.095	186.94
480.313	214.94
480.532	201.94
480.751	193.94
480.969	195.94
481.188	168.94
481.406	167.94
481.624	164.94
481.843	151.94
482.061	186.94
482.28	185.94
482.498	182.94
482.717	201.94
482.935	195.94
483.153	214.94
483.372	186.94
483.59	206.94
483.808	197.94
484.027	194.94
484.245	201.94
484.463	213.94
484.681	198.94
484.9	200.94
485.118	214.94
485.336	191.94
485.554	182.94
485.772	192.94
485.99	190.94
486.209	198.94
486.427	192.94
486.645	209.94
486.863	220.94
487.081	219.94
487.299	205.94
487.517	213.94
487.735	226.94
487.953	228.94
488.171	234.94
488.389	223.94
488.607	214.94
488.825	193.94
489.043	190.94
489.261	217.94
489.479	217.94
489.696	208.94
489.914	199.94
490.132	206.94
490.35	219.94
490.568	222.94
490.786	217.94
491.003	242.94
491.221	218.94
491.439	244.94
491.657	230.94
491.874	258.94
492.092	262.94
492.31	264.94
492.527	248.94
492.745	259.94
492.963	235.94
493.18	251.94
493.398	234.94
493.615	246.94
493.833	243.94
494.05	235.94
494.268	243.94
494.485	217.94
494.703	239.94
494.92	234.94
495.138	227.94
495.355	249.94
495.573	246.94
495.79	220.94
496.008	217.94
496.225	232.94
496.442	228.94
496.66	241.94
496.877	233.94
497.094	251.94
497.312	239.94
497.529	230.94
497.746	232.94
497.963	219.94
498.181	235.94
498.398	257.94
498.615	243.94
498.832	233.94
499.049	262.94
499.267	289.94
499.484	293.94
499.701	331.94
499.918	347.94
500.135	410.94
500.352	444.94
500.569	436.94
500.786	418.94
501.003	384.94
501.22	356.94
501.437	311.94
501.654	284.94
501.871	285.94
502.088	278.94
502.305	263.94
502.522	248.94
502.739	245.94
502.956	244.94
503.172	224.94
503.389	233.94
503.606	221.94
503.823	208.94
504.04	206.94
504.256	209.94
504.473	217.94
504.69	219.94
