Data from SampD_HRD10591_00009.txt Node
Date: Mon Jan 19 11:50:18 EST 2026
User: Yrep
Spectrometer: HR+D1059
Trigger mode: 0
Integration Time (sec): 3.443000E-1
Scans to average: 1
Electric dark correction enabled: true
Nonlinearity correction enabled: false
Boxcar width: 0
XAxis mode: Wavelengths
Number of Pixels in Spectrum: 2048
>>>>>Begin Spectral Data<<<<<
223.165	-23.25
223.4	-23.25
223.635	-23.25
223.869	-33.25
224.104	-9.25
224.338	-5.25
224.573	-14.25
224.808	-14.25
225.042	6.75
225.277	-6.25
225.511	0.75
225.746	3.75
225.98	1.75
226.215	2.75
226.449	15.75
226.683	7.75
226.918	25.75
227.152	40.75
227.387	23.75
227.621	48.75
227.856	42.75
228.09	36.75
228.324	58.75
228.559	58.75
228.793	76.75
229.027	68.75
229.262	90.75
229.496	71.75
229.73	67.75
229.964	82.75
230.199	70.75
230.433	72.75
230.667	84.75
230.901	81.75
231.136	83.75
231.37	93.75
231.604	77.75
231.838	90.75
232.072	71.75
232.306	98.75
232.541	101.75
232.775	81.75
233.009	80.75
233.243	75.75
233.477	92.75
233.711	93.75
233.945	91.75
234.179	87.75
234.413	80.75
234.647	78.75
234.881	84.75
235.115	82.75
235.349	93.75
235.583	102.75
235.817	87.75
236.051	84.75
236.285	81.75
236.519	92.75
236.753	90.75
236.987	88.75
237.221	83.75
237.455	90.75
237.689	90.75
237.922	83.75
238.156	84.75
238.39	67.75
238.624	90.75
238.858	86.75
239.091	85.75
239.325	77.75
239.559	80.75
239.793	82.75
240.027	94.75
240.26	89.75
240.494	100.75
240.728	82.75
240.961	74.75
241.195	98.75
241.429	83.75
241.662	76.75
241.896	80.75
242.13	84.75
242.363	85.75
242.597	85.75
242.83	91.75
243.064	82.75
243.298	86.75
243.531	81.75
243.765	82.75
243.998	86.75
244.232	97.75
244.465	101.75
244.699	86.75
244.932	99.75
245.166	86.75
245.399	105.75
245.633	68.75
245.866	84.75
246.099	82.75
246.333	87.75
246.566	84.75
246.8	85.75
247.033	88.75
247.266	77.75
247.5	96.75
247.733	88.75
247.966	86.75
248.2	85.75
248.433	84.75
248.666	69.75
248.899	100.75
249.133	85.75
249.366	102.75
249.599	88.75
249.832	88.75
250.066	93.75
250.299	97.75
250.532	98.75
250.765	92.75
250.998	87.75
251.231	76.75
251.465	89.75
251.698	102.75
251.931	85.75
252.164	113.75
252.397	92.75
252.63	95.75
252.863	84.75
253.096	106.75
253.329	102.75
253.562	102.75
253.795	104.75
254.028	101.75
254.261	96.75
254.494	98.75
254.727	91.75
254.96	86.75
255.193	91.75
255.426	92.75
255.659	80.75
255.892	99.75
256.124	93.75
256.357	92.75
256.59	117.75
256.823	96.75
257.056	99.75
257.289	97.75
257.521	97.75
257.754	96.75
257.987	110.75
258.22	101.75
258.452	96.75
258.685	96.75
258.918	100.75
259.151	100.75
259.383	95.75
259.616	87.75
259.849	101.75
260.081	107.75
260.314	83.75
260.547	96.75
260.779	96.75
261.012	106.75
261.244	102.75
261.477	123.75
261.71	115.75
261.942	99.75
262.175	106.75
262.407	92.75
262.64	92.75
262.872	98.75
263.105	98.75
263.337	108.75
263.57	104.75
263.802	99.75
264.035	99.75
264.267	87.75
264.499	95.75
264.732	117.75
264.964	105.75
265.197	90.75
265.429	114.75
265.661	93.75
265.894	116.75
266.126	102.75
266.358	95.75
266.591	92.75
266.823	82.75
267.055	94.75
267.287	95.75
267.52	106.75
267.752	106.75
267.984	98.75
268.216	93.75
268.448	124.75
268.681	102.75
268.913	110.75
269.145	103.75
269.377	114.75
269.609	104.75
269.841	106.75
270.073	113.75
270.306	114.75
270.538	101.75
270.77	104.75
271.002	109.75
271.234	108.75
271.466	109.75
271.698	105.75
271.93	114.75
272.162	93.75
272.394	104.75
272.626	102.75
272.858	105.75
273.09	106.75
273.322	116.75
273.553	105.75
273.785	122.75
274.017	110.75
274.249	104.75
274.481	107.75
274.713	105.75
274.945	107.75
275.176	103.75
275.408	104.75
275.64	116.75
275.872	125.75
276.104	111.75
276.335	117.75
276.567	109.75
276.799	109.75
277.031	110.75
277.262	120.75
277.494	116.75
277.726	126.75
277.957	126.75
278.189	109.75
278.421	107.75
278.652	100.75
278.884	109.75
279.115	128.75
279.347	107.75
279.579	108.75
279.81	108.75
280.042	113.75
280.273	110.75
280.505	107.75
280.736	98.75
280.968	103.75
281.199	121.75
281.431	110.75
281.662	113.75
281.894	120.75
282.125	127.75
282.356	116.75
282.588	119.75
282.819	110.75
283.051	104.75
283.282	108.75
283.513	131.75
283.745	110.75
283.976	118.75
284.207	109.75
284.439	112.75
284.67	129.75
284.901	118.75
285.132	115.75
285.364	121.75
285.595	115.75
285.826	133.75
286.057	122.75
286.288	126.75
286.52	110.75
286.751	116.75
286.982	108.75
287.213	106.75
287.444	114.75
287.675	125.75
287.906	123.75
288.138	116.75
288.369	118.75
288.6	118.75
288.831	110.75
289.062	126.75
289.293	115.75
289.524	115.75
289.755	129.75
289.986	126.75
290.217	131.75
290.448	117.75
290.679	120.75
290.91	133.75
291.141	123.75
291.371	122.75
291.602	122.75
291.833	113.75
292.064	115.75
292.295	114.75
292.526	108.75
292.757	112.75
292.987	128.75
293.218	107.75
293.449	117.75
293.68	113.75
293.91	116.75
294.141	114.75
294.372	114.75
294.603	130.75
294.833	119.75
295.064	131.75
295.295	122.75
295.525	122.75
295.756	121.75
295.987	122.75
296.217	126.75
296.448	119.75
296.679	118.75
296.909	131.75
297.14	121.75
297.37	144.75
297.601	118.75
297.831	129.75
298.062	122.75
298.292	117.75
298.523	126.75
298.753	119.75
298.984	119.75
299.214	127.75
299.445	133.75
299.675	122.75
299.905	133.75
300.136	123.75
300.366	128.75
300.597	117.75
300.827	122.75
301.057	131.75
301.288	131.75
301.518	134.75
301.748	135.75
301.979	154.75
302.209	133.75
302.439	137.75
302.669	128.75
302.9	125.75
303.13	113.75
303.36	142.75
303.59	125.75
303.82	132.75
304.051	116.75
304.281	135.75
304.511	123.75
304.741	132.75
304.971	121.75
305.201	136.75
305.431	137.75
305.661	131.75
305.891	129.75
306.121	125.75
306.352	117.75
306.582	125.75
306.812	124.75
307.042	126.75
307.272	139.75
307.502	121.75
307.731	140.75
307.961	128.75
308.191	132.75
308.421	128.75
308.651	122.75
308.881	122.75
309.111	133.75
309.341	119.75
309.571	119.75
309.8	119.75
310.03	122.75
310.26	149.75
310.49	130.75
310.72	131.75
310.949	123.75
311.179	113.75
311.409	137.75
311.639	137.75
311.868	118.75
312.098	134.75
312.328	119.75
312.557	125.75
312.787	124.75
313.017	138.75
313.246	131.75
313.476	129.75
313.706	124.75
313.935	121.75
314.165	126.75
314.394	140.75
314.624	120.75
314.853	123.75
315.083	118.75
315.312	120.75
315.542	132.75
315.771	135.75
316.001	124.75
316.23	110.75
316.46	125.75
316.689	122.75
316.919	120.75
317.148	137.75
317.377	144.75
317.607	126.75
317.836	133.75
318.065	128.75
318.295	130.75
318.524	118.75
318.753	138.75
318.983	144.75
319.212	136.75
319.441	132.75
319.67	120.75
319.9	125.75
320.129	121.75
320.358	134.75
320.587	148.75
320.816	125.75
321.046	124.75
321.275	138.75
321.504	123.75
321.733	149.75
321.962	125.75
322.191	135.75
322.42	136.75
322.649	129.75
322.878	133.75
323.108	145.75
323.337	136.75
323.566	141.75
323.795	139.75
324.024	115.75
324.253	130.75
324.482	115.75
324.71	134.75
324.939	135.75
325.168	125.75
325.397	121.75
325.626	142.75
325.855	119.75
326.084	127.75
326.313	127.75
326.542	144.75
326.77	137.75
326.999	137.75
327.228	123.75
327.457	129.75
327.686	131.75
327.914	137.75
328.143	134.75
328.372	125.75
328.6	139.75
328.829	141.75
329.058	133.75
329.287	142.75
329.515	122.75
329.744	141.75
329.972	126.75
330.201	138.75
330.43	134.75
330.658	135.75
330.887	135.75
331.115	129.75
331.344	150.75
331.572	149.75
331.801	161.75
332.03	147.75
332.258	141.75
332.486	144.75
332.715	149.75
332.943	144.75
333.172	156.75
333.4	142.75
333.629	164.75
333.857	154.75
334.085	167.75
334.314	160.75
334.542	152.75
334.771	154.75
334.999	149.75
335.227	150.75
335.455	152.75
335.684	156.75
335.912	133.75
336.14	148.75
336.369	153.75
336.597	136.75
336.825	133.75
337.053	140.75
337.281	154.75
337.51	148.75
337.738	130.75
337.966	129.75
338.194	141.75
338.422	129.75
338.65	140.75
338.878	141.75
339.106	156.75
339.334	150.75
339.562	133.75
339.79	128.75
340.018	136.75
340.246	137.75
340.474	151.75
340.702	138.75
340.93	133.75
341.158	145.75
341.386	129.75
341.614	139.75
341.842	133.75
342.07	127.75
342.298	145.75
342.526	135.75
342.754	135.75
342.981	140.75
343.209	137.75
343.437	169.75
343.665	149.75
343.893	148.75
344.12	164.75
344.348	151.75
344.576	156.75
344.804	146.75
345.031	126.75
345.259	141.75
345.487	128.75
345.714	130.75
345.942	160.75
346.17	148.75
346.397	144.75
346.625	137.75
346.853	134.75
347.08	129.75
347.308	139.75
347.535	141.75
347.763	142.75
347.99	147.75
348.218	144.75
348.445	133.75
348.673	144.75
348.9	136.75
349.128	162.75
349.355	136.75
349.583	154.75
349.81	132.75
350.037	132.75
350.265	155.75
350.492	125.75
350.72	130.75
350.947	143.75
351.174	141.75
351.402	142.75
351.629	131.75
351.856	120.75
352.083	122.75
352.311	130.75
352.538	128.75
352.765	134.75
352.992	133.75
353.22	129.75
353.447	134.75
353.674	147.75
353.901	140.75
354.128	139.75
354.355	128.75
354.583	123.75
354.81	147.75
355.037	131.75
355.264	141.75
355.491	129.75
355.718	139.75
355.945	149.75
356.172	111.75
356.399	144.75
356.626	137.75
356.853	133.75
357.08	145.75
357.307	133.75
357.534	122.75
357.761	143.75
357.988	141.75
358.215	136.75
358.441	119.75
358.668	130.75
358.895	130.75
359.122	136.75
359.349	130.75
359.576	144.75
359.802	135.75
360.029	140.75
360.256	105.75
360.483	119.75
360.709	137.75
360.936	151.75
361.163	137.75
361.39	131.75
361.616	134.75
361.843	137.75
362.07	122.75
362.296	131.75
362.523	135.75
362.749	138.75
362.976	124.75
363.203	139.75
363.429	133.75
363.656	138.75
363.882	126.75
364.109	144.75
364.335	137.75
364.562	140.75
364.788	133.75
365.015	117.75
365.241	135.75
365.468	137.75
365.694	139.75
365.92	140.75
366.147	128.75
366.373	125.75
366.599	134.75
366.826	134.75
367.052	125.75
367.278	141.75
367.505	134.75
367.731	144.75
367.957	128.75
368.184	128.75
368.41	148.75
368.636	136.75
368.862	144.75
369.089	129.75
369.315	147.75
369.541	145.75
369.767	132.75
369.993	136.75
370.219	141.75
370.445	129.75
370.672	136.75
370.898	137.75
371.124	146.75
371.35	152.75
371.576	149.75
371.802	135.75
372.028	123.75
372.254	134.75
372.48	128.75
372.706	130.75
372.932	150.75
373.158	152.75
373.384	141.75
373.61	151.75
373.835	146.75
374.061	141.75
374.287	134.75
374.513	134.75
374.739	132.75
374.965	160.75
375.191	169.75
375.416	147.75
375.642	149.75
375.868	152.75
376.094	144.75
376.319	145.75
376.545	127.75
376.771	155.75
376.997	148.75
377.222	142.75
377.448	139.75
377.674	151.75
377.899	148.75
378.125	138.75
378.35	151.75
378.576	164.75
378.802	159.75
379.027	125.75
379.253	153.75
379.478	148.75
379.704	149.75
379.929	157.75
380.155	139.75
380.38	150.75
380.606	148.75
380.831	145.75
381.057	158.75
381.282	160.75
381.507	141.75
381.733	148.75
381.958	156.75
382.184	139.75
382.409	156.75
382.634	167.75
382.86	152.75
383.085	140.75
383.31	163.75
383.535	168.75
383.761	179.75
383.986	174.75
384.211	154.75
384.436	167.75
384.662	159.75
384.887	169.75
385.112	159.75
385.337	174.75
385.562	169.75
385.787	135.75
386.013	166.75
386.238	166.75
386.463	160.75
386.688	194.75
386.913	160.75
387.138	148.75
387.363	170.75
387.588	189.75
387.813	183.75
388.038	156.75
388.263	165.75
388.488	150.75
388.713	163.75
388.938	162.75
389.163	167.75
389.387	171.75
389.612	172.75
389.837	164.75
390.062	163.75
390.287	171.75
390.512	162.75
390.736	166.75
390.961	159.75
391.186	164.75
391.411	171.75
391.636	185.75
391.86	180.75
392.085	171.75
392.31	178.75
392.534	169.75
392.759	170.75
392.984	169.75
393.208	175.75
393.433	168.75
393.658	171.75
393.882	181.75
394.107	170.75
394.331	149.75
394.556	173.75
394.78	185.75
395.005	184.75
395.229	167.75
395.454	185.75
395.678	188.75
395.903	179.75
396.127	173.75
396.352	167.75
396.576	174.75
396.801	180.75
397.025	163.75
397.249	177.75
397.474	189.75
397.698	183.75
397.922	175.75
398.147	179.75
398.371	179.75
398.595	198.75
398.82	186.75
399.044	192.75
399.268	211.75
399.492	218.75
399.717	258.75
399.941	228.75
400.165	226.75
400.389	212.75
400.613	210.75
400.837	221.75
401.062	185.75
401.286	193.75
401.51	202.75
401.734	184.75
401.958	192.75
402.182	178.75
402.406	192.75
402.63	197.75
402.854	206.75
403.078	202.75
403.302	191.75
403.526	201.75
403.75	210.75
403.974	214.75
404.198	218.75
404.422	201.75
404.645	216.75
404.869	212.75
405.093	200.75
405.317	220.75
405.541	218.75
405.765	208.75
405.988	199.75
406.212	209.75
406.436	192.75
406.66	210.75
406.883	212.75
407.107	222.75
407.331	234.75
407.555	213.75
407.778	213.75
408.002	220.75
408.226	227.75
408.449	209.75
408.673	220.75
408.896	210.75
409.12	217.75
409.344	209.75
409.567	215.75
409.791	218.75
410.014	203.75
410.238	214.75
410.461	197.75
410.685	209.75
410.908	189.75
411.132	216.75
411.355	186.75
411.578	201.75
411.802	209.75
412.025	211.75
412.249	199.75
412.472	208.75
412.695	189.75
412.919	184.75
413.142	189.75
413.365	195.75
413.589	193.75
413.812	203.75
414.035	210.75
414.258	174.75
414.482	185.75
414.705	198.75
414.928	211.75
415.151	196.75
415.374	214.75
415.597	205.75
415.821	207.75
416.044	196.75
416.267	194.75
416.49	193.75
416.713	214.75
416.936	192.75
417.159	184.75
417.382	189.75
417.605	184.75
417.828	210.75
418.051	204.75
418.274	197.75
418.497	194.75
418.72	213.75
418.943	222.75
419.166	223.75
419.389	205.75
419.611	202.75
419.834	216.75
420.057	205.75
420.28	197.75
420.503	201.75
420.726	196.75
420.948	208.75
421.171	184.75
421.394	219.75
421.617	209.75
421.839	208.75
422.062	208.75
422.285	189.75
422.507	205.75
422.73	220.75
422.953	223.75
423.175	208.75
423.398	214.75
423.621	216.75
423.843	206.75
424.066	208.75
424.288	210.75
424.511	226.75
424.733	220.75
424.956	224.75
425.178	213.75
425.401	220.75
425.623	208.75
425.846	206.75
426.068	201.75
426.291	191.75
426.513	212.75
426.735	212.75
426.958	199.75
427.18	191.75
427.402	192.75
427.625	194.75
427.847	192.75
428.069	187.75
428.292	188.75
428.514	193.75
428.736	190.75
428.958	182.75
429.181	205.75
429.403	188.75
429.625	182.75
429.847	197.75
430.069	206.75
430.292	195.75
430.514	182.75
430.736	182.75
430.958	194.75
431.18	187.75
431.402	196.75
431.624	197.75
431.846	181.75
432.068	189.75
432.29	162.75
432.512	196.75
432.734	189.75
432.956	184.75
433.178	205.75
433.4	199.75
433.622	199.75
433.844	182.75
434.066	191.75
434.287	180.75
434.509	175.75
434.731	199.75
434.953	188.75
435.175	196.75
435.397	201.75
435.618	178.75
435.84	192.75
436.062	197.75
436.284	188.75
436.505	199.75
436.727	185.75
436.949	200.75
437.17	186.75
437.392	183.75
437.614	184.75
437.835	171.75
438.057	177.75
438.278	163.75
438.5	187.75
438.721	200.75
438.943	208.75
439.165	185.75
439.386	179.75
439.608	208.75
439.829	189.75
440.05	192.75
440.272	195.75
440.493	193.75
440.715	194.75
440.936	195.75
441.158	220.75
441.379	227.75
441.6	215.75
441.822	224.75
442.043	210.75
442.264	209.75
442.486	210.75
442.707	214.75
442.928	230.75
443.149	227.75
443.371	220.75
443.592	196.75
443.813	213.75
444.034	221.75
444.255	223.75
444.476	210.75
444.698	228.75
444.919	228.75
445.14	494.75
445.361	342.75
445.582	217.75
445.803	197.75
446.024	211.75
446.245	227.75
446.466	204.75
446.687	188.75
446.908	192.75
447.129	200.75
447.35	200.75
447.571	204.75
447.792	188.75
448.013	203.75
448.234	190.75
448.455	187.75
448.675	191.75
448.896	184.75
449.117	192.75
449.338	189.75
449.559	187.75
449.779	178.75
450	185.75
450.221	193.75
450.442	202.75
450.662	178.75
450.883	194.75
451.104	177.75
451.324	195.75
451.545	193.75
451.766	183.75
451.986	175.75
452.207	177.75
452.428	162.75
452.648	171.75
452.869	188.75
453.089	172.75
453.31	175.75
453.53	182.75
453.751	174.75
453.971	158.75
454.192	178.75
454.412	170.75
454.633	183.75
454.853	169.75
455.073	182.75
455.294	190.75
455.514	190.75
455.734	177.75
455.955	161.75
456.175	169.75
456.395	170.75
456.616	175.75
456.836	168.75
457.056	162.75
457.276	147.75
457.497	169.75
457.717	158.75
457.937	166.75
458.157	168.75
458.377	166.75
458.598	158.75
458.818	168.75
459.038	176.75
459.258	149.75
459.478	164.75
459.698	172.75
459.918	173.75
460.138	183.75
460.358	211.75
460.578	215.75
460.798	205.75
461.018	211.75
461.238	205.75
461.458	193.75
461.678	189.75
461.898	195.75
462.118	199.75
462.338	209.75
462.558	196.75
462.777	228.75
462.997	221.75
463.217	241.75
463.437	244.75
463.657	227.75
463.876	221.75
464.096	224.75
464.316	213.75
464.536	222.75
464.755	225.75
464.975	214.75
465.195	209.75
465.414	205.75
465.634	183.75
465.854	200.75
466.073	202.75
466.293	197.75
466.512	185.75
466.732	202.75
466.951	201.75
467.171	180.75
467.391	193.75
467.61	194.75
467.829	180.75
468.049	202.75
468.268	188.75
468.488	192.75
468.707	195.75
468.927	173.75
469.146	189.75
469.365	201.75
469.585	200.75
469.804	205.75
470.023	200.75
470.243	208.75
470.462	197.75
470.681	205.75
470.901	205.75
471.12	196.75
471.339	184.75
471.558	176.75
471.777	185.75
471.997	186.75
472.216	188.75
472.435	154.75
472.654	187.75
472.873	172.75
473.092	178.75
473.311	181.75
473.53	187.75
473.749	197.75
473.968	190.75
474.187	194.75
474.406	176.75
474.625	193.75
474.844	198.75
475.063	190.75
475.282	175.75
475.501	173.75
475.72	198.75
475.939	185.75
476.158	182.75
476.377	171.75
476.596	184.75
476.814	189.75
477.033	168.75
477.252	169.75
477.471	192.75
477.69	193.75
477.908	200.75
478.127	214.75
478.346	204.75
478.564	214.75
478.783	215.75
479.002	223.75
479.22	213.75
479.439	209.75
479.658	200.75
479.876	199.75
480.095	198.75
480.313	218.75
480.532	210.75
480.751	199.75
480.969	187.75
481.188	177.75
481.406	180.75
481.624	169.75
481.843	178.75
482.061	195.75
482.28	205.75
482.498	178.75
482.717	182.75
482.935	192.75
483.153	199.75
483.372	209.75
483.59	212.75
483.808	200.75
484.027	199.75
484.245	203.75
484.463	204.75
484.681	231.75
484.9	210.75
485.118	197.75
485.336	204.75
485.554	205.75
485.772	188.75
485.99	193.75
486.209	194.75
486.427	194.75
486.645	204.75
486.863	204.75
487.081	194.75
487.299	213.75
487.517	193.75
487.735	228.75
487.953	235.75
488.171	236.75
488.389	224.75
488.607	213.75
488.825	212.75
489.043	206.75
489.261	205.75
489.479	209.75
489.696	208.75
489.914	212.75
490.132	222.75
490.35	207.75
490.568	226.75
490.786	204.75
491.003	244.75
491.221	238.75
491.439	248.75
491.657	238.75
491.874	259.75
492.092	269.75
492.31	256.75
492.527	246.75
492.745	236.75
492.963	251.75
493.18	242.75
493.398	248.75
493.615	232.75
493.833	244.75
494.05	238.75
494.268	230.75
494.485	237.75
494.703	231.75
494.92	229.75
495.138	243.75
495.355	244.75
495.573	231.75
495.79	247.75
496.008	222.75
496.225	235.75
496.442	230.75
496.66	225.75
496.877	238.75
497.094	247.75
497.312	240.75
497.529	246.75
497.746	258.75
497.963	232.75
498.181	236.75
498.398	223.75
498.615	224.75
498.832	245.75
499.049	272.75
499.267	276.75
499.484	311.75
499.701	333.75
499.918	361.75
500.135	391.75
500.352	432.75
500.569	441.75
500.786	436.75
501.003	393.75
501.22	369.75
501.437	333.75
501.654	307.75
501.871	308.75
502.088	251.75
502.305	263.75
502.522	247.75
502.739	238.75
502.956	230.75
503.172	233.75
503.389	221.75
503.606	230.75
503.823	217.75
504.04	219.75
504.256	236.75
504.473	235.75
504.69	215.75
