Data from SampD_HRD10591_00095.txt Node
Date: Mon Jan 19 11:50:48 EST 2026
User: Yrep
Spectrometer: HR+D1059
Trigger mode: 0
Integration Time (sec): 3.443000E-1
Scans to average: 1
Electric dark correction enabled: true
Nonlinearity correction enabled: false
Boxcar width: 0
XAxis mode: Wavelengths
Number of Pixels in Spectrum: 2048
>>>>>Begin Spectral Data<<<<<
223.165	-23.31
223.4	-23.31
223.635	-23.31
223.869	-21.31
224.104	-29.31
224.338	-29.31
224.573	-15.31
224.808	-13.31
225.042	-3.31
225.277	-7.31
225.511	2.69
225.746	10.69
225.98	10.69
226.215	9.69
226.449	20.69
226.683	25.69
226.918	26.69
227.152	35.69
227.387	38.69
227.621	26.69
227.856	43.69
228.09	58.69
228.324	66.69
228.559	72.69
228.793	55.69
229.027	69.69
229.262	75.69
229.496	78.69
229.73	78.69
229.964	93.69
230.199	72.69
230.433	78.69
230.667	89.69
230.901	85.69
231.136	81.69
231.37	84.69
231.604	72.69
231.838	93.69
232.072	73.69
232.306	89.69
232.541	89.69
232.775	77.69
233.009	69.69
233.243	83.69
233.477	81.69
233.711	89.69
233.945	93.69
234.179	96.69
234.413	78.69
234.647	95.69
234.881	101.69
235.115	86.69
235.349	92.69
235.583	94.69
235.817	99.69
236.051	61.69
236.285	69.69
236.519	85.69
236.753	96.69
236.987	77.69
237.221	75.69
237.455	75.69
237.689	76.69
237.922	90.69
238.156	74.69
238.39	73.69
238.624	90.69
238.858	83.69
239.091	78.69
239.325	93.69
239.559	92.69
239.793	100.69
240.027	96.69
240.26	82.69
240.494	95.69
240.728	79.69
240.961	90.69
241.195	91.69
241.429	84.69
241.662	87.69
241.896	77.69
242.13	93.69
242.363	87.69
242.597	81.69
242.83	90.69
243.064	87.69
243.298	85.69
243.531	87.69
243.765	89.69
243.998	90.69
244.232	88.69
244.465	97.69
244.699	101.69
244.932	83.69
245.166	78.69
245.399	95.69
245.633	98.69
245.866	84.69
246.099	98.69
246.333	103.69
246.566	95.69
246.8	87.69
247.033	84.69
247.266	100.69
247.5	96.69
247.733	91.69
247.966	91.69
248.2	102.69
248.433	85.69
248.666	88.69
248.899	107.69
249.133	84.69
249.366	113.69
249.599	84.69
249.832	90.69
250.066	89.69
250.299	95.69
250.532	94.69
250.765	90.69
250.998	103.69
251.231	73.69
251.465	90.69
251.698	81.69
251.931	99.69
252.164	99.69
252.397	86.69
252.63	93.69
252.863	92.69
253.096	98.69
253.329	95.69
253.562	92.69
253.795	90.69
254.028	86.69
254.261	99.69
254.494	93.69
254.727	109.69
254.96	94.69
255.193	111.69
255.426	93.69
255.659	89.69
255.892	101.69
256.124	94.69
256.357	87.69
256.59	96.69
256.823	95.69
257.056	85.69
257.289	97.69
257.521	87.69
257.754	97.69
257.987	106.69
258.22	111.69
258.452	90.69
258.685	87.69
258.918	93.69
259.151	91.69
259.383	103.69
259.616	81.69
259.849	85.69
260.081	101.69
260.314	97.69
260.547	94.69
260.779	94.69
261.012	112.69
261.244	104.69
261.477	117.69
261.71	88.69
261.942	109.69
262.175	102.69
262.407	92.69
262.64	83.69
262.872	95.69
263.105	90.69
263.337	105.69
263.57	102.69
263.802	84.69
264.035	101.69
264.267	94.69
264.499	95.69
264.732	110.69
264.964	107.69
265.197	89.69
265.429	104.69
265.661	91.69
265.894	93.69
266.126	106.69
266.358	100.69
266.591	87.69
266.823	94.69
267.055	95.69
267.287	91.69
267.52	102.69
267.752	105.69
267.984	85.69
268.216	92.69
268.448	99.69
268.681	94.69
268.913	97.69
269.145	101.69
269.377	99.69
269.609	103.69
269.841	109.69
270.073	112.69
270.306	106.69
270.538	113.69
270.77	111.69
271.002	103.69
271.234	112.69
271.466	104.69
271.698	98.69
271.93	109.69
272.162	108.69
272.394	106.69
272.626	102.69
272.858	116.69
273.09	107.69
273.322	103.69
273.553	94.69
273.785	99.69
274.017	98.69
274.249	101.69
274.481	103.69
274.713	119.69
274.945	98.69
275.176	97.69
275.408	109.69
275.64	122.69
275.872	105.69
276.104	109.69
276.335	106.69
276.567	96.69
276.799	112.69
277.031	94.69
277.262	113.69
277.494	111.69
277.726	109.69
277.957	106.69
278.189	100.69
278.421	102.69
278.652	86.69
278.884	106.69
279.115	108.69
279.347	110.69
279.579	116.69
279.81	106.69
280.042	114.69
280.273	125.69
280.505	116.69
280.736	115.69
280.968	102.69
281.199	117.69
281.431	108.69
281.662	105.69
281.894	107.69
282.125	102.69
282.356	101.69
282.588	110.69
282.819	113.69
283.051	104.69
283.282	106.69
283.513	107.69
283.745	107.69
283.976	115.69
284.207	120.69
284.439	118.69
284.67	117.69
284.901	107.69
285.132	118.69
285.364	111.69
285.595	119.69
285.826	125.69
286.057	117.69
286.288	125.69
286.52	107.69
286.751	122.69
286.982	116.69
287.213	121.69
287.444	121.69
287.675	103.69
287.906	123.69
288.138	109.69
288.369	110.69
288.6	122.69
288.831	111.69
289.062	115.69
289.293	120.69
289.524	118.69
289.755	114.69
289.986	121.69
290.217	128.69
290.448	111.69
290.679	124.69
290.91	124.69
291.141	110.69
291.371	129.69
291.602	114.69
291.833	124.69
292.064	129.69
292.295	124.69
292.526	107.69
292.757	134.69
292.987	127.69
293.218	111.69
293.449	134.69
293.68	129.69
293.91	114.69
294.141	120.69
294.372	108.69
294.603	116.69
294.833	128.69
295.064	111.69
295.295	111.69
295.525	114.69
295.756	119.69
295.987	124.69
296.217	115.69
296.448	117.69
296.679	129.69
296.909	123.69
297.14	121.69
297.37	108.69
297.601	122.69
297.831	110.69
298.062	136.69
298.292	106.69
298.523	121.69
298.753	111.69
298.984	114.69
299.214	125.69
299.445	116.69
299.675	124.69
299.905	120.69
300.136	132.69
300.366	124.69
300.597	117.69
300.827	114.69
301.057	119.69
301.288	128.69
301.518	117.69
301.748	122.69
301.979	165.69
302.209	143.69
302.439	135.69
302.669	111.69
302.9	106.69
303.13	106.69
303.36	128.69
303.59	113.69
303.82	119.69
304.051	124.69
304.281	121.69
304.511	124.69
304.741	109.69
304.971	113.69
305.201	134.69
305.431	136.69
305.661	116.69
305.891	114.69
306.121	120.69
306.352	116.69
306.582	108.69
306.812	125.69
307.042	115.69
307.272	126.69
307.502	127.69
307.731	130.69
307.961	137.69
308.191	128.69
308.421	117.69
308.651	113.69
308.881	124.69
309.111	109.69
309.341	103.69
309.571	114.69
309.8	129.69
310.03	122.69
310.26	120.69
310.49	117.69
310.72	116.69
310.949	138.69
311.179	137.69
311.409	130.69
311.639	121.69
311.868	126.69
312.098	139.69
312.328	123.69
312.557	138.69
312.787	122.69
313.017	144.69
313.246	112.69
313.476	121.69
313.706	116.69
313.935	116.69
314.165	118.69
314.394	112.69
314.624	125.69
314.853	130.69
315.083	125.69
315.312	123.69
315.542	129.69
315.771	134.69
316.001	119.69
316.23	134.69
316.46	117.69
316.689	119.69
316.919	141.69
317.148	113.69
317.377	131.69
317.607	130.69
317.836	122.69
318.065	125.69
318.295	126.69
318.524	131.69
318.753	118.69
318.983	127.69
319.212	130.69
319.441	116.69
319.67	118.69
319.9	137.69
320.129	122.69
320.358	131.69
320.587	121.69
320.816	139.69
321.046	102.69
321.275	147.69
321.504	118.69
321.733	129.69
321.962	122.69
322.191	141.69
322.42	121.69
322.649	124.69
322.878	119.69
323.108	117.69
323.337	120.69
323.566	117.69
323.795	118.69
324.024	124.69
324.253	124.69
324.482	133.69
324.71	127.69
324.939	123.69
325.168	127.69
325.397	141.69
325.626	134.69
325.855	135.69
326.084	128.69
326.313	140.69
326.542	131.69
326.77	142.69
326.999	139.69
327.228	126.69
327.457	148.69
327.686	133.69
327.914	123.69
328.143	137.69
328.372	138.69
328.6	115.69
328.829	140.69
329.058	130.69
329.287	138.69
329.515	114.69
329.744	134.69
329.972	135.69
330.201	136.69
330.43	131.69
330.658	134.69
330.887	140.69
331.115	133.69
331.344	142.69
331.572	149.69
331.801	133.69
332.03	132.69
332.258	140.69
332.486	153.69
332.715	153.69
332.943	137.69
333.172	159.69
333.4	148.69
333.629	162.69
333.857	147.69
334.085	164.69
334.314	149.69
334.542	148.69
334.771	143.69
334.999	140.69
335.227	145.69
335.455	137.69
335.684	142.69
335.912	139.69
336.14	154.69
336.369	132.69
336.597	141.69
336.825	141.69
337.053	142.69
337.281	154.69
337.51	135.69
337.738	163.69
337.966	138.69
338.194	145.69
338.422	130.69
338.65	147.69
338.878	135.69
339.106	129.69
339.334	160.69
339.562	134.69
339.79	145.69
340.018	111.69
340.246	140.69
340.474	134.69
340.702	131.69
340.93	151.69
341.158	122.69
341.386	132.69
341.614	119.69
341.842	131.69
342.07	148.69
342.298	130.69
342.526	132.69
342.754	134.69
342.981	137.69
343.209	131.69
343.437	164.69
343.665	153.69
343.893	150.69
344.12	146.69
344.348	143.69
344.576	140.69
344.804	133.69
345.031	139.69
345.259	148.69
345.487	133.69
345.714	117.69
345.942	135.69
346.17	136.69
346.397	147.69
346.625	138.69
346.853	138.69
347.08	131.69
347.308	137.69
347.535	128.69
347.763	140.69
347.99	141.69
348.218	136.69
348.445	142.69
348.673	140.69
348.9	138.69
349.128	139.69
349.355	129.69
349.583	128.69
349.81	115.69
350.037	131.69
350.265	140.69
350.492	129.69
350.72	139.69
350.947	142.69
351.174	136.69
351.402	119.69
351.629	127.69
351.856	132.69
352.083	131.69
352.311	118.69
352.538	115.69
352.765	117.69
352.992	133.69
353.22	132.69
353.447	111.69
353.674	125.69
353.901	121.69
354.128	113.69
354.355	134.69
354.583	138.69
354.81	125.69
355.037	121.69
355.264	139.69
355.491	127.69
355.718	131.69
355.945	124.69
356.172	121.69
356.399	124.69
356.626	123.69
356.853	120.69
357.08	145.69
357.307	127.69
357.534	123.69
357.761	147.69
357.988	150.69
358.215	143.69
358.441	128.69
358.668	130.69
358.895	137.69
359.122	136.69
359.349	122.69
359.576	126.69
359.802	118.69
360.029	140.69
360.256	141.69
360.483	128.69
360.709	126.69
360.936	151.69
361.163	136.69
361.39	129.69
361.616	116.69
361.843	125.69
362.07	119.69
362.296	126.69
362.523	130.69
362.749	129.69
362.976	131.69
363.203	158.69
363.429	108.69
363.656	128.69
363.882	125.69
364.109	131.69
364.335	150.69
364.562	134.69
364.788	119.69
365.015	126.69
365.241	120.69
365.468	138.69
365.694	129.69
365.92	130.69
366.147	138.69
366.373	147.69
366.599	121.69
366.826	137.69
367.052	147.69
367.278	124.69
367.505	126.69
367.731	142.69
367.957	125.69
368.184	125.69
368.41	126.69
368.636	137.69
368.862	131.69
369.089	140.69
369.315	117.69
369.541	136.69
369.767	143.69
369.993	138.69
370.219	121.69
370.445	133.69
370.672	146.69
370.898	131.69
371.124	148.69
371.35	152.69
371.576	126.69
371.802	140.69
372.028	147.69
372.254	128.69
372.48	150.69
372.706	158.69
372.932	133.69
373.158	150.69
373.384	137.69
373.61	152.69
373.835	143.69
374.061	139.69
374.287	134.69
374.513	136.69
374.739	152.69
374.965	148.69
375.191	155.69
375.416	157.69
375.642	169.69
375.868	135.69
376.094	143.69
376.319	147.69
376.545	141.69
376.771	144.69
376.997	145.69
377.222	143.69
377.448	142.69
377.674	145.69
377.899	143.69
378.125	138.69
378.35	151.69
378.576	153.69
378.802	157.69
379.027	131.69
379.253	146.69
379.478	146.69
379.704	146.69
379.929	145.69
380.155	141.69
380.38	136.69
380.606	130.69
380.831	131.69
381.057	162.69
381.282	139.69
381.507	141.69
381.733	149.69
381.958	133.69
382.184	142.69
382.409	135.69
382.634	145.69
382.86	149.69
383.085	156.69
383.31	151.69
383.535	153.69
383.761	155.69
383.986	174.69
384.211	165.69
384.436	159.69
384.662	175.69
384.887	150.69
385.112	146.69
385.337	150.69
385.562	153.69
385.787	154.69
386.013	161.69
386.238	150.69
386.463	154.69
386.688	199.69
386.913	169.69
387.138	149.69
387.363	149.69
387.588	186.69
387.813	154.69
388.038	164.69
388.263	163.69
388.488	160.69
388.713	175.69
388.938	163.69
389.163	155.69
389.387	154.69
389.612	152.69
389.837	169.69
390.062	161.69
390.287	150.69
390.512	152.69
390.736	141.69
390.961	165.69
391.186	164.69
391.411	165.69
391.636	167.69
391.86	167.69
392.085	160.69
392.31	186.69
392.534	189.69
392.759	151.69
392.984	176.69
393.208	177.69
393.433	160.69
393.658	175.69
393.882	169.69
394.107	163.69
394.331	175.69
394.556	177.69
394.78	181.69
395.005	167.69
395.229	177.69
395.454	168.69
395.678	168.69
395.903	167.69
396.127	163.69
396.352	161.69
396.576	163.69
396.801	170.69
397.025	167.69
397.249	176.69
397.474	183.69
397.698	179.69
397.922	187.69
398.147	156.69
398.371	181.69
398.595	175.69
398.82	197.69
399.044	197.69
399.268	213.69
399.492	230.69
399.717	241.69
399.941	233.69
400.165	216.69
400.389	187.69
400.613	194.69
400.837	199.69
401.062	179.69
401.286	192.69
401.51	183.69
401.734	181.69
401.958	190.69
402.182	178.69
402.406	188.69
402.63	175.69
402.854	194.69
403.078	187.69
403.302	185.69
403.526	202.69
403.75	200.69
403.974	213.69
404.198	217.69
404.422	197.69
404.645	194.69
404.869	205.69
405.093	205.69
405.317	199.69
405.541	221.69
405.765	190.69
405.988	199.69
406.212	213.69
406.436	201.69
406.66	203.69
406.883	194.69
407.107	224.69
407.331	194.69
407.555	198.69
407.778	207.69
408.002	225.69
408.226	222.69
408.449	211.69
408.673	213.69
408.896	214.69
409.12	203.69
409.344	217.69
409.567	189.69
409.791	201.69
410.014	213.69
410.238	199.69
410.461	209.69
410.685	214.69
410.908	196.69
411.132	197.69
411.355	190.69
411.578	195.69
411.802	189.69
412.025	193.69
412.249	194.69
412.472	201.69
412.695	188.69
412.919	202.69
413.142	211.69
413.365	193.69
413.589	204.69
413.812	171.69
414.035	175.69
414.258	190.69
414.482	193.69
414.705	205.69
414.928	200.69
415.151	206.69
415.374	192.69
415.597	185.69
415.821	182.69
416.044	187.69
416.267	198.69
416.49	188.69
416.713	203.69
416.936	190.69
417.159	179.69
417.382	189.69
417.605	187.69
417.828	198.69
418.051	204.69
418.274	207.69
418.497	194.69
418.72	190.69
418.943	199.69
419.166	199.69
419.389	218.69
419.611	200.69
419.834	209.69
420.057	202.69
420.28	187.69
420.503	201.69
420.726	190.69
420.948	201.69
421.171	206.69
421.394	204.69
421.617	168.69
421.839	198.69
422.062	195.69
422.285	204.69
422.507	199.69
422.73	205.69
422.953	202.69
423.175	197.69
423.398	181.69
423.621	198.69
423.843	212.69
424.066	214.69
424.288	214.69
424.511	210.69
424.733	218.69
424.956	205.69
425.178	193.69
425.401	188.69
425.623	197.69
425.846	188.69
426.068	184.69
426.291	195.69
426.513	195.69
426.735	186.69
426.958	176.69
427.18	194.69
427.402	181.69
427.625	200.69
427.847	196.69
428.069	182.69
428.292	178.69
428.514	185.69
428.736	191.69
428.958	204.69
429.181	179.69
429.403	189.69
429.625	188.69
429.847	205.69
430.069	190.69
430.292	197.69
430.514	185.69
430.736	178.69
430.958	182.69
431.18	187.69
431.402	189.69
431.624	183.69
431.846	158.69
432.068	166.69
432.29	168.69
432.512	178.69
432.734	177.69
432.956	189.69
433.178	196.69
433.4	205.69
433.622	213.69
433.844	182.69
434.066	175.69
434.287	172.69
434.509	184.69
434.731	193.69
434.953	191.69
435.175	204.69
435.397	201.69
435.618	184.69
435.84	176.69
436.062	184.69
436.284	185.69
436.505	189.69
436.727	189.69
436.949	186.69
437.17	186.69
437.392	179.69
437.614	167.69
437.835	167.69
438.057	171.69
438.278	181.69
438.5	185.69
438.721	179.69
438.943	179.69
439.165	186.69
439.386	186.69
439.608	197.69
439.829	186.69
440.05	208.69
440.272	205.69
440.493	189.69
440.715	191.69
440.936	191.69
441.158	205.69
441.379	182.69
441.6	193.69
441.822	199.69
442.043	196.69
442.264	204.69
442.486	189.69
442.707	188.69
442.928	202.69
443.149	191.69
443.371	195.69
443.592	175.69
443.813	209.69
444.034	194.69
444.255	223.69
444.476	207.69
444.698	201.69
444.919	204.69
445.14	474.69
445.361	332.69
445.582	226.69
445.803	190.69
446.024	185.69
446.245	191.69
446.466	215.69
446.687	200.69
446.908	213.69
447.129	190.69
447.35	183.69
447.571	192.69
447.792	187.69
448.013	194.69
448.234	189.69
448.455	189.69
448.675	190.69
448.896	175.69
449.117	191.69
449.338	172.69
449.559	177.69
449.779	188.69
450	186.69
450.221	186.69
450.442	182.69
450.662	205.69
450.883	185.69
451.104	180.69
451.324	177.69
451.545	174.69
451.766	177.69
451.986	185.69
452.207	195.69
452.428	181.69
452.648	182.69
452.869	138.69
453.089	180.69
453.31	171.69
453.53	157.69
453.751	163.69
453.971	154.69
454.192	173.69
454.412	165.69
454.633	172.69
454.853	167.69
455.073	173.69
455.294	170.69
455.514	163.69
455.734	150.69
455.955	189.69
456.175	159.69
456.395	145.69
456.616	171.69
456.836	168.69
457.056	151.69
457.276	140.69
457.497	165.69
457.717	172.69
457.937	140.69
458.157	168.69
458.377	173.69
458.598	155.69
458.818	143.69
459.038	145.69
459.258	167.69
459.478	185.69
459.698	175.69
459.918	165.69
460.138	172.69
460.358	184.69
460.578	213.69
460.798	189.69
461.018	198.69
461.238	194.69
461.458	186.69
461.678	199.69
461.898	218.69
462.118	202.69
462.338	196.69
462.558	208.69
462.777	204.69
462.997	220.69
463.217	219.69
463.437	219.69
463.657	205.69
463.876	207.69
464.096	219.69
464.316	206.69
464.536	221.69
464.755	209.69
464.975	203.69
465.195	200.69
465.414	210.69
465.634	188.69
465.854	183.69
466.073	174.69
466.293	181.69
466.512	177.69
466.732	191.69
466.951	183.69
467.171	172.69
467.391	175.69
467.61	190.69
467.829	189.69
468.049	185.69
468.268	182.69
468.488	175.69
468.707	185.69
468.927	190.69
469.146	189.69
469.365	173.69
469.585	187.69
469.804	188.69
470.023	173.69
470.243	199.69
470.462	207.69
470.681	181.69
470.901	193.69
471.12	189.69
471.339	190.69
471.558	180.69
471.777	185.69
471.997	170.69
472.216	181.69
472.435	159.69
472.654	142.69
472.873	176.69
473.092	180.69
473.311	178.69
473.53	167.69
473.749	201.69
473.968	181.69
474.187	171.69
474.406	171.69
474.625	179.69
474.844	173.69
475.063	182.69
475.282	185.69
475.501	163.69
475.72	189.69
475.939	170.69
476.158	168.69
476.377	187.69
476.596	184.69
476.814	183.69
477.033	170.69
477.252	195.69
477.471	197.69
477.69	182.69
477.908	196.69
478.127	205.69
478.346	206.69
478.564	207.69
478.783	185.69
479.002	194.69
479.22	200.69
479.439	205.69
479.658	185.69
479.876	185.69
480.095	191.69
480.313	206.69
480.532	212.69
480.751	189.69
480.969	192.69
481.188	173.69
481.406	177.69
481.624	167.69
481.843	172.69
482.061	154.69
482.28	174.69
482.498	186.69
482.717	164.69
482.935	197.69
483.153	204.69
483.372	185.69
483.59	193.69
483.808	200.69
484.027	199.69
484.245	191.69
484.463	195.69
484.681	222.69
484.9	206.69
485.118	215.69
485.336	182.69
485.554	187.69
485.772	177.69
485.99	182.69
486.209	193.69
486.427	179.69
486.645	193.69
486.863	190.69
487.081	204.69
487.299	199.69
487.517	209.69
487.735	198.69
487.953	226.69
488.171	219.69
488.389	221.69
488.607	221.69
488.825	200.69
489.043	189.69
489.261	198.69
489.479	179.69
489.696	196.69
489.914	197.69
490.132	185.69
490.35	208.69
490.568	220.69
490.786	214.69
491.003	217.69
491.221	229.69
491.439	212.69
491.657	218.69
491.874	226.69
492.092	254.69
492.31	261.69
492.527	243.69
492.745	221.69
492.963	228.69
493.18	233.69
493.398	241.69
493.615	238.69
493.833	206.69
494.05	219.69
494.268	234.69
494.485	242.69
494.703	215.69
494.92	222.69
495.138	220.69
495.355	231.69
495.573	209.69
495.79	217.69
496.008	221.69
496.225	227.69
496.442	234.69
496.66	226.69
496.877	218.69
497.094	231.69
497.312	233.69
497.529	236.69
497.746	238.69
497.963	220.69
498.181	231.69
498.398	231.69
498.615	239.69
498.832	245.69
499.049	251.69
499.267	266.69
499.484	299.69
499.701	322.69
499.918	343.69
500.135	369.69
500.352	420.69
500.569	433.69
500.786	411.69
501.003	385.69
501.22	340.69
501.437	319.69
501.654	308.69
501.871	283.69
502.088	276.69
502.305	249.69
502.522	247.69
502.739	254.69
502.956	237.69
503.172	212.69
503.389	228.69
503.606	229.69
503.823	200.69
504.04	216.69
504.256	216.69
504.473	221.69
504.69	227.69
