Data from SampD_HRD10591_00067.txt Node
Date: Mon Jan 19 11:50:38 EST 2026
User: Yrep
Spectrometer: HR+D1059
Trigger mode: 0
Integration Time (sec): 3.443000E-1
Scans to average: 1
Electric dark correction enabled: true
Nonlinearity correction enabled: false
Boxcar width: 0
XAxis mode: Wavelengths
Number of Pixels in Spectrum: 2048
>>>>>Begin Spectral Data<<<<<
223.165	-16.19
223.4	-16.19
223.635	-16.19
223.869	-27.19
224.104	-33.19
224.338	-12.19
224.573	-22.19
224.808	-11.19
225.042	-7.19
225.277	-3.19
225.511	5.81
225.746	4.81
225.98	6.81
226.215	18.81
226.449	21.81
226.683	16.81
226.918	22.81
227.152	34.81
227.387	30.81
227.621	37.81
227.856	40.81
228.09	40.81
228.324	59.81
228.559	54.81
228.793	59.81
229.027	60.81
229.262	73.81
229.496	61.81
229.73	80.81
229.964	90.81
230.199	86.81
230.433	80.81
230.667	82.81
230.901	70.81
231.136	76.81
231.37	63.81
231.604	75.81
231.838	84.81
232.072	73.81
232.306	61.81
232.541	91.81
232.775	84.81
233.009	83.81
233.243	82.81
233.477	79.81
233.711	86.81
233.945	98.81
234.179	80.81
234.413	93.81
234.647	86.81
234.881	83.81
235.115	99.81
235.349	78.81
235.583	75.81
235.817	81.81
236.051	70.81
236.285	80.81
236.519	84.81
236.753	67.81
236.987	90.81
237.221	98.81
237.455	76.81
237.689	73.81
237.922	85.81
238.156	83.81
238.39	73.81
238.624	75.81
238.858	85.81
239.091	72.81
239.325	74.81
239.559	95.81
239.793	75.81
240.027	89.81
240.26	82.81
240.494	82.81
240.728	76.81
240.961	82.81
241.195	88.81
241.429	89.81
241.662	87.81
241.896	78.81
242.13	80.81
242.363	82.81
242.597	84.81
242.83	86.81
243.064	88.81
243.298	83.81
243.531	95.81
243.765	91.81
243.998	91.81
244.232	70.81
244.465	86.81
244.699	93.81
244.932	76.81
245.166	91.81
245.399	79.81
245.633	111.81
245.866	83.81
246.099	72.81
246.333	85.81
246.566	84.81
246.8	90.81
247.033	85.81
247.266	97.81
247.5	78.81
247.733	91.81
247.966	101.81
248.2	89.81
248.433	97.81
248.666	102.81
248.899	83.81
249.133	95.81
249.366	106.81
249.599	96.81
249.832	81.81
250.066	78.81
250.299	97.81
250.532	95.81
250.765	89.81
250.998	95.81
251.231	95.81
251.465	100.81
251.698	88.81
251.931	90.81
252.164	86.81
252.397	83.81
252.63	85.81
252.863	90.81
253.096	80.81
253.329	86.81
253.562	90.81
253.795	92.81
254.028	81.81
254.261	91.81
254.494	99.81
254.727	97.81
254.96	91.81
255.193	93.81
255.426	88.81
255.659	98.81
255.892	105.81
256.124	101.81
256.357	94.81
256.59	100.81
256.823	102.81
257.056	98.81
257.289	103.81
257.521	101.81
257.754	95.81
257.987	101.81
258.22	92.81
258.452	89.81
258.685	102.81
258.918	104.81
259.151	81.81
259.383	109.81
259.616	103.81
259.849	98.81
260.081	89.81
260.314	93.81
260.547	93.81
260.779	98.81
261.012	90.81
261.244	112.81
261.477	102.81
261.71	87.81
261.942	98.81
262.175	102.81
262.407	89.81
262.64	85.81
262.872	96.81
263.105	104.81
263.337	114.81
263.57	101.81
263.802	80.81
264.035	106.81
264.267	99.81
264.499	98.81
264.732	96.81
264.964	93.81
265.197	89.81
265.429	102.81
265.661	94.81
265.894	90.81
266.126	118.81
266.358	97.81
266.591	106.81
266.823	94.81
267.055	85.81
267.287	98.81
267.52	99.81
267.752	101.81
267.984	97.81
268.216	100.81
268.448	104.81
268.681	111.81
268.913	111.81
269.145	92.81
269.377	109.81
269.609	95.81
269.841	95.81
270.073	114.81
270.306	108.81
270.538	99.81
270.77	99.81
271.002	105.81
271.234	97.81
271.466	112.81
271.698	95.81
271.93	108.81
272.162	102.81
272.394	110.81
272.626	97.81
272.858	113.81
273.09	100.81
273.322	96.81
273.553	104.81
273.785	100.81
274.017	105.81
274.249	115.81
274.481	99.81
274.713	106.81
274.945	121.81
275.176	88.81
275.408	110.81
275.64	113.81
275.872	102.81
276.104	112.81
276.335	91.81
276.567	107.81
276.799	95.81
277.031	103.81
277.262	113.81
277.494	108.81
277.726	107.81
277.957	96.81
278.189	102.81
278.421	118.81
278.652	108.81
278.884	111.81
279.115	101.81
279.347	112.81
279.579	99.81
279.81	109.81
280.042	100.81
280.273	121.81
280.505	126.81
280.736	94.81
280.968	100.81
281.199	111.81
281.431	109.81
281.662	106.81
281.894	109.81
282.125	116.81
282.356	113.81
282.588	118.81
282.819	105.81
283.051	112.81
283.282	115.81
283.513	133.81
283.745	107.81
283.976	113.81
284.207	115.81
284.439	116.81
284.67	110.81
284.901	130.81
285.132	113.81
285.364	103.81
285.595	122.81
285.826	135.81
286.057	125.81
286.288	127.81
286.52	130.81
286.751	112.81
286.982	119.81
287.213	108.81
287.444	121.81
287.675	109.81
287.906	115.81
288.138	120.81
288.369	124.81
288.6	116.81
288.831	121.81
289.062	114.81
289.293	129.81
289.524	120.81
289.755	118.81
289.986	120.81
290.217	126.81
290.448	119.81
290.679	129.81
290.91	127.81
291.141	109.81
291.371	112.81
291.602	132.81
291.833	108.81
292.064	129.81
292.295	117.81
292.526	123.81
292.757	124.81
292.987	124.81
293.218	109.81
293.449	113.81
293.68	112.81
293.91	105.81
294.141	124.81
294.372	128.81
294.603	125.81
294.833	122.81
295.064	115.81
295.295	116.81
295.525	123.81
295.756	121.81
295.987	109.81
296.217	104.81
296.448	113.81
296.679	120.81
296.909	124.81
297.14	120.81
297.37	125.81
297.601	125.81
297.831	132.81
298.062	117.81
298.292	130.81
298.523	123.81
298.753	136.81
298.984	127.81
299.214	131.81
299.445	125.81
299.675	139.81
299.905	124.81
300.136	122.81
300.366	115.81
300.597	125.81
300.827	134.81
301.057	128.81
301.288	133.81
301.518	122.81
301.748	136.81
301.979	162.81
302.209	141.81
302.439	129.81
302.669	123.81
302.9	132.81
303.13	125.81
303.36	128.81
303.59	125.81
303.82	129.81
304.051	120.81
304.281	141.81
304.511	132.81
304.741	129.81
304.971	101.81
305.201	137.81
305.431	130.81
305.661	140.81
305.891	122.81
306.121	128.81
306.352	126.81
306.582	136.81
306.812	126.81
307.042	118.81
307.272	129.81
307.502	124.81
307.731	122.81
307.961	116.81
308.191	129.81
308.421	135.81
308.651	130.81
308.881	120.81
309.111	122.81
309.341	117.81
309.571	117.81
309.8	116.81
310.03	136.81
310.26	122.81
310.49	125.81
310.72	117.81
310.949	130.81
311.179	121.81
311.409	131.81
311.639	133.81
311.868	139.81
312.098	119.81
312.328	133.81
312.557	138.81
312.787	124.81
313.017	139.81
313.246	143.81
313.476	128.81
313.706	110.81
313.935	129.81
314.165	145.81
314.394	145.81
314.624	132.81
314.853	127.81
315.083	108.81
315.312	134.81
315.542	114.81
315.771	123.81
316.001	127.81
316.23	114.81
316.46	139.81
316.689	131.81
316.919	116.81
317.148	130.81
317.377	143.81
317.607	134.81
317.836	134.81
318.065	134.81
318.295	121.81
318.524	117.81
318.753	135.81
318.983	113.81
319.212	121.81
319.441	131.81
319.67	135.81
319.9	125.81
320.129	122.81
320.358	125.81
320.587	130.81
320.816	131.81
321.046	129.81
321.275	140.81
321.504	124.81
321.733	132.81
321.962	126.81
322.191	136.81
322.42	131.81
322.649	118.81
322.878	148.81
323.108	134.81
323.337	137.81
323.566	138.81
323.795	124.81
324.024	128.81
324.253	114.81
324.482	124.81
324.71	132.81
324.939	135.81
325.168	128.81
325.397	133.81
325.626	139.81
325.855	130.81
326.084	129.81
326.313	137.81
326.542	131.81
326.77	141.81
326.999	128.81
327.228	135.81
327.457	121.81
327.686	134.81
327.914	123.81
328.143	129.81
328.372	127.81
328.6	146.81
328.829	123.81
329.058	129.81
329.287	122.81
329.515	137.81
329.744	130.81
329.972	139.81
330.201	123.81
330.43	150.81
330.658	130.81
330.887	134.81
331.115	136.81
331.344	146.81
331.572	134.81
331.801	131.81
332.03	141.81
332.258	139.81
332.486	131.81
332.715	131.81
332.943	126.81
333.172	136.81
333.4	150.81
333.629	150.81
333.857	146.81
334.085	152.81
334.314	144.81
334.542	142.81
334.771	146.81
334.999	132.81
335.227	138.81
335.455	150.81
335.684	161.81
335.912	148.81
336.14	133.81
336.369	152.81
336.597	154.81
336.825	141.81
337.053	148.81
337.281	137.81
337.51	138.81
337.738	140.81
337.966	140.81
338.194	117.81
338.422	130.81
338.65	129.81
338.878	146.81
339.106	137.81
339.334	151.81
339.562	135.81
339.79	128.81
340.018	131.81
340.246	133.81
340.474	128.81
340.702	146.81
340.93	137.81
341.158	129.81
341.386	139.81
341.614	128.81
341.842	135.81
342.07	132.81
342.298	132.81
342.526	126.81
342.754	141.81
342.981	127.81
343.209	140.81
343.437	166.81
343.665	148.81
343.893	172.81
344.12	171.81
344.348	146.81
344.576	134.81
344.804	132.81
345.031	124.81
345.259	131.81
345.487	132.81
345.714	140.81
345.942	135.81
346.17	141.81
346.397	141.81
346.625	141.81
346.853	130.81
347.08	132.81
347.308	130.81
347.535	149.81
347.763	130.81
347.99	139.81
348.218	129.81
348.445	142.81
348.673	126.81
348.9	146.81
349.128	138.81
349.355	144.81
349.583	142.81
349.81	120.81
350.037	130.81
350.265	125.81
350.492	132.81
350.72	138.81
350.947	116.81
351.174	144.81
351.402	144.81
351.629	132.81
351.856	135.81
352.083	135.81
352.311	131.81
352.538	134.81
352.765	120.81
352.992	133.81
353.22	120.81
353.447	138.81
353.674	142.81
353.901	120.81
354.128	133.81
354.355	121.81
354.583	105.81
354.81	125.81
355.037	149.81
355.264	132.81
355.491	137.81
355.718	135.81
355.945	138.81
356.172	144.81
356.399	141.81
356.626	133.81
356.853	152.81
357.08	143.81
357.307	137.81
357.534	125.81
357.761	157.81
357.988	135.81
358.215	126.81
358.441	130.81
358.668	131.81
358.895	142.81
359.122	134.81
359.349	137.81
359.576	136.81
359.802	138.81
360.029	126.81
360.256	115.81
360.483	137.81
360.709	129.81
360.936	149.81
361.163	141.81
361.39	136.81
361.616	139.81
361.843	132.81
362.07	128.81
362.296	129.81
362.523	129.81
362.749	145.81
362.976	133.81
363.203	148.81
363.429	119.81
363.656	129.81
363.882	131.81
364.109	125.81
364.335	134.81
364.562	149.81
364.788	125.81
365.015	132.81
365.241	132.81
365.468	146.81
365.694	135.81
365.92	127.81
366.147	139.81
366.373	124.81
366.599	145.81
366.826	128.81
367.052	134.81
367.278	128.81
367.505	142.81
367.731	157.81
367.957	141.81
368.184	132.81
368.41	132.81
368.636	140.81
368.862	128.81
369.089	148.81
369.315	129.81
369.541	137.81
369.767	145.81
369.993	140.81
370.219	138.81
370.445	146.81
370.672	128.81
370.898	135.81
371.124	138.81
371.35	147.81
371.576	156.81
371.802	129.81
372.028	144.81
372.254	149.81
372.48	153.81
372.706	141.81
372.932	151.81
373.158	132.81
373.384	147.81
373.61	161.81
373.835	155.81
374.061	132.81
374.287	134.81
374.513	140.81
374.739	147.81
374.965	146.81
375.191	137.81
375.416	154.81
375.642	145.81
375.868	161.81
376.094	138.81
376.319	148.81
376.545	153.81
376.771	133.81
376.997	143.81
377.222	144.81
377.448	145.81
377.674	149.81
377.899	148.81
378.125	146.81
378.35	141.81
378.576	148.81
378.802	145.81
379.027	146.81
379.253	156.81
379.478	146.81
379.704	142.81
379.929	142.81
380.155	144.81
380.38	146.81
380.606	153.81
380.831	149.81
381.057	170.81
381.282	156.81
381.507	146.81
381.733	151.81
381.958	167.81
382.184	144.81
382.409	147.81
382.634	145.81
382.86	156.81
383.085	170.81
383.31	149.81
383.535	161.81
383.761	164.81
383.986	153.81
384.211	148.81
384.436	172.81
384.662	159.81
384.887	156.81
385.112	170.81
385.337	161.81
385.562	156.81
385.787	169.81
386.013	170.81
386.238	166.81
386.463	148.81
386.688	197.81
386.913	169.81
387.138	160.81
387.363	148.81
387.588	178.81
387.813	154.81
388.038	159.81
388.263	153.81
388.488	163.81
388.713	159.81
388.938	171.81
389.163	183.81
389.387	182.81
389.612	163.81
389.837	163.81
390.062	164.81
390.287	156.81
390.512	171.81
390.736	167.81
390.961	171.81
391.186	183.81
391.411	178.81
391.636	185.81
391.86	163.81
392.085	175.81
392.31	173.81
392.534	163.81
392.759	166.81
392.984	164.81
393.208	186.81
393.433	170.81
393.658	182.81
393.882	175.81
394.107	171.81
394.331	169.81
394.556	180.81
394.78	165.81
395.005	193.81
395.229	178.81
395.454	176.81
395.678	173.81
395.903	192.81
396.127	163.81
396.352	154.81
396.576	170.81
396.801	169.81
397.025	165.81
397.249	185.81
397.474	184.81
397.698	169.81
397.922	187.81
398.147	176.81
398.371	186.81
398.595	186.81
398.82	188.81
399.044	176.81
399.268	198.81
399.492	230.81
399.717	253.81
399.941	225.81
400.165	221.81
400.389	208.81
400.613	180.81
400.837	194.81
401.062	192.81
401.286	183.81
401.51	174.81
401.734	178.81
401.958	201.81
402.182	202.81
402.406	195.81
402.63	210.81
402.854	203.81
403.078	196.81
403.302	180.81
403.526	197.81
403.75	200.81
403.974	227.81
404.198	212.81
404.422	215.81
404.645	198.81
404.869	203.81
405.093	212.81
405.317	188.81
405.541	201.81
405.765	205.81
405.988	186.81
406.212	199.81
406.436	196.81
406.66	224.81
406.883	200.81
407.107	213.81
407.331	206.81
407.555	221.81
407.778	219.81
408.002	210.81
408.226	227.81
408.449	213.81
408.673	213.81
408.896	208.81
409.12	205.81
409.344	216.81
409.567	216.81
409.791	226.81
410.014	205.81
410.238	200.81
410.461	219.81
410.685	203.81
410.908	210.81
411.132	214.81
411.355	214.81
411.578	212.81
411.802	192.81
412.025	185.81
412.249	196.81
412.472	193.81
412.695	180.81
412.919	199.81
413.142	209.81
413.365	218.81
413.589	188.81
413.812	180.81
414.035	199.81
414.258	198.81
414.482	198.81
414.705	208.81
414.928	218.81
415.151	195.81
415.374	189.81
415.597	195.81
415.821	204.81
416.044	200.81
416.267	200.81
416.49	194.81
416.713	196.81
416.936	189.81
417.159	188.81
417.382	204.81
417.605	192.81
417.828	195.81
418.051	182.81
418.274	210.81
418.497	211.81
418.72	182.81
418.943	219.81
419.166	210.81
419.389	202.81
419.611	220.81
419.834	204.81
420.057	209.81
420.28	189.81
420.503	189.81
420.726	208.81
420.948	208.81
421.171	198.81
421.394	197.81
421.617	195.81
421.839	210.81
422.062	214.81
422.285	220.81
422.507	205.81
422.73	214.81
422.953	178.81
423.175	206.81
423.398	197.81
423.621	212.81
423.843	200.81
424.066	206.81
424.288	197.81
424.511	220.81
424.733	200.81
424.956	215.81
425.178	219.81
425.401	204.81
425.623	198.81
425.846	183.81
426.068	211.81
426.291	182.81
426.513	185.81
426.735	205.81
426.958	213.81
427.18	188.81
427.402	196.81
427.625	184.81
427.847	184.81
428.069	178.81
428.292	179.81
428.514	175.81
428.736	182.81
428.958	188.81
429.181	193.81
429.403	200.81
429.625	195.81
429.847	178.81
430.069	171.81
430.292	212.81
430.514	167.81
430.736	182.81
430.958	178.81
431.18	184.81
431.402	197.81
431.624	187.81
431.846	174.81
432.068	190.81
432.29	173.81
432.512	192.81
432.734	189.81
432.956	200.81
433.178	200.81
433.4	196.81
433.622	183.81
433.844	188.81
434.066	200.81
434.287	170.81
434.509	178.81
434.731	193.81
434.953	203.81
435.175	201.81
435.397	192.81
435.618	176.81
435.84	177.81
436.062	185.81
436.284	170.81
436.505	188.81
436.727	192.81
436.949	180.81
437.17	172.81
437.392	180.81
437.614	183.81
437.835	187.81
438.057	177.81
438.278	171.81
438.5	171.81
438.721	179.81
438.943	169.81
439.165	174.81
439.386	202.81
439.608	205.81
439.829	202.81
440.05	212.81
440.272	203.81
440.493	205.81
440.715	205.81
440.936	214.81
441.158	209.81
441.379	225.81
441.6	211.81
441.822	196.81
442.043	186.81
442.264	196.81
442.486	200.81
442.707	190.81
442.928	203.81
443.149	206.81
443.371	204.81
443.592	209.81
443.813	220.81
444.034	198.81
444.255	223.81
444.476	218.81
444.698	218.81
444.919	219.81
445.14	463.81
445.361	317.81
445.582	212.81
445.803	207.81
446.024	193.81
446.245	210.81
446.466	187.81
446.687	212.81
446.908	194.81
447.129	189.81
447.35	213.81
447.571	198.81
447.792	204.81
448.013	186.81
448.234	199.81
448.455	185.81
448.675	186.81
448.896	172.81
449.117	176.81
449.338	181.81
449.559	184.81
449.779	180.81
450	194.81
450.221	181.81
450.442	196.81
450.662	172.81
450.883	185.81
451.104	195.81
451.324	180.81
451.545	178.81
451.766	179.81
451.986	176.81
452.207	191.81
452.428	182.81
452.648	194.81
452.869	185.81
453.089	160.81
453.31	177.81
453.53	161.81
453.751	179.81
453.971	164.81
454.192	176.81
454.412	172.81
454.633	166.81
454.853	173.81
455.073	170.81
455.294	178.81
455.514	194.81
455.734	165.81
455.955	163.81
456.175	184.81
456.395	169.81
456.616	183.81
456.836	158.81
457.056	160.81
457.276	154.81
457.497	179.81
457.717	174.81
457.937	175.81
458.157	153.81
458.377	169.81
458.598	156.81
458.818	162.81
459.038	153.81
459.258	172.81
459.478	162.81
459.698	194.81
459.918	184.81
460.138	187.81
460.358	205.81
460.578	202.81
460.798	193.81
461.018	202.81
461.238	201.81
461.458	189.81
461.678	176.81
461.898	187.81
462.118	220.81
462.338	197.81
462.558	217.81
462.777	216.81
462.997	241.81
463.217	225.81
463.437	221.81
463.657	225.81
463.876	208.81
464.096	210.81
464.316	217.81
464.536	218.81
464.755	220.81
464.975	210.81
465.195	210.81
465.414	200.81
465.634	191.81
465.854	175.81
466.073	187.81
466.293	188.81
466.512	191.81
466.732	196.81
466.951	172.81
467.171	191.81
467.391	197.81
467.61	192.81
467.829	161.81
468.049	182.81
468.268	178.81
468.488	188.81
468.707	175.81
468.927	183.81
469.146	166.81
469.365	187.81
469.585	192.81
469.804	168.81
470.023	201.81
470.243	214.81
470.462	207.81
470.681	180.81
470.901	203.81
471.12	187.81
471.339	187.81
471.558	194.81
471.777	170.81
471.997	188.81
472.216	177.81
472.435	164.81
472.654	164.81
472.873	154.81
473.092	169.81
473.311	170.81
473.53	157.81
473.749	173.81
473.968	182.81
474.187	182.81
474.406	176.81
474.625	184.81
474.844	186.81
475.063	173.81
475.282	171.81
475.501	176.81
475.72	179.81
475.939	180.81
476.158	177.81
476.377	184.81
476.596	186.81
476.814	159.81
477.033	164.81
477.252	173.81
477.471	174.81
477.69	206.81
477.908	217.81
478.127	217.81
478.346	198.81
478.564	200.81
478.783	197.81
479.002	202.81
479.22	194.81
479.439	204.81
479.658	202.81
479.876	197.81
480.095	189.81
480.313	202.81
480.532	220.81
480.751	210.81
480.969	191.81
481.188	172.81
481.406	194.81
481.624	176.81
481.843	171.81
482.061	172.81
482.28	175.81
482.498	171.81
482.717	170.81
482.935	194.81
483.153	198.81
483.372	208.81
483.59	220.81
483.808	201.81
484.027	210.81
484.245	212.81
484.463	204.81
484.681	222.81
484.9	221.81
485.118	222.81
485.336	182.81
485.554	194.81
485.772	196.81
485.99	196.81
486.209	193.81
486.427	204.81
486.645	203.81
486.863	205.81
487.081	219.81
487.299	201.81
487.517	210.81
487.735	224.81
487.953	238.81
488.171	218.81
488.389	229.81
488.607	194.81
488.825	200.81
489.043	193.81
489.261	215.81
489.479	218.81
489.696	213.81
489.914	208.81
490.132	197.81
490.35	216.81
490.568	218.81
490.786	216.81
491.003	223.81
491.221	230.81
491.439	212.81
491.657	235.81
491.874	239.81
492.092	264.81
492.31	267.81
492.527	238.81
492.745	236.81
492.963	236.81
493.18	242.81
493.398	244.81
493.615	236.81
493.833	225.81
494.05	223.81
494.268	222.81
494.485	226.81
494.703	229.81
494.92	233.81
495.138	228.81
495.355	220.81
495.573	243.81
495.79	237.81
496.008	223.81
496.225	232.81
496.442	228.81
496.66	254.81
496.877	226.81
497.094	245.81
497.312	229.81
497.529	234.81
497.746	218.81
497.963	213.81
498.181	220.81
498.398	234.81
498.615	254.81
498.832	243.81
499.049	254.81
499.267	289.81
499.484	306.81
499.701	339.81
499.918	359.81
500.135	378.81
500.352	435.81
500.569	424.81
500.786	424.81
501.003	386.81
501.22	363.81
501.437	326.81
501.654	292.81
501.871	276.81
502.088	265.81
502.305	255.81
502.522	253.81
502.739	250.81
502.956	238.81
503.172	230.81
503.389	224.81
503.606	224.81
503.823	225.81
504.04	213.81
504.256	216.81
504.473	235.81
504.69	219.81
504.907	210.81
