Data from SampD_HRD10591_00003.txt Node
Date: Mon Jan 19 11:50:16 EST 2026
User: Yrep
Spectrometer: HR+D1059
Trigger mode: 0
Integration Time (sec): 3.443000E-1
Scans to average: 1
Electric dark correction enabled: true
Nonlinearity correction enabled: false
Boxcar width: 0
XAxis mode: Wavelengths
Number of Pixels in Spectrum: 2048
>>>>>Begin Spectral Data<<<<<
223.165	-15.06
223.4	-15.06
223.635	-15.06
223.869	-33.06
224.104	-32.06
224.338	-4.06
224.573	-5.06
224.808	-11.06
225.042	-8.06
225.277	-9.06
225.511	-1.06
225.746	7.94
225.98	9.94
226.215	5.94
226.449	8.94
226.683	28.94
226.918	28.94
227.152	27.94
227.387	48.94
227.621	36.94
227.856	46.94
228.09	47.94
228.324	38.94
228.559	63.94
228.793	58.94
229.027	82.94
229.262	60.94
229.496	92.94
229.73	74.94
229.964	66.94
230.199	64.94
230.433	78.94
230.667	79.94
230.901	80.94
231.136	86.94
231.37	86.94
231.604	93.94
231.838	75.94
232.072	83.94
232.306	75.94
232.541	69.94
232.775	84.94
233.009	83.94
233.243	100.94
233.477	70.94
233.711	65.94
233.945	77.94
234.179	88.94
234.413	89.94
234.647	100.94
234.881	94.94
235.115	85.94
235.349	92.94
235.583	90.94
235.817	88.94
236.051	82.94
236.285	84.94
236.519	96.94
236.753	74.94
236.987	88.94
237.221	90.94
237.455	83.94
237.689	82.94
237.922	89.94
238.156	78.94
238.39	78.94
238.624	68.94
238.858	98.94
239.091	89.94
239.325	84.94
239.559	76.94
239.793	80.94
240.027	103.94
240.26	83.94
240.494	80.94
240.728	73.94
240.961	78.94
241.195	80.94
241.429	88.94
241.662	88.94
241.896	80.94
242.13	86.94
242.363	93.94
242.597	80.94
242.83	78.94
243.064	65.94
243.298	87.94
243.531	92.94
243.765	91.94
243.998	79.94
244.232	99.94
244.465	89.94
244.699	67.94
244.932	83.94
245.166	95.94
245.399	84.94
245.633	84.94
245.866	98.94
246.099	97.94
246.333	92.94
246.566	82.94
246.8	85.94
247.033	90.94
247.266	87.94
247.5	82.94
247.733	94.94
247.966	89.94
248.2	84.94
248.433	95.94
248.666	97.94
248.899	74.94
249.133	94.94
249.366	106.94
249.599	97.94
249.832	83.94
250.066	86.94
250.299	78.94
250.532	96.94
250.765	84.94
250.998	92.94
251.231	91.94
251.465	103.94
251.698	100.94
251.931	101.94
252.164	82.94
252.397	103.94
252.63	90.94
252.863	85.94
253.096	73.94
253.329	95.94
253.562	96.94
253.795	93.94
254.028	100.94
254.261	95.94
254.494	97.94
254.727	90.94
254.96	88.94
255.193	80.94
255.426	84.94
255.659	84.94
255.892	101.94
256.124	91.94
256.357	103.94
256.59	100.94
256.823	89.94
257.056	96.94
257.289	87.94
257.521	103.94
257.754	100.94
257.987	88.94
258.22	99.94
258.452	89.94
258.685	104.94
258.918	95.94
259.151	101.94
259.383	98.94
259.616	98.94
259.849	83.94
260.081	90.94
260.314	101.94
260.547	100.94
260.779	99.94
261.012	90.94
261.244	88.94
261.477	103.94
261.71	83.94
261.942	100.94
262.175	101.94
262.407	99.94
262.64	97.94
262.872	106.94
263.105	98.94
263.337	108.94
263.57	89.94
263.802	101.94
264.035	103.94
264.267	108.94
264.499	87.94
264.732	106.94
264.964	89.94
265.197	92.94
265.429	104.94
265.661	83.94
265.894	88.94
266.126	91.94
266.358	107.94
266.591	95.94
266.823	90.94
267.055	103.94
267.287	108.94
267.52	97.94
267.752	105.94
267.984	98.94
268.216	100.94
268.448	112.94
268.681	112.94
268.913	115.94
269.145	101.94
269.377	106.94
269.609	104.94
269.841	100.94
270.073	105.94
270.306	105.94
270.538	101.94
270.77	85.94
271.002	107.94
271.234	96.94
271.466	107.94
271.698	102.94
271.93	95.94
272.162	103.94
272.394	111.94
272.626	108.94
272.858	108.94
273.09	112.94
273.322	94.94
273.553	87.94
273.785	109.94
274.017	96.94
274.249	96.94
274.481	89.94
274.713	96.94
274.945	100.94
275.176	111.94
275.408	113.94
275.64	98.94
275.872	99.94
276.104	98.94
276.335	103.94
276.567	112.94
276.799	98.94
277.031	105.94
277.262	108.94
277.494	106.94
277.726	117.94
277.957	118.94
278.189	105.94
278.421	117.94
278.652	114.94
278.884	122.94
279.115	102.94
279.347	119.94
279.579	122.94
279.81	90.94
280.042	110.94
280.273	115.94
280.505	110.94
280.736	100.94
280.968	111.94
281.199	110.94
281.431	112.94
281.662	102.94
281.894	104.94
282.125	102.94
282.356	107.94
282.588	112.94
282.819	106.94
283.051	124.94
283.282	106.94
283.513	116.94
283.745	125.94
283.976	110.94
284.207	100.94
284.439	101.94
284.67	98.94
284.901	109.94
285.132	116.94
285.364	116.94
285.595	122.94
285.826	114.94
286.057	116.94
286.288	111.94
286.52	109.94
286.751	116.94
286.982	122.94
287.213	120.94
287.444	122.94
287.675	112.94
287.906	128.94
288.138	106.94
288.369	107.94
288.6	100.94
288.831	107.94
289.062	116.94
289.293	107.94
289.524	114.94
289.755	126.94
289.986	120.94
290.217	108.94
290.448	114.94
290.679	118.94
290.91	119.94
291.141	116.94
291.371	116.94
291.602	127.94
291.833	103.94
292.064	120.94
292.295	113.94
292.526	115.94
292.757	116.94
292.987	121.94
293.218	116.94
293.449	129.94
293.68	121.94
293.91	125.94
294.141	110.94
294.372	115.94
294.603	110.94
294.833	129.94
295.064	121.94
295.295	120.94
295.525	117.94
295.756	122.94
295.987	120.94
296.217	118.94
296.448	102.94
296.679	117.94
296.909	119.94
297.14	123.94
297.37	131.94
297.601	120.94
297.831	131.94
298.062	120.94
298.292	119.94
298.523	119.94
298.753	125.94
298.984	120.94
299.214	118.94
299.445	120.94
299.675	130.94
299.905	122.94
300.136	125.94
300.366	131.94
300.597	127.94
300.827	126.94
301.057	110.94
301.288	131.94
301.518	121.94
301.748	137.94
301.979	160.94
302.209	120.94
302.439	107.94
302.669	127.94
302.9	126.94
303.13	125.94
303.36	122.94
303.59	113.94
303.82	136.94
304.051	134.94
304.281	131.94
304.511	142.94
304.741	119.94
304.971	125.94
305.201	129.94
305.431	121.94
305.661	127.94
305.891	123.94
306.121	123.94
306.352	119.94
306.582	130.94
306.812	114.94
307.042	116.94
307.272	131.94
307.502	107.94
307.731	119.94
307.961	135.94
308.191	113.94
308.421	124.94
308.651	150.94
308.881	131.94
309.111	116.94
309.341	118.94
309.571	113.94
309.8	136.94
310.03	132.94
310.26	128.94
310.49	111.94
310.72	117.94
310.949	116.94
311.179	121.94
311.409	120.94
311.639	115.94
311.868	131.94
312.098	132.94
312.328	124.94
312.557	112.94
312.787	123.94
313.017	119.94
313.246	125.94
313.476	129.94
313.706	132.94
313.935	132.94
314.165	129.94
314.394	130.94
314.624	138.94
314.853	136.94
315.083	127.94
315.312	129.94
315.542	148.94
315.771	131.94
316.001	116.94
316.23	129.94
316.46	146.94
316.689	124.94
316.919	128.94
317.148	118.94
317.377	138.94
317.607	120.94
317.836	128.94
318.065	129.94
318.295	131.94
318.524	133.94
318.753	124.94
318.983	113.94
319.212	119.94
319.441	121.94
319.67	117.94
319.9	143.94
320.129	131.94
320.358	112.94
320.587	132.94
320.816	122.94
321.046	138.94
321.275	124.94
321.504	111.94
321.733	130.94
321.962	130.94
322.191	131.94
322.42	109.94
322.649	124.94
322.878	134.94
323.108	126.94
323.337	131.94
323.566	129.94
323.795	116.94
324.024	120.94
324.253	108.94
324.482	126.94
324.71	138.94
324.939	132.94
325.168	137.94
325.397	139.94
325.626	124.94
325.855	145.94
326.084	136.94
326.313	144.94
326.542	127.94
326.77	130.94
326.999	129.94
327.228	134.94
327.457	133.94
327.686	126.94
327.914	119.94
328.143	139.94
328.372	118.94
328.6	131.94
328.829	131.94
329.058	126.94
329.287	137.94
329.515	126.94
329.744	140.94
329.972	120.94
330.201	140.94
330.43	147.94
330.658	118.94
330.887	138.94
331.115	135.94
331.344	135.94
331.572	147.94
331.801	142.94
332.03	144.94
332.258	147.94
332.486	130.94
332.715	139.94
332.943	139.94
333.172	151.94
333.4	159.94
333.629	151.94
333.857	159.94
334.085	161.94
334.314	160.94
334.542	148.94
334.771	142.94
334.999	158.94
335.227	137.94
335.455	150.94
335.684	148.94
335.912	127.94
336.14	144.94
336.369	138.94
336.597	160.94
336.825	143.94
337.053	129.94
337.281	112.94
337.51	132.94
337.738	129.94
337.966	135.94
338.194	136.94
338.422	146.94
338.65	142.94
338.878	156.94
339.106	122.94
339.334	146.94
339.562	125.94
339.79	146.94
340.018	153.94
340.246	130.94
340.474	118.94
340.702	135.94
340.93	136.94
341.158	119.94
341.386	126.94
341.614	144.94
341.842	120.94
342.07	124.94
342.298	137.94
342.526	128.94
342.754	135.94
342.981	142.94
343.209	132.94
343.437	181.94
343.665	148.94
343.893	163.94
344.12	151.94
344.348	150.94
344.576	145.94
344.804	128.94
345.031	129.94
345.259	131.94
345.487	139.94
345.714	143.94
345.942	131.94
346.17	142.94
346.397	148.94
346.625	133.94
346.853	138.94
347.08	135.94
347.308	125.94
347.535	132.94
347.763	132.94
347.99	148.94
348.218	126.94
348.445	121.94
348.673	133.94
348.9	133.94
349.128	120.94
349.355	130.94
349.583	120.94
349.81	122.94
350.037	144.94
350.265	123.94
350.492	126.94
350.72	134.94
350.947	129.94
351.174	128.94
351.402	128.94
351.629	127.94
351.856	143.94
352.083	131.94
352.311	131.94
352.538	135.94
352.765	139.94
352.992	154.94
353.22	120.94
353.447	126.94
353.674	128.94
353.901	133.94
354.128	136.94
354.355	128.94
354.583	118.94
354.81	134.94
355.037	139.94
355.264	136.94
355.491	138.94
355.718	142.94
355.945	139.94
356.172	143.94
356.399	147.94
356.626	152.94
356.853	129.94
357.08	136.94
357.307	130.94
357.534	132.94
357.761	137.94
357.988	146.94
358.215	133.94
358.441	136.94
358.668	143.94
358.895	136.94
359.122	136.94
359.349	127.94
359.576	144.94
359.802	118.94
360.029	136.94
360.256	146.94
360.483	133.94
360.709	132.94
360.936	147.94
361.163	122.94
361.39	125.94
361.616	122.94
361.843	137.94
362.07	137.94
362.296	122.94
362.523	127.94
362.749	133.94
362.976	133.94
363.203	153.94
363.429	116.94
363.656	126.94
363.882	135.94
364.109	144.94
364.335	138.94
364.562	126.94
364.788	128.94
365.015	132.94
365.241	113.94
365.468	138.94
365.694	133.94
365.92	120.94
366.147	136.94
366.373	129.94
366.599	132.94
366.826	123.94
367.052	135.94
367.278	140.94
367.505	143.94
367.731	147.94
367.957	124.94
368.184	135.94
368.41	106.94
368.636	139.94
368.862	134.94
369.089	138.94
369.315	139.94
369.541	153.94
369.767	133.94
369.993	143.94
370.219	134.94
370.445	127.94
370.672	134.94
370.898	128.94
371.124	140.94
371.35	130.94
371.576	134.94
371.802	137.94
372.028	134.94
372.254	137.94
372.48	152.94
372.706	148.94
372.932	146.94
373.158	131.94
373.384	140.94
373.61	156.94
373.835	147.94
374.061	154.94
374.287	136.94
374.513	136.94
374.739	154.94
374.965	164.94
375.191	127.94
375.416	160.94
375.642	149.94
375.868	144.94
376.094	154.94
376.319	153.94
376.545	144.94
376.771	137.94
376.997	153.94
377.222	148.94
377.448	139.94
377.674	135.94
377.899	131.94
378.125	149.94
378.35	156.94
378.576	151.94
378.802	147.94
379.027	150.94
379.253	139.94
379.478	142.94
379.704	135.94
379.929	138.94
380.155	138.94
380.38	160.94
380.606	137.94
380.831	146.94
381.057	168.94
381.282	147.94
381.507	134.94
381.733	156.94
381.958	168.94
382.184	132.94
382.409	145.94
382.634	145.94
382.86	146.94
383.085	155.94
383.31	134.94
383.535	150.94
383.761	150.94
383.986	148.94
384.211	140.94
384.436	166.94
384.662	159.94
384.887	155.94
385.112	160.94
385.337	153.94
385.562	156.94
385.787	160.94
386.013	183.94
386.238	148.94
386.463	158.94
386.688	191.94
386.913	157.94
387.138	174.94
387.363	179.94
387.588	158.94
387.813	154.94
388.038	162.94
388.263	165.94
388.488	160.94
388.713	140.94
388.938	160.94
389.163	159.94
389.387	168.94
389.612	146.94
389.837	161.94
390.062	151.94
390.287	158.94
390.512	172.94
390.736	164.94
390.961	171.94
391.186	161.94
391.411	152.94
391.636	167.94
391.86	162.94
392.085	164.94
392.31	168.94
392.534	171.94
392.759	176.94
392.984	164.94
393.208	168.94
393.433	175.94
393.658	175.94
393.882	179.94
394.107	165.94
394.331	177.94
394.556	164.94
394.78	165.94
395.005	172.94
395.229	170.94
395.454	176.94
395.678	183.94
395.903	159.94
396.127	165.94
396.352	184.94
396.576	172.94
396.801	161.94
397.025	151.94
397.249	173.94
397.474	177.94
397.698	178.94
397.922	190.94
398.147	184.94
398.371	163.94
398.595	172.94
398.82	172.94
399.044	203.94
399.268	213.94
399.492	232.94
399.717	242.94
399.941	233.94
400.165	230.94
400.389	187.94
400.613	179.94
400.837	185.94
401.062	182.94
401.286	171.94
401.51	196.94
401.734	185.94
401.958	214.94
402.182	197.94
402.406	191.94
402.63	197.94
402.854	198.94
403.078	202.94
403.302	202.94
403.526	203.94
403.75	217.94
403.974	212.94
404.198	221.94
404.422	218.94
404.645	196.94
404.869	199.94
405.093	197.94
405.317	204.94
405.541	209.94
405.765	200.94
405.988	190.94
406.212	211.94
406.436	196.94
406.66	225.94
406.883	206.94
407.107	193.94
407.331	217.94
407.555	204.94
407.778	212.94
408.002	207.94
408.226	214.94
408.449	214.94
408.673	215.94
408.896	219.94
409.12	211.94
409.344	203.94
409.567	210.94
409.791	227.94
410.014	226.94
410.238	207.94
410.461	206.94
410.685	218.94
410.908	208.94
411.132	198.94
411.355	217.94
411.578	196.94
411.802	210.94
412.025	186.94
412.249	187.94
412.472	174.94
412.695	206.94
412.919	180.94
413.142	181.94
413.365	199.94
413.589	205.94
413.812	204.94
414.035	184.94
414.258	200.94
414.482	207.94
414.705	192.94
414.928	205.94
415.151	182.94
415.374	199.94
415.597	207.94
415.821	196.94
416.044	174.94
416.267	189.94
416.49	194.94
416.713	187.94
416.936	188.94
417.159	191.94
417.382	199.94
417.605	208.94
417.828	198.94
418.051	213.94
418.274	195.94
418.497	206.94
418.72	200.94
418.943	199.94
419.166	209.94
419.389	212.94
419.611	208.94
419.834	206.94
420.057	216.94
420.28	204.94
420.503	213.94
420.726	190.94
420.948	193.94
421.171	213.94
421.394	200.94
421.617	183.94
421.839	190.94
422.062	206.94
422.285	185.94
422.507	207.94
422.73	202.94
422.953	201.94
423.175	208.94
423.398	211.94
423.621	220.94
423.843	208.94
424.066	223.94
424.288	208.94
424.511	221.94
424.733	211.94
424.956	209.94
425.178	209.94
425.401	213.94
425.623	208.94
425.846	201.94
426.068	202.94
426.291	198.94
426.513	190.94
426.735	178.94
426.958	184.94
427.18	193.94
427.402	189.94
427.625	207.94
427.847	182.94
428.069	174.94
428.292	175.94
428.514	184.94
428.736	195.94
428.958	183.94
429.181	185.94
429.403	194.94
429.625	182.94
429.847	186.94
430.069	201.94
430.292	185.94
430.514	201.94
430.736	157.94
430.958	198.94
431.18	174.94
431.402	185.94
431.624	175.94
431.846	163.94
432.068	174.94
432.29	173.94
432.512	184.94
432.734	183.94
432.956	192.94
433.178	211.94
433.4	184.94
433.622	209.94
433.844	191.94
434.066	191.94
434.287	178.94
434.509	188.94
434.731	179.94
434.953	188.94
435.175	191.94
435.397	192.94
435.618	184.94
435.84	177.94
436.062	190.94
436.284	188.94
436.505	179.94
436.727	192.94
436.949	213.94
437.17	183.94
437.392	162.94
437.614	180.94
437.835	160.94
438.057	181.94
438.278	177.94
438.5	171.94
438.721	186.94
438.943	193.94
439.165	201.94
439.386	199.94
439.608	200.94
439.829	189.94
440.05	193.94
440.272	193.94
440.493	200.94
440.715	202.94
440.936	207.94
441.158	196.94
441.379	194.94
441.6	210.94
441.822	227.94
442.043	208.94
442.264	199.94
442.486	211.94
442.707	206.94
442.928	191.94
443.149	204.94
443.371	212.94
443.592	198.94
443.813	227.94
444.034	195.94
444.255	225.94
444.476	215.94
444.698	223.94
444.919	230.94
445.14	468.94
445.361	338.94
445.582	212.94
445.803	197.94
446.024	210.94
446.245	210.94
446.466	226.94
446.687	201.94
446.908	195.94
447.129	195.94
447.35	179.94
447.571	203.94
447.792	186.94
448.013	185.94
448.234	174.94
448.455	191.94
448.675	183.94
448.896	184.94
449.117	194.94
449.338	186.94
449.559	183.94
449.779	190.94
450	197.94
450.221	179.94
450.442	195.94
450.662	180.94
450.883	190.94
451.104	195.94
451.324	200.94
451.545	178.94
451.766	187.94
451.986	188.94
452.207	175.94
452.428	183.94
452.648	178.94
452.869	172.94
453.089	169.94
453.31	175.94
453.53	176.94
453.751	186.94
453.971	176.94
454.192	165.94
454.412	161.94
454.633	172.94
454.853	168.94
455.073	183.94
455.294	164.94
455.514	181.94
455.734	172.94
455.955	167.94
456.175	172.94
456.395	146.94
456.616	150.94
456.836	151.94
457.056	152.94
457.276	159.94
457.497	171.94
457.717	168.94
457.937	187.94
458.157	157.94
458.377	155.94
458.598	146.94
458.818	152.94
459.038	164.94
459.258	154.94
459.478	183.94
459.698	159.94
459.918	174.94
460.138	174.94
460.358	191.94
460.578	206.94
460.798	194.94
461.018	195.94
461.238	208.94
461.458	213.94
461.678	207.94
461.898	188.94
462.118	194.94
462.338	206.94
462.558	227.94
462.777	213.94
462.997	230.94
463.217	244.94
463.437	223.94
463.657	216.94
463.876	206.94
464.096	212.94
464.316	207.94
464.536	203.94
464.755	207.94
464.975	202.94
465.195	200.94
465.414	188.94
465.634	195.94
465.854	189.94
466.073	168.94
466.293	187.94
466.512	193.94
466.732	192.94
466.951	194.94
467.171	195.94
467.391	192.94
467.61	184.94
467.829	191.94
468.049	184.94
468.268	183.94
468.488	172.94
468.707	192.94
468.927	199.94
469.146	188.94
469.365	184.94
469.585	196.94
469.804	204.94
470.023	193.94
470.243	202.94
470.462	192.94
470.681	195.94
470.901	192.94
471.12	196.94
471.339	195.94
471.558	190.94
471.777	187.94
471.997	171.94
472.216	182.94
472.435	165.94
472.654	160.94
472.873	175.94
473.092	165.94
473.311	162.94
473.53	173.94
473.749	188.94
473.968	184.94
474.187	177.94
474.406	183.94
474.625	190.94
474.844	182.94
475.063	177.94
475.282	188.94
475.501	187.94
475.72	194.94
475.939	160.94
476.158	188.94
476.377	183.94
476.596	189.94
476.814	172.94
477.033	161.94
477.252	171.94
477.471	183.94
477.69	192.94
477.908	194.94
478.127	227.94
478.346	196.94
478.564	195.94
478.783	197.94
479.002	207.94
479.22	208.94
479.439	210.94
479.658	216.94
479.876	211.94
480.095	188.94
480.313	194.94
480.532	211.94
480.751	212.94
480.969	169.94
481.188	173.94
481.406	190.94
481.624	161.94
481.843	180.94
482.061	184.94
482.28	197.94
482.498	186.94
482.717	170.94
482.935	180.94
483.153	188.94
483.372	225.94
483.59	198.94
483.808	195.94
484.027	195.94
484.245	200.94
484.463	208.94
484.681	234.94
484.9	213.94
485.118	185.94
485.336	210.94
485.554	202.94
485.772	184.94
485.99	185.94
486.209	180.94
486.427	178.94
486.645	210.94
486.863	218.94
487.081	205.94
487.299	203.94
487.517	212.94
487.735	222.94
487.953	249.94
488.171	235.94
488.389	223.94
488.607	213.94
488.825	213.94
489.043	211.94
489.261	207.94
489.479	211.94
489.696	194.94
489.914	197.94
490.132	223.94
490.35	214.94
490.568	199.94
490.786	238.94
491.003	225.94
491.221	232.94
491.439	222.94
491.657	239.94
491.874	248.94
492.092	263.94
492.31	270.94
492.527	248.94
492.745	252.94
492.963	236.94
493.18	231.94
493.398	231.94
493.615	233.94
493.833	228.94
494.05	213.94
494.268	231.94
494.485	231.94
494.703	228.94
494.92	240.94
495.138	227.94
495.355	244.94
495.573	220.94
495.79	232.94
496.008	231.94
496.225	229.94
496.442	242.94
496.66	244.94
496.877	239.94
497.094	263.94
497.312	229.94
497.529	232.94
497.746	219.94
497.963	232.94
498.181	236.94
498.398	227.94
498.615	249.94
498.832	248.94
499.049	272.94
499.267	271.94
499.484	294.94
499.701	326.94
499.918	350.94
500.135	393.94
500.352	441.94
500.569	431.94
500.786	420.94
501.003	386.94
501.22	349.94
501.437	323.94
501.654	291.94
501.871	275.94
502.088	278.94
502.305	271.94
502.522	257.94
502.739	235.94
502.956	228.94
503.172	237.94
503.389	211.94
503.606	220.94
503.823	233.94
504.04	219.94
504.256	229.94
504.473	214.94
504.69	243.94
504.907	199.94
