Data from SampD_HRD10591_00077.txt Node
Date: Mon Jan 19 11:50:41 EST 2026
User: Yrep
Spectrometer: HR+D1059
Trigger mode: 0
Integration Time (sec): 3.443000E-1
Scans to average: 1
Electric dark correction enabled: true
Nonlinearity correction enabled: false
Boxcar width: 0
XAxis mode: Wavelengths
Number of Pixels in Spectrum: 2048
>>>>>Begin Spectral Data<<<<<
223.165	-36.38
223.4	-36.38
223.635	-36.38
223.869	-25.38
224.104	-37.38
224.338	-14.38
224.573	-17.38
224.808	-6.38
225.042	-12.38
225.277	-6.38
225.511	-7.38
225.746	19.62
225.98	8.62
226.215	8.62
226.449	14.62
226.683	31.62
226.918	29.62
227.152	50.62
227.387	33.62
227.621	37.62
227.856	35.62
228.09	43.62
228.324	51.62
228.559	53.62
228.793	60.62
229.027	71.62
229.262	67.62
229.496	74.62
229.73	90.62
229.964	80.62
230.199	81.62
230.433	65.62
230.667	74.62
230.901	76.62
231.136	78.62
231.37	67.62
231.604	87.62
231.838	68.62
232.072	85.62
232.306	79.62
232.541	81.62
232.775	89.62
233.009	103.62
233.243	97.62
233.477	71.62
233.711	73.62
233.945	90.62
234.179	77.62
234.413	96.62
234.647	82.62
234.881	82.62
235.115	102.62
235.349	85.62
235.583	79.62
235.817	71.62
236.051	67.62
236.285	87.62
236.519	76.62
236.753	81.62
236.987	92.62
237.221	92.62
237.455	62.62
237.689	87.62
237.922	73.62
238.156	85.62
238.39	83.62
238.624	78.62
238.858	88.62
239.091	96.62
239.325	82.62
239.559	68.62
239.793	83.62
240.027	81.62
240.26	79.62
240.494	84.62
240.728	85.62
240.961	88.62
241.195	93.62
241.429	85.62
241.662	79.62
241.896	73.62
242.13	82.62
242.363	89.62
242.597	87.62
242.83	83.62
243.064	84.62
243.298	99.62
243.531	84.62
243.765	93.62
243.998	89.62
244.232	100.62
244.465	92.62
244.699	89.62
244.932	96.62
245.166	73.62
245.399	85.62
245.633	88.62
245.866	83.62
246.099	75.62
246.333	86.62
246.566	72.62
246.8	81.62
247.033	100.62
247.266	82.62
247.5	94.62
247.733	97.62
247.966	109.62
248.2	85.62
248.433	92.62
248.666	85.62
248.899	76.62
249.133	80.62
249.366	89.62
249.599	108.62
249.832	91.62
250.066	86.62
250.299	95.62
250.532	104.62
250.765	106.62
250.998	88.62
251.231	69.62
251.465	87.62
251.698	83.62
251.931	93.62
252.164	85.62
252.397	81.62
252.63	88.62
252.863	88.62
253.096	85.62
253.329	107.62
253.562	100.62
253.795	95.62
254.028	104.62
254.261	91.62
254.494	107.62
254.727	93.62
254.96	104.62
255.193	103.62
255.426	96.62
255.659	100.62
255.892	92.62
256.124	94.62
256.357	100.62
256.59	106.62
256.823	94.62
257.056	94.62
257.289	99.62
257.521	101.62
257.754	92.62
257.987	90.62
258.22	96.62
258.452	99.62
258.685	95.62
258.918	98.62
259.151	89.62
259.383	102.62
259.616	98.62
259.849	101.62
260.081	105.62
260.314	98.62
260.547	85.62
260.779	100.62
261.012	100.62
261.244	98.62
261.477	117.62
261.71	91.62
261.942	100.62
262.175	91.62
262.407	88.62
262.64	96.62
262.872	98.62
263.105	98.62
263.337	98.62
263.57	86.62
263.802	105.62
264.035	112.62
264.267	90.62
264.499	100.62
264.732	87.62
264.964	96.62
265.197	83.62
265.429	104.62
265.661	117.62
265.894	99.62
266.126	109.62
266.358	100.62
266.591	108.62
266.823	114.62
267.055	97.62
267.287	104.62
267.52	97.62
267.752	107.62
267.984	97.62
268.216	95.62
268.448	109.62
268.681	119.62
268.913	117.62
269.145	108.62
269.377	109.62
269.609	88.62
269.841	79.62
270.073	106.62
270.306	107.62
270.538	91.62
270.77	97.62
271.002	106.62
271.234	100.62
271.466	113.62
271.698	109.62
271.93	107.62
272.162	109.62
272.394	105.62
272.626	105.62
272.858	100.62
273.09	113.62
273.322	98.62
273.553	110.62
273.785	103.62
274.017	107.62
274.249	104.62
274.481	112.62
274.713	101.62
274.945	90.62
275.176	105.62
275.408	115.62
275.64	98.62
275.872	99.62
276.104	96.62
276.335	101.62
276.567	96.62
276.799	102.62
277.031	101.62
277.262	106.62
277.494	107.62
277.726	99.62
277.957	119.62
278.189	103.62
278.421	104.62
278.652	99.62
278.884	115.62
279.115	93.62
279.347	122.62
279.579	107.62
279.81	102.62
280.042	116.62
280.273	110.62
280.505	92.62
280.736	108.62
280.968	117.62
281.199	116.62
281.431	98.62
281.662	128.62
281.894	111.62
282.125	108.62
282.356	112.62
282.588	113.62
282.819	89.62
283.051	109.62
283.282	99.62
283.513	117.62
283.745	106.62
283.976	107.62
284.207	112.62
284.439	119.62
284.67	109.62
284.901	114.62
285.132	104.62
285.364	110.62
285.595	112.62
285.826	117.62
286.057	116.62
286.288	108.62
286.52	132.62
286.751	114.62
286.982	120.62
287.213	118.62
287.444	114.62
287.675	103.62
287.906	123.62
288.138	111.62
288.369	128.62
288.6	120.62
288.831	113.62
289.062	124.62
289.293	103.62
289.524	119.62
289.755	102.62
289.986	115.62
290.217	109.62
290.448	113.62
290.679	135.62
290.91	115.62
291.141	122.62
291.371	113.62
291.602	123.62
291.833	127.62
292.064	111.62
292.295	138.62
292.526	121.62
292.757	106.62
292.987	109.62
293.218	109.62
293.449	139.62
293.68	108.62
293.91	120.62
294.141	133.62
294.372	116.62
294.603	126.62
294.833	116.62
295.064	117.62
295.295	109.62
295.525	109.62
295.756	130.62
295.987	115.62
296.217	104.62
296.448	123.62
296.679	112.62
296.909	122.62
297.14	129.62
297.37	135.62
297.601	117.62
297.831	109.62
298.062	125.62
298.292	117.62
298.523	139.62
298.753	119.62
298.984	115.62
299.214	128.62
299.445	116.62
299.675	129.62
299.905	116.62
300.136	132.62
300.366	115.62
300.597	132.62
300.827	123.62
301.057	121.62
301.288	129.62
301.518	130.62
301.748	123.62
301.979	169.62
302.209	132.62
302.439	110.62
302.669	127.62
302.9	117.62
303.13	123.62
303.36	124.62
303.59	117.62
303.82	128.62
304.051	132.62
304.281	119.62
304.511	123.62
304.741	137.62
304.971	109.62
305.201	127.62
305.431	115.62
305.661	116.62
305.891	121.62
306.121	134.62
306.352	127.62
306.582	127.62
306.812	122.62
307.042	108.62
307.272	117.62
307.502	114.62
307.731	124.62
307.961	121.62
308.191	128.62
308.421	123.62
308.651	126.62
308.881	118.62
309.111	109.62
309.341	123.62
309.571	137.62
309.8	115.62
310.03	117.62
310.26	123.62
310.49	132.62
310.72	122.62
310.949	130.62
311.179	133.62
311.409	138.62
311.639	129.62
311.868	120.62
312.098	115.62
312.328	112.62
312.557	138.62
312.787	121.62
313.017	139.62
313.246	131.62
313.476	124.62
313.706	132.62
313.935	118.62
314.165	124.62
314.394	138.62
314.624	125.62
314.853	134.62
315.083	124.62
315.312	127.62
315.542	129.62
315.771	128.62
316.001	118.62
316.23	134.62
316.46	114.62
316.689	128.62
316.919	132.62
317.148	125.62
317.377	134.62
317.607	120.62
317.836	120.62
318.065	116.62
318.295	119.62
318.524	127.62
318.753	123.62
318.983	110.62
319.212	127.62
319.441	108.62
319.67	124.62
319.9	121.62
320.129	138.62
320.358	128.62
320.587	121.62
320.816	120.62
321.046	116.62
321.275	132.62
321.504	121.62
321.733	112.62
321.962	124.62
322.191	119.62
322.42	107.62
322.649	119.62
322.878	135.62
323.108	124.62
323.337	132.62
323.566	129.62
323.795	124.62
324.024	130.62
324.253	132.62
324.482	135.62
324.71	115.62
324.939	129.62
325.168	125.62
325.397	136.62
325.626	115.62
325.855	124.62
326.084	132.62
326.313	125.62
326.542	123.62
326.77	144.62
326.999	134.62
327.228	121.62
327.457	126.62
327.686	136.62
327.914	130.62
328.143	143.62
328.372	121.62
328.6	130.62
328.829	137.62
329.058	120.62
329.287	121.62
329.515	128.62
329.744	124.62
329.972	117.62
330.201	144.62
330.43	111.62
330.658	128.62
330.887	134.62
331.115	134.62
331.344	136.62
331.572	146.62
331.801	132.62
332.03	132.62
332.258	121.62
332.486	122.62
332.715	124.62
332.943	145.62
333.172	149.62
333.4	136.62
333.629	139.62
333.857	151.62
334.085	167.62
334.314	147.62
334.542	146.62
334.771	130.62
334.999	160.62
335.227	129.62
335.455	149.62
335.684	140.62
335.912	141.62
336.14	130.62
336.369	138.62
336.597	139.62
336.825	149.62
337.053	134.62
337.281	136.62
337.51	137.62
337.738	132.62
337.966	144.62
338.194	147.62
338.422	130.62
338.65	131.62
338.878	127.62
339.106	135.62
339.334	150.62
339.562	136.62
339.79	135.62
340.018	121.62
340.246	123.62
340.474	129.62
340.702	139.62
340.93	128.62
341.158	129.62
341.386	121.62
341.614	129.62
341.842	128.62
342.07	120.62
342.298	139.62
342.526	129.62
342.754	124.62
342.981	121.62
343.209	142.62
343.437	165.62
343.665	122.62
343.893	144.62
344.12	154.62
344.348	140.62
344.576	136.62
344.804	117.62
345.031	128.62
345.259	128.62
345.487	138.62
345.714	128.62
345.942	137.62
346.17	131.62
346.397	129.62
346.625	135.62
346.853	136.62
347.08	120.62
347.308	153.62
347.535	161.62
347.763	142.62
347.99	132.62
348.218	139.62
348.445	124.62
348.673	119.62
348.9	122.62
349.128	143.62
349.355	114.62
349.583	130.62
349.81	124.62
350.037	120.62
350.265	121.62
350.492	133.62
350.72	138.62
350.947	141.62
351.174	124.62
351.402	130.62
351.629	127.62
351.856	136.62
352.083	118.62
352.311	111.62
352.538	127.62
352.765	112.62
352.992	138.62
353.22	132.62
353.447	113.62
353.674	135.62
353.901	148.62
354.128	129.62
354.355	123.62
354.583	127.62
354.81	135.62
355.037	116.62
355.264	135.62
355.491	118.62
355.718	129.62
355.945	130.62
356.172	122.62
356.399	118.62
356.626	129.62
356.853	125.62
357.08	120.62
357.307	134.62
357.534	124.62
357.761	129.62
357.988	143.62
358.215	146.62
358.441	125.62
358.668	121.62
358.895	133.62
359.122	132.62
359.349	122.62
359.576	121.62
359.802	130.62
360.029	137.62
360.256	127.62
360.483	116.62
360.709	120.62
360.936	136.62
361.163	120.62
361.39	122.62
361.616	134.62
361.843	121.62
362.07	142.62
362.296	133.62
362.523	129.62
362.749	130.62
362.976	125.62
363.203	139.62
363.429	124.62
363.656	121.62
363.882	135.62
364.109	129.62
364.335	128.62
364.562	143.62
364.788	116.62
365.015	130.62
365.241	130.62
365.468	139.62
365.694	132.62
365.92	118.62
366.147	114.62
366.373	118.62
366.599	130.62
366.826	131.62
367.052	134.62
367.278	133.62
367.505	147.62
367.731	151.62
367.957	141.62
368.184	120.62
368.41	133.62
368.636	137.62
368.862	144.62
369.089	145.62
369.315	139.62
369.541	143.62
369.767	119.62
369.993	151.62
370.219	131.62
370.445	132.62
370.672	131.62
370.898	129.62
371.124	142.62
371.35	122.62
371.576	129.62
371.802	128.62
372.028	136.62
372.254	126.62
372.48	125.62
372.706	132.62
372.932	144.62
373.158	136.62
373.384	144.62
373.61	162.62
373.835	131.62
374.061	143.62
374.287	135.62
374.513	126.62
374.739	126.62
374.965	160.62
375.191	155.62
375.416	156.62
375.642	151.62
375.868	147.62
376.094	148.62
376.319	134.62
376.545	138.62
376.771	146.62
376.997	133.62
377.222	145.62
377.448	159.62
377.674	149.62
377.899	146.62
378.125	136.62
378.35	149.62
378.576	141.62
378.802	134.62
379.027	138.62
379.253	154.62
379.478	124.62
379.704	155.62
379.929	128.62
380.155	131.62
380.38	132.62
380.606	136.62
380.831	130.62
381.057	155.62
381.282	159.62
381.507	135.62
381.733	144.62
381.958	139.62
382.184	134.62
382.409	145.62
382.634	165.62
382.86	141.62
383.085	159.62
383.31	159.62
383.535	146.62
383.761	155.62
383.986	162.62
384.211	158.62
384.436	150.62
384.662	160.62
384.887	166.62
385.112	144.62
385.337	171.62
385.562	139.62
385.787	164.62
386.013	149.62
386.238	151.62
386.463	161.62
386.688	179.62
386.913	133.62
387.138	146.62
387.363	165.62
387.588	167.62
387.813	172.62
388.038	152.62
388.263	165.62
388.488	136.62
388.713	163.62
388.938	164.62
389.163	159.62
389.387	152.62
389.612	152.62
389.837	160.62
390.062	157.62
390.287	169.62
390.512	165.62
390.736	159.62
390.961	135.62
391.186	165.62
391.411	171.62
391.636	183.62
391.86	157.62
392.085	164.62
392.31	161.62
392.534	168.62
392.759	165.62
392.984	168.62
393.208	163.62
393.433	166.62
393.658	167.62
393.882	179.62
394.107	163.62
394.331	164.62
394.556	161.62
394.78	175.62
395.005	156.62
395.229	177.62
395.454	172.62
395.678	173.62
395.903	179.62
396.127	180.62
396.352	178.62
396.576	186.62
396.801	165.62
397.025	171.62
397.249	161.62
397.474	192.62
397.698	166.62
397.922	181.62
398.147	172.62
398.371	159.62
398.595	171.62
398.82	176.62
399.044	194.62
399.268	196.62
399.492	228.62
399.717	247.62
399.941	225.62
400.165	213.62
400.389	169.62
400.613	186.62
400.837	186.62
401.062	188.62
401.286	191.62
401.51	183.62
401.734	187.62
401.958	187.62
402.182	200.62
402.406	183.62
402.63	181.62
402.854	208.62
403.078	199.62
403.302	201.62
403.526	199.62
403.75	204.62
403.974	186.62
404.198	190.62
404.422	197.62
404.645	196.62
404.869	194.62
405.093	204.62
405.317	197.62
405.541	210.62
405.765	189.62
405.988	187.62
406.212	201.62
406.436	189.62
406.66	203.62
406.883	189.62
407.107	200.62
407.331	215.62
407.555	219.62
407.778	221.62
408.002	209.62
408.226	194.62
408.449	191.62
408.673	205.62
408.896	199.62
409.12	198.62
409.344	192.62
409.567	200.62
409.791	205.62
410.014	192.62
410.238	194.62
410.461	205.62
410.685	213.62
410.908	191.62
411.132	186.62
411.355	184.62
411.578	192.62
411.802	193.62
412.025	178.62
412.249	183.62
412.472	183.62
412.695	183.62
412.919	195.62
413.142	192.62
413.365	181.62
413.589	185.62
413.812	180.62
414.035	192.62
414.258	182.62
414.482	188.62
414.705	191.62
414.928	186.62
415.151	193.62
415.374	189.62
415.597	175.62
415.821	195.62
416.044	177.62
416.267	184.62
416.49	189.62
416.713	177.62
416.936	172.62
417.159	179.62
417.382	189.62
417.605	197.62
417.828	188.62
418.051	183.62
418.274	196.62
418.497	181.62
418.72	195.62
418.943	201.62
419.166	219.62
419.389	219.62
419.611	198.62
419.834	200.62
420.057	173.62
420.28	179.62
420.503	184.62
420.726	184.62
420.948	189.62
421.171	186.62
421.394	191.62
421.617	202.62
421.839	192.62
422.062	191.62
422.285	190.62
422.507	194.62
422.73	196.62
422.953	189.62
423.175	189.62
423.398	180.62
423.621	203.62
423.843	196.62
424.066	198.62
424.288	199.62
424.511	200.62
424.733	192.62
424.956	215.62
425.178	202.62
425.401	204.62
425.623	204.62
425.846	203.62
426.068	194.62
426.291	169.62
426.513	201.62
426.735	208.62
426.958	185.62
427.18	177.62
427.402	192.62
427.625	181.62
427.847	172.62
428.069	186.62
428.292	183.62
428.514	181.62
428.736	196.62
428.958	179.62
429.181	168.62
429.403	183.62
429.625	169.62
429.847	170.62
430.069	176.62
430.292	199.62
430.514	197.62
430.736	184.62
430.958	195.62
431.18	181.62
431.402	176.62
431.624	189.62
431.846	183.62
432.068	160.62
432.29	164.62
432.512	194.62
432.734	183.62
432.956	183.62
433.178	194.62
433.4	190.62
433.622	191.62
433.844	188.62
434.066	161.62
434.287	171.62
434.509	167.62
434.731	172.62
434.953	176.62
435.175	199.62
435.397	168.62
435.618	188.62
435.84	178.62
436.062	157.62
436.284	176.62
436.505	181.62
436.727	177.62
436.949	187.62
437.17	183.62
437.392	179.62
437.614	171.62
437.835	179.62
438.057	175.62
438.278	171.62
438.5	181.62
438.721	174.62
438.943	179.62
439.165	195.62
439.386	189.62
439.608	201.62
439.829	177.62
440.05	174.62
440.272	176.62
440.493	176.62
440.715	182.62
440.936	187.62
441.158	198.62
441.379	199.62
441.6	211.62
441.822	202.62
442.043	196.62
442.264	193.62
442.486	185.62
442.707	195.62
442.928	201.62
443.149	209.62
443.371	188.62
443.592	194.62
443.813	197.62
444.034	203.62
444.255	215.62
444.476	209.62
444.698	225.62
444.919	200.62
445.14	480.62
445.361	317.62
445.582	197.62
445.803	206.62
446.024	197.62
446.245	201.62
446.466	194.62
446.687	187.62
446.908	187.62
447.129	194.62
447.35	180.62
447.571	193.62
447.792	173.62
448.013	174.62
448.234	179.62
448.455	179.62
448.675	181.62
448.896	181.62
449.117	181.62
449.338	160.62
449.559	177.62
449.779	176.62
450	169.62
450.221	175.62
450.442	179.62
450.662	165.62
450.883	160.62
451.104	183.62
451.324	179.62
451.545	180.62
451.766	181.62
451.986	170.62
452.207	177.62
452.428	167.62
452.648	182.62
452.869	161.62
453.089	177.62
453.31	163.62
453.53	151.62
453.751	164.62
453.971	170.62
454.192	173.62
454.412	159.62
454.633	153.62
454.853	165.62
455.073	163.62
455.294	172.62
455.514	150.62
455.734	153.62
455.955	180.62
456.175	152.62
456.395	148.62
456.616	154.62
456.836	146.62
457.056	149.62
457.276	157.62
457.497	152.62
457.717	168.62
457.937	161.62
458.157	163.62
458.377	159.62
458.598	157.62
458.818	156.62
459.038	158.62
459.258	156.62
459.478	177.62
459.698	160.62
459.918	162.62
460.138	183.62
460.358	193.62
460.578	191.62
460.798	183.62
461.018	191.62
461.238	183.62
461.458	207.62
461.678	201.62
461.898	198.62
462.118	203.62
462.338	199.62
462.558	198.62
462.777	202.62
462.997	215.62
463.217	224.62
463.437	223.62
463.657	203.62
463.876	199.62
464.096	214.62
464.316	204.62
464.536	204.62
464.755	211.62
464.975	194.62
465.195	201.62
465.414	193.62
465.634	188.62
465.854	187.62
466.073	170.62
466.293	167.62
466.512	170.62
466.732	171.62
466.951	187.62
467.171	193.62
467.391	175.62
467.61	172.62
467.829	187.62
468.049	175.62
468.268	194.62
468.488	174.62
468.707	171.62
468.927	167.62
469.146	162.62
469.365	171.62
469.585	171.62
469.804	183.62
470.023	189.62
470.243	202.62
470.462	202.62
470.681	199.62
470.901	170.62
471.12	186.62
471.339	194.62
471.558	184.62
471.777	201.62
471.997	183.62
472.216	182.62
472.435	165.62
472.654	159.62
472.873	156.62
473.092	156.62
473.311	171.62
473.53	171.62
473.749	171.62
473.968	184.62
474.187	177.62
474.406	167.62
474.625	167.62
474.844	193.62
475.063	180.62
475.282	176.62
475.501	167.62
475.72	173.62
475.939	171.62
476.158	167.62
476.377	167.62
476.596	184.62
476.814	159.62
477.033	155.62
477.252	165.62
477.471	183.62
477.69	198.62
477.908	194.62
478.127	191.62
478.346	196.62
478.564	200.62
478.783	178.62
479.002	200.62
479.22	209.62
479.439	187.62
479.658	204.62
479.876	168.62
480.095	199.62
480.313	189.62
480.532	196.62
480.751	170.62
480.969	190.62
481.188	169.62
481.406	168.62
481.624	164.62
481.843	150.62
482.061	178.62
482.28	203.62
482.498	183.62
482.717	167.62
482.935	182.62
483.153	191.62
483.372	205.62
483.59	205.62
483.808	193.62
484.027	193.62
484.245	194.62
484.463	195.62
484.681	230.62
484.9	193.62
485.118	206.62
485.336	188.62
485.554	186.62
485.772	189.62
485.99	180.62
486.209	182.62
486.427	180.62
486.645	189.62
486.863	183.62
487.081	201.62
487.299	183.62
487.517	197.62
487.735	215.62
487.953	241.62
488.171	226.62
488.389	210.62
488.607	195.62
488.825	200.62
489.043	189.62
489.261	193.62
489.479	196.62
489.696	190.62
489.914	196.62
490.132	191.62
490.35	209.62
490.568	198.62
490.786	217.62
491.003	221.62
491.221	218.62
491.439	227.62
491.657	242.62
491.874	242.62
492.092	248.62
492.31	242.62
492.527	230.62
492.745	243.62
492.963	242.62
493.18	238.62
493.398	234.62
493.615	229.62
493.833	214.62
494.05	234.62
494.268	234.62
494.485	226.62
494.703	224.62
494.92	239.62
495.138	220.62
495.355	229.62
495.573	217.62
495.79	208.62
496.008	232.62
496.225	221.62
496.442	210.62
496.66	227.62
496.877	222.62
497.094	232.62
497.312	216.62
497.529	216.62
497.746	224.62
497.963	237.62
498.181	222.62
498.398	224.62
498.615	229.62
498.832	236.62
499.049	231.62
499.267	256.62
499.484	289.62
499.701	327.62
499.918	345.62
500.135	363.62
500.352	392.62
500.569	410.62
500.786	418.62
501.003	357.62
501.22	341.62
501.437	312.62
501.654	292.62
501.871	278.62
502.088	243.62
502.305	248.62
502.522	244.62
502.739	229.62
502.956	231.62
503.172	228.62
503.389	217.62
503.606	209.62
503.823	224.62
504.04	215.62
504.256	205.62
504.473	196.62
504.69	209.62
