Data from SampD_HRD10591_00057.txt Node
Date: Mon Jan 19 11:50:35 EST 2026
User: Yrep
Spectrometer: HR+D1059
Trigger mode: 0
Integration Time (sec): 3.443000E-1
Scans to average: 1
Electric dark correction enabled: true
Nonlinearity correction enabled: false
Boxcar width: 0
XAxis mode: Wavelengths
Number of Pixels in Spectrum: 2048
>>>>>Begin Spectral Data<<<<<
223.165	-21.56
223.4	-21.56
223.635	-21.56
223.869	-33.56
224.104	-17.56
224.338	-3.56
224.573	-10.56
224.808	-21.56
225.042	-1.56
225.277	0.44
225.511	-11.56
225.746	8.44
225.98	7.44
226.215	15.44
226.449	15.44
226.683	5.44
226.918	36.44
227.152	32.44
227.387	38.44
227.621	31.44
227.856	37.44
228.09	39.44
228.324	58.44
228.559	69.44
228.793	65.44
229.027	66.44
229.262	67.44
229.496	66.44
229.73	83.44
229.964	82.44
230.199	72.44
230.433	72.44
230.667	77.44
230.901	66.44
231.136	81.44
231.37	83.44
231.604	89.44
231.838	88.44
232.072	79.44
232.306	73.44
232.541	79.44
232.775	62.44
233.009	76.44
233.243	82.44
233.477	86.44
233.711	80.44
233.945	80.44
234.179	94.44
234.413	67.44
234.647	86.44
234.881	71.44
235.115	81.44
235.349	94.44
235.583	80.44
235.817	69.44
236.051	76.44
236.285	76.44
236.519	78.44
236.753	83.44
236.987	80.44
237.221	79.44
237.455	77.44
237.689	73.44
237.922	86.44
238.156	80.44
238.39	90.44
238.624	83.44
238.858	96.44
239.091	69.44
239.325	66.44
239.559	60.44
239.793	88.44
240.027	84.44
240.26	82.44
240.494	86.44
240.728	64.44
240.961	87.44
241.195	86.44
241.429	72.44
241.662	72.44
241.896	78.44
242.13	66.44
242.363	92.44
242.597	82.44
242.83	89.44
243.064	79.44
243.298	96.44
243.531	74.44
243.765	88.44
243.998	81.44
244.232	97.44
244.465	80.44
244.699	90.44
244.932	97.44
245.166	76.44
245.399	78.44
245.633	81.44
245.866	86.44
246.099	76.44
246.333	81.44
246.566	83.44
246.8	92.44
247.033	94.44
247.266	71.44
247.5	91.44
247.733	86.44
247.966	88.44
248.2	72.44
248.433	90.44
248.666	81.44
248.899	93.44
249.133	91.44
249.366	105.44
249.599	80.44
249.832	87.44
250.066	98.44
250.299	85.44
250.532	100.44
250.765	88.44
250.998	81.44
251.231	96.44
251.465	88.44
251.698	94.44
251.931	93.44
252.164	85.44
252.397	90.44
252.63	95.44
252.863	95.44
253.096	86.44
253.329	93.44
253.562	76.44
253.795	86.44
254.028	107.44
254.261	88.44
254.494	88.44
254.727	87.44
254.96	92.44
255.193	91.44
255.426	80.44
255.659	88.44
255.892	86.44
256.124	88.44
256.357	95.44
256.59	99.44
256.823	84.44
257.056	89.44
257.289	92.44
257.521	84.44
257.754	93.44
257.987	80.44
258.22	95.44
258.452	95.44
258.685	111.44
258.918	93.44
259.151	85.44
259.383	102.44
259.616	90.44
259.849	87.44
260.081	90.44
260.314	94.44
260.547	82.44
260.779	97.44
261.012	93.44
261.244	82.44
261.477	114.44
261.71	83.44
261.942	90.44
262.175	85.44
262.407	94.44
262.64	87.44
262.872	91.44
263.105	92.44
263.337	104.44
263.57	99.44
263.802	99.44
264.035	97.44
264.267	96.44
264.499	94.44
264.732	100.44
264.964	91.44
265.197	95.44
265.429	93.44
265.661	102.44
265.894	101.44
266.126	109.44
266.358	105.44
266.591	106.44
266.823	101.44
267.055	102.44
267.287	99.44
267.52	100.44
267.752	117.44
267.984	104.44
268.216	110.44
268.448	113.44
268.681	114.44
268.913	109.44
269.145	99.44
269.377	94.44
269.609	118.44
269.841	96.44
270.073	91.44
270.306	105.44
270.538	101.44
270.77	76.44
271.002	94.44
271.234	93.44
271.466	96.44
271.698	109.44
271.93	96.44
272.162	110.44
272.394	105.44
272.626	95.44
272.858	99.44
273.09	99.44
273.322	103.44
273.553	104.44
273.785	101.44
274.017	94.44
274.249	115.44
274.481	80.44
274.713	90.44
274.945	91.44
275.176	84.44
275.408	114.44
275.64	118.44
275.872	125.44
276.104	94.44
276.335	92.44
276.567	99.44
276.799	101.44
277.031	109.44
277.262	109.44
277.494	109.44
277.726	102.44
277.957	99.44
278.189	118.44
278.421	109.44
278.652	113.44
278.884	106.44
279.115	108.44
279.347	101.44
279.579	112.44
279.81	98.44
280.042	100.44
280.273	86.44
280.505	112.44
280.736	96.44
280.968	110.44
281.199	126.44
281.431	115.44
281.662	110.44
281.894	106.44
282.125	113.44
282.356	105.44
282.588	100.44
282.819	105.44
283.051	113.44
283.282	113.44
283.513	124.44
283.745	117.44
283.976	108.44
284.207	123.44
284.439	120.44
284.67	130.44
284.901	115.44
285.132	110.44
285.364	116.44
285.595	102.44
285.826	109.44
286.057	116.44
286.288	102.44
286.52	104.44
286.751	104.44
286.982	112.44
287.213	110.44
287.444	120.44
287.675	109.44
287.906	115.44
288.138	103.44
288.369	111.44
288.6	95.44
288.831	116.44
289.062	108.44
289.293	98.44
289.524	112.44
289.755	108.44
289.986	97.44
290.217	114.44
290.448	112.44
290.679	117.44
290.91	133.44
291.141	109.44
291.371	120.44
291.602	118.44
291.833	111.44
292.064	106.44
292.295	116.44
292.526	111.44
292.757	93.44
292.987	116.44
293.218	107.44
293.449	111.44
293.68	109.44
293.91	116.44
294.141	112.44
294.372	111.44
294.603	112.44
294.833	116.44
295.064	112.44
295.295	111.44
295.525	113.44
295.756	132.44
295.987	104.44
296.217	119.44
296.448	112.44
296.679	134.44
296.909	124.44
297.14	119.44
297.37	131.44
297.601	116.44
297.831	110.44
298.062	119.44
298.292	128.44
298.523	111.44
298.753	113.44
298.984	129.44
299.214	131.44
299.445	103.44
299.675	132.44
299.905	121.44
300.136	110.44
300.366	125.44
300.597	121.44
300.827	117.44
301.057	127.44
301.288	113.44
301.518	133.44
301.748	101.44
301.979	158.44
302.209	115.44
302.439	129.44
302.669	118.44
302.9	102.44
303.13	114.44
303.36	113.44
303.59	124.44
303.82	120.44
304.051	120.44
304.281	127.44
304.511	129.44
304.741	130.44
304.971	111.44
305.201	123.44
305.431	106.44
305.661	120.44
305.891	117.44
306.121	122.44
306.352	124.44
306.582	116.44
306.812	117.44
307.042	116.44
307.272	116.44
307.502	110.44
307.731	119.44
307.961	121.44
308.191	116.44
308.421	103.44
308.651	121.44
308.881	118.44
309.111	114.44
309.341	123.44
309.571	105.44
309.8	122.44
310.03	120.44
310.26	122.44
310.49	107.44
310.72	112.44
310.949	118.44
311.179	122.44
311.409	124.44
311.639	117.44
311.868	112.44
312.098	132.44
312.328	121.44
312.557	126.44
312.787	128.44
313.017	122.44
313.246	119.44
313.476	132.44
313.706	115.44
313.935	110.44
314.165	132.44
314.394	136.44
314.624	129.44
314.853	126.44
315.083	133.44
315.312	120.44
315.542	121.44
315.771	122.44
316.001	112.44
316.23	113.44
316.46	112.44
316.689	128.44
316.919	121.44
317.148	140.44
317.377	120.44
317.607	107.44
317.836	113.44
318.065	116.44
318.295	110.44
318.524	115.44
318.753	103.44
318.983	108.44
319.212	120.44
319.441	117.44
319.67	121.44
319.9	127.44
320.129	123.44
320.358	130.44
320.587	120.44
320.816	135.44
321.046	112.44
321.275	116.44
321.504	118.44
321.733	120.44
321.962	117.44
322.191	128.44
322.42	118.44
322.649	135.44
322.878	130.44
323.108	138.44
323.337	111.44
323.566	111.44
323.795	109.44
324.024	114.44
324.253	108.44
324.482	109.44
324.71	133.44
324.939	137.44
325.168	125.44
325.397	114.44
325.626	122.44
325.855	115.44
326.084	127.44
326.313	116.44
326.542	130.44
326.77	128.44
326.999	118.44
327.228	124.44
327.457	126.44
327.686	123.44
327.914	145.44
328.143	128.44
328.372	123.44
328.6	136.44
328.829	135.44
329.058	120.44
329.287	124.44
329.515	132.44
329.744	125.44
329.972	124.44
330.201	124.44
330.43	120.44
330.658	129.44
330.887	117.44
331.115	127.44
331.344	126.44
331.572	128.44
331.801	124.44
332.03	125.44
332.258	154.44
332.486	130.44
332.715	143.44
332.943	124.44
333.172	145.44
333.4	142.44
333.629	158.44
333.857	134.44
334.085	150.44
334.314	133.44
334.542	143.44
334.771	144.44
334.999	141.44
335.227	121.44
335.455	150.44
335.684	132.44
335.912	137.44
336.14	132.44
336.369	135.44
336.597	128.44
336.825	136.44
337.053	115.44
337.281	125.44
337.51	143.44
337.738	125.44
337.966	113.44
338.194	141.44
338.422	122.44
338.65	149.44
338.878	145.44
339.106	143.44
339.334	134.44
339.562	139.44
339.79	130.44
340.018	124.44
340.246	137.44
340.474	127.44
340.702	156.44
340.93	132.44
341.158	125.44
341.386	129.44
341.614	122.44
341.842	121.44
342.07	120.44
342.298	143.44
342.526	120.44
342.754	135.44
342.981	132.44
343.209	134.44
343.437	163.44
343.665	137.44
343.893	153.44
344.12	150.44
344.348	137.44
344.576	140.44
344.804	114.44
345.031	137.44
345.259	140.44
345.487	132.44
345.714	130.44
345.942	135.44
346.17	110.44
346.397	122.44
346.625	141.44
346.853	125.44
347.08	124.44
347.308	129.44
347.535	138.44
347.763	134.44
347.99	131.44
348.218	126.44
348.445	124.44
348.673	138.44
348.9	138.44
349.128	128.44
349.355	135.44
349.583	123.44
349.81	134.44
350.037	119.44
350.265	138.44
350.492	133.44
350.72	118.44
350.947	123.44
351.174	129.44
351.402	106.44
351.629	117.44
351.856	120.44
352.083	117.44
352.311	126.44
352.538	125.44
352.765	133.44
352.992	138.44
353.22	129.44
353.447	119.44
353.674	121.44
353.901	121.44
354.128	133.44
354.355	135.44
354.583	115.44
354.81	133.44
355.037	121.44
355.264	119.44
355.491	118.44
355.718	111.44
355.945	126.44
356.172	112.44
356.399	133.44
356.626	117.44
356.853	117.44
357.08	137.44
357.307	130.44
357.534	122.44
357.761	131.44
357.988	116.44
358.215	118.44
358.441	118.44
358.668	118.44
358.895	120.44
359.122	112.44
359.349	136.44
359.576	126.44
359.802	106.44
360.029	130.44
360.256	132.44
360.483	129.44
360.709	120.44
360.936	151.44
361.163	125.44
361.39	144.44
361.616	141.44
361.843	135.44
362.07	128.44
362.296	122.44
362.523	122.44
362.749	137.44
362.976	121.44
363.203	119.44
363.429	110.44
363.656	129.44
363.882	122.44
364.109	120.44
364.335	134.44
364.562	125.44
364.788	118.44
365.015	124.44
365.241	126.44
365.468	136.44
365.694	118.44
365.92	126.44
366.147	118.44
366.373	123.44
366.599	128.44
366.826	124.44
367.052	117.44
367.278	146.44
367.505	132.44
367.731	164.44
367.957	124.44
368.184	129.44
368.41	114.44
368.636	134.44
368.862	129.44
369.089	123.44
369.315	127.44
369.541	136.44
369.767	142.44
369.993	146.44
370.219	126.44
370.445	142.44
370.672	139.44
370.898	140.44
371.124	141.44
371.35	134.44
371.576	122.44
371.802	141.44
372.028	132.44
372.254	130.44
372.48	117.44
372.706	133.44
372.932	133.44
373.158	138.44
373.384	151.44
373.61	144.44
373.835	137.44
374.061	142.44
374.287	133.44
374.513	148.44
374.739	145.44
374.965	131.44
375.191	156.44
375.416	146.44
375.642	135.44
375.868	148.44
376.094	121.44
376.319	138.44
376.545	130.44
376.771	127.44
376.997	144.44
377.222	129.44
377.448	145.44
377.674	135.44
377.899	136.44
378.125	130.44
378.35	156.44
378.576	127.44
378.802	132.44
379.027	135.44
379.253	141.44
379.478	124.44
379.704	123.44
379.929	124.44
380.155	145.44
380.38	141.44
380.606	130.44
380.831	153.44
381.057	145.44
381.282	149.44
381.507	131.44
381.733	141.44
381.958	135.44
382.184	130.44
382.409	141.44
382.634	132.44
382.86	144.44
383.085	138.44
383.31	144.44
383.535	156.44
383.761	142.44
383.986	159.44
384.211	140.44
384.436	138.44
384.662	146.44
384.887	136.44
385.112	154.44
385.337	154.44
385.562	156.44
385.787	148.44
386.013	150.44
386.238	157.44
386.463	157.44
386.688	174.44
386.913	171.44
387.138	159.44
387.363	137.44
387.588	152.44
387.813	149.44
388.038	158.44
388.263	154.44
388.488	145.44
388.713	172.44
388.938	162.44
389.163	162.44
389.387	159.44
389.612	151.44
389.837	133.44
390.062	140.44
390.287	150.44
390.512	167.44
390.736	140.44
390.961	156.44
391.186	163.44
391.411	162.44
391.636	159.44
391.86	176.44
392.085	168.44
392.31	162.44
392.534	157.44
392.759	159.44
392.984	167.44
393.208	167.44
393.433	157.44
393.658	171.44
393.882	160.44
394.107	166.44
394.331	163.44
394.556	156.44
394.78	167.44
395.005	161.44
395.229	161.44
395.454	173.44
395.678	160.44
395.903	162.44
396.127	171.44
396.352	159.44
396.576	165.44
396.801	160.44
397.025	164.44
397.249	174.44
397.474	175.44
397.698	167.44
397.922	151.44
398.147	143.44
398.371	172.44
398.595	162.44
398.82	180.44
399.044	210.44
399.268	209.44
399.492	230.44
399.717	255.44
399.941	212.44
400.165	202.44
400.389	195.44
400.613	178.44
400.837	180.44
401.062	170.44
401.286	177.44
401.51	174.44
401.734	176.44
401.958	192.44
402.182	184.44
402.406	173.44
402.63	177.44
402.854	188.44
403.078	192.44
403.302	191.44
403.526	208.44
403.75	200.44
403.974	197.44
404.198	181.44
404.422	201.44
404.645	192.44
404.869	192.44
405.093	207.44
405.317	180.44
405.541	198.44
405.765	183.44
405.988	187.44
406.212	193.44
406.436	176.44
406.66	193.44
406.883	201.44
407.107	214.44
407.331	221.44
407.555	204.44
407.778	221.44
408.002	198.44
408.226	197.44
408.449	188.44
408.673	213.44
408.896	211.44
409.12	195.44
409.344	196.44
409.567	205.44
409.791	198.44
410.014	187.44
410.238	192.44
410.461	191.44
410.685	195.44
410.908	192.44
411.132	210.44
411.355	170.44
411.578	183.44
411.802	185.44
412.025	197.44
412.249	196.44
412.472	188.44
412.695	176.44
412.919	177.44
413.142	181.44
413.365	190.44
413.589	191.44
413.812	192.44
414.035	192.44
414.258	181.44
414.482	199.44
414.705	188.44
414.928	179.44
415.151	189.44
415.374	173.44
415.597	183.44
415.821	182.44
416.044	188.44
416.267	174.44
416.49	179.44
416.713	175.44
416.936	187.44
417.159	181.44
417.382	187.44
417.605	167.44
417.828	188.44
418.051	189.44
418.274	198.44
418.497	172.44
418.72	191.44
418.943	212.44
419.166	193.44
419.389	204.44
419.611	200.44
419.834	191.44
420.057	193.44
420.28	190.44
420.503	189.44
420.726	191.44
420.948	194.44
421.171	183.44
421.394	201.44
421.617	191.44
421.839	204.44
422.062	188.44
422.285	179.44
422.507	192.44
422.73	190.44
422.953	192.44
423.175	195.44
423.398	189.44
423.621	192.44
423.843	191.44
424.066	189.44
424.288	209.44
424.511	202.44
424.733	201.44
424.956	193.44
425.178	182.44
425.401	189.44
425.623	180.44
425.846	176.44
426.068	180.44
426.291	184.44
426.513	184.44
426.735	197.44
426.958	183.44
427.18	184.44
427.402	185.44
427.625	170.44
427.847	185.44
428.069	180.44
428.292	182.44
428.514	186.44
428.736	180.44
428.958	180.44
429.181	188.44
429.403	182.44
429.625	184.44
429.847	174.44
430.069	201.44
430.292	192.44
430.514	183.44
430.736	180.44
430.958	159.44
431.18	164.44
431.402	167.44
431.624	175.44
431.846	153.44
432.068	159.44
432.29	170.44
432.512	164.44
432.734	184.44
432.956	174.44
433.178	188.44
433.4	176.44
433.622	193.44
433.844	170.44
434.066	188.44
434.287	157.44
434.509	161.44
434.731	178.44
434.953	187.44
435.175	187.44
435.397	169.44
435.618	164.44
435.84	173.44
436.062	169.44
436.284	167.44
436.505	169.44
436.727	183.44
436.949	170.44
437.17	174.44
437.392	161.44
437.614	169.44
437.835	154.44
438.057	175.44
438.278	173.44
438.5	168.44
438.721	180.44
438.943	188.44
439.165	165.44
439.386	176.44
439.608	189.44
439.829	184.44
440.05	174.44
440.272	184.44
440.493	180.44
440.715	172.44
440.936	188.44
441.158	190.44
441.379	200.44
441.6	212.44
441.822	202.44
442.043	200.44
442.264	212.44
442.486	180.44
442.707	186.44
442.928	182.44
443.149	175.44
443.371	182.44
443.592	199.44
443.813	203.44
444.034	208.44
444.255	210.44
444.476	205.44
444.698	188.44
444.919	206.44
445.14	494.44
445.361	332.44
445.582	227.44
445.803	195.44
446.024	185.44
446.245	196.44
446.466	192.44
446.687	196.44
446.908	207.44
447.129	178.44
447.35	176.44
447.571	185.44
447.792	168.44
448.013	166.44
448.234	183.44
448.455	169.44
448.675	178.44
448.896	166.44
449.117	155.44
449.338	183.44
449.559	178.44
449.779	168.44
450	173.44
450.221	173.44
450.442	182.44
450.662	187.44
450.883	170.44
451.104	186.44
451.324	166.44
451.545	182.44
451.766	180.44
451.986	186.44
452.207	176.44
452.428	179.44
452.648	178.44
452.869	186.44
453.089	161.44
453.31	150.44
453.53	156.44
453.751	152.44
453.971	152.44
454.192	163.44
454.412	158.44
454.633	168.44
454.853	172.44
455.073	161.44
455.294	164.44
455.514	169.44
455.734	168.44
455.955	147.44
456.175	144.44
456.395	141.44
456.616	158.44
456.836	145.44
457.056	164.44
457.276	152.44
457.497	151.44
457.717	141.44
457.937	156.44
458.157	154.44
458.377	152.44
458.598	155.44
458.818	145.44
459.038	155.44
459.258	155.44
459.478	168.44
459.698	153.44
459.918	166.44
460.138	178.44
460.358	167.44
460.578	189.44
460.798	203.44
461.018	182.44
461.238	200.44
461.458	192.44
461.678	192.44
461.898	182.44
462.118	201.44
462.338	211.44
462.558	198.44
462.777	202.44
462.997	208.44
463.217	215.44
463.437	224.44
463.657	204.44
463.876	192.44
464.096	225.44
464.316	191.44
464.536	205.44
464.755	195.44
464.975	214.44
465.195	203.44
465.414	177.44
465.634	178.44
465.854	176.44
466.073	188.44
466.293	171.44
466.512	188.44
466.732	184.44
466.951	165.44
467.171	171.44
467.391	155.44
467.61	192.44
467.829	194.44
468.049	194.44
468.268	178.44
468.488	170.44
468.707	183.44
468.927	169.44
469.146	176.44
469.365	163.44
469.585	185.44
469.804	180.44
470.023	178.44
470.243	177.44
470.462	183.44
470.681	185.44
470.901	180.44
471.12	180.44
471.339	193.44
471.558	187.44
471.777	194.44
471.997	165.44
472.216	176.44
472.435	176.44
472.654	156.44
472.873	163.44
473.092	168.44
473.311	150.44
473.53	166.44
473.749	164.44
473.968	167.44
474.187	176.44
474.406	172.44
474.625	174.44
474.844	183.44
475.063	176.44
475.282	163.44
475.501	154.44
475.72	180.44
475.939	172.44
476.158	160.44
476.377	173.44
476.596	166.44
476.814	171.44
477.033	174.44
477.252	175.44
477.471	164.44
477.69	166.44
477.908	196.44
478.127	215.44
478.346	181.44
478.564	203.44
478.783	188.44
479.002	204.44
479.22	184.44
479.439	194.44
479.658	175.44
479.876	178.44
480.095	178.44
480.313	189.44
480.532	202.44
480.751	185.44
480.969	173.44
481.188	166.44
481.406	151.44
481.624	168.44
481.843	178.44
482.061	167.44
482.28	176.44
482.498	166.44
482.717	172.44
482.935	190.44
483.153	185.44
483.372	179.44
483.59	192.44
483.808	170.44
484.027	199.44
484.245	191.44
484.463	206.44
484.681	228.44
484.9	210.44
485.118	191.44
485.336	198.44
485.554	177.44
485.772	183.44
485.99	185.44
486.209	196.44
486.427	196.44
486.645	201.44
486.863	195.44
487.081	187.44
487.299	192.44
487.517	178.44
487.735	216.44
487.953	227.44
488.171	229.44
488.389	216.44
488.607	206.44
488.825	180.44
489.043	196.44
489.261	189.44
489.479	200.44
489.696	181.44
489.914	186.44
490.132	198.44
490.35	202.44
490.568	206.44
490.786	204.44
491.003	213.44
491.221	217.44
491.439	217.44
491.657	220.44
491.874	240.44
492.092	245.44
492.31	255.44
492.527	231.44
492.745	238.44
492.963	239.44
493.18	232.44
493.398	210.44
493.615	205.44
493.833	220.44
494.05	223.44
494.268	213.44
494.485	234.44
494.703	234.44
494.92	208.44
495.138	217.44
495.355	213.44
495.573	234.44
495.79	206.44
496.008	222.44
496.225	217.44
496.442	216.44
496.66	209.44
496.877	223.44
497.094	228.44
497.312	221.44
497.529	216.44
497.746	215.44
497.963	206.44
498.181	214.44
498.398	216.44
498.615	239.44
498.832	252.44
499.049	241.44
499.267	266.44
499.484	279.44
499.701	308.44
499.918	342.44
500.135	361.44
500.352	385.44
500.569	417.44
500.786	399.44
501.003	350.44
501.22	328.44
501.437	295.44
501.654	277.44
501.871	264.44
502.088	249.44
502.305	269.44
502.522	228.44
502.739	233.44
502.956	227.44
503.172	222.44
503.389	222.44
503.606	200.44
503.823	213.44
504.04	199.44
504.256	224.44
504.473	204.44
504.69	211.44
504.907	214.44
505.123	206.44
