Data from SampD_HRD10591_00094.txt Node
Date: Mon Jan 19 11:50:47 EST 2026
User: Yrep
Spectrometer: HR+D1059
Trigger mode: 0
Integration Time (sec): 3.443000E-1
Scans to average: 1
Electric dark correction enabled: true
Nonlinearity correction enabled: false
Boxcar width: 0
XAxis mode: Wavelengths
Number of Pixels in Spectrum: 2048
>>>>>Begin Spectral Data<<<<<
223.165	-19.81
223.4	-19.81
223.635	-19.81
223.869	-35.81
224.104	-19.81
224.338	-14.81
224.573	-18.81
224.808	-18.81
225.042	-13.81
225.277	-4.81
225.511	3.19
225.746	8.19
225.98	6.19
226.215	26.19
226.449	18.19
226.683	26.19
226.918	31.19
227.152	27.19
227.387	39.19
227.621	29.19
227.856	56.19
228.09	41.19
228.324	60.19
228.559	64.19
228.793	56.19
229.027	55.19
229.262	55.19
229.496	82.19
229.73	82.19
229.964	71.19
230.199	71.19
230.433	70.19
230.667	72.19
230.901	79.19
231.136	80.19
231.37	86.19
231.604	74.19
231.838	85.19
232.072	87.19
232.306	81.19
232.541	91.19
232.775	87.19
233.009	84.19
233.243	75.19
233.477	86.19
233.711	76.19
233.945	87.19
234.179	79.19
234.413	85.19
234.647	71.19
234.881	73.19
235.115	90.19
235.349	81.19
235.583	82.19
235.817	84.19
236.051	74.19
236.285	76.19
236.519	80.19
236.753	76.19
236.987	84.19
237.221	85.19
237.455	75.19
237.689	91.19
237.922	82.19
238.156	92.19
238.39	92.19
238.624	75.19
238.858	92.19
239.091	74.19
239.325	77.19
239.559	68.19
239.793	63.19
240.027	90.19
240.26	80.19
240.494	89.19
240.728	86.19
240.961	76.19
241.195	98.19
241.429	70.19
241.662	72.19
241.896	87.19
242.13	85.19
242.363	68.19
242.597	84.19
242.83	86.19
243.064	69.19
243.298	76.19
243.531	80.19
243.765	96.19
243.998	69.19
244.232	86.19
244.465	82.19
244.699	94.19
244.932	80.19
245.166	85.19
245.399	83.19
245.633	76.19
245.866	76.19
246.099	84.19
246.333	82.19
246.566	91.19
246.8	75.19
247.033	85.19
247.266	74.19
247.5	60.19
247.733	72.19
247.966	90.19
248.2	83.19
248.433	78.19
248.666	77.19
248.899	76.19
249.133	80.19
249.366	97.19
249.599	87.19
249.832	89.19
250.066	81.19
250.299	82.19
250.532	90.19
250.765	85.19
250.998	74.19
251.231	91.19
251.465	74.19
251.698	70.19
251.931	82.19
252.164	82.19
252.397	83.19
252.63	95.19
252.863	74.19
253.096	82.19
253.329	91.19
253.562	71.19
253.795	90.19
254.028	78.19
254.261	84.19
254.494	78.19
254.727	92.19
254.96	95.19
255.193	90.19
255.426	91.19
255.659	93.19
255.892	90.19
256.124	69.19
256.357	82.19
256.59	70.19
256.823	82.19
257.056	92.19
257.289	81.19
257.521	87.19
257.754	82.19
257.987	80.19
258.22	105.19
258.452	92.19
258.685	82.19
258.918	98.19
259.151	94.19
259.383	88.19
259.616	82.19
259.849	97.19
260.081	90.19
260.314	79.19
260.547	82.19
260.779	84.19
261.012	98.19
261.244	87.19
261.477	99.19
261.71	83.19
261.942	84.19
262.175	88.19
262.407	79.19
262.64	76.19
262.872	92.19
263.105	94.19
263.337	106.19
263.57	97.19
263.802	82.19
264.035	80.19
264.267	76.19
264.499	87.19
264.732	94.19
264.964	84.19
265.197	84.19
265.429	95.19
265.661	78.19
265.894	89.19
266.126	84.19
266.358	98.19
266.591	96.19
266.823	85.19
267.055	82.19
267.287	99.19
267.52	91.19
267.752	93.19
267.984	95.19
268.216	97.19
268.448	94.19
268.681	84.19
268.913	105.19
269.145	96.19
269.377	106.19
269.609	83.19
269.841	88.19
270.073	91.19
270.306	90.19
270.538	104.19
270.77	84.19
271.002	89.19
271.234	115.19
271.466	94.19
271.698	92.19
271.93	97.19
272.162	88.19
272.394	97.19
272.626	99.19
272.858	100.19
273.09	94.19
273.322	83.19
273.553	104.19
273.785	81.19
274.017	98.19
274.249	98.19
274.481	81.19
274.713	84.19
274.945	94.19
275.176	85.19
275.408	101.19
275.64	70.19
275.872	91.19
276.104	96.19
276.335	105.19
276.567	92.19
276.799	91.19
277.031	91.19
277.262	85.19
277.494	95.19
277.726	101.19
277.957	91.19
278.189	91.19
278.421	96.19
278.652	90.19
278.884	82.19
279.115	86.19
279.347	85.19
279.579	89.19
279.81	100.19
280.042	91.19
280.273	103.19
280.505	82.19
280.736	88.19
280.968	92.19
281.199	85.19
281.431	86.19
281.662	108.19
281.894	96.19
282.125	95.19
282.356	89.19
282.588	100.19
282.819	83.19
283.051	85.19
283.282	92.19
283.513	103.19
283.745	86.19
283.976	112.19
284.207	91.19
284.439	98.19
284.67	102.19
284.901	95.19
285.132	98.19
285.364	103.19
285.595	100.19
285.826	89.19
286.057	105.19
286.288	94.19
286.52	93.19
286.751	113.19
286.982	101.19
287.213	108.19
287.444	88.19
287.675	90.19
287.906	91.19
288.138	84.19
288.369	95.19
288.6	98.19
288.831	89.19
289.062	112.19
289.293	108.19
289.524	94.19
289.755	100.19
289.986	98.19
290.217	98.19
290.448	98.19
290.679	107.19
290.91	115.19
291.141	89.19
291.371	98.19
291.602	96.19
291.833	98.19
292.064	103.19
292.295	109.19
292.526	94.19
292.757	94.19
292.987	95.19
293.218	102.19
293.449	97.19
293.68	104.19
293.91	96.19
294.141	110.19
294.372	102.19
294.603	87.19
294.833	100.19
295.064	91.19
295.295	111.19
295.525	111.19
295.756	104.19
295.987	106.19
296.217	107.19
296.448	104.19
296.679	91.19
296.909	107.19
297.14	97.19
297.37	103.19
297.601	101.19
297.831	102.19
298.062	98.19
298.292	105.19
298.523	99.19
298.753	102.19
298.984	100.19
299.214	100.19
299.445	102.19
299.675	103.19
299.905	103.19
300.136	111.19
300.366	98.19
300.597	100.19
300.827	87.19
301.057	106.19
301.288	101.19
301.518	106.19
301.748	104.19
301.979	144.19
302.209	99.19
302.439	97.19
302.669	99.19
302.9	109.19
303.13	114.19
303.36	107.19
303.59	99.19
303.82	100.19
304.051	114.19
304.281	118.19
304.511	120.19
304.741	95.19
304.971	91.19
305.201	88.19
305.431	106.19
305.661	109.19
305.891	96.19
306.121	107.19
306.352	111.19
306.582	82.19
306.812	93.19
307.042	110.19
307.272	101.19
307.502	96.19
307.731	107.19
307.961	108.19
308.191	109.19
308.421	104.19
308.651	106.19
308.881	106.19
309.111	105.19
309.341	111.19
309.571	103.19
309.8	99.19
310.03	111.19
310.26	104.19
310.49	106.19
310.72	107.19
310.949	111.19
311.179	114.19
311.409	106.19
311.639	107.19
311.868	112.19
312.098	110.19
312.328	103.19
312.557	99.19
312.787	90.19
313.017	109.19
313.246	105.19
313.476	98.19
313.706	99.19
313.935	92.19
314.165	98.19
314.394	119.19
314.624	104.19
314.853	121.19
315.083	118.19
315.312	102.19
315.542	107.19
315.771	117.19
316.001	96.19
316.23	99.19
316.46	104.19
316.689	98.19
316.919	108.19
317.148	110.19
317.377	113.19
317.607	105.19
317.836	109.19
318.065	104.19
318.295	97.19
318.524	112.19
318.753	110.19
318.983	103.19
319.212	99.19
319.441	107.19
319.67	122.19
319.9	101.19
320.129	103.19
320.358	116.19
320.587	97.19
320.816	91.19
321.046	98.19
321.275	95.19
321.504	107.19
321.733	108.19
321.962	98.19
322.191	102.19
322.42	111.19
322.649	106.19
322.878	118.19
323.108	105.19
323.337	108.19
323.566	100.19
323.795	109.19
324.024	111.19
324.253	92.19
324.482	96.19
324.71	102.19
324.939	112.19
325.168	113.19
325.397	92.19
325.626	92.19
325.855	100.19
326.084	108.19
326.313	116.19
326.542	111.19
326.77	106.19
326.999	103.19
327.228	105.19
327.457	107.19
327.686	113.19
327.914	119.19
328.143	105.19
328.372	106.19
328.6	98.19
328.829	105.19
329.058	116.19
329.287	106.19
329.515	104.19
329.744	115.19
329.972	97.19
330.201	106.19
330.43	98.19
330.658	99.19
330.887	95.19
331.115	115.19
331.344	99.19
331.572	103.19
331.801	116.19
332.03	120.19
332.258	108.19
332.486	119.19
332.715	112.19
332.943	110.19
333.172	112.19
333.4	126.19
333.629	118.19
333.857	103.19
334.085	104.19
334.314	115.19
334.542	125.19
334.771	120.19
334.999	103.19
335.227	111.19
335.455	106.19
335.684	114.19
335.912	119.19
336.14	98.19
336.369	111.19
336.597	110.19
336.825	120.19
337.053	111.19
337.281	113.19
337.51	110.19
337.738	126.19
337.966	107.19
338.194	105.19
338.422	112.19
338.65	108.19
338.878	100.19
339.106	102.19
339.334	111.19
339.562	120.19
339.79	103.19
340.018	106.19
340.246	112.19
340.474	107.19
340.702	123.19
340.93	105.19
341.158	111.19
341.386	106.19
341.614	101.19
341.842	108.19
342.07	112.19
342.298	102.19
342.526	119.19
342.754	110.19
342.981	108.19
343.209	111.19
343.437	128.19
343.665	110.19
343.893	103.19
344.12	128.19
344.348	119.19
344.576	113.19
344.804	111.19
345.031	114.19
345.259	98.19
345.487	103.19
345.714	104.19
345.942	102.19
346.17	94.19
346.397	99.19
346.625	101.19
346.853	110.19
347.08	98.19
347.308	96.19
347.535	101.19
347.763	103.19
347.99	105.19
348.218	104.19
348.445	111.19
348.673	91.19
348.9	108.19
349.128	128.19
349.355	104.19
349.583	113.19
349.81	100.19
350.037	91.19
350.265	117.19
350.492	110.19
350.72	98.19
350.947	108.19
351.174	103.19
351.402	97.19
351.629	92.19
351.856	119.19
352.083	92.19
352.311	111.19
352.538	102.19
352.765	99.19
352.992	107.19
353.22	113.19
353.447	112.19
353.674	107.19
353.901	95.19
354.128	102.19
354.355	113.19
354.583	102.19
354.81	113.19
355.037	93.19
355.264	100.19
355.491	96.19
355.718	95.19
355.945	113.19
356.172	111.19
356.399	107.19
356.626	114.19
356.853	130.19
357.08	114.19
357.307	118.19
357.534	110.19
357.761	102.19
357.988	116.19
358.215	108.19
358.441	98.19
358.668	98.19
358.895	99.19
359.122	107.19
359.349	103.19
359.576	114.19
359.802	90.19
360.029	105.19
360.256	112.19
360.483	103.19
360.709	111.19
360.936	113.19
361.163	107.19
361.39	106.19
361.616	105.19
361.843	110.19
362.07	108.19
362.296	119.19
362.523	95.19
362.749	94.19
362.976	98.19
363.203	130.19
363.429	107.19
363.656	104.19
363.882	99.19
364.109	102.19
364.335	100.19
364.562	112.19
364.788	103.19
365.015	104.19
365.241	107.19
365.468	118.19
365.694	106.19
365.92	106.19
366.147	98.19
366.373	110.19
366.599	106.19
366.826	94.19
367.052	116.19
367.278	102.19
367.505	107.19
367.731	108.19
367.957	106.19
368.184	99.19
368.41	105.19
368.636	116.19
368.862	122.19
369.089	96.19
369.315	113.19
369.541	119.19
369.767	128.19
369.993	97.19
370.219	92.19
370.445	115.19
370.672	102.19
370.898	91.19
371.124	104.19
371.35	96.19
371.576	108.19
371.802	122.19
372.028	107.19
372.254	109.19
372.48	115.19
372.706	107.19
372.932	115.19
373.158	113.19
373.384	114.19
373.61	114.19
373.835	120.19
374.061	113.19
374.287	101.19
374.513	106.19
374.739	106.19
374.965	115.19
375.191	104.19
375.416	110.19
375.642	98.19
375.868	111.19
376.094	119.19
376.319	115.19
376.545	101.19
376.771	115.19
376.997	113.19
377.222	116.19
377.448	107.19
377.674	98.19
377.899	116.19
378.125	101.19
378.35	98.19
378.576	113.19
378.802	118.19
379.027	122.19
379.253	118.19
379.478	111.19
379.704	103.19
379.929	108.19
380.155	114.19
380.38	102.19
380.606	118.19
380.831	114.19
381.057	111.19
381.282	114.19
381.507	115.19
381.733	109.19
381.958	114.19
382.184	122.19
382.409	114.19
382.634	112.19
382.86	122.19
383.085	101.19
383.31	105.19
383.535	116.19
383.761	96.19
383.986	130.19
384.211	126.19
384.436	116.19
384.662	115.19
384.887	111.19
385.112	128.19
385.337	126.19
385.562	107.19
385.787	114.19
386.013	122.19
386.238	111.19
386.463	108.19
386.688	161.19
386.913	132.19
387.138	120.19
387.363	110.19
387.588	118.19
387.813	121.19
388.038	132.19
388.263	124.19
388.488	106.19
388.713	118.19
388.938	111.19
389.163	120.19
389.387	112.19
389.612	94.19
389.837	110.19
390.062	110.19
390.287	110.19
390.512	127.19
390.736	112.19
390.961	119.19
391.186	131.19
391.411	132.19
391.636	143.19
391.86	124.19
392.085	120.19
392.31	122.19
392.534	125.19
392.759	119.19
392.984	133.19
393.208	122.19
393.433	138.19
393.658	111.19
393.882	131.19
394.107	131.19
394.331	135.19
394.556	132.19
394.78	139.19
395.005	131.19
395.229	127.19
395.454	127.19
395.678	128.19
395.903	132.19
396.127	115.19
396.352	117.19
396.576	97.19
396.801	119.19
397.025	135.19
397.249	146.19
397.474	139.19
397.698	132.19
397.922	144.19
398.147	120.19
398.371	130.19
398.595	139.19
398.82	132.19
399.044	143.19
399.268	145.19
399.492	156.19
399.717	172.19
399.941	155.19
400.165	146.19
400.389	133.19
400.613	136.19
400.837	142.19
401.062	143.19
401.286	143.19
401.51	123.19
401.734	128.19
401.958	144.19
402.182	134.19
402.406	130.19
402.63	130.19
402.854	129.19
403.078	144.19
403.302	135.19
403.526	144.19
403.75	137.19
403.974	139.19
404.198	135.19
404.422	137.19
404.645	136.19
404.869	130.19
405.093	145.19
405.317	158.19
405.541	124.19
405.765	142.19
405.988	127.19
406.212	134.19
406.436	142.19
406.66	146.19
406.883	142.19
407.107	152.19
407.331	135.19
407.555	147.19
407.778	148.19
408.002	142.19
408.226	158.19
408.449	154.19
408.673	126.19
408.896	131.19
409.12	136.19
409.344	131.19
409.567	142.19
409.791	145.19
410.014	134.19
410.238	147.19
410.461	168.19
410.685	143.19
410.908	129.19
411.132	153.19
411.355	133.19
411.578	154.19
411.802	128.19
412.025	134.19
412.249	138.19
412.472	136.19
412.695	135.19
412.919	143.19
413.142	137.19
413.365	138.19
413.589	135.19
413.812	115.19
414.035	150.19
414.258	131.19
414.482	135.19
414.705	136.19
414.928	142.19
415.151	137.19
415.374	148.19
415.597	119.19
415.821	146.19
416.044	139.19
416.267	136.19
416.49	116.19
416.713	133.19
416.936	149.19
417.159	132.19
417.382	135.19
417.605	133.19
417.828	141.19
418.051	131.19
418.274	139.19
418.497	134.19
418.72	138.19
418.943	114.19
419.166	136.19
419.389	136.19
419.611	123.19
419.834	158.19
420.057	134.19
420.28	110.19
420.503	139.19
420.726	126.19
420.948	124.19
421.171	142.19
421.394	132.19
421.617	144.19
421.839	143.19
422.062	131.19
422.285	131.19
422.507	136.19
422.73	139.19
422.953	140.19
423.175	137.19
423.398	134.19
423.621	146.19
423.843	138.19
424.066	150.19
424.288	154.19
424.511	148.19
424.733	155.19
424.956	130.19
425.178	137.19
425.401	137.19
425.623	123.19
425.846	123.19
426.068	127.19
426.291	134.19
426.513	138.19
426.735	128.19
426.958	144.19
427.18	147.19
427.402	135.19
427.625	128.19
427.847	127.19
428.069	119.19
428.292	130.19
428.514	123.19
428.736	142.19
428.958	131.19
429.181	129.19
429.403	133.19
429.625	131.19
429.847	133.19
430.069	127.19
430.292	137.19
430.514	124.19
430.736	135.19
430.958	126.19
431.18	130.19
431.402	127.19
431.624	121.19
431.846	122.19
432.068	131.19
432.29	108.19
432.512	124.19
432.734	124.19
432.956	143.19
433.178	139.19
433.4	132.19
433.622	133.19
433.844	144.19
434.066	135.19
434.287	124.19
434.509	128.19
434.731	131.19
434.953	126.19
435.175	144.19
435.397	142.19
435.618	126.19
435.84	120.19
436.062	131.19
436.284	145.19
436.505	130.19
436.727	142.19
436.949	133.19
437.17	127.19
437.392	122.19
437.614	118.19
437.835	128.19
438.057	117.19
438.278	113.19
438.5	127.19
438.721	128.19
438.943	126.19
439.165	142.19
439.386	133.19
439.608	130.19
439.829	139.19
440.05	156.19
440.272	141.19
440.493	130.19
440.715	142.19
440.936	143.19
441.158	134.19
441.379	145.19
441.6	132.19
441.822	135.19
442.043	133.19
442.264	150.19
442.486	127.19
442.707	131.19
442.928	132.19
443.149	140.19
443.371	150.19
443.592	133.19
443.813	120.19
444.034	138.19
444.255	162.19
444.476	156.19
444.698	140.19
444.919	153.19
445.14	392.19
445.361	261.19
445.582	162.19
445.803	132.19
446.024	138.19
446.245	141.19
446.466	150.19
446.687	133.19
446.908	126.19
447.129	142.19
447.35	122.19
447.571	141.19
447.792	129.19
448.013	135.19
448.234	135.19
448.455	136.19
448.675	150.19
448.896	133.19
449.117	114.19
449.338	131.19
449.559	132.19
449.779	126.19
450	133.19
450.221	115.19
450.442	126.19
450.662	138.19
450.883	135.19
451.104	137.19
451.324	139.19
451.545	136.19
451.766	132.19
451.986	121.19
452.207	132.19
452.428	117.19
452.648	124.19
452.869	131.19
453.089	121.19
453.31	111.19
453.53	122.19
453.751	117.19
453.971	124.19
454.192	107.19
454.412	127.19
454.633	116.19
454.853	143.19
455.073	120.19
455.294	116.19
455.514	145.19
455.734	127.19
455.955	127.19
456.175	122.19
456.395	115.19
456.616	119.19
456.836	122.19
457.056	111.19
457.276	119.19
457.497	123.19
457.717	130.19
457.937	121.19
458.157	131.19
458.377	110.19
458.598	119.19
458.818	125.19
459.038	111.19
459.258	107.19
459.478	122.19
459.698	118.19
459.918	127.19
460.138	136.19
460.358	145.19
460.578	149.19
460.798	146.19
461.018	134.19
461.238	133.19
461.458	143.19
461.678	136.19
461.898	147.19
462.118	147.19
462.338	147.19
462.558	143.19
462.777	140.19
462.997	155.19
463.217	153.19
463.437	149.19
463.657	131.19
463.876	155.19
464.096	149.19
464.316	142.19
464.536	148.19
464.755	151.19
464.975	143.19
465.195	141.19
465.414	148.19
465.634	150.19
465.854	146.19
466.073	147.19
466.293	109.19
466.512	114.19
466.732	115.19
466.951	139.19
467.171	123.19
467.391	138.19
467.61	145.19
467.829	124.19
468.049	119.19
468.268	113.19
468.488	127.19
468.707	124.19
468.927	137.19
469.146	132.19
469.365	133.19
469.585	127.19
469.804	130.19
470.023	121.19
470.243	139.19
470.462	124.19
470.681	126.19
470.901	139.19
471.12	115.19
471.339	134.19
471.558	136.19
471.777	130.19
471.997	134.19
472.216	129.19
472.435	131.19
472.654	126.19
472.873	124.19
473.092	132.19
473.311	133.19
473.53	128.19
473.749	137.19
473.968	127.19
474.187	126.19
474.406	122.19
474.625	123.19
474.844	124.19
475.063	121.19
475.282	123.19
475.501	128.19
475.72	139.19
475.939	134.19
476.158	122.19
476.377	118.19
476.596	124.19
476.814	127.19
477.033	115.19
477.252	139.19
477.471	133.19
477.69	138.19
477.908	132.19
478.127	154.19
478.346	136.19
478.564	142.19
478.783	131.19
479.002	139.19
479.22	132.19
479.439	150.19
479.658	147.19
479.876	122.19
480.095	126.19
480.313	160.19
480.532	138.19
480.751	142.19
480.969	123.19
481.188	135.19
481.406	128.19
481.624	131.19
481.843	125.19
482.061	126.19
482.28	125.19
482.498	132.19
482.717	146.19
482.935	124.19
483.153	138.19
483.372	160.19
483.59	137.19
483.808	135.19
484.027	127.19
484.245	146.19
484.463	135.19
484.681	148.19
484.9	132.19
485.118	143.19
485.336	142.19
485.554	143.19
485.772	113.19
485.99	125.19
486.209	114.19
486.427	144.19
486.645	128.19
486.863	144.19
487.081	144.19
487.299	136.19
487.517	159.19
487.735	150.19
487.953	156.19
488.171	162.19
488.389	142.19
488.607	142.19
488.825	146.19
489.043	123.19
489.261	146.19
489.479	127.19
489.696	141.19
489.914	134.19
490.132	136.19
490.35	135.19
490.568	132.19
490.786	147.19
491.003	148.19
491.221	145.19
491.439	176.19
491.657	148.19
491.874	161.19
492.092	158.19
492.31	160.19
492.527	167.19
492.745	149.19
492.963	163.19
493.18	166.19
493.398	158.19
493.615	165.19
493.833	155.19
494.05	146.19
494.268	148.19
494.485	147.19
494.703	138.19
494.92	146.19
495.138	137.19
495.355	160.19
495.573	149.19
495.79	144.19
496.008	152.19
496.225	165.19
496.442	149.19
496.66	160.19
496.877	158.19
497.094	163.19
497.312	154.19
497.529	149.19
497.746	150.19
497.963	149.19
498.181	156.19
498.398	150.19
498.615	161.19
498.832	159.19
499.049	162.19
499.267	175.19
499.484	184.19
499.701	202.19
499.918	215.19
500.135	229.19
500.352	256.19
500.569	270.19
500.786	263.19
501.003	234.19
501.22	209.19
501.437	199.19
501.654	172.19
501.871	184.19
502.088	188.19
502.305	179.19
502.522	168.19
502.739	169.19
502.956	156.19
503.172	155.19
503.389	146.19
503.606	148.19
503.823	142.19
504.04	147.19
504.256	148.19
504.473	142.19
504.69	147.19
504.907	172.19
505.123	159.19
505.34	150.19
505.557	142.19
505.773	151.19
505.99	148.19
506.207	129.19
506.423	142.19
506.64	148.19
506.856	135.19
507.073	126.19
507.289	117.19
