Data from SampD_HRD10591_00078.txt Node
Date: Mon Jan 19 11:50:42 EST 2026
User: Yrep
Spectrometer: HR+D1059
Trigger mode: 0
Integration Time (sec): 3.443000E-1
Scans to average: 1
Electric dark correction enabled: true
Nonlinearity correction enabled: false
Boxcar width: 0
XAxis mode: Wavelengths
Number of Pixels in Spectrum: 2048
>>>>>Begin Spectral Data<<<<<
223.165	-22.06
223.4	-22.06
223.635	-22.06
223.869	-17.06
224.104	-21.06
224.338	-15.06
224.573	-7.06
224.808	-9.06
225.042	-4.06
225.277	-5.06
225.511	1.94
225.746	13.94
225.98	5.94
226.215	6.94
226.449	9.94
226.683	5.94
226.918	19.94
227.152	35.94
227.387	44.94
227.621	42.94
227.856	55.94
228.09	53.94
228.324	57.94
228.559	66.94
228.793	66.94
229.027	60.94
229.262	79.94
229.496	72.94
229.73	80.94
229.964	93.94
230.199	85.94
230.433	68.94
230.667	88.94
230.901	96.94
231.136	82.94
231.37	78.94
231.604	70.94
231.838	88.94
232.072	76.94
232.306	91.94
232.541	84.94
232.775	82.94
233.009	92.94
233.243	82.94
233.477	100.94
233.711	89.94
233.945	79.94
234.179	81.94
234.413	84.94
234.647	83.94
234.881	88.94
235.115	82.94
235.349	87.94
235.583	89.94
235.817	97.94
236.051	74.94
236.285	81.94
236.519	95.94
236.753	84.94
236.987	78.94
237.221	91.94
237.455	97.94
237.689	89.94
237.922	89.94
238.156	76.94
238.39	100.94
238.624	78.94
238.858	88.94
239.091	88.94
239.325	77.94
239.559	92.94
239.793	89.94
240.027	101.94
240.26	87.94
240.494	74.94
240.728	80.94
240.961	77.94
241.195	92.94
241.429	77.94
241.662	81.94
241.896	84.94
242.13	77.94
242.363	82.94
242.597	87.94
242.83	96.94
243.064	74.94
243.298	89.94
243.531	92.94
243.765	94.94
243.998	93.94
244.232	89.94
244.465	99.94
244.699	96.94
244.932	76.94
245.166	94.94
245.399	78.94
245.633	100.94
245.866	79.94
246.099	88.94
246.333	89.94
246.566	91.94
246.8	88.94
247.033	84.94
247.266	71.94
247.5	67.94
247.733	96.94
247.966	90.94
248.2	92.94
248.433	92.94
248.666	88.94
248.899	82.94
249.133	74.94
249.366	98.94
249.599	92.94
249.832	101.94
250.066	111.94
250.299	97.94
250.532	95.94
250.765	100.94
250.998	102.94
251.231	100.94
251.465	85.94
251.698	91.94
251.931	86.94
252.164	93.94
252.397	101.94
252.63	94.94
252.863	92.94
253.096	90.94
253.329	107.94
253.562	90.94
253.795	97.94
254.028	94.94
254.261	88.94
254.494	78.94
254.727	114.94
254.96	96.94
255.193	94.94
255.426	98.94
255.659	87.94
255.892	101.94
256.124	99.94
256.357	100.94
256.59	111.94
256.823	93.94
257.056	81.94
257.289	87.94
257.521	107.94
257.754	86.94
257.987	85.94
258.22	92.94
258.452	94.94
258.685	102.94
258.918	88.94
259.151	102.94
259.383	105.94
259.616	73.94
259.849	96.94
260.081	96.94
260.314	93.94
260.547	97.94
260.779	92.94
261.012	97.94
261.244	101.94
261.477	114.94
261.71	105.94
261.942	97.94
262.175	105.94
262.407	96.94
262.64	94.94
262.872	80.94
263.105	110.94
263.337	106.94
263.57	81.94
263.802	98.94
264.035	101.94
264.267	94.94
264.499	97.94
264.732	107.94
264.964	94.94
265.197	94.94
265.429	114.94
265.661	113.94
265.894	98.94
266.126	96.94
266.358	90.94
266.591	98.94
266.823	117.94
267.055	93.94
267.287	100.94
267.52	108.94
267.752	104.94
267.984	98.94
268.216	105.94
268.448	126.94
268.681	115.94
268.913	99.94
269.145	107.94
269.377	113.94
269.609	96.94
269.841	96.94
270.073	95.94
270.306	100.94
270.538	114.94
270.77	104.94
271.002	103.94
271.234	110.94
271.466	117.94
271.698	101.94
271.93	98.94
272.162	102.94
272.394	115.94
272.626	84.94
272.858	110.94
273.09	101.94
273.322	110.94
273.553	108.94
273.785	102.94
274.017	105.94
274.249	102.94
274.481	109.94
274.713	112.94
274.945	106.94
275.176	99.94
275.408	110.94
275.64	108.94
275.872	100.94
276.104	102.94
276.335	110.94
276.567	102.94
276.799	105.94
277.031	93.94
277.262	102.94
277.494	122.94
277.726	105.94
277.957	98.94
278.189	106.94
278.421	110.94
278.652	113.94
278.884	99.94
279.115	110.94
279.347	112.94
279.579	120.94
279.81	105.94
280.042	104.94
280.273	114.94
280.505	106.94
280.736	106.94
280.968	121.94
281.199	120.94
281.431	96.94
281.662	116.94
281.894	102.94
282.125	114.94
282.356	103.94
282.588	121.94
282.819	117.94
283.051	110.94
283.282	105.94
283.513	128.94
283.745	115.94
283.976	115.94
284.207	99.94
284.439	107.94
284.67	114.94
284.901	104.94
285.132	107.94
285.364	119.94
285.595	117.94
285.826	118.94
286.057	125.94
286.288	112.94
286.52	105.94
286.751	110.94
286.982	113.94
287.213	112.94
287.444	101.94
287.675	121.94
287.906	124.94
288.138	118.94
288.369	113.94
288.6	112.94
288.831	100.94
289.062	132.94
289.293	120.94
289.524	105.94
289.755	116.94
289.986	99.94
290.217	106.94
290.448	123.94
290.679	119.94
290.91	137.94
291.141	125.94
291.371	128.94
291.602	121.94
291.833	134.94
292.064	136.94
292.295	122.94
292.526	117.94
292.757	115.94
292.987	122.94
293.218	122.94
293.449	114.94
293.68	119.94
293.91	121.94
294.141	130.94
294.372	124.94
294.603	117.94
294.833	122.94
295.064	120.94
295.295	114.94
295.525	136.94
295.756	128.94
295.987	134.94
296.217	116.94
296.448	122.94
296.679	124.94
296.909	134.94
297.14	117.94
297.37	131.94
297.601	118.94
297.831	105.94
298.062	124.94
298.292	124.94
298.523	126.94
298.753	124.94
298.984	123.94
299.214	112.94
299.445	134.94
299.675	110.94
299.905	115.94
300.136	129.94
300.366	122.94
300.597	115.94
300.827	118.94
301.057	119.94
301.288	114.94
301.518	129.94
301.748	113.94
301.979	170.94
302.209	120.94
302.439	120.94
302.669	122.94
302.9	134.94
303.13	118.94
303.36	114.94
303.59	129.94
303.82	128.94
304.051	131.94
304.281	128.94
304.511	133.94
304.741	111.94
304.971	124.94
305.201	133.94
305.431	129.94
305.661	124.94
305.891	123.94
306.121	113.94
306.352	123.94
306.582	114.94
306.812	109.94
307.042	114.94
307.272	111.94
307.502	118.94
307.731	121.94
307.961	126.94
308.191	125.94
308.421	140.94
308.651	133.94
308.881	123.94
309.111	116.94
309.341	126.94
309.571	110.94
309.8	125.94
310.03	131.94
310.26	110.94
310.49	122.94
310.72	128.94
310.949	134.94
311.179	121.94
311.409	111.94
311.639	131.94
311.868	120.94
312.098	117.94
312.328	114.94
312.557	119.94
312.787	125.94
313.017	129.94
313.246	138.94
313.476	115.94
313.706	126.94
313.935	121.94
314.165	135.94
314.394	133.94
314.624	130.94
314.853	129.94
315.083	136.94
315.312	112.94
315.542	112.94
315.771	110.94
316.001	124.94
316.23	132.94
316.46	126.94
316.689	121.94
316.919	138.94
317.148	123.94
317.377	137.94
317.607	131.94
317.836	119.94
318.065	125.94
318.295	116.94
318.524	120.94
318.753	122.94
318.983	116.94
319.212	121.94
319.441	122.94
319.67	105.94
319.9	127.94
320.129	116.94
320.358	125.94
320.587	125.94
320.816	129.94
321.046	133.94
321.275	114.94
321.504	111.94
321.733	128.94
321.962	127.94
322.191	129.94
322.42	120.94
322.649	126.94
322.878	129.94
323.108	136.94
323.337	137.94
323.566	142.94
323.795	125.94
324.024	117.94
324.253	125.94
324.482	116.94
324.71	135.94
324.939	133.94
325.168	132.94
325.397	123.94
325.626	125.94
325.855	128.94
326.084	124.94
326.313	124.94
326.542	130.94
326.77	126.94
326.999	139.94
327.228	127.94
327.457	132.94
327.686	134.94
327.914	130.94
328.143	137.94
328.372	125.94
328.6	144.94
328.829	134.94
329.058	136.94
329.287	126.94
329.515	133.94
329.744	135.94
329.972	135.94
330.201	151.94
330.43	133.94
330.658	132.94
330.887	153.94
331.115	117.94
331.344	127.94
331.572	147.94
331.801	142.94
332.03	140.94
332.258	150.94
332.486	153.94
332.715	139.94
332.943	144.94
333.172	156.94
333.4	164.94
333.629	147.94
333.857	166.94
334.085	144.94
334.314	145.94
334.542	140.94
334.771	139.94
334.999	139.94
335.227	145.94
335.455	136.94
335.684	149.94
335.912	156.94
336.14	140.94
336.369	126.94
336.597	124.94
336.825	155.94
337.053	156.94
337.281	142.94
337.51	136.94
337.738	140.94
337.966	132.94
338.194	134.94
338.422	143.94
338.65	139.94
338.878	132.94
339.106	137.94
339.334	124.94
339.562	118.94
339.79	125.94
340.018	116.94
340.246	138.94
340.474	138.94
340.702	150.94
340.93	139.94
341.158	134.94
341.386	131.94
341.614	157.94
341.842	134.94
342.07	126.94
342.298	130.94
342.526	130.94
342.754	122.94
342.981	138.94
343.209	135.94
343.437	164.94
343.665	148.94
343.893	160.94
344.12	146.94
344.348	148.94
344.576	157.94
344.804	132.94
345.031	140.94
345.259	144.94
345.487	133.94
345.714	141.94
345.942	129.94
346.17	141.94
346.397	128.94
346.625	135.94
346.853	126.94
347.08	125.94
347.308	128.94
347.535	135.94
347.763	136.94
347.99	139.94
348.218	131.94
348.445	131.94
348.673	141.94
348.9	143.94
349.128	135.94
349.355	144.94
349.583	127.94
349.81	141.94
350.037	124.94
350.265	137.94
350.492	126.94
350.72	140.94
350.947	129.94
351.174	120.94
351.402	118.94
351.629	129.94
351.856	130.94
352.083	121.94
352.311	124.94
352.538	129.94
352.765	128.94
352.992	153.94
353.22	138.94
353.447	132.94
353.674	133.94
353.901	126.94
354.128	132.94
354.355	132.94
354.583	132.94
354.81	137.94
355.037	137.94
355.264	129.94
355.491	122.94
355.718	123.94
355.945	150.94
356.172	141.94
356.399	144.94
356.626	132.94
356.853	128.94
357.08	138.94
357.307	145.94
357.534	132.94
357.761	139.94
357.988	124.94
358.215	121.94
358.441	139.94
358.668	122.94
358.895	141.94
359.122	143.94
359.349	120.94
359.576	137.94
359.802	136.94
360.029	132.94
360.256	129.94
360.483	133.94
360.709	131.94
360.936	147.94
361.163	135.94
361.39	121.94
361.616	144.94
361.843	137.94
362.07	145.94
362.296	136.94
362.523	138.94
362.749	134.94
362.976	138.94
363.203	144.94
363.429	123.94
363.656	140.94
363.882	125.94
364.109	133.94
364.335	127.94
364.562	131.94
364.788	128.94
365.015	151.94
365.241	141.94
365.468	121.94
365.694	123.94
365.92	126.94
366.147	133.94
366.373	130.94
366.599	145.94
366.826	136.94
367.052	144.94
367.278	132.94
367.505	140.94
367.731	146.94
367.957	138.94
368.184	129.94
368.41	124.94
368.636	129.94
368.862	128.94
369.089	155.94
369.315	130.94
369.541	119.94
369.767	138.94
369.993	136.94
370.219	134.94
370.445	141.94
370.672	131.94
370.898	134.94
371.124	133.94
371.35	132.94
371.576	157.94
371.802	121.94
372.028	129.94
372.254	144.94
372.48	135.94
372.706	150.94
372.932	141.94
373.158	140.94
373.384	149.94
373.61	141.94
373.835	139.94
374.061	134.94
374.287	150.94
374.513	124.94
374.739	133.94
374.965	144.94
375.191	149.94
375.416	149.94
375.642	154.94
375.868	156.94
376.094	134.94
376.319	136.94
376.545	146.94
376.771	142.94
376.997	120.94
377.222	132.94
377.448	140.94
377.674	139.94
377.899	121.94
378.125	153.94
378.35	156.94
378.576	141.94
378.802	148.94
379.027	134.94
379.253	144.94
379.478	142.94
379.704	139.94
379.929	147.94
380.155	149.94
380.38	149.94
380.606	151.94
380.831	135.94
381.057	160.94
381.282	153.94
381.507	136.94
381.733	143.94
381.958	140.94
382.184	146.94
382.409	139.94
382.634	151.94
382.86	139.94
383.085	145.94
383.31	148.94
383.535	135.94
383.761	158.94
383.986	154.94
384.211	149.94
384.436	156.94
384.662	146.94
384.887	147.94
385.112	155.94
385.337	139.94
385.562	164.94
385.787	152.94
386.013	171.94
386.238	157.94
386.463	163.94
386.688	193.94
386.913	162.94
387.138	147.94
387.363	152.94
387.588	164.94
387.813	170.94
388.038	158.94
388.263	162.94
388.488	152.94
388.713	157.94
388.938	154.94
389.163	161.94
389.387	168.94
389.612	173.94
389.837	165.94
390.062	161.94
390.287	153.94
390.512	165.94
390.736	156.94
390.961	161.94
391.186	164.94
391.411	163.94
391.636	165.94
391.86	158.94
392.085	179.94
392.31	187.94
392.534	173.94
392.759	164.94
392.984	173.94
393.208	168.94
393.433	160.94
393.658	173.94
393.882	160.94
394.107	163.94
394.331	173.94
394.556	165.94
394.78	179.94
395.005	177.94
395.229	169.94
395.454	180.94
395.678	185.94
395.903	160.94
396.127	176.94
396.352	150.94
396.576	165.94
396.801	157.94
397.025	181.94
397.249	184.94
397.474	172.94
397.698	168.94
397.922	161.94
398.147	175.94
398.371	175.94
398.595	186.94
398.82	197.94
399.044	189.94
399.268	208.94
399.492	219.94
399.717	245.94
399.941	227.94
400.165	194.94
400.389	194.94
400.613	192.94
400.837	178.94
401.062	193.94
401.286	177.94
401.51	185.94
401.734	192.94
401.958	196.94
402.182	184.94
402.406	182.94
402.63	186.94
402.854	199.94
403.078	196.94
403.302	189.94
403.526	203.94
403.75	205.94
403.974	205.94
404.198	213.94
404.422	194.94
404.645	187.94
404.869	199.94
405.093	191.94
405.317	202.94
405.541	198.94
405.765	195.94
405.988	187.94
406.212	195.94
406.436	197.94
406.66	205.94
406.883	204.94
407.107	219.94
407.331	219.94
407.555	224.94
407.778	222.94
408.002	210.94
408.226	192.94
408.449	195.94
408.673	209.94
408.896	195.94
409.12	194.94
409.344	216.94
409.567	201.94
409.791	212.94
410.014	196.94
410.238	204.94
410.461	192.94
410.685	192.94
410.908	199.94
411.132	198.94
411.355	199.94
411.578	206.94
411.802	188.94
412.025	185.94
412.249	183.94
412.472	192.94
412.695	180.94
412.919	195.94
413.142	202.94
413.365	197.94
413.589	186.94
413.812	170.94
414.035	195.94
414.258	196.94
414.482	187.94
414.705	192.94
414.928	201.94
415.151	197.94
415.374	198.94
415.597	200.94
415.821	185.94
416.044	184.94
416.267	184.94
416.49	203.94
416.713	178.94
416.936	182.94
417.159	173.94
417.382	194.94
417.605	197.94
417.828	201.94
418.051	193.94
418.274	196.94
418.497	204.94
418.72	192.94
418.943	211.94
419.166	194.94
419.389	212.94
419.611	196.94
419.834	201.94
420.057	208.94
420.28	186.94
420.503	201.94
420.726	182.94
420.948	179.94
421.171	195.94
421.394	197.94
421.617	189.94
421.839	198.94
422.062	208.94
422.285	191.94
422.507	204.94
422.73	198.94
422.953	184.94
423.175	198.94
423.398	198.94
423.621	214.94
423.843	206.94
424.066	210.94
424.288	206.94
424.511	223.94
424.733	184.94
424.956	196.94
425.178	193.94
425.401	203.94
425.623	205.94
425.846	179.94
426.068	186.94
426.291	175.94
426.513	180.94
426.735	182.94
426.958	198.94
427.18	193.94
427.402	179.94
427.625	185.94
427.847	178.94
428.069	181.94
428.292	180.94
428.514	195.94
428.736	178.94
428.958	180.94
429.181	174.94
429.403	178.94
429.625	173.94
429.847	178.94
430.069	192.94
430.292	188.94
430.514	194.94
430.736	181.94
430.958	171.94
431.18	169.94
431.402	172.94
431.624	167.94
431.846	180.94
432.068	176.94
432.29	168.94
432.512	172.94
432.734	178.94
432.956	167.94
433.178	195.94
433.4	189.94
433.622	192.94
433.844	187.94
434.066	168.94
434.287	172.94
434.509	180.94
434.731	166.94
434.953	178.94
435.175	177.94
435.397	199.94
435.618	189.94
435.84	189.94
436.062	187.94
436.284	193.94
436.505	174.94
436.727	167.94
436.949	182.94
437.17	176.94
437.392	184.94
437.614	194.94
437.835	167.94
438.057	172.94
438.278	181.94
438.5	176.94
438.721	178.94
438.943	188.94
439.165	187.94
439.386	188.94
439.608	203.94
439.829	192.94
440.05	186.94
440.272	194.94
440.493	182.94
440.715	192.94
440.936	203.94
441.158	194.94
441.379	196.94
441.6	195.94
441.822	208.94
442.043	205.94
442.264	188.94
442.486	187.94
442.707	193.94
442.928	218.94
443.149	201.94
443.371	218.94
443.592	194.94
443.813	212.94
444.034	195.94
444.255	212.94
444.476	216.94
444.698	202.94
444.919	216.94
445.14	469.94
445.361	308.94
445.582	204.94
445.803	189.94
446.024	206.94
446.245	216.94
446.466	216.94
446.687	184.94
446.908	193.94
447.129	188.94
447.35	193.94
447.571	196.94
447.792	181.94
448.013	173.94
448.234	165.94
448.455	186.94
448.675	172.94
448.896	179.94
449.117	189.94
449.338	186.94
449.559	198.94
449.779	185.94
450	173.94
450.221	175.94
450.442	192.94
450.662	183.94
450.883	164.94
451.104	172.94
451.324	177.94
451.545	182.94
451.766	170.94
451.986	179.94
452.207	174.94
452.428	174.94
452.648	169.94
452.869	184.94
453.089	157.94
453.31	170.94
453.53	165.94
453.751	173.94
453.971	165.94
454.192	171.94
454.412	161.94
454.633	160.94
454.853	164.94
455.073	166.94
455.294	168.94
455.514	162.94
455.734	154.94
455.955	162.94
456.175	171.94
456.395	183.94
456.616	154.94
456.836	164.94
457.056	160.94
457.276	162.94
457.497	174.94
457.717	162.94
457.937	163.94
458.157	159.94
458.377	165.94
458.598	133.94
458.818	149.94
459.038	150.94
459.258	161.94
459.478	158.94
459.698	169.94
459.918	193.94
460.138	183.94
460.358	195.94
460.578	199.94
460.798	210.94
461.018	193.94
461.238	184.94
461.458	184.94
461.678	195.94
461.898	205.94
462.118	201.94
462.338	189.94
462.558	187.94
462.777	210.94
462.997	222.94
463.217	229.94
463.437	230.94
463.657	222.94
463.876	212.94
464.096	199.94
464.316	208.94
464.536	199.94
464.755	210.94
464.975	205.94
465.195	194.94
465.414	192.94
465.634	189.94
465.854	173.94
466.073	176.94
466.293	182.94
466.512	189.94
466.732	179.94
466.951	199.94
467.171	185.94
467.391	192.94
467.61	194.94
467.829	184.94
468.049	189.94
468.268	170.94
468.488	194.94
468.707	181.94
468.927	180.94
469.146	177.94
469.365	166.94
469.585	192.94
469.804	195.94
470.023	189.94
470.243	186.94
470.462	190.94
470.681	189.94
470.901	196.94
471.12	188.94
471.339	199.94
471.558	201.94
471.777	189.94
471.997	162.94
472.216	173.94
472.435	156.94
472.654	154.94
472.873	180.94
473.092	170.94
473.311	182.94
473.53	176.94
473.749	177.94
473.968	186.94
474.187	178.94
474.406	163.94
474.625	168.94
474.844	195.94
475.063	194.94
475.282	178.94
475.501	180.94
475.72	181.94
475.939	179.94
476.158	178.94
476.377	174.94
476.596	171.94
476.814	192.94
477.033	173.94
477.252	158.94
477.471	190.94
477.69	197.94
477.908	185.94
478.127	201.94
478.346	204.94
478.564	194.94
478.783	205.94
479.002	211.94
479.22	197.94
479.439	221.94
479.658	176.94
479.876	188.94
480.095	178.94
480.313	206.94
480.532	213.94
480.751	194.94
480.969	178.94
481.188	185.94
481.406	184.94
481.624	175.94
481.843	163.94
482.061	174.94
482.28	182.94
482.498	169.94
482.717	189.94
482.935	187.94
483.153	187.94
483.372	183.94
483.59	196.94
483.808	197.94
484.027	194.94
484.245	186.94
484.463	194.94
484.681	220.94
484.9	197.94
485.118	204.94
485.336	179.94
485.554	168.94
485.772	175.94
485.99	183.94
486.209	189.94
486.427	188.94
486.645	203.94
486.863	206.94
487.081	208.94
487.299	183.94
487.517	184.94
487.735	184.94
487.953	213.94
488.171	227.94
488.389	235.94
488.607	192.94
488.825	189.94
489.043	187.94
489.261	213.94
489.479	192.94
489.696	202.94
489.914	211.94
490.132	200.94
490.35	198.94
490.568	213.94
490.786	223.94
491.003	216.94
491.221	229.94
491.439	233.94
491.657	216.94
491.874	245.94
492.092	245.94
492.31	251.94
492.527	235.94
492.745	239.94
492.963	242.94
493.18	240.94
493.398	230.94
493.615	216.94
493.833	228.94
494.05	233.94
494.268	206.94
494.485	224.94
494.703	236.94
494.92	210.94
495.138	227.94
495.355	225.94
495.573	229.94
495.79	224.94
496.008	225.94
496.225	251.94
496.442	234.94
496.66	220.94
496.877	233.94
497.094	240.94
497.312	227.94
497.529	243.94
497.746	220.94
497.963	227.94
498.181	216.94
498.398	216.94
498.615	225.94
498.832	238.94
499.049	245.94
499.267	279.94
499.484	302.94
499.701	309.94
499.918	357.94
500.135	380.94
500.352	410.94
500.569	419.94
500.786	420.94
501.003	372.94
501.22	343.94
501.437	310.94
501.654	270.94
501.871	268.94
502.088	264.94
502.305	257.94
502.522	245.94
502.739	247.94
502.956	233.94
503.172	224.94
503.389	221.94
503.606	192.94
503.823	214.94
504.04	208.94
504.256	217.94
504.473	219.94
504.69	225.94
504.907	205.94
