Data from SampD_HRD10591_00100.txt Node
Date: Mon Jan 19 11:50:49 EST 2026
User: Yrep
Spectrometer: HR+D1059
Trigger mode: 0
Integration Time (sec): 3.443000E-1
Scans to average: 1
Electric dark correction enabled: true
Nonlinearity correction enabled: false
Boxcar width: 0
XAxis mode: Wavelengths
Number of Pixels in Spectrum: 2048
>>>>>Begin Spectral Data<<<<<
223.165	-17.12
223.4	-17.12
223.635	-17.12
223.869	-28.12
224.104	-22.12
224.338	-3.12
224.573	-9.12
224.808	-10.12
225.042	-6.12
225.277	-20.12
225.511	4.88
225.746	7.88
225.98	-1.12
226.215	-0.12
226.449	10.88
226.683	21.88
226.918	24.88
227.152	46.88
227.387	40.88
227.621	35.88
227.856	50.88
228.09	48.88
228.324	35.88
228.559	36.88
228.793	64.88
229.027	68.88
229.262	81.88
229.496	71.88
229.73	82.88
229.964	86.88
230.199	70.88
230.433	84.88
230.667	72.88
230.901	82.88
231.136	82.88
231.37	73.88
231.604	68.88
231.838	89.88
232.072	88.88
232.306	101.88
232.541	82.88
232.775	89.88
233.009	79.88
233.243	75.88
233.477	94.88
233.711	90.88
233.945	87.88
234.179	74.88
234.413	75.88
234.647	86.88
234.881	93.88
235.115	91.88
235.349	78.88
235.583	90.88
235.817	74.88
236.051	67.88
236.285	73.88
236.519	82.88
236.753	75.88
236.987	75.88
237.221	84.88
237.455	83.88
237.689	92.88
237.922	87.88
238.156	73.88
238.39	78.88
238.624	82.88
238.858	95.88
239.091	90.88
239.325	90.88
239.559	98.88
239.793	89.88
240.027	82.88
240.26	77.88
240.494	74.88
240.728	74.88
240.961	97.88
241.195	94.88
241.429	90.88
241.662	72.88
241.896	92.88
242.13	78.88
242.363	72.88
242.597	92.88
242.83	96.88
243.064	74.88
243.298	83.88
243.531	87.88
243.765	82.88
243.998	70.88
244.232	86.88
244.465	95.88
244.699	89.88
244.932	84.88
245.166	82.88
245.399	71.88
245.633	85.88
245.866	94.88
246.099	84.88
246.333	86.88
246.566	68.88
246.8	85.88
247.033	70.88
247.266	101.88
247.5	82.88
247.733	85.88
247.966	89.88
248.2	80.88
248.433	90.88
248.666	72.88
248.899	85.88
249.133	80.88
249.366	94.88
249.599	91.88
249.832	90.88
250.066	91.88
250.299	87.88
250.532	92.88
250.765	88.88
250.998	89.88
251.231	99.88
251.465	96.88
251.698	89.88
251.931	100.88
252.164	76.88
252.397	98.88
252.63	104.88
252.863	97.88
253.096	99.88
253.329	106.88
253.562	86.88
253.795	100.88
254.028	98.88
254.261	96.88
254.494	94.88
254.727	93.88
254.96	99.88
255.193	89.88
255.426	91.88
255.659	92.88
255.892	98.88
256.124	100.88
256.357	97.88
256.59	91.88
256.823	91.88
257.056	73.88
257.289	91.88
257.521	96.88
257.754	101.88
257.987	95.88
258.22	95.88
258.452	99.88
258.685	86.88
258.918	96.88
259.151	102.88
259.383	101.88
259.616	96.88
259.849	79.88
260.081	91.88
260.314	89.88
260.547	95.88
260.779	99.88
261.012	82.88
261.244	106.88
261.477	118.88
261.71	109.88
261.942	96.88
262.175	94.88
262.407	95.88
262.64	107.88
262.872	85.88
263.105	108.88
263.337	105.88
263.57	87.88
263.802	97.88
264.035	99.88
264.267	95.88
264.499	122.88
264.732	103.88
264.964	91.88
265.197	95.88
265.429	106.88
265.661	90.88
265.894	100.88
266.126	95.88
266.358	95.88
266.591	102.88
266.823	105.88
267.055	79.88
267.287	99.88
267.52	104.88
267.752	107.88
267.984	101.88
268.216	93.88
268.448	89.88
268.681	107.88
268.913	106.88
269.145	99.88
269.377	109.88
269.609	98.88
269.841	100.88
270.073	93.88
270.306	115.88
270.538	101.88
270.77	108.88
271.002	105.88
271.234	95.88
271.466	107.88
271.698	116.88
271.93	112.88
272.162	98.88
272.394	116.88
272.626	88.88
272.858	107.88
273.09	106.88
273.322	101.88
273.553	93.88
273.785	102.88
274.017	82.88
274.249	110.88
274.481	92.88
274.713	97.88
274.945	96.88
275.176	102.88
275.408	115.88
275.64	107.88
275.872	106.88
276.104	121.88
276.335	106.88
276.567	114.88
276.799	98.88
277.031	115.88
277.262	97.88
277.494	116.88
277.726	105.88
277.957	112.88
278.189	120.88
278.421	115.88
278.652	98.88
278.884	98.88
279.115	120.88
279.347	95.88
279.579	98.88
279.81	108.88
280.042	110.88
280.273	102.88
280.505	85.88
280.736	106.88
280.968	103.88
281.199	102.88
281.431	108.88
281.662	112.88
281.894	125.88
282.125	115.88
282.356	110.88
282.588	116.88
282.819	108.88
283.051	104.88
283.282	98.88
283.513	119.88
283.745	127.88
283.976	103.88
284.207	122.88
284.439	121.88
284.67	123.88
284.901	114.88
285.132	107.88
285.364	114.88
285.595	112.88
285.826	99.88
286.057	99.88
286.288	124.88
286.52	106.88
286.751	94.88
286.982	102.88
287.213	91.88
287.444	121.88
287.675	114.88
287.906	127.88
288.138	105.88
288.369	108.88
288.6	114.88
288.831	123.88
289.062	116.88
289.293	127.88
289.524	109.88
289.755	126.88
289.986	141.88
290.217	120.88
290.448	132.88
290.679	125.88
290.91	117.88
291.141	123.88
291.371	134.88
291.602	118.88
291.833	110.88
292.064	112.88
292.295	123.88
292.526	131.88
292.757	120.88
292.987	119.88
293.218	121.88
293.449	116.88
293.68	133.88
293.91	120.88
294.141	135.88
294.372	108.88
294.603	122.88
294.833	104.88
295.064	107.88
295.295	127.88
295.525	106.88
295.756	129.88
295.987	117.88
296.217	125.88
296.448	114.88
296.679	118.88
296.909	124.88
297.14	113.88
297.37	125.88
297.601	121.88
297.831	122.88
298.062	118.88
298.292	123.88
298.523	105.88
298.753	125.88
298.984	113.88
299.214	119.88
299.445	118.88
299.675	120.88
299.905	127.88
300.136	119.88
300.366	120.88
300.597	120.88
300.827	119.88
301.057	124.88
301.288	129.88
301.518	120.88
301.748	122.88
301.979	156.88
302.209	133.88
302.439	121.88
302.669	132.88
302.9	118.88
303.13	112.88
303.36	130.88
303.59	130.88
303.82	115.88
304.051	123.88
304.281	140.88
304.511	136.88
304.741	114.88
304.971	126.88
305.201	127.88
305.431	118.88
305.661	123.88
305.891	120.88
306.121	125.88
306.352	120.88
306.582	124.88
306.812	118.88
307.042	108.88
307.272	103.88
307.502	94.88
307.731	124.88
307.961	128.88
308.191	114.88
308.421	130.88
308.651	129.88
308.881	116.88
309.111	120.88
309.341	121.88
309.571	126.88
309.8	106.88
310.03	114.88
310.26	117.88
310.49	128.88
310.72	101.88
310.949	126.88
311.179	124.88
311.409	129.88
311.639	130.88
311.868	126.88
312.098	121.88
312.328	110.88
312.557	122.88
312.787	113.88
313.017	121.88
313.246	126.88
313.476	133.88
313.706	134.88
313.935	115.88
314.165	114.88
314.394	116.88
314.624	115.88
314.853	131.88
315.083	128.88
315.312	118.88
315.542	123.88
315.771	122.88
316.001	114.88
316.23	116.88
316.46	135.88
316.689	111.88
316.919	140.88
317.148	115.88
317.377	137.88
317.607	126.88
317.836	120.88
318.065	131.88
318.295	113.88
318.524	127.88
318.753	119.88
318.983	128.88
319.212	128.88
319.441	138.88
319.67	125.88
319.9	133.88
320.129	123.88
320.358	125.88
320.587	130.88
320.816	138.88
321.046	126.88
321.275	125.88
321.504	122.88
321.733	120.88
321.962	114.88
322.191	113.88
322.42	121.88
322.649	116.88
322.878	124.88
323.108	122.88
323.337	136.88
323.566	119.88
323.795	113.88
324.024	120.88
324.253	124.88
324.482	125.88
324.71	121.88
324.939	130.88
325.168	132.88
325.397	132.88
325.626	133.88
325.855	123.88
326.084	132.88
326.313	146.88
326.542	124.88
326.77	120.88
326.999	96.88
327.228	126.88
327.457	139.88
327.686	129.88
327.914	128.88
328.143	143.88
328.372	127.88
328.6	140.88
328.829	137.88
329.058	143.88
329.287	136.88
329.515	138.88
329.744	115.88
329.972	126.88
330.201	130.88
330.43	120.88
330.658	150.88
330.887	132.88
331.115	143.88
331.344	130.88
331.572	138.88
331.801	139.88
332.03	135.88
332.258	134.88
332.486	128.88
332.715	142.88
332.943	135.88
333.172	152.88
333.4	159.88
333.629	148.88
333.857	156.88
334.085	145.88
334.314	133.88
334.542	154.88
334.771	150.88
334.999	137.88
335.227	143.88
335.455	137.88
335.684	158.88
335.912	145.88
336.14	127.88
336.369	130.88
336.597	135.88
336.825	146.88
337.053	132.88
337.281	135.88
337.51	131.88
337.738	126.88
337.966	122.88
338.194	131.88
338.422	139.88
338.65	130.88
338.878	146.88
339.106	126.88
339.334	139.88
339.562	139.88
339.79	135.88
340.018	135.88
340.246	132.88
340.474	139.88
340.702	139.88
340.93	133.88
341.158	126.88
341.386	135.88
341.614	124.88
341.842	129.88
342.07	124.88
342.298	125.88
342.526	125.88
342.754	111.88
342.981	142.88
343.209	140.88
343.437	149.88
343.665	137.88
343.893	142.88
344.12	142.88
344.348	135.88
344.576	143.88
344.804	135.88
345.031	116.88
345.259	123.88
345.487	142.88
345.714	142.88
345.942	122.88
346.17	137.88
346.397	127.88
346.625	134.88
346.853	137.88
347.08	129.88
347.308	131.88
347.535	137.88
347.763	143.88
347.99	156.88
348.218	137.88
348.445	137.88
348.673	129.88
348.9	126.88
349.128	132.88
349.355	124.88
349.583	138.88
349.81	140.88
350.037	124.88
350.265	122.88
350.492	122.88
350.72	128.88
350.947	120.88
351.174	133.88
351.402	121.88
351.629	133.88
351.856	147.88
352.083	122.88
352.311	128.88
352.538	118.88
352.765	126.88
352.992	137.88
353.22	127.88
353.447	121.88
353.674	130.88
353.901	140.88
354.128	124.88
354.355	126.88
354.583	113.88
354.81	138.88
355.037	131.88
355.264	128.88
355.491	119.88
355.718	118.88
355.945	127.88
356.172	131.88
356.399	120.88
356.626	124.88
356.853	124.88
357.08	121.88
357.307	136.88
357.534	137.88
357.761	128.88
357.988	136.88
358.215	134.88
358.441	116.88
358.668	127.88
358.895	128.88
359.122	126.88
359.349	132.88
359.576	114.88
359.802	128.88
360.029	122.88
360.256	131.88
360.483	123.88
360.709	122.88
360.936	141.88
361.163	132.88
361.39	142.88
361.616	121.88
361.843	114.88
362.07	160.88
362.296	121.88
362.523	128.88
362.749	126.88
362.976	138.88
363.203	142.88
363.429	116.88
363.656	124.88
363.882	132.88
364.109	130.88
364.335	144.88
364.562	131.88
364.788	115.88
365.015	132.88
365.241	127.88
365.468	137.88
365.694	119.88
365.92	131.88
366.147	126.88
366.373	134.88
366.599	129.88
366.826	128.88
367.052	134.88
367.278	143.88
367.505	133.88
367.731	147.88
367.957	121.88
368.184	118.88
368.41	121.88
368.636	134.88
368.862	140.88
369.089	135.88
369.315	135.88
369.541	135.88
369.767	136.88
369.993	138.88
370.219	132.88
370.445	137.88
370.672	140.88
370.898	124.88
371.124	153.88
371.35	150.88
371.576	148.88
371.802	146.88
372.028	145.88
372.254	122.88
372.48	142.88
372.706	146.88
372.932	153.88
373.158	154.88
373.384	157.88
373.61	135.88
373.835	125.88
374.061	125.88
374.287	131.88
374.513	135.88
374.739	146.88
374.965	131.88
375.191	133.88
375.416	138.88
375.642	152.88
375.868	142.88
376.094	139.88
376.319	135.88
376.545	144.88
376.771	139.88
376.997	135.88
377.222	137.88
377.448	158.88
377.674	141.88
377.899	128.88
378.125	138.88
378.35	157.88
378.576	142.88
378.802	127.88
379.027	152.88
379.253	151.88
379.478	157.88
379.704	150.88
379.929	134.88
380.155	129.88
380.38	142.88
380.606	150.88
380.831	131.88
381.057	148.88
381.282	158.88
381.507	138.88
381.733	148.88
381.958	134.88
382.184	154.88
382.409	132.88
382.634	156.88
382.86	150.88
383.085	143.88
383.31	146.88
383.535	142.88
383.761	144.88
383.986	161.88
384.211	135.88
384.436	158.88
384.662	134.88
384.887	144.88
385.112	161.88
385.337	140.88
385.562	150.88
385.787	153.88
386.013	168.88
386.238	164.88
386.463	162.88
386.688	187.88
386.913	155.88
387.138	150.88
387.363	132.88
387.588	170.88
387.813	153.88
388.038	165.88
388.263	159.88
388.488	161.88
388.713	148.88
388.938	146.88
389.163	158.88
389.387	162.88
389.612	144.88
389.837	158.88
390.062	160.88
390.287	154.88
390.512	150.88
390.736	149.88
390.961	148.88
391.186	163.88
391.411	167.88
391.636	163.88
391.86	177.88
392.085	184.88
392.31	158.88
392.534	161.88
392.759	181.88
392.984	170.88
393.208	181.88
393.433	174.88
393.658	168.88
393.882	166.88
394.107	166.88
394.331	162.88
394.556	169.88
394.78	179.88
395.005	170.88
395.229	145.88
395.454	168.88
395.678	164.88
395.903	152.88
396.127	172.88
396.352	166.88
396.576	160.88
396.801	174.88
397.025	170.88
397.249	188.88
397.474	180.88
397.698	165.88
397.922	160.88
398.147	162.88
398.371	150.88
398.595	172.88
398.82	192.88
399.044	196.88
399.268	189.88
399.492	218.88
399.717	225.88
399.941	236.88
400.165	228.88
400.389	191.88
400.613	185.88
400.837	192.88
401.062	205.88
401.286	196.88
401.51	174.88
401.734	162.88
401.958	170.88
402.182	172.88
402.406	164.88
402.63	189.88
402.854	191.88
403.078	197.88
403.302	191.88
403.526	188.88
403.75	186.88
403.974	193.88
404.198	195.88
404.422	200.88
404.645	216.88
404.869	193.88
405.093	187.88
405.317	197.88
405.541	206.88
405.765	185.88
405.988	185.88
406.212	195.88
406.436	199.88
406.66	191.88
406.883	186.88
407.107	196.88
407.331	220.88
407.555	206.88
407.778	216.88
408.002	217.88
408.226	207.88
408.449	203.88
408.673	197.88
408.896	201.88
409.12	198.88
409.344	207.88
409.567	193.88
409.791	200.88
410.014	204.88
410.238	180.88
410.461	198.88
410.685	198.88
410.908	200.88
411.132	190.88
411.355	194.88
411.578	185.88
411.802	180.88
412.025	179.88
412.249	195.88
412.472	187.88
412.695	187.88
412.919	183.88
413.142	194.88
413.365	180.88
413.589	188.88
413.812	184.88
414.035	190.88
414.258	179.88
414.482	195.88
414.705	200.88
414.928	197.88
415.151	184.88
415.374	189.88
415.597	184.88
415.821	184.88
416.044	177.88
416.267	184.88
416.49	182.88
416.713	175.88
416.936	195.88
417.159	195.88
417.382	177.88
417.605	167.88
417.828	182.88
418.051	188.88
418.274	188.88
418.497	179.88
418.72	208.88
418.943	187.88
419.166	199.88
419.389	223.88
419.611	193.88
419.834	200.88
420.057	207.88
420.28	191.88
420.503	200.88
420.726	184.88
420.948	176.88
421.171	176.88
421.394	175.88
421.617	191.88
421.839	180.88
422.062	200.88
422.285	196.88
422.507	182.88
422.73	190.88
422.953	193.88
423.175	197.88
423.398	186.88
423.621	195.88
423.843	198.88
424.066	212.88
424.288	187.88
424.511	190.88
424.733	208.88
424.956	193.88
425.178	178.88
425.401	195.88
425.623	195.88
425.846	187.88
426.068	175.88
426.291	179.88
426.513	187.88
426.735	187.88
426.958	184.88
427.18	181.88
427.402	177.88
427.625	187.88
427.847	186.88
428.069	203.88
428.292	175.88
428.514	187.88
428.736	172.88
428.958	181.88
429.181	190.88
429.403	181.88
429.625	169.88
429.847	184.88
430.069	172.88
430.292	178.88
430.514	166.88
430.736	175.88
430.958	189.88
431.18	170.88
431.402	183.88
431.624	171.88
431.846	162.88
432.068	156.88
432.29	159.88
432.512	148.88
432.734	163.88
432.956	187.88
433.178	206.88
433.4	187.88
433.622	196.88
433.844	188.88
434.066	186.88
434.287	167.88
434.509	153.88
434.731	167.88
434.953	186.88
435.175	207.88
435.397	191.88
435.618	169.88
435.84	175.88
436.062	186.88
436.284	164.88
436.505	194.88
436.727	190.88
436.949	176.88
437.17	169.88
437.392	166.88
437.614	168.88
437.835	173.88
438.057	175.88
438.278	167.88
438.5	164.88
438.721	179.88
438.943	170.88
439.165	183.88
439.386	201.88
439.608	191.88
439.829	177.88
440.05	190.88
440.272	190.88
440.493	179.88
440.715	188.88
440.936	208.88
441.158	192.88
441.379	199.88
441.6	206.88
441.822	208.88
442.043	195.88
442.264	183.88
442.486	193.88
442.707	185.88
442.928	185.88
443.149	201.88
443.371	191.88
443.592	195.88
443.813	192.88
444.034	219.88
444.255	210.88
444.476	210.88
444.698	219.88
444.919	241.88
445.14	482.88
445.361	329.88
445.582	200.88
445.803	182.88
446.024	210.88
446.245	200.88
446.466	202.88
446.687	196.88
446.908	190.88
447.129	209.88
447.35	191.88
447.571	192.88
447.792	179.88
448.013	165.88
448.234	191.88
448.455	171.88
448.675	178.88
448.896	198.88
449.117	171.88
449.338	180.88
449.559	180.88
449.779	168.88
450	176.88
450.221	187.88
450.442	163.88
450.662	179.88
450.883	168.88
451.104	185.88
451.324	178.88
451.545	169.88
451.766	180.88
451.986	156.88
452.207	174.88
452.428	180.88
452.648	178.88
452.869	160.88
453.089	170.88
453.31	158.88
453.53	168.88
453.751	147.88
453.971	167.88
454.192	158.88
454.412	161.88
454.633	171.88
454.853	171.88
455.073	156.88
455.294	167.88
455.514	173.88
455.734	170.88
455.955	151.88
456.175	172.88
456.395	163.88
456.616	172.88
456.836	150.88
457.056	167.88
457.276	157.88
457.497	163.88
457.717	145.88
457.937	173.88
458.157	154.88
458.377	165.88
458.598	152.88
458.818	164.88
459.038	156.88
459.258	163.88
459.478	165.88
459.698	151.88
459.918	178.88
460.138	196.88
460.358	185.88
460.578	191.88
460.798	195.88
461.018	181.88
461.238	191.88
461.458	197.88
461.678	187.88
461.898	191.88
462.118	201.88
462.338	202.88
462.558	197.88
462.777	199.88
462.997	217.88
463.217	226.88
463.437	228.88
463.657	213.88
463.876	203.88
464.096	218.88
464.316	206.88
464.536	222.88
464.755	205.88
464.975	183.88
465.195	197.88
465.414	184.88
465.634	151.88
465.854	173.88
466.073	173.88
466.293	186.88
466.512	170.88
466.732	197.88
466.951	187.88
467.171	176.88
467.391	169.88
467.61	187.88
467.829	163.88
468.049	183.88
468.268	174.88
468.488	170.88
468.707	184.88
468.927	176.88
469.146	168.88
469.365	200.88
469.585	203.88
469.804	180.88
470.023	184.88
470.243	184.88
470.462	211.88
470.681	186.88
470.901	169.88
471.12	180.88
471.339	195.88
471.558	177.88
471.777	186.88
471.997	187.88
472.216	169.88
472.435	169.88
472.654	152.88
472.873	170.88
473.092	170.88
473.311	184.88
473.53	166.88
473.749	163.88
473.968	170.88
474.187	167.88
474.406	171.88
474.625	155.88
474.844	175.88
475.063	160.88
475.282	174.88
475.501	176.88
475.72	185.88
475.939	176.88
476.158	188.88
476.377	188.88
476.596	173.88
476.814	170.88
477.033	148.88
477.252	154.88
477.471	183.88
477.69	176.88
477.908	194.88
478.127	217.88
478.346	190.88
478.564	202.88
478.783	194.88
479.002	203.88
479.22	204.88
479.439	207.88
479.658	191.88
479.876	185.88
480.095	194.88
480.313	216.88
480.532	210.88
480.751	206.88
480.969	191.88
481.188	180.88
481.406	167.88
481.624	161.88
481.843	179.88
482.061	167.88
482.28	186.88
482.498	168.88
482.717	164.88
482.935	189.88
483.153	200.88
483.372	194.88
483.59	200.88
483.808	187.88
484.027	194.88
484.245	199.88
484.463	206.88
484.681	218.88
484.9	204.88
485.118	209.88
485.336	187.88
485.554	196.88
485.772	198.88
485.99	182.88
486.209	168.88
486.427	166.88
486.645	180.88
486.863	196.88
487.081	185.88
487.299	185.88
487.517	178.88
487.735	208.88
487.953	224.88
488.171	226.88
488.389	203.88
488.607	212.88
488.825	193.88
489.043	201.88
489.261	207.88
489.479	210.88
489.696	182.88
489.914	196.88
490.132	199.88
490.35	199.88
490.568	223.88
490.786	212.88
491.003	213.88
491.221	214.88
491.439	226.88
491.657	227.88
491.874	251.88
492.092	248.88
492.31	252.88
492.527	258.88
492.745	229.88
492.963	215.88
493.18	239.88
493.398	237.88
493.615	200.88
493.833	211.88
494.05	208.88
494.268	215.88
494.485	236.88
494.703	200.88
494.92	212.88
495.138	223.88
495.355	233.88
495.573	224.88
495.79	215.88
496.008	231.88
496.225	219.88
496.442	209.88
496.66	231.88
496.877	218.88
497.094	228.88
497.312	235.88
497.529	231.88
497.746	243.88
497.963	220.88
498.181	202.88
498.398	216.88
498.615	238.88
498.832	223.88
499.049	256.88
499.267	255.88
499.484	284.88
499.701	292.88
499.918	326.88
500.135	364.88
500.352	424.88
500.569	399.88
500.786	418.88
501.003	381.88
501.22	366.88
501.437	325.88
501.654	277.88
501.871	276.88
502.088	259.88
502.305	234.88
502.522	239.88
502.739	239.88
502.956	231.88
503.172	207.88
503.389	221.88
503.606	206.88
503.823	221.88
504.04	222.88
504.256	223.88
504.473	197.88
504.69	218.88
504.907	228.88
505.123	212.88
