Data from SampD_HRD10591_00089.txt Node
Date: Mon Jan 19 11:50:46 EST 2026
User: Yrep
Spectrometer: HR+D1059
Trigger mode: 0
Integration Time (sec): 3.443000E-1
Scans to average: 1
Electric dark correction enabled: true
Nonlinearity correction enabled: false
Boxcar width: 0
XAxis mode: Wavelengths
Number of Pixels in Spectrum: 2048
>>>>>Begin Spectral Data<<<<<
223.165	-25.38
223.4	-25.38
223.635	-25.38
223.869	-28.38
224.104	-18.38
224.338	-19.38
224.573	-22.38
224.808	-19.38
225.042	-5.38
225.277	1.62
225.511	-3.38
225.746	17.62
225.98	12.62
226.215	21.62
226.449	10.62
226.683	21.62
226.918	23.62
227.152	32.62
227.387	35.62
227.621	38.62
227.856	52.62
228.09	44.62
228.324	56.62
228.559	73.62
228.793	68.62
229.027	65.62
229.262	76.62
229.496	65.62
229.73	74.62
229.964	68.62
230.199	75.62
230.433	76.62
230.667	73.62
230.901	85.62
231.136	80.62
231.37	76.62
231.604	104.62
231.838	91.62
232.072	83.62
232.306	95.62
232.541	81.62
232.775	89.62
233.009	86.62
233.243	76.62
233.477	88.62
233.711	97.62
233.945	86.62
234.179	114.62
234.413	76.62
234.647	89.62
234.881	78.62
235.115	74.62
235.349	88.62
235.583	75.62
235.817	72.62
236.051	88.62
236.285	82.62
236.519	101.62
236.753	77.62
236.987	75.62
237.221	83.62
237.455	85.62
237.689	86.62
237.922	91.62
238.156	76.62
238.39	80.62
238.624	85.62
238.858	82.62
239.091	88.62
239.325	81.62
239.559	69.62
239.793	89.62
240.027	78.62
240.26	83.62
240.494	84.62
240.728	75.62
240.961	78.62
241.195	81.62
241.429	78.62
241.662	89.62
241.896	87.62
242.13	82.62
242.363	87.62
242.597	90.62
242.83	92.62
243.064	77.62
243.298	87.62
243.531	76.62
243.765	95.62
243.998	85.62
244.232	101.62
244.465	92.62
244.699	70.62
244.932	83.62
245.166	88.62
245.399	87.62
245.633	88.62
245.866	79.62
246.099	86.62
246.333	83.62
246.566	79.62
246.8	89.62
247.033	86.62
247.266	85.62
247.5	92.62
247.733	90.62
247.966	92.62
248.2	92.62
248.433	96.62
248.666	66.62
248.899	85.62
249.133	82.62
249.366	110.62
249.599	98.62
249.832	98.62
250.066	107.62
250.299	77.62
250.532	92.62
250.765	93.62
250.998	94.62
251.231	86.62
251.465	95.62
251.698	82.62
251.931	86.62
252.164	103.62
252.397	83.62
252.63	104.62
252.863	83.62
253.096	88.62
253.329	106.62
253.562	95.62
253.795	88.62
254.028	102.62
254.261	86.62
254.494	110.62
254.727	100.62
254.96	85.62
255.193	74.62
255.426	94.62
255.659	90.62
255.892	94.62
256.124	89.62
256.357	90.62
256.59	99.62
256.823	98.62
257.056	101.62
257.289	102.62
257.521	79.62
257.754	94.62
257.987	90.62
258.22	105.62
258.452	99.62
258.685	106.62
258.918	97.62
259.151	87.62
259.383	97.62
259.616	97.62
259.849	84.62
260.081	105.62
260.314	83.62
260.547	92.62
260.779	102.62
261.012	91.62
261.244	94.62
261.477	115.62
261.71	102.62
261.942	109.62
262.175	90.62
262.407	98.62
262.64	105.62
262.872	99.62
263.105	105.62
263.337	111.62
263.57	98.62
263.802	88.62
264.035	107.62
264.267	109.62
264.499	98.62
264.732	105.62
264.964	105.62
265.197	93.62
265.429	107.62
265.661	92.62
265.894	103.62
266.126	106.62
266.358	91.62
266.591	100.62
266.823	90.62
267.055	106.62
267.287	107.62
267.52	107.62
267.752	97.62
267.984	107.62
268.216	94.62
268.448	115.62
268.681	101.62
268.913	104.62
269.145	93.62
269.377	118.62
269.609	97.62
269.841	106.62
270.073	102.62
270.306	99.62
270.538	101.62
270.77	100.62
271.002	113.62
271.234	116.62
271.466	110.62
271.698	111.62
271.93	121.62
272.162	103.62
272.394	113.62
272.626	99.62
272.858	122.62
273.09	116.62
273.322	110.62
273.553	94.62
273.785	103.62
274.017	96.62
274.249	119.62
274.481	116.62
274.713	94.62
274.945	105.62
275.176	101.62
275.408	117.62
275.64	94.62
275.872	110.62
276.104	118.62
276.335	108.62
276.567	111.62
276.799	120.62
277.031	108.62
277.262	110.62
277.494	105.62
277.726	106.62
277.957	118.62
278.189	123.62
278.421	106.62
278.652	93.62
278.884	99.62
279.115	108.62
279.347	108.62
279.579	115.62
279.81	119.62
280.042	107.62
280.273	118.62
280.505	98.62
280.736	114.62
280.968	112.62
281.199	105.62
281.431	115.62
281.662	113.62
281.894	115.62
282.125	111.62
282.356	115.62
282.588	114.62
282.819	116.62
283.051	103.62
283.282	106.62
283.513	112.62
283.745	125.62
283.976	125.62
284.207	123.62
284.439	118.62
284.67	115.62
284.901	119.62
285.132	123.62
285.364	110.62
285.595	117.62
285.826	107.62
286.057	111.62
286.288	102.62
286.52	111.62
286.751	111.62
286.982	121.62
287.213	109.62
287.444	104.62
287.675	129.62
287.906	107.62
288.138	104.62
288.369	119.62
288.6	116.62
288.831	114.62
289.062	114.62
289.293	106.62
289.524	123.62
289.755	114.62
289.986	115.62
290.217	114.62
290.448	127.62
290.679	123.62
290.91	114.62
291.141	132.62
291.371	107.62
291.602	93.62
291.833	117.62
292.064	122.62
292.295	125.62
292.526	123.62
292.757	103.62
292.987	118.62
293.218	109.62
293.449	104.62
293.68	117.62
293.91	105.62
294.141	130.62
294.372	105.62
294.603	122.62
294.833	124.62
295.064	117.62
295.295	114.62
295.525	114.62
295.756	115.62
295.987	129.62
296.217	116.62
296.448	128.62
296.679	121.62
296.909	124.62
297.14	121.62
297.37	133.62
297.601	130.62
297.831	117.62
298.062	126.62
298.292	119.62
298.523	121.62
298.753	115.62
298.984	124.62
299.214	127.62
299.445	111.62
299.675	121.62
299.905	132.62
300.136	110.62
300.366	123.62
300.597	130.62
300.827	142.62
301.057	130.62
301.288	135.62
301.518	128.62
301.748	113.62
301.979	157.62
302.209	112.62
302.439	137.62
302.669	123.62
302.9	127.62
303.13	130.62
303.36	133.62
303.59	124.62
303.82	123.62
304.051	128.62
304.281	140.62
304.511	133.62
304.741	97.62
304.971	120.62
305.201	138.62
305.431	124.62
305.661	122.62
305.891	115.62
306.121	118.62
306.352	129.62
306.582	134.62
306.812	135.62
307.042	126.62
307.272	120.62
307.502	138.62
307.731	133.62
307.961	122.62
308.191	120.62
308.421	115.62
308.651	117.62
308.881	124.62
309.111	128.62
309.341	127.62
309.571	115.62
309.8	116.62
310.03	120.62
310.26	117.62
310.49	121.62
310.72	115.62
310.949	101.62
311.179	134.62
311.409	124.62
311.639	112.62
311.868	126.62
312.098	132.62
312.328	136.62
312.557	112.62
312.787	124.62
313.017	122.62
313.246	130.62
313.476	123.62
313.706	122.62
313.935	130.62
314.165	128.62
314.394	126.62
314.624	127.62
314.853	134.62
315.083	129.62
315.312	116.62
315.542	119.62
315.771	133.62
316.001	121.62
316.23	125.62
316.46	129.62
316.689	127.62
316.919	140.62
317.148	118.62
317.377	144.62
317.607	119.62
317.836	111.62
318.065	130.62
318.295	131.62
318.524	116.62
318.753	117.62
318.983	128.62
319.212	128.62
319.441	135.62
319.67	124.62
319.9	145.62
320.129	127.62
320.358	123.62
320.587	108.62
320.816	115.62
321.046	141.62
321.275	134.62
321.504	124.62
321.733	110.62
321.962	121.62
322.191	125.62
322.42	126.62
322.649	125.62
322.878	121.62
323.108	150.62
323.337	135.62
323.566	149.62
323.795	132.62
324.024	138.62
324.253	134.62
324.482	133.62
324.71	139.62
324.939	141.62
325.168	123.62
325.397	156.62
325.626	125.62
325.855	136.62
326.084	118.62
326.313	127.62
326.542	125.62
326.77	137.62
326.999	132.62
327.228	113.62
327.457	130.62
327.686	126.62
327.914	133.62
328.143	133.62
328.372	132.62
328.6	130.62
328.829	134.62
329.058	123.62
329.287	124.62
329.515	140.62
329.744	141.62
329.972	133.62
330.201	133.62
330.43	111.62
330.658	125.62
330.887	130.62
331.115	150.62
331.344	142.62
331.572	147.62
331.801	142.62
332.03	146.62
332.258	131.62
332.486	142.62
332.715	145.62
332.943	143.62
333.172	155.62
333.4	144.62
333.629	160.62
333.857	158.62
334.085	149.62
334.314	153.62
334.542	130.62
334.771	134.62
334.999	138.62
335.227	137.62
335.455	153.62
335.684	156.62
335.912	134.62
336.14	143.62
336.369	150.62
336.597	119.62
336.825	141.62
337.053	135.62
337.281	150.62
337.51	137.62
337.738	142.62
337.966	132.62
338.194	134.62
338.422	122.62
338.65	148.62
338.878	121.62
339.106	142.62
339.334	129.62
339.562	135.62
339.79	137.62
340.018	138.62
340.246	129.62
340.474	125.62
340.702	137.62
340.93	145.62
341.158	133.62
341.386	126.62
341.614	129.62
341.842	134.62
342.07	130.62
342.298	136.62
342.526	128.62
342.754	136.62
342.981	127.62
343.209	134.62
343.437	175.62
343.665	150.62
343.893	155.62
344.12	150.62
344.348	135.62
344.576	135.62
344.804	142.62
345.031	121.62
345.259	139.62
345.487	137.62
345.714	124.62
345.942	135.62
346.17	157.62
346.397	140.62
346.625	130.62
346.853	122.62
347.08	133.62
347.308	138.62
347.535	131.62
347.763	144.62
347.99	139.62
348.218	141.62
348.445	131.62
348.673	125.62
348.9	133.62
349.128	138.62
349.355	133.62
349.583	124.62
349.81	121.62
350.037	142.62
350.265	134.62
350.492	125.62
350.72	138.62
350.947	119.62
351.174	128.62
351.402	120.62
351.629	129.62
351.856	121.62
352.083	136.62
352.311	141.62
352.538	120.62
352.765	135.62
352.992	140.62
353.22	146.62
353.447	127.62
353.674	140.62
353.901	150.62
354.128	141.62
354.355	126.62
354.583	130.62
354.81	135.62
355.037	138.62
355.264	124.62
355.491	120.62
355.718	125.62
355.945	130.62
356.172	126.62
356.399	138.62
356.626	122.62
356.853	127.62
357.08	123.62
357.307	134.62
357.534	136.62
357.761	127.62
357.988	136.62
358.215	127.62
358.441	123.62
358.668	148.62
358.895	143.62
359.122	133.62
359.349	123.62
359.576	123.62
359.802	144.62
360.029	138.62
360.256	132.62
360.483	129.62
360.709	117.62
360.936	150.62
361.163	137.62
361.39	138.62
361.616	146.62
361.843	126.62
362.07	126.62
362.296	149.62
362.523	137.62
362.749	122.62
362.976	122.62
363.203	126.62
363.429	125.62
363.656	138.62
363.882	123.62
364.109	139.62
364.335	128.62
364.562	130.62
364.788	123.62
365.015	136.62
365.241	134.62
365.468	139.62
365.694	127.62
365.92	132.62
366.147	122.62
366.373	128.62
366.599	109.62
366.826	129.62
367.052	136.62
367.278	134.62
367.505	133.62
367.731	155.62
367.957	146.62
368.184	137.62
368.41	127.62
368.636	131.62
368.862	128.62
369.089	139.62
369.315	139.62
369.541	135.62
369.767	139.62
369.993	133.62
370.219	132.62
370.445	137.62
370.672	139.62
370.898	119.62
371.124	140.62
371.35	142.62
371.576	137.62
371.802	133.62
372.028	146.62
372.254	133.62
372.48	140.62
372.706	135.62
372.932	154.62
373.158	141.62
373.384	145.62
373.61	151.62
373.835	158.62
374.061	133.62
374.287	147.62
374.513	156.62
374.739	141.62
374.965	121.62
375.191	141.62
375.416	170.62
375.642	133.62
375.868	145.62
376.094	146.62
376.319	142.62
376.545	148.62
376.771	129.62
376.997	148.62
377.222	131.62
377.448	132.62
377.674	138.62
377.899	129.62
378.125	131.62
378.35	139.62
378.576	139.62
378.802	140.62
379.027	117.62
379.253	139.62
379.478	137.62
379.704	134.62
379.929	136.62
380.155	140.62
380.38	148.62
380.606	140.62
380.831	136.62
381.057	157.62
381.282	134.62
381.507	144.62
381.733	140.62
381.958	133.62
382.184	161.62
382.409	145.62
382.634	157.62
382.86	153.62
383.085	137.62
383.31	156.62
383.535	151.62
383.761	146.62
383.986	149.62
384.211	134.62
384.436	136.62
384.662	153.62
384.887	139.62
385.112	155.62
385.337	140.62
385.562	156.62
385.787	148.62
386.013	158.62
386.238	166.62
386.463	143.62
386.688	187.62
386.913	141.62
387.138	149.62
387.363	152.62
387.588	157.62
387.813	155.62
388.038	157.62
388.263	161.62
388.488	154.62
388.713	173.62
388.938	161.62
389.163	161.62
389.387	163.62
389.612	147.62
389.837	152.62
390.062	163.62
390.287	158.62
390.512	166.62
390.736	145.62
390.961	169.62
391.186	149.62
391.411	162.62
391.636	168.62
391.86	170.62
392.085	169.62
392.31	166.62
392.534	163.62
392.759	156.62
392.984	173.62
393.208	160.62
393.433	158.62
393.658	148.62
393.882	164.62
394.107	154.62
394.331	163.62
394.556	152.62
394.78	164.62
395.005	158.62
395.229	148.62
395.454	178.62
395.678	154.62
395.903	174.62
396.127	172.62
396.352	170.62
396.576	163.62
396.801	157.62
397.025	157.62
397.249	180.62
397.474	177.62
397.698	160.62
397.922	169.62
398.147	169.62
398.371	179.62
398.595	187.62
398.82	184.62
399.044	176.62
399.268	197.62
399.492	226.62
399.717	220.62
399.941	233.62
400.165	213.62
400.389	203.62
400.613	187.62
400.837	190.62
401.062	183.62
401.286	182.62
401.51	165.62
401.734	189.62
401.958	186.62
402.182	177.62
402.406	176.62
402.63	175.62
402.854	183.62
403.078	199.62
403.302	190.62
403.526	197.62
403.75	205.62
403.974	203.62
404.198	202.62
404.422	217.62
404.645	190.62
404.869	203.62
405.093	203.62
405.317	187.62
405.541	187.62
405.765	193.62
405.988	167.62
406.212	202.62
406.436	183.62
406.66	217.62
406.883	194.62
407.107	209.62
407.331	203.62
407.555	203.62
407.778	216.62
408.002	209.62
408.226	193.62
408.449	190.62
408.673	202.62
408.896	210.62
409.12	198.62
409.344	200.62
409.567	187.62
409.791	203.62
410.014	189.62
410.238	187.62
410.461	187.62
410.685	197.62
410.908	192.62
411.132	202.62
411.355	195.62
411.578	186.62
411.802	211.62
412.025	191.62
412.249	184.62
412.472	187.62
412.695	181.62
412.919	189.62
413.142	186.62
413.365	180.62
413.589	183.62
413.812	177.62
414.035	190.62
414.258	197.62
414.482	186.62
414.705	191.62
414.928	197.62
415.151	190.62
415.374	196.62
415.597	191.62
415.821	185.62
416.044	192.62
416.267	181.62
416.49	187.62
416.713	174.62
416.936	184.62
417.159	189.62
417.382	188.62
417.605	180.62
417.828	183.62
418.051	191.62
418.274	178.62
418.497	190.62
418.72	201.62
418.943	210.62
419.166	193.62
419.389	203.62
419.611	186.62
419.834	201.62
420.057	193.62
420.28	182.62
420.503	202.62
420.726	198.62
420.948	189.62
421.171	189.62
421.394	180.62
421.617	201.62
421.839	204.62
422.062	185.62
422.285	189.62
422.507	191.62
422.73	189.62
422.953	190.62
423.175	183.62
423.398	195.62
423.621	194.62
423.843	198.62
424.066	193.62
424.288	212.62
424.511	187.62
424.733	194.62
424.956	197.62
425.178	204.62
425.401	191.62
425.623	190.62
425.846	205.62
426.068	179.62
426.291	197.62
426.513	173.62
426.735	179.62
426.958	203.62
427.18	171.62
427.402	183.62
427.625	185.62
427.847	174.62
428.069	166.62
428.292	185.62
428.514	187.62
428.736	181.62
428.958	182.62
429.181	194.62
429.403	169.62
429.625	181.62
429.847	179.62
430.069	187.62
430.292	174.62
430.514	174.62
430.736	175.62
430.958	171.62
431.18	173.62
431.402	175.62
431.624	154.62
431.846	160.62
432.068	171.62
432.29	161.62
432.512	167.62
432.734	181.62
432.956	178.62
433.178	191.62
433.4	195.62
433.622	183.62
433.844	189.62
434.066	190.62
434.287	175.62
434.509	178.62
434.731	175.62
434.953	195.62
435.175	172.62
435.397	196.62
435.618	179.62
435.84	167.62
436.062	178.62
436.284	181.62
436.505	180.62
436.727	170.62
436.949	165.62
437.17	189.62
437.392	167.62
437.614	179.62
437.835	166.62
438.057	162.62
438.278	168.62
438.5	181.62
438.721	176.62
438.943	183.62
439.165	196.62
439.386	191.62
439.608	197.62
439.829	200.62
440.05	191.62
440.272	186.62
440.493	193.62
440.715	186.62
440.936	195.62
441.158	198.62
441.379	183.62
441.6	215.62
441.822	178.62
442.043	198.62
442.264	197.62
442.486	192.62
442.707	184.62
442.928	190.62
443.149	174.62
443.371	201.62
443.592	191.62
443.813	197.62
444.034	191.62
444.255	217.62
444.476	202.62
444.698	215.62
444.919	221.62
445.14	466.62
445.361	339.62
445.582	197.62
445.803	184.62
446.024	201.62
446.245	191.62
446.466	211.62
446.687	197.62
446.908	192.62
447.129	200.62
447.35	182.62
447.571	187.62
447.792	182.62
448.013	191.62
448.234	179.62
448.455	185.62
448.675	159.62
448.896	181.62
449.117	178.62
449.338	164.62
449.559	181.62
449.779	169.62
450	163.62
450.221	181.62
450.442	162.62
450.662	167.62
450.883	178.62
451.104	175.62
451.324	175.62
451.545	189.62
451.766	182.62
451.986	175.62
452.207	165.62
452.428	175.62
452.648	174.62
452.869	173.62
453.089	174.62
453.31	154.62
453.53	161.62
453.751	147.62
453.971	149.62
454.192	158.62
454.412	157.62
454.633	167.62
454.853	156.62
455.073	179.62
455.294	153.62
455.514	170.62
455.734	159.62
455.955	153.62
456.175	172.62
456.395	165.62
456.616	160.62
456.836	152.62
457.056	162.62
457.276	161.62
457.497	174.62
457.717	154.62
457.937	164.62
458.157	147.62
458.377	169.62
458.598	162.62
458.818	153.62
459.038	134.62
459.258	163.62
459.478	161.62
459.698	166.62
459.918	175.62
460.138	179.62
460.358	190.62
460.578	190.62
460.798	182.62
461.018	198.62
461.238	199.62
461.458	195.62
461.678	187.62
461.898	186.62
462.118	199.62
462.338	197.62
462.558	194.62
462.777	206.62
462.997	231.62
463.217	215.62
463.437	202.62
463.657	213.62
463.876	206.62
464.096	214.62
464.316	187.62
464.536	204.62
464.755	216.62
464.975	197.62
465.195	197.62
465.414	191.62
465.634	171.62
465.854	186.62
466.073	173.62
466.293	174.62
466.512	172.62
466.732	181.62
466.951	181.62
467.171	181.62
467.391	166.62
467.61	164.62
467.829	164.62
468.049	166.62
468.268	165.62
468.488	161.62
468.707	178.62
468.927	175.62
469.146	184.62
469.365	192.62
469.585	199.62
469.804	189.62
470.023	188.62
470.243	190.62
470.462	196.62
470.681	209.62
470.901	207.62
471.12	193.62
471.339	187.62
471.558	190.62
471.777	176.62
471.997	183.62
472.216	174.62
472.435	167.62
472.654	162.62
472.873	173.62
473.092	183.62
473.311	169.62
473.53	171.62
473.749	179.62
473.968	185.62
474.187	166.62
474.406	171.62
474.625	185.62
474.844	187.62
475.063	163.62
475.282	175.62
475.501	168.62
475.72	183.62
475.939	161.62
476.158	171.62
476.377	180.62
476.596	157.62
476.814	165.62
477.033	168.62
477.252	170.62
477.471	162.62
477.69	186.62
477.908	197.62
478.127	200.62
478.346	188.62
478.564	188.62
478.783	192.62
479.002	188.62
479.22	186.62
479.439	196.62
479.658	183.62
479.876	189.62
480.095	175.62
480.313	202.62
480.532	214.62
480.751	177.62
480.969	186.62
481.188	169.62
481.406	154.62
481.624	173.62
481.843	147.62
482.061	162.62
482.28	175.62
482.498	191.62
482.717	165.62
482.935	194.62
483.153	173.62
483.372	186.62
483.59	198.62
483.808	183.62
484.027	193.62
484.245	203.62
484.463	192.62
484.681	211.62
484.9	195.62
485.118	198.62
485.336	196.62
485.554	176.62
485.772	183.62
485.99	171.62
486.209	174.62
486.427	201.62
486.645	195.62
486.863	206.62
487.081	171.62
487.299	197.62
487.517	209.62
487.735	204.62
487.953	227.62
488.171	219.62
488.389	202.62
488.607	197.62
488.825	191.62
489.043	195.62
489.261	210.62
489.479	181.62
489.696	193.62
489.914	193.62
490.132	202.62
490.35	206.62
490.568	212.62
490.786	221.62
491.003	200.62
491.221	209.62
491.439	218.62
491.657	243.62
491.874	253.62
492.092	243.62
492.31	249.62
492.527	250.62
492.745	233.62
492.963	230.62
493.18	228.62
493.398	223.62
493.615	231.62
493.833	228.62
494.05	222.62
494.268	229.62
494.485	225.62
494.703	231.62
494.92	214.62
495.138	220.62
495.355	215.62
495.573	228.62
495.79	214.62
496.008	232.62
496.225	218.62
496.442	217.62
496.66	234.62
496.877	223.62
497.094	228.62
497.312	232.62
497.529	211.62
497.746	229.62
497.963	221.62
498.181	221.62
498.398	210.62
498.615	233.62
498.832	232.62
499.049	244.62
499.267	253.62
499.484	269.62
499.701	320.62
499.918	327.62
500.135	360.62
500.352	379.62
500.569	392.62
500.786	389.62
501.003	361.62
501.22	325.62
501.437	319.62
501.654	282.62
501.871	245.62
502.088	242.62
502.305	256.62
502.522	233.62
502.739	235.62
502.956	231.62
503.172	215.62
503.389	210.62
503.606	199.62
503.823	205.62
504.04	217.62
504.256	202.62
504.473	232.62
504.69	221.62
