Data from SampD_HRD10591_00031.txt Node
Date: Mon Jan 19 11:50:26 EST 2026
User: Yrep
Spectrometer: HR+D1059
Trigger mode: 0
Integration Time (sec): 3.443000E-1
Scans to average: 1
Electric dark correction enabled: true
Nonlinearity correction enabled: false
Boxcar width: 0
XAxis mode: Wavelengths
Number of Pixels in Spectrum: 2048
>>>>>Begin Spectral Data<<<<<
223.165	-21.19
223.4	-21.19
223.635	-21.19
223.869	-33.19
224.104	-20.19
224.338	-19.19
224.573	-20.19
224.808	-11.19
225.042	-7.19
225.277	-14.19
225.511	4.81
225.746	19.81
225.98	9.81
226.215	19.81
226.449	10.81
226.683	22.81
226.918	25.81
227.152	32.81
227.387	39.81
227.621	33.81
227.856	45.81
228.09	36.81
228.324	44.81
228.559	48.81
228.793	48.81
229.027	56.81
229.262	63.81
229.496	73.81
229.73	56.81
229.964	62.81
230.199	65.81
230.433	64.81
230.667	95.81
230.901	78.81
231.136	87.81
231.37	90.81
231.604	62.81
231.838	87.81
232.072	88.81
232.306	82.81
232.541	73.81
232.775	74.81
233.009	81.81
233.243	82.81
233.477	102.81
233.711	95.81
233.945	71.81
234.179	73.81
234.413	81.81
234.647	84.81
234.881	86.81
235.115	68.81
235.349	84.81
235.583	104.81
235.817	91.81
236.051	87.81
236.285	73.81
236.519	82.81
236.753	66.81
236.987	78.81
237.221	68.81
237.455	64.81
237.689	81.81
237.922	89.81
238.156	81.81
238.39	86.81
238.624	62.81
238.858	79.81
239.091	93.81
239.325	80.81
239.559	76.81
239.793	82.81
240.027	89.81
240.26	70.81
240.494	74.81
240.728	88.81
240.961	77.81
241.195	79.81
241.429	78.81
241.662	85.81
241.896	74.81
242.13	73.81
242.363	61.81
242.597	81.81
242.83	97.81
243.064	92.81
243.298	89.81
243.531	78.81
243.765	63.81
243.998	92.81
244.232	100.81
244.465	80.81
244.699	83.81
244.932	88.81
245.166	76.81
245.399	95.81
245.633	85.81
245.866	93.81
246.099	86.81
246.333	77.81
246.566	75.81
246.8	72.81
247.033	84.81
247.266	74.81
247.5	92.81
247.733	88.81
247.966	77.81
248.2	78.81
248.433	81.81
248.666	81.81
248.899	94.81
249.133	80.81
249.366	99.81
249.599	89.81
249.832	89.81
250.066	94.81
250.299	88.81
250.532	95.81
250.765	86.81
250.998	82.81
251.231	84.81
251.465	91.81
251.698	84.81
251.931	81.81
252.164	73.81
252.397	90.81
252.63	86.81
252.863	103.81
253.096	90.81
253.329	94.81
253.562	85.81
253.795	92.81
254.028	104.81
254.261	95.81
254.494	80.81
254.727	100.81
254.96	93.81
255.193	92.81
255.426	89.81
255.659	95.81
255.892	76.81
256.124	87.81
256.357	84.81
256.59	86.81
256.823	83.81
257.056	86.81
257.289	89.81
257.521	94.81
257.754	88.81
257.987	94.81
258.22	92.81
258.452	90.81
258.685	106.81
258.918	101.81
259.151	88.81
259.383	97.81
259.616	88.81
259.849	93.81
260.081	97.81
260.314	95.81
260.547	92.81
260.779	91.81
261.012	92.81
261.244	96.81
261.477	97.81
261.71	86.81
261.942	70.81
262.175	103.81
262.407	85.81
262.64	84.81
262.872	79.81
263.105	93.81
263.337	96.81
263.57	102.81
263.802	89.81
264.035	98.81
264.267	96.81
264.499	92.81
264.732	94.81
264.964	94.81
265.197	108.81
265.429	96.81
265.661	100.81
265.894	103.81
266.126	106.81
266.358	97.81
266.591	101.81
266.823	74.81
267.055	102.81
267.287	101.81
267.52	101.81
267.752	105.81
267.984	96.81
268.216	99.81
268.448	109.81
268.681	104.81
268.913	105.81
269.145	95.81
269.377	105.81
269.609	96.81
269.841	102.81
270.073	100.81
270.306	91.81
270.538	102.81
270.77	94.81
271.002	93.81
271.234	88.81
271.466	107.81
271.698	88.81
271.93	92.81
272.162	95.81
272.394	108.81
272.626	106.81
272.858	113.81
273.09	107.81
273.322	112.81
273.553	104.81
273.785	114.81
274.017	114.81
274.249	107.81
274.481	102.81
274.713	92.81
274.945	103.81
275.176	102.81
275.408	104.81
275.64	97.81
275.872	104.81
276.104	104.81
276.335	98.81
276.567	101.81
276.799	96.81
277.031	105.81
277.262	98.81
277.494	112.81
277.726	106.81
277.957	106.81
278.189	119.81
278.421	113.81
278.652	105.81
278.884	98.81
279.115	105.81
279.347	114.81
279.579	112.81
279.81	98.81
280.042	96.81
280.273	110.81
280.505	105.81
280.736	110.81
280.968	98.81
281.199	105.81
281.431	102.81
281.662	105.81
281.894	104.81
282.125	104.81
282.356	109.81
282.588	105.81
282.819	95.81
283.051	92.81
283.282	108.81
283.513	120.81
283.745	113.81
283.976	119.81
284.207	115.81
284.439	116.81
284.67	117.81
284.901	110.81
285.132	111.81
285.364	106.81
285.595	104.81
285.826	120.81
286.057	118.81
286.288	114.81
286.52	112.81
286.751	103.81
286.982	108.81
287.213	111.81
287.444	119.81
287.675	118.81
287.906	114.81
288.138	113.81
288.369	107.81
288.6	100.81
288.831	104.81
289.062	120.81
289.293	116.81
289.524	94.81
289.755	105.81
289.986	111.81
290.217	116.81
290.448	102.81
290.679	106.81
290.91	120.81
291.141	116.81
291.371	104.81
291.602	126.81
291.833	106.81
292.064	106.81
292.295	122.81
292.526	120.81
292.757	116.81
292.987	126.81
293.218	116.81
293.449	124.81
293.68	111.81
293.91	106.81
294.141	115.81
294.372	121.81
294.603	125.81
294.833	119.81
295.064	118.81
295.295	111.81
295.525	106.81
295.756	110.81
295.987	126.81
296.217	112.81
296.448	116.81
296.679	112.81
296.909	113.81
297.14	110.81
297.37	134.81
297.601	123.81
297.831	127.81
298.062	122.81
298.292	121.81
298.523	124.81
298.753	126.81
298.984	125.81
299.214	125.81
299.445	120.81
299.675	114.81
299.905	108.81
300.136	116.81
300.366	104.81
300.597	134.81
300.827	124.81
301.057	112.81
301.288	124.81
301.518	119.81
301.748	122.81
301.979	152.81
302.209	130.81
302.439	128.81
302.669	126.81
302.9	119.81
303.13	116.81
303.36	118.81
303.59	115.81
303.82	120.81
304.051	133.81
304.281	143.81
304.511	129.81
304.741	119.81
304.971	116.81
305.201	123.81
305.431	122.81
305.661	125.81
305.891	133.81
306.121	117.81
306.352	115.81
306.582	109.81
306.812	113.81
307.042	125.81
307.272	109.81
307.502	119.81
307.731	117.81
307.961	124.81
308.191	118.81
308.421	118.81
308.651	111.81
308.881	124.81
309.111	123.81
309.341	111.81
309.571	109.81
309.8	117.81
310.03	114.81
310.26	106.81
310.49	124.81
310.72	111.81
310.949	114.81
311.179	119.81
311.409	117.81
311.639	123.81
311.868	117.81
312.098	124.81
312.328	125.81
312.557	120.81
312.787	115.81
313.017	121.81
313.246	124.81
313.476	121.81
313.706	116.81
313.935	124.81
314.165	124.81
314.394	123.81
314.624	129.81
314.853	134.81
315.083	121.81
315.312	120.81
315.542	119.81
315.771	114.81
316.001	109.81
316.23	114.81
316.46	118.81
316.689	113.81
316.919	124.81
317.148	130.81
317.377	129.81
317.607	108.81
317.836	125.81
318.065	124.81
318.295	121.81
318.524	131.81
318.753	113.81
318.983	110.81
319.212	128.81
319.441	114.81
319.67	119.81
319.9	137.81
320.129	120.81
320.358	132.81
320.587	118.81
320.816	116.81
321.046	135.81
321.275	118.81
321.504	119.81
321.733	141.81
321.962	129.81
322.191	129.81
322.42	127.81
322.649	138.81
322.878	133.81
323.108	124.81
323.337	117.81
323.566	132.81
323.795	116.81
324.024	118.81
324.253	119.81
324.482	126.81
324.71	128.81
324.939	130.81
325.168	123.81
325.397	133.81
325.626	137.81
325.855	142.81
326.084	122.81
326.313	129.81
326.542	125.81
326.77	136.81
326.999	124.81
327.228	125.81
327.457	119.81
327.686	133.81
327.914	117.81
328.143	143.81
328.372	124.81
328.6	138.81
328.829	135.81
329.058	121.81
329.287	139.81
329.515	134.81
329.744	132.81
329.972	120.81
330.201	132.81
330.43	138.81
330.658	127.81
330.887	129.81
331.115	117.81
331.344	133.81
331.572	137.81
331.801	122.81
332.03	121.81
332.258	128.81
332.486	148.81
332.715	156.81
332.943	159.81
333.172	162.81
333.4	164.81
333.629	148.81
333.857	134.81
334.085	155.81
334.314	148.81
334.542	146.81
334.771	162.81
334.999	141.81
335.227	142.81
335.455	148.81
335.684	147.81
335.912	145.81
336.14	147.81
336.369	142.81
336.597	121.81
336.825	137.81
337.053	143.81
337.281	132.81
337.51	130.81
337.738	140.81
337.966	138.81
338.194	124.81
338.422	134.81
338.65	146.81
338.878	134.81
339.106	136.81
339.334	115.81
339.562	126.81
339.79	137.81
340.018	133.81
340.246	140.81
340.474	128.81
340.702	144.81
340.93	133.81
341.158	132.81
341.386	153.81
341.614	123.81
341.842	137.81
342.07	124.81
342.298	112.81
342.526	141.81
342.754	127.81
342.981	142.81
343.209	131.81
343.437	161.81
343.665	153.81
343.893	145.81
344.12	161.81
344.348	134.81
344.576	132.81
344.804	135.81
345.031	139.81
345.259	129.81
345.487	132.81
345.714	138.81
345.942	125.81
346.17	136.81
346.397	130.81
346.625	133.81
346.853	131.81
347.08	121.81
347.308	136.81
347.535	134.81
347.763	134.81
347.99	137.81
348.218	139.81
348.445	134.81
348.673	120.81
348.9	131.81
349.128	129.81
349.355	116.81
349.583	129.81
349.81	126.81
350.037	128.81
350.265	119.81
350.492	123.81
350.72	128.81
350.947	129.81
351.174	126.81
351.402	131.81
351.629	130.81
351.856	125.81
352.083	114.81
352.311	136.81
352.538	130.81
352.765	141.81
352.992	152.81
353.22	134.81
353.447	115.81
353.674	135.81
353.901	143.81
354.128	124.81
354.355	135.81
354.583	112.81
354.81	134.81
355.037	122.81
355.264	135.81
355.491	129.81
355.718	125.81
355.945	121.81
356.172	121.81
356.399	128.81
356.626	140.81
356.853	138.81
357.08	143.81
357.307	124.81
357.534	135.81
357.761	140.81
357.988	131.81
358.215	133.81
358.441	115.81
358.668	132.81
358.895	130.81
359.122	133.81
359.349	129.81
359.576	142.81
359.802	126.81
360.029	132.81
360.256	143.81
360.483	133.81
360.709	128.81
360.936	138.81
361.163	140.81
361.39	125.81
361.616	124.81
361.843	130.81
362.07	125.81
362.296	122.81
362.523	138.81
362.749	125.81
362.976	128.81
363.203	140.81
363.429	127.81
363.656	139.81
363.882	123.81
364.109	118.81
364.335	137.81
364.562	106.81
364.788	111.81
365.015	128.81
365.241	137.81
365.468	125.81
365.694	131.81
365.92	130.81
366.147	115.81
366.373	121.81
366.599	120.81
366.826	135.81
367.052	117.81
367.278	124.81
367.505	127.81
367.731	156.81
367.957	117.81
368.184	123.81
368.41	137.81
368.636	114.81
368.862	122.81
369.089	146.81
369.315	124.81
369.541	147.81
369.767	148.81
369.993	140.81
370.219	111.81
370.445	123.81
370.672	142.81
370.898	130.81
371.124	133.81
371.35	156.81
371.576	122.81
371.802	132.81
372.028	133.81
372.254	145.81
372.48	142.81
372.706	127.81
372.932	151.81
373.158	132.81
373.384	136.81
373.61	132.81
373.835	121.81
374.061	144.81
374.287	137.81
374.513	136.81
374.739	145.81
374.965	160.81
375.191	144.81
375.416	145.81
375.642	154.81
375.868	143.81
376.094	149.81
376.319	142.81
376.545	135.81
376.771	130.81
376.997	134.81
377.222	148.81
377.448	137.81
377.674	149.81
377.899	146.81
378.125	129.81
378.35	156.81
378.576	125.81
378.802	139.81
379.027	143.81
379.253	154.81
379.478	147.81
379.704	124.81
379.929	155.81
380.155	134.81
380.38	126.81
380.606	125.81
380.831	143.81
381.057	161.81
381.282	146.81
381.507	143.81
381.733	128.81
381.958	142.81
382.184	135.81
382.409	146.81
382.634	156.81
382.86	144.81
383.085	157.81
383.31	138.81
383.535	161.81
383.761	143.81
383.986	136.81
384.211	146.81
384.436	146.81
384.662	142.81
384.887	151.81
385.112	144.81
385.337	156.81
385.562	152.81
385.787	150.81
386.013	157.81
386.238	165.81
386.463	146.81
386.688	182.81
386.913	156.81
387.138	140.81
387.363	144.81
387.588	170.81
387.813	168.81
388.038	153.81
388.263	163.81
388.488	150.81
388.713	163.81
388.938	146.81
389.163	163.81
389.387	157.81
389.612	155.81
389.837	158.81
390.062	152.81
390.287	172.81
390.512	145.81
390.736	142.81
390.961	172.81
391.186	159.81
391.411	168.81
391.636	168.81
391.86	169.81
392.085	174.81
392.31	164.81
392.534	156.81
392.759	186.81
392.984	163.81
393.208	169.81
393.433	156.81
393.658	173.81
393.882	157.81
394.107	169.81
394.331	176.81
394.556	161.81
394.78	175.81
395.005	173.81
395.229	177.81
395.454	180.81
395.678	176.81
395.903	161.81
396.127	165.81
396.352	160.81
396.576	160.81
396.801	166.81
397.025	168.81
397.249	162.81
397.474	169.81
397.698	174.81
397.922	170.81
398.147	172.81
398.371	174.81
398.595	185.81
398.82	187.81
399.044	189.81
399.268	216.81
399.492	248.81
399.717	232.81
399.941	221.81
400.165	226.81
400.389	212.81
400.613	200.81
400.837	181.81
401.062	191.81
401.286	182.81
401.51	185.81
401.734	186.81
401.958	190.81
402.182	195.81
402.406	182.81
402.63	193.81
402.854	192.81
403.078	186.81
403.302	199.81
403.526	209.81
403.75	192.81
403.974	204.81
404.198	172.81
404.422	184.81
404.645	196.81
404.869	197.81
405.093	211.81
405.317	206.81
405.541	206.81
405.765	180.81
405.988	185.81
406.212	202.81
406.436	202.81
406.66	215.81
406.883	206.81
407.107	211.81
407.331	216.81
407.555	219.81
407.778	208.81
408.002	202.81
408.226	195.81
408.449	211.81
408.673	189.81
408.896	188.81
409.12	194.81
409.344	190.81
409.567	206.81
409.791	210.81
410.014	200.81
410.238	200.81
410.461	202.81
410.685	228.81
410.908	195.81
411.132	205.81
411.355	200.81
411.578	196.81
411.802	206.81
412.025	196.81
412.249	190.81
412.472	189.81
412.695	188.81
412.919	176.81
413.142	177.81
413.365	207.81
413.589	183.81
413.812	187.81
414.035	206.81
414.258	189.81
414.482	186.81
414.705	180.81
414.928	204.81
415.151	186.81
415.374	192.81
415.597	192.81
415.821	182.81
416.044	184.81
416.267	176.81
416.49	176.81
416.713	185.81
416.936	190.81
417.159	183.81
417.382	192.81
417.605	176.81
417.828	183.81
418.051	192.81
418.274	181.81
418.497	198.81
418.72	224.81
418.943	204.81
419.166	206.81
419.389	222.81
419.611	202.81
419.834	202.81
420.057	207.81
420.28	180.81
420.503	193.81
420.726	199.81
420.948	192.81
421.171	191.81
421.394	198.81
421.617	205.81
421.839	198.81
422.062	196.81
422.285	179.81
422.507	194.81
422.73	194.81
422.953	191.81
423.175	187.81
423.398	195.81
423.621	209.81
423.843	204.81
424.066	220.81
424.288	213.81
424.511	193.81
424.733	218.81
424.956	202.81
425.178	216.81
425.401	183.81
425.623	190.81
425.846	199.81
426.068	188.81
426.291	207.81
426.513	189.81
426.735	180.81
426.958	191.81
427.18	185.81
427.402	186.81
427.625	185.81
427.847	185.81
428.069	188.81
428.292	188.81
428.514	193.81
428.736	189.81
428.958	166.81
429.181	181.81
429.403	169.81
429.625	178.81
429.847	174.81
430.069	193.81
430.292	192.81
430.514	167.81
430.736	165.81
430.958	190.81
431.18	178.81
431.402	200.81
431.624	159.81
431.846	183.81
432.068	169.81
432.29	174.81
432.512	188.81
432.734	161.81
432.956	183.81
433.178	191.81
433.4	186.81
433.622	193.81
433.844	185.81
434.066	186.81
434.287	163.81
434.509	170.81
434.731	180.81
434.953	185.81
435.175	188.81
435.397	191.81
435.618	180.81
435.84	173.81
436.062	176.81
436.284	185.81
436.505	190.81
436.727	177.81
436.949	177.81
437.17	178.81
437.392	176.81
437.614	169.81
437.835	149.81
438.057	169.81
438.278	178.81
438.5	173.81
438.721	177.81
438.943	190.81
439.165	193.81
439.386	198.81
439.608	195.81
439.829	181.81
440.05	170.81
440.272	189.81
440.493	191.81
440.715	191.81
440.936	192.81
441.158	208.81
441.379	190.81
441.6	211.81
441.822	205.81
442.043	197.81
442.264	206.81
442.486	196.81
442.707	191.81
442.928	196.81
443.149	199.81
443.371	210.81
443.592	193.81
443.813	186.81
444.034	205.81
444.255	213.81
444.476	202.81
444.698	218.81
444.919	212.81
445.14	396.81
445.361	304.81
445.582	208.81
445.803	191.81
446.024	201.81
446.245	209.81
446.466	213.81
446.687	188.81
446.908	199.81
447.129	197.81
447.35	194.81
447.571	190.81
447.792	193.81
448.013	197.81
448.234	177.81
448.455	184.81
448.675	188.81
448.896	185.81
449.117	185.81
449.338	165.81
449.559	181.81
449.779	178.81
450	162.81
450.221	170.81
450.442	184.81
450.662	168.81
450.883	182.81
451.104	206.81
451.324	184.81
451.545	157.81
451.766	166.81
451.986	182.81
452.207	173.81
452.428	165.81
452.648	194.81
452.869	177.81
453.089	167.81
453.31	168.81
453.53	168.81
453.751	169.81
453.971	169.81
454.192	181.81
454.412	170.81
454.633	176.81
454.853	171.81
455.073	160.81
455.294	168.81
455.514	162.81
455.734	154.81
455.955	164.81
456.175	175.81
456.395	163.81
456.616	164.81
456.836	165.81
457.056	156.81
457.276	139.81
457.497	157.81
457.717	153.81
457.937	158.81
458.157	168.81
458.377	159.81
458.598	166.81
458.818	153.81
459.038	161.81
459.258	166.81
459.478	165.81
459.698	167.81
459.918	163.81
460.138	177.81
460.358	188.81
460.578	191.81
460.798	212.81
461.018	197.81
461.238	198.81
461.458	196.81
461.678	188.81
461.898	189.81
462.118	210.81
462.338	222.81
462.558	208.81
462.777	226.81
462.997	233.81
463.217	223.81
463.437	225.81
463.657	196.81
463.876	201.81
464.096	204.81
464.316	212.81
464.536	208.81
464.755	217.81
464.975	193.81
465.195	195.81
465.414	182.81
465.634	184.81
465.854	183.81
466.073	194.81
466.293	170.81
466.512	190.81
466.732	177.81
466.951	184.81
467.171	169.81
467.391	176.81
467.61	169.81
467.829	178.81
468.049	184.81
468.268	176.81
468.488	181.81
468.707	193.81
468.927	178.81
469.146	174.81
469.365	188.81
469.585	169.81
469.804	185.81
470.023	206.81
470.243	199.81
470.462	192.81
470.681	201.81
470.901	183.81
471.12	197.81
471.339	190.81
471.558	172.81
471.777	172.81
471.997	176.81
472.216	201.81
472.435	183.81
472.654	191.81
472.873	174.81
473.092	176.81
473.311	169.81
473.53	165.81
473.749	177.81
473.968	183.81
474.187	177.81
474.406	167.81
474.625	180.81
474.844	171.81
475.063	162.81
475.282	188.81
475.501	168.81
475.72	195.81
475.939	174.81
476.158	182.81
476.377	179.81
476.596	168.81
476.814	181.81
477.033	148.81
477.252	171.81
477.471	188.81
477.69	186.81
477.908	195.81
478.127	222.81
478.346	189.81
478.564	207.81
478.783	202.81
479.002	201.81
479.22	194.81
479.439	192.81
479.658	196.81
479.876	176.81
480.095	182.81
480.313	199.81
480.532	187.81
480.751	196.81
480.969	165.81
481.188	174.81
481.406	168.81
481.624	164.81
481.843	151.81
482.061	173.81
482.28	181.81
482.498	177.81
482.717	173.81
482.935	190.81
483.153	185.81
483.372	201.81
483.59	204.81
483.808	198.81
484.027	200.81
484.245	214.81
484.463	205.81
484.681	215.81
484.9	196.81
485.118	194.81
485.336	170.81
485.554	174.81
485.772	174.81
485.99	178.81
486.209	190.81
486.427	184.81
486.645	198.81
486.863	197.81
487.081	190.81
487.299	217.81
487.517	209.81
487.735	209.81
487.953	215.81
488.171	229.81
488.389	205.81
488.607	195.81
488.825	198.81
489.043	188.81
489.261	204.81
489.479	212.81
489.696	217.81
489.914	194.81
490.132	196.81
490.35	203.81
490.568	209.81
490.786	231.81
491.003	218.81
491.221	202.81
491.439	218.81
491.657	230.81
491.874	250.81
492.092	249.81
492.31	265.81
492.527	232.81
492.745	225.81
492.963	263.81
493.18	222.81
493.398	237.81
493.615	221.81
493.833	229.81
494.05	232.81
494.268	228.81
494.485	221.81
494.703	225.81
494.92	232.81
495.138	216.81
495.355	215.81
495.573	249.81
495.79	210.81
496.008	232.81
496.225	233.81
496.442	222.81
496.66	228.81
496.877	237.81
497.094	257.81
497.312	228.81
497.529	226.81
497.746	226.81
497.963	213.81
498.181	209.81
498.398	238.81
498.615	231.81
498.832	233.81
499.049	253.81
499.267	268.81
499.484	288.81
499.701	327.81
499.918	354.81
500.135	393.81
500.352	400.81
500.569	412.81
500.786	413.81
501.003	372.81
501.22	354.81
501.437	316.81
501.654	302.81
501.871	277.81
502.088	245.81
502.305	255.81
502.522	247.81
502.739	245.81
502.956	234.81
503.172	223.81
503.389	222.81
503.606	212.81
503.823	215.81
504.04	225.81
504.256	226.81
504.473	214.81
504.69	218.81
504.907	229.81
505.123	208.81
