Data from SampD_HRD10591_00037.txt Node
Date: Mon Jan 19 11:50:28 EST 2026
User: Yrep
Spectrometer: HR+D1059
Trigger mode: 0
Integration Time (sec): 3.443000E-1
Scans to average: 1
Electric dark correction enabled: true
Nonlinearity correction enabled: false
Boxcar width: 0
XAxis mode: Wavelengths
Number of Pixels in Spectrum: 2048
>>>>>Begin Spectral Data<<<<<
223.165	-15.81
223.4	-15.81
223.635	-15.81
223.869	-24.81
224.104	-20.81
224.338	-12.81
224.573	-15.81
224.808	-12.81
225.042	-1.81
225.277	-0.81
225.511	3.19
225.746	3.19
225.98	4.19
226.215	28.19
226.449	21.19
226.683	19.19
226.918	8.19
227.152	18.19
227.387	21.19
227.621	26.19
227.856	44.19
228.09	43.19
228.324	44.19
228.559	52.19
228.793	52.19
229.027	52.19
229.262	68.19
229.496	55.19
229.73	68.19
229.964	78.19
230.199	67.19
230.433	81.19
230.667	76.19
230.901	62.19
231.136	79.19
231.37	74.19
231.604	84.19
231.838	79.19
232.072	73.19
232.306	91.19
232.541	86.19
232.775	94.19
233.009	83.19
233.243	90.19
233.477	89.19
233.711	78.19
233.945	88.19
234.179	93.19
234.413	71.19
234.647	77.19
234.881	78.19
235.115	75.19
235.349	82.19
235.583	79.19
235.817	79.19
236.051	85.19
236.285	89.19
236.519	76.19
236.753	93.19
236.987	81.19
237.221	63.19
237.455	82.19
237.689	70.19
237.922	78.19
238.156	72.19
238.39	70.19
238.624	66.19
238.858	88.19
239.091	81.19
239.325	81.19
239.559	70.19
239.793	86.19
240.027	80.19
240.26	77.19
240.494	87.19
240.728	68.19
240.961	76.19
241.195	68.19
241.429	85.19
241.662	78.19
241.896	82.19
242.13	86.19
242.363	69.19
242.597	62.19
242.83	87.19
243.064	70.19
243.298	90.19
243.531	79.19
243.765	85.19
243.998	87.19
244.232	98.19
244.465	91.19
244.699	83.19
244.932	70.19
245.166	62.19
245.399	91.19
245.633	96.19
245.866	89.19
246.099	84.19
246.333	89.19
246.566	77.19
246.8	86.19
247.033	68.19
247.266	80.19
247.5	83.19
247.733	78.19
247.966	74.19
248.2	82.19
248.433	75.19
248.666	86.19
248.899	89.19
249.133	82.19
249.366	88.19
249.599	95.19
249.832	88.19
250.066	93.19
250.299	88.19
250.532	86.19
250.765	74.19
250.998	82.19
251.231	89.19
251.465	95.19
251.698	84.19
251.931	81.19
252.164	87.19
252.397	82.19
252.63	95.19
252.863	91.19
253.096	79.19
253.329	93.19
253.562	82.19
253.795	95.19
254.028	84.19
254.261	95.19
254.494	92.19
254.727	94.19
254.96	92.19
255.193	110.19
255.426	93.19
255.659	86.19
255.892	108.19
256.124	93.19
256.357	96.19
256.59	100.19
256.823	90.19
257.056	83.19
257.289	90.19
257.521	89.19
257.754	76.19
257.987	95.19
258.22	104.19
258.452	101.19
258.685	92.19
258.918	84.19
259.151	90.19
259.383	92.19
259.616	104.19
259.849	95.19
260.081	111.19
260.314	103.19
260.547	86.19
260.779	83.19
261.012	90.19
261.244	92.19
261.477	107.19
261.71	100.19
261.942	80.19
262.175	95.19
262.407	80.19
262.64	99.19
262.872	73.19
263.105	82.19
263.337	83.19
263.57	97.19
263.802	85.19
264.035	96.19
264.267	87.19
264.499	97.19
264.732	90.19
264.964	94.19
265.197	83.19
265.429	97.19
265.661	114.19
265.894	106.19
266.126	108.19
266.358	103.19
266.591	88.19
266.823	100.19
267.055	83.19
267.287	96.19
267.52	89.19
267.752	99.19
267.984	113.19
268.216	91.19
268.448	116.19
268.681	99.19
268.913	102.19
269.145	101.19
269.377	97.19
269.609	88.19
269.841	117.19
270.073	93.19
270.306	95.19
270.538	98.19
270.77	94.19
271.002	100.19
271.234	104.19
271.466	96.19
271.698	100.19
271.93	106.19
272.162	95.19
272.394	104.19
272.626	97.19
272.858	98.19
273.09	93.19
273.322	92.19
273.553	100.19
273.785	97.19
274.017	93.19
274.249	123.19
274.481	112.19
274.713	113.19
274.945	95.19
275.176	98.19
275.408	98.19
275.64	90.19
275.872	100.19
276.104	107.19
276.335	92.19
276.567	99.19
276.799	98.19
277.031	87.19
277.262	94.19
277.494	107.19
277.726	104.19
277.957	90.19
278.189	102.19
278.421	95.19
278.652	104.19
278.884	115.19
279.115	108.19
279.347	92.19
279.579	114.19
279.81	103.19
280.042	96.19
280.273	98.19
280.505	118.19
280.736	95.19
280.968	109.19
281.199	103.19
281.431	94.19
281.662	107.19
281.894	110.19
282.125	112.19
282.356	118.19
282.588	95.19
282.819	88.19
283.051	109.19
283.282	96.19
283.513	96.19
283.745	109.19
283.976	119.19
284.207	99.19
284.439	95.19
284.67	118.19
284.901	115.19
285.132	110.19
285.364	111.19
285.595	107.19
285.826	108.19
286.057	118.19
286.288	117.19
286.52	118.19
286.751	106.19
286.982	114.19
287.213	112.19
287.444	127.19
287.675	124.19
287.906	99.19
288.138	118.19
288.369	104.19
288.6	115.19
288.831	114.19
289.062	104.19
289.293	119.19
289.524	101.19
289.755	123.19
289.986	88.19
290.217	111.19
290.448	110.19
290.679	122.19
290.91	133.19
291.141	117.19
291.371	104.19
291.602	113.19
291.833	112.19
292.064	98.19
292.295	109.19
292.526	103.19
292.757	104.19
292.987	108.19
293.218	105.19
293.449	115.19
293.68	102.19
293.91	122.19
294.141	121.19
294.372	106.19
294.603	123.19
294.833	101.19
295.064	112.19
295.295	123.19
295.525	111.19
295.756	111.19
295.987	118.19
296.217	104.19
296.448	119.19
296.679	115.19
296.909	109.19
297.14	120.19
297.37	122.19
297.601	112.19
297.831	108.19
298.062	110.19
298.292	117.19
298.523	122.19
298.753	102.19
298.984	114.19
299.214	113.19
299.445	102.19
299.675	123.19
299.905	117.19
300.136	122.19
300.366	121.19
300.597	104.19
300.827	110.19
301.057	114.19
301.288	126.19
301.518	129.19
301.748	100.19
301.979	152.19
302.209	125.19
302.439	121.19
302.669	119.19
302.9	108.19
303.13	108.19
303.36	122.19
303.59	117.19
303.82	123.19
304.051	119.19
304.281	124.19
304.511	125.19
304.741	115.19
304.971	121.19
305.201	127.19
305.431	112.19
305.661	115.19
305.891	103.19
306.121	121.19
306.352	120.19
306.582	113.19
306.812	108.19
307.042	125.19
307.272	124.19
307.502	123.19
307.731	121.19
307.961	117.19
308.191	94.19
308.421	125.19
308.651	109.19
308.881	124.19
309.111	123.19
309.341	109.19
309.571	120.19
309.8	122.19
310.03	112.19
310.26	100.19
310.49	131.19
310.72	107.19
310.949	98.19
311.179	114.19
311.409	108.19
311.639	127.19
311.868	133.19
312.098	136.19
312.328	124.19
312.557	118.19
312.787	111.19
313.017	109.19
313.246	130.19
313.476	117.19
313.706	125.19
313.935	127.19
314.165	128.19
314.394	116.19
314.624	128.19
314.853	124.19
315.083	126.19
315.312	123.19
315.542	118.19
315.771	108.19
316.001	103.19
316.23	136.19
316.46	104.19
316.689	127.19
316.919	130.19
317.148	145.19
317.377	131.19
317.607	120.19
317.836	113.19
318.065	115.19
318.295	119.19
318.524	118.19
318.753	123.19
318.983	123.19
319.212	135.19
319.441	112.19
319.67	129.19
319.9	118.19
320.129	118.19
320.358	115.19
320.587	116.19
320.816	110.19
321.046	114.19
321.275	132.19
321.504	111.19
321.733	121.19
321.962	117.19
322.191	131.19
322.42	130.19
322.649	109.19
322.878	117.19
323.108	129.19
323.337	147.19
323.566	120.19
323.795	124.19
324.024	129.19
324.253	118.19
324.482	125.19
324.71	121.19
324.939	131.19
325.168	121.19
325.397	128.19
325.626	131.19
325.855	118.19
326.084	135.19
326.313	132.19
326.542	109.19
326.77	127.19
326.999	127.19
327.228	138.19
327.457	112.19
327.686	128.19
327.914	124.19
328.143	134.19
328.372	127.19
328.6	123.19
328.829	135.19
329.058	112.19
329.287	119.19
329.515	116.19
329.744	133.19
329.972	126.19
330.201	133.19
330.43	119.19
330.658	122.19
330.887	127.19
331.115	128.19
331.344	139.19
331.572	142.19
331.801	115.19
332.03	150.19
332.258	129.19
332.486	135.19
332.715	135.19
332.943	150.19
333.172	142.19
333.4	144.19
333.629	146.19
333.857	144.19
334.085	143.19
334.314	142.19
334.542	147.19
334.771	128.19
334.999	147.19
335.227	124.19
335.455	123.19
335.684	158.19
335.912	154.19
336.14	122.19
336.369	138.19
336.597	129.19
336.825	133.19
337.053	125.19
337.281	146.19
337.51	124.19
337.738	128.19
337.966	122.19
338.194	126.19
338.422	126.19
338.65	130.19
338.878	136.19
339.106	123.19
339.334	135.19
339.562	128.19
339.79	119.19
340.018	114.19
340.246	121.19
340.474	143.19
340.702	125.19
340.93	131.19
341.158	128.19
341.386	126.19
341.614	131.19
341.842	139.19
342.07	127.19
342.298	128.19
342.526	127.19
342.754	100.19
342.981	118.19
343.209	126.19
343.437	161.19
343.665	125.19
343.893	157.19
344.12	163.19
344.348	135.19
344.576	137.19
344.804	110.19
345.031	127.19
345.259	114.19
345.487	142.19
345.714	119.19
345.942	109.19
346.17	126.19
346.397	123.19
346.625	117.19
346.853	101.19
347.08	110.19
347.308	131.19
347.535	124.19
347.763	134.19
347.99	134.19
348.218	128.19
348.445	111.19
348.673	118.19
348.9	107.19
349.128	132.19
349.355	131.19
349.583	124.19
349.81	125.19
350.037	129.19
350.265	123.19
350.492	128.19
350.72	120.19
350.947	117.19
351.174	130.19
351.402	119.19
351.629	128.19
351.856	135.19
352.083	127.19
352.311	120.19
352.538	132.19
352.765	128.19
352.992	130.19
353.22	136.19
353.447	114.19
353.674	131.19
353.901	127.19
354.128	121.19
354.355	120.19
354.583	131.19
354.81	138.19
355.037	126.19
355.264	115.19
355.491	126.19
355.718	122.19
355.945	147.19
356.172	126.19
356.399	126.19
356.626	129.19
356.853	130.19
357.08	123.19
357.307	119.19
357.534	122.19
357.761	119.19
357.988	115.19
358.215	140.19
358.441	125.19
358.668	115.19
358.895	122.19
359.122	115.19
359.349	125.19
359.576	126.19
359.802	116.19
360.029	117.19
360.256	115.19
360.483	117.19
360.709	119.19
360.936	146.19
361.163	118.19
361.39	123.19
361.616	116.19
361.843	119.19
362.07	117.19
362.296	134.19
362.523	133.19
362.749	123.19
362.976	123.19
363.203	125.19
363.429	110.19
363.656	125.19
363.882	123.19
364.109	123.19
364.335	130.19
364.562	133.19
364.788	112.19
365.015	122.19
365.241	130.19
365.468	136.19
365.694	130.19
365.92	127.19
366.147	126.19
366.373	140.19
366.599	135.19
366.826	132.19
367.052	123.19
367.278	140.19
367.505	134.19
367.731	147.19
367.957	123.19
368.184	126.19
368.41	129.19
368.636	130.19
368.862	131.19
369.089	124.19
369.315	119.19
369.541	141.19
369.767	140.19
369.993	135.19
370.219	123.19
370.445	125.19
370.672	136.19
370.898	137.19
371.124	146.19
371.35	124.19
371.576	128.19
371.802	131.19
372.028	141.19
372.254	131.19
372.48	139.19
372.706	128.19
372.932	130.19
373.158	147.19
373.384	150.19
373.61	142.19
373.835	156.19
374.061	138.19
374.287	131.19
374.513	136.19
374.739	149.19
374.965	122.19
375.191	140.19
375.416	158.19
375.642	162.19
375.868	146.19
376.094	155.19
376.319	142.19
376.545	134.19
376.771	134.19
376.997	133.19
377.222	126.19
377.448	126.19
377.674	135.19
377.899	138.19
378.125	128.19
378.35	136.19
378.576	135.19
378.802	139.19
379.027	145.19
379.253	144.19
379.478	129.19
379.704	134.19
379.929	140.19
380.155	162.19
380.38	135.19
380.606	118.19
380.831	140.19
381.057	163.19
381.282	123.19
381.507	138.19
381.733	146.19
381.958	144.19
382.184	141.19
382.409	140.19
382.634	130.19
382.86	127.19
383.085	136.19
383.31	137.19
383.535	140.19
383.761	144.19
383.986	151.19
384.211	161.19
384.436	162.19
384.662	156.19
384.887	147.19
385.112	143.19
385.337	134.19
385.562	150.19
385.787	156.19
386.013	152.19
386.238	159.19
386.463	148.19
386.688	164.19
386.913	157.19
387.138	148.19
387.363	156.19
387.588	159.19
387.813	156.19
388.038	157.19
388.263	147.19
388.488	150.19
388.713	168.19
388.938	155.19
389.163	168.19
389.387	156.19
389.612	128.19
389.837	156.19
390.062	160.19
390.287	166.19
390.512	159.19
390.736	134.19
390.961	158.19
391.186	160.19
391.411	179.19
391.636	164.19
391.86	169.19
392.085	161.19
392.31	182.19
392.534	165.19
392.759	167.19
392.984	181.19
393.208	174.19
393.433	166.19
393.658	162.19
393.882	160.19
394.107	169.19
394.331	164.19
394.556	156.19
394.78	171.19
395.005	167.19
395.229	158.19
395.454	171.19
395.678	182.19
395.903	178.19
396.127	175.19
396.352	169.19
396.576	146.19
396.801	160.19
397.025	161.19
397.249	161.19
397.474	176.19
397.698	178.19
397.922	175.19
398.147	179.19
398.371	159.19
398.595	189.19
398.82	179.19
399.044	197.19
399.268	188.19
399.492	213.19
399.717	236.19
399.941	223.19
400.165	198.19
400.389	194.19
400.613	198.19
400.837	191.19
401.062	165.19
401.286	179.19
401.51	174.19
401.734	173.19
401.958	181.19
402.182	177.19
402.406	186.19
402.63	186.19
402.854	175.19
403.078	184.19
403.302	183.19
403.526	199.19
403.75	194.19
403.974	179.19
404.198	199.19
404.422	198.19
404.645	194.19
404.869	207.19
405.093	199.19
405.317	180.19
405.541	200.19
405.765	189.19
405.988	208.19
406.212	192.19
406.436	197.19
406.66	194.19
406.883	185.19
407.107	213.19
407.331	222.19
407.555	220.19
407.778	196.19
408.002	207.19
408.226	197.19
408.449	194.19
408.673	191.19
408.896	198.19
409.12	196.19
409.344	206.19
409.567	206.19
409.791	203.19
410.014	208.19
410.238	203.19
410.461	196.19
410.685	199.19
410.908	204.19
411.132	197.19
411.355	187.19
411.578	186.19
411.802	188.19
412.025	179.19
412.249	183.19
412.472	184.19
412.695	193.19
412.919	187.19
413.142	201.19
413.365	193.19
413.589	187.19
413.812	188.19
414.035	191.19
414.258	199.19
414.482	192.19
414.705	189.19
414.928	197.19
415.151	199.19
415.374	183.19
415.597	190.19
415.821	192.19
416.044	183.19
416.267	180.19
416.49	177.19
416.713	186.19
416.936	197.19
417.159	192.19
417.382	184.19
417.605	190.19
417.828	183.19
418.051	186.19
418.274	204.19
418.497	196.19
418.72	197.19
418.943	202.19
419.166	202.19
419.389	214.19
419.611	221.19
419.834	189.19
420.057	203.19
420.28	198.19
420.503	174.19
420.726	190.19
420.948	175.19
421.171	184.19
421.394	181.19
421.617	212.19
421.839	195.19
422.062	200.19
422.285	197.19
422.507	182.19
422.73	187.19
422.953	178.19
423.175	197.19
423.398	193.19
423.621	194.19
423.843	187.19
424.066	192.19
424.288	186.19
424.511	193.19
424.733	203.19
424.956	190.19
425.178	194.19
425.401	188.19
425.623	187.19
425.846	180.19
426.068	190.19
426.291	186.19
426.513	198.19
426.735	193.19
426.958	183.19
427.18	173.19
427.402	199.19
427.625	171.19
427.847	174.19
428.069	180.19
428.292	178.19
428.514	177.19
428.736	184.19
428.958	164.19
429.181	189.19
429.403	188.19
429.625	183.19
429.847	181.19
430.069	186.19
430.292	185.19
430.514	177.19
430.736	175.19
430.958	189.19
431.18	179.19
431.402	174.19
431.624	164.19
431.846	162.19
432.068	157.19
432.29	175.19
432.512	171.19
432.734	163.19
432.956	188.19
433.178	188.19
433.4	187.19
433.622	192.19
433.844	175.19
434.066	189.19
434.287	169.19
434.509	172.19
434.731	182.19
434.953	177.19
435.175	180.19
435.397	198.19
435.618	158.19
435.84	165.19
436.062	155.19
436.284	181.19
436.505	178.19
436.727	177.19
436.949	177.19
437.17	183.19
437.392	178.19
437.614	155.19
437.835	174.19
438.057	183.19
438.278	175.19
438.5	178.19
438.721	162.19
438.943	180.19
439.165	181.19
439.386	169.19
439.608	182.19
439.829	190.19
440.05	185.19
440.272	176.19
440.493	159.19
440.715	182.19
440.936	193.19
441.158	209.19
441.379	197.19
441.6	205.19
441.822	202.19
442.043	202.19
442.264	178.19
442.486	206.19
442.707	189.19
442.928	199.19
443.149	178.19
443.371	182.19
443.592	181.19
443.813	186.19
444.034	189.19
444.255	212.19
444.476	206.19
444.698	214.19
444.919	226.19
445.14	410.19
445.361	291.19
445.582	202.19
445.803	183.19
446.024	192.19
446.245	204.19
446.466	198.19
446.687	174.19
446.908	195.19
447.129	188.19
447.35	177.19
447.571	178.19
447.792	176.19
448.013	205.19
448.234	190.19
448.455	192.19
448.675	166.19
448.896	154.19
449.117	182.19
449.338	166.19
449.559	179.19
449.779	162.19
450	167.19
450.221	168.19
450.442	187.19
450.662	183.19
450.883	187.19
451.104	184.19
451.324	168.19
451.545	178.19
451.766	176.19
451.986	167.19
452.207	164.19
452.428	159.19
452.648	180.19
452.869	182.19
453.089	171.19
453.31	163.19
453.53	174.19
453.751	163.19
453.971	152.19
454.192	151.19
454.412	155.19
454.633	154.19
454.853	149.19
455.073	154.19
455.294	161.19
455.514	163.19
455.734	165.19
455.955	163.19
456.175	165.19
456.395	154.19
456.616	164.19
456.836	162.19
457.056	166.19
457.276	141.19
457.497	143.19
457.717	166.19
457.937	147.19
458.157	163.19
458.377	162.19
458.598	156.19
458.818	148.19
459.038	158.19
459.258	154.19
459.478	158.19
459.698	173.19
459.918	158.19
460.138	174.19
460.358	184.19
460.578	197.19
460.798	200.19
461.018	198.19
461.238	180.19
461.458	198.19
461.678	180.19
461.898	156.19
462.118	202.19
462.338	189.19
462.558	205.19
462.777	203.19
462.997	223.19
463.217	219.19
463.437	235.19
463.657	206.19
463.876	204.19
464.096	190.19
464.316	199.19
464.536	207.19
464.755	224.19
464.975	200.19
465.195	190.19
465.414	200.19
465.634	191.19
465.854	174.19
466.073	169.19
466.293	167.19
466.512	167.19
466.732	190.19
466.951	181.19
467.171	167.19
467.391	163.19
467.61	172.19
467.829	172.19
468.049	165.19
468.268	171.19
468.488	177.19
468.707	166.19
468.927	174.19
469.146	176.19
469.365	179.19
469.585	182.19
469.804	179.19
470.023	189.19
470.243	186.19
470.462	209.19
470.681	195.19
470.901	199.19
471.12	185.19
471.339	177.19
471.558	183.19
471.777	185.19
471.997	171.19
472.216	154.19
472.435	165.19
472.654	155.19
472.873	163.19
473.092	162.19
473.311	184.19
473.53	176.19
473.749	168.19
473.968	192.19
474.187	168.19
474.406	190.19
474.625	172.19
474.844	186.19
475.063	172.19
475.282	164.19
475.501	165.19
475.72	184.19
475.939	175.19
476.158	172.19
476.377	189.19
476.596	159.19
476.814	159.19
477.033	168.19
477.252	178.19
477.471	174.19
477.69	193.19
477.908	183.19
478.127	208.19
478.346	199.19
478.564	199.19
478.783	206.19
479.002	203.19
479.22	196.19
479.439	188.19
479.658	178.19
479.876	179.19
480.095	192.19
480.313	214.19
480.532	189.19
480.751	195.19
480.969	181.19
481.188	182.19
481.406	155.19
481.624	182.19
481.843	171.19
482.061	178.19
482.28	175.19
482.498	174.19
482.717	177.19
482.935	181.19
483.153	198.19
483.372	211.19
483.59	206.19
483.808	189.19
484.027	188.19
484.245	191.19
484.463	194.19
484.681	213.19
484.9	186.19
485.118	188.19
485.336	189.19
485.554	191.19
485.772	181.19
485.99	187.19
486.209	191.19
486.427	190.19
486.645	194.19
486.863	205.19
487.081	192.19
487.299	190.19
487.517	208.19
487.735	223.19
487.953	221.19
488.171	227.19
488.389	210.19
488.607	207.19
488.825	192.19
489.043	195.19
489.261	196.19
489.479	177.19
489.696	202.19
489.914	197.19
490.132	197.19
490.35	194.19
490.568	207.19
490.786	187.19
491.003	209.19
491.221	208.19
491.439	219.19
491.657	232.19
491.874	242.19
492.092	251.19
492.31	247.19
492.527	251.19
492.745	243.19
492.963	216.19
493.18	232.19
493.398	227.19
493.615	217.19
493.833	232.19
494.05	216.19
494.268	220.19
494.485	223.19
494.703	232.19
494.92	210.19
495.138	223.19
495.355	226.19
495.573	225.19
495.79	216.19
496.008	232.19
496.225	228.19
496.442	219.19
496.66	228.19
496.877	209.19
497.094	232.19
497.312	219.19
497.529	211.19
497.746	220.19
497.963	220.19
498.181	224.19
498.398	211.19
498.615	241.19
498.832	242.19
499.049	253.19
499.267	265.19
499.484	302.19
499.701	317.19
499.918	324.19
500.135	377.19
500.352	412.19
500.569	417.19
500.786	410.19
501.003	381.19
501.22	351.19
501.437	319.19
501.654	284.19
501.871	276.19
502.088	252.19
502.305	245.19
502.522	243.19
502.739	240.19
502.956	224.19
503.172	226.19
503.389	203.19
503.606	196.19
503.823	213.19
504.04	220.19
504.256	222.19
504.473	215.19
504.69	197.19
504.907	231.19
505.123	198.19
505.34	189.19
