Data from SampD_HRD10591_00074.txt Node
Date: Mon Jan 19 11:50:40 EST 2026
User: Yrep
Spectrometer: HR+D1059
Trigger mode: 0
Integration Time (sec): 3.443000E-1
Scans to average: 1
Electric dark correction enabled: true
Nonlinearity correction enabled: false
Boxcar width: 0
XAxis mode: Wavelengths
Number of Pixels in Spectrum: 2048
>>>>>Begin Spectral Data<<<<<
223.165	-29.69
223.4	-29.69
223.635	-29.69
223.869	-35.69
224.104	-24.69
224.338	-14.69
224.573	-5.69
224.808	-19.69
225.042	3.31
225.277	-6.69
225.511	7.31
225.746	12.31
225.98	8.31
226.215	10.31
226.449	31.31
226.683	33.31
226.918	7.31
227.152	23.31
227.387	33.31
227.621	36.31
227.856	51.31
228.09	38.31
228.324	59.31
228.559	53.31
228.793	52.31
229.027	66.31
229.262	60.31
229.496	57.31
229.73	83.31
229.964	72.31
230.199	72.31
230.433	79.31
230.667	85.31
230.901	68.31
231.136	80.31
231.37	75.31
231.604	79.31
231.838	84.31
232.072	90.31
232.306	89.31
232.541	68.31
232.775	88.31
233.009	87.31
233.243	89.31
233.477	100.31
233.711	80.31
233.945	105.31
234.179	86.31
234.413	97.31
234.647	88.31
234.881	90.31
235.115	84.31
235.349	72.31
235.583	67.31
235.817	85.31
236.051	80.31
236.285	72.31
236.519	89.31
236.753	83.31
236.987	81.31
237.221	80.31
237.455	87.31
237.689	96.31
237.922	84.31
238.156	77.31
238.39	89.31
238.624	81.31
238.858	99.31
239.091	85.31
239.325	86.31
239.559	87.31
239.793	67.31
240.027	84.31
240.26	81.31
240.494	79.31
240.728	73.31
240.961	73.31
241.195	88.31
241.429	89.31
241.662	67.31
241.896	91.31
242.13	75.31
242.363	88.31
242.597	79.31
242.83	89.31
243.064	86.31
243.298	72.31
243.531	83.31
243.765	72.31
243.998	85.31
244.232	98.31
244.465	79.31
244.699	80.31
244.932	77.31
245.166	97.31
245.399	82.31
245.633	83.31
245.866	76.31
246.099	106.31
246.333	88.31
246.566	89.31
246.8	86.31
247.033	85.31
247.266	89.31
247.5	83.31
247.733	83.31
247.966	98.31
248.2	96.31
248.433	104.31
248.666	92.31
248.899	92.31
249.133	81.31
249.366	89.31
249.599	95.31
249.832	88.31
250.066	96.31
250.299	89.31
250.532	90.31
250.765	104.31
250.998	103.31
251.231	88.31
251.465	89.31
251.698	80.31
251.931	76.31
252.164	111.31
252.397	87.31
252.63	91.31
252.863	82.31
253.096	91.31
253.329	93.31
253.562	78.31
253.795	93.31
254.028	96.31
254.261	98.31
254.494	96.31
254.727	87.31
254.96	86.31
255.193	96.31
255.426	90.31
255.659	104.31
255.892	117.31
256.124	89.31
256.357	92.31
256.59	84.31
256.823	91.31
257.056	95.31
257.289	103.31
257.521	108.31
257.754	108.31
257.987	94.31
258.22	103.31
258.452	94.31
258.685	113.31
258.918	90.31
259.151	92.31
259.383	95.31
259.616	83.31
259.849	95.31
260.081	104.31
260.314	105.31
260.547	101.31
260.779	105.31
261.012	100.31
261.244	100.31
261.477	108.31
261.71	100.31
261.942	109.31
262.175	97.31
262.407	92.31
262.64	108.31
262.872	91.31
263.105	105.31
263.337	101.31
263.57	95.31
263.802	88.31
264.035	102.31
264.267	98.31
264.499	104.31
264.732	102.31
264.964	87.31
265.197	83.31
265.429	95.31
265.661	106.31
265.894	108.31
266.126	111.31
266.358	101.31
266.591	92.31
266.823	100.31
267.055	88.31
267.287	107.31
267.52	91.31
267.752	112.31
267.984	103.31
268.216	95.31
268.448	115.31
268.681	111.31
268.913	95.31
269.145	116.31
269.377	103.31
269.609	92.31
269.841	106.31
270.073	106.31
270.306	107.31
270.538	91.31
270.77	104.31
271.002	103.31
271.234	108.31
271.466	104.31
271.698	86.31
271.93	81.31
272.162	99.31
272.394	111.31
272.626	107.31
272.858	116.31
273.09	114.31
273.322	96.31
273.553	106.31
273.785	121.31
274.017	105.31
274.249	118.31
274.481	98.31
274.713	106.31
274.945	108.31
275.176	100.31
275.408	113.31
275.64	117.31
275.872	119.31
276.104	107.31
276.335	100.31
276.567	112.31
276.799	104.31
277.031	101.31
277.262	91.31
277.494	110.31
277.726	102.31
277.957	108.31
278.189	103.31
278.421	124.31
278.652	104.31
278.884	104.31
279.115	115.31
279.347	134.31
279.579	105.31
279.81	114.31
280.042	108.31
280.273	119.31
280.505	91.31
280.736	118.31
280.968	114.31
281.199	100.31
281.431	101.31
281.662	121.31
281.894	115.31
282.125	112.31
282.356	114.31
282.588	112.31
282.819	108.31
283.051	123.31
283.282	119.31
283.513	110.31
283.745	108.31
283.976	117.31
284.207	115.31
284.439	107.31
284.67	109.31
284.901	106.31
285.132	115.31
285.364	121.31
285.595	111.31
285.826	102.31
286.057	107.31
286.288	116.31
286.52	115.31
286.751	117.31
286.982	127.31
287.213	109.31
287.444	121.31
287.675	107.31
287.906	124.31
288.138	124.31
288.369	115.31
288.6	117.31
288.831	115.31
289.062	137.31
289.293	116.31
289.524	127.31
289.755	120.31
289.986	104.31
290.217	120.31
290.448	114.31
290.679	120.31
290.91	129.31
291.141	131.31
291.371	124.31
291.602	124.31
291.833	108.31
292.064	104.31
292.295	126.31
292.526	108.31
292.757	128.31
292.987	130.31
293.218	114.31
293.449	125.31
293.68	109.31
293.91	119.31
294.141	127.31
294.372	118.31
294.603	114.31
294.833	119.31
295.064	129.31
295.295	117.31
295.525	114.31
295.756	129.31
295.987	110.31
296.217	111.31
296.448	122.31
296.679	119.31
296.909	111.31
297.14	119.31
297.37	124.31
297.601	124.31
297.831	118.31
298.062	125.31
298.292	123.31
298.523	122.31
298.753	106.31
298.984	112.31
299.214	121.31
299.445	116.31
299.675	128.31
299.905	133.31
300.136	128.31
300.366	124.31
300.597	119.31
300.827	117.31
301.057	110.31
301.288	125.31
301.518	135.31
301.748	130.31
301.979	163.31
302.209	118.31
302.439	122.31
302.669	109.31
302.9	120.31
303.13	129.31
303.36	144.31
303.59	131.31
303.82	103.31
304.051	124.31
304.281	132.31
304.511	144.31
304.741	129.31
304.971	118.31
305.201	129.31
305.431	135.31
305.661	129.31
305.891	130.31
306.121	119.31
306.352	117.31
306.582	114.31
306.812	122.31
307.042	131.31
307.272	126.31
307.502	134.31
307.731	122.31
307.961	128.31
308.191	112.31
308.421	122.31
308.651	119.31
308.881	117.31
309.111	120.31
309.341	127.31
309.571	110.31
309.8	119.31
310.03	116.31
310.26	110.31
310.49	129.31
310.72	128.31
310.949	126.31
311.179	118.31
311.409	130.31
311.639	119.31
311.868	133.31
312.098	134.31
312.328	120.31
312.557	128.31
312.787	117.31
313.017	135.31
313.246	119.31
313.476	126.31
313.706	125.31
313.935	134.31
314.165	124.31
314.394	110.31
314.624	131.31
314.853	125.31
315.083	120.31
315.312	118.31
315.542	124.31
315.771	123.31
316.001	108.31
316.23	124.31
316.46	119.31
316.689	118.31
316.919	126.31
317.148	128.31
317.377	120.31
317.607	120.31
317.836	119.31
318.065	141.31
318.295	134.31
318.524	115.31
318.753	132.31
318.983	138.31
319.212	137.31
319.441	132.31
319.67	114.31
319.9	129.31
320.129	135.31
320.358	130.31
320.587	115.31
320.816	122.31
321.046	116.31
321.275	129.31
321.504	124.31
321.733	128.31
321.962	136.31
322.191	119.31
322.42	148.31
322.649	125.31
322.878	142.31
323.108	132.31
323.337	134.31
323.566	134.31
323.795	120.31
324.024	141.31
324.253	121.31
324.482	121.31
324.71	140.31
324.939	134.31
325.168	117.31
325.397	127.31
325.626	139.31
325.855	138.31
326.084	131.31
326.313	133.31
326.542	125.31
326.77	142.31
326.999	140.31
327.228	127.31
327.457	129.31
327.686	131.31
327.914	130.31
328.143	131.31
328.372	124.31
328.6	130.31
328.829	137.31
329.058	132.31
329.287	151.31
329.515	130.31
329.744	152.31
329.972	130.31
330.201	135.31
330.43	119.31
330.658	124.31
330.887	119.31
331.115	133.31
331.344	137.31
331.572	135.31
331.801	147.31
332.03	159.31
332.258	142.31
332.486	134.31
332.715	144.31
332.943	128.31
333.172	169.31
333.4	153.31
333.629	164.31
333.857	155.31
334.085	149.31
334.314	137.31
334.542	147.31
334.771	143.31
334.999	145.31
335.227	147.31
335.455	135.31
335.684	148.31
335.912	145.31
336.14	146.31
336.369	139.31
336.597	144.31
336.825	138.31
337.053	148.31
337.281	153.31
337.51	143.31
337.738	145.31
337.966	157.31
338.194	140.31
338.422	145.31
338.65	139.31
338.878	146.31
339.106	137.31
339.334	155.31
339.562	136.31
339.79	143.31
340.018	123.31
340.246	144.31
340.474	148.31
340.702	131.31
340.93	140.31
341.158	149.31
341.386	127.31
341.614	121.31
341.842	131.31
342.07	139.31
342.298	132.31
342.526	130.31
342.754	142.31
342.981	143.31
343.209	130.31
343.437	162.31
343.665	141.31
343.893	155.31
344.12	155.31
344.348	154.31
344.576	147.31
344.804	143.31
345.031	138.31
345.259	121.31
345.487	145.31
345.714	125.31
345.942	133.31
346.17	134.31
346.397	135.31
346.625	129.31
346.853	124.31
347.08	139.31
347.308	127.31
347.535	148.31
347.763	134.31
347.99	136.31
348.218	131.31
348.445	108.31
348.673	123.31
348.9	129.31
349.128	143.31
349.355	136.31
349.583	139.31
349.81	134.31
350.037	147.31
350.265	134.31
350.492	142.31
350.72	118.31
350.947	134.31
351.174	130.31
351.402	134.31
351.629	120.31
351.856	136.31
352.083	122.31
352.311	121.31
352.538	120.31
352.765	132.31
352.992	145.31
353.22	136.31
353.447	116.31
353.674	141.31
353.901	129.31
354.128	137.31
354.355	121.31
354.583	137.31
354.81	134.31
355.037	127.31
355.264	148.31
355.491	132.31
355.718	133.31
355.945	137.31
356.172	120.31
356.399	136.31
356.626	138.31
356.853	135.31
357.08	124.31
357.307	137.31
357.534	111.31
357.761	130.31
357.988	144.31
358.215	137.31
358.441	137.31
358.668	143.31
358.895	121.31
359.122	123.31
359.349	137.31
359.576	145.31
359.802	150.31
360.029	130.31
360.256	152.31
360.483	122.31
360.709	133.31
360.936	149.31
361.163	137.31
361.39	127.31
361.616	115.31
361.843	138.31
362.07	140.31
362.296	117.31
362.523	113.31
362.749	123.31
362.976	124.31
363.203	135.31
363.429	130.31
363.656	132.31
363.882	147.31
364.109	150.31
364.335	145.31
364.562	119.31
364.788	123.31
365.015	139.31
365.241	134.31
365.468	137.31
365.694	144.31
365.92	107.31
366.147	125.31
366.373	121.31
366.599	126.31
366.826	133.31
367.052	129.31
367.278	139.31
367.505	125.31
367.731	164.31
367.957	135.31
368.184	148.31
368.41	132.31
368.636	138.31
368.862	140.31
369.089	147.31
369.315	120.31
369.541	129.31
369.767	141.31
369.993	134.31
370.219	137.31
370.445	119.31
370.672	129.31
370.898	119.31
371.124	153.31
371.35	130.31
371.576	148.31
371.802	149.31
372.028	137.31
372.254	127.31
372.48	170.31
372.706	143.31
372.932	136.31
373.158	118.31
373.384	145.31
373.61	146.31
373.835	158.31
374.061	140.31
374.287	143.31
374.513	147.31
374.739	129.31
374.965	132.31
375.191	147.31
375.416	156.31
375.642	156.31
375.868	140.31
376.094	153.31
376.319	140.31
376.545	167.31
376.771	127.31
376.997	147.31
377.222	143.31
377.448	149.31
377.674	125.31
377.899	134.31
378.125	152.31
378.35	133.31
378.576	139.31
378.802	129.31
379.027	144.31
379.253	159.31
379.478	129.31
379.704	136.31
379.929	126.31
380.155	135.31
380.38	137.31
380.606	125.31
380.831	138.31
381.057	152.31
381.282	152.31
381.507	156.31
381.733	147.31
381.958	134.31
382.184	147.31
382.409	139.31
382.634	147.31
382.86	162.31
383.085	148.31
383.31	152.31
383.535	156.31
383.761	158.31
383.986	163.31
384.211	147.31
384.436	169.31
384.662	159.31
384.887	136.31
385.112	146.31
385.337	174.31
385.562	164.31
385.787	147.31
386.013	170.31
386.238	148.31
386.463	146.31
386.688	180.31
386.913	152.31
387.138	152.31
387.363	160.31
387.588	164.31
387.813	173.31
388.038	161.31
388.263	169.31
388.488	168.31
388.713	153.31
388.938	146.31
389.163	163.31
389.387	154.31
389.612	163.31
389.837	159.31
390.062	173.31
390.287	163.31
390.512	149.31
390.736	158.31
390.961	155.31
391.186	151.31
391.411	168.31
391.636	169.31
391.86	180.31
392.085	179.31
392.31	158.31
392.534	172.31
392.759	177.31
392.984	181.31
393.208	150.31
393.433	154.31
393.658	164.31
393.882	175.31
394.107	173.31
394.331	187.31
394.556	173.31
394.78	184.31
395.005	160.31
395.229	173.31
395.454	175.31
395.678	175.31
395.903	174.31
396.127	180.31
396.352	174.31
396.576	181.31
396.801	154.31
397.025	167.31
397.249	181.31
397.474	199.31
397.698	183.31
397.922	178.31
398.147	174.31
398.371	193.31
398.595	172.31
398.82	184.31
399.044	187.31
399.268	221.31
399.492	237.31
399.717	253.31
399.941	239.31
400.165	223.31
400.389	194.31
400.613	195.31
400.837	193.31
401.062	208.31
401.286	181.31
401.51	193.31
401.734	173.31
401.958	191.31
402.182	195.31
402.406	189.31
402.63	196.31
402.854	198.31
403.078	199.31
403.302	193.31
403.526	205.31
403.75	207.31
403.974	204.31
404.198	198.31
404.422	225.31
404.645	197.31
404.869	200.31
405.093	191.31
405.317	205.31
405.541	196.31
405.765	196.31
405.988	191.31
406.212	210.31
406.436	187.31
406.66	212.31
406.883	216.31
407.107	224.31
407.331	193.31
407.555	232.31
407.778	238.31
408.002	215.31
408.226	199.31
408.449	211.31
408.673	196.31
408.896	193.31
409.12	201.31
409.344	209.31
409.567	205.31
409.791	221.31
410.014	188.31
410.238	195.31
410.461	225.31
410.685	207.31
410.908	188.31
411.132	201.31
411.355	189.31
411.578	209.31
411.802	196.31
412.025	186.31
412.249	201.31
412.472	194.31
412.695	188.31
412.919	189.31
413.142	196.31
413.365	198.31
413.589	203.31
413.812	197.31
414.035	195.31
414.258	184.31
414.482	214.31
414.705	207.31
414.928	196.31
415.151	213.31
415.374	191.31
415.597	210.31
415.821	186.31
416.044	185.31
416.267	204.31
416.49	191.31
416.713	183.31
416.936	192.31
417.159	202.31
417.382	195.31
417.605	192.31
417.828	197.31
418.051	187.31
418.274	216.31
418.497	208.31
418.72	210.31
418.943	212.31
419.166	190.31
419.389	217.31
419.611	227.31
419.834	209.31
420.057	200.31
420.28	203.31
420.503	208.31
420.726	193.31
420.948	190.31
421.171	191.31
421.394	186.31
421.617	207.31
421.839	215.31
422.062	208.31
422.285	204.31
422.507	203.31
422.73	199.31
422.953	208.31
423.175	187.31
423.398	199.31
423.621	202.31
423.843	213.31
424.066	207.31
424.288	213.31
424.511	215.31
424.733	188.31
424.956	215.31
425.178	213.31
425.401	218.31
425.623	202.31
425.846	198.31
426.068	181.31
426.291	199.31
426.513	183.31
426.735	201.31
426.958	170.31
427.18	184.31
427.402	190.31
427.625	175.31
427.847	179.31
428.069	189.31
428.292	168.31
428.514	175.31
428.736	185.31
428.958	178.31
429.181	188.31
429.403	184.31
429.625	177.31
429.847	183.31
430.069	172.31
430.292	180.31
430.514	189.31
430.736	171.31
430.958	188.31
431.18	186.31
431.402	190.31
431.624	186.31
431.846	179.31
432.068	177.31
432.29	177.31
432.512	184.31
432.734	185.31
432.956	188.31
433.178	197.31
433.4	192.31
433.622	190.31
433.844	191.31
434.066	184.31
434.287	185.31
434.509	166.31
434.731	175.31
434.953	182.31
435.175	192.31
435.397	204.31
435.618	181.31
435.84	176.31
436.062	180.31
436.284	183.31
436.505	195.31
436.727	174.31
436.949	179.31
437.17	197.31
437.392	178.31
437.614	180.31
437.835	179.31
438.057	178.31
438.278	167.31
438.5	178.31
438.721	183.31
438.943	186.31
439.165	200.31
439.386	192.31
439.608	184.31
439.829	202.31
440.05	191.31
440.272	181.31
440.493	167.31
440.715	183.31
440.936	184.31
441.158	197.31
441.379	225.31
441.6	203.31
441.822	219.31
442.043	209.31
442.264	202.31
442.486	193.31
442.707	202.31
442.928	195.31
443.149	184.31
443.371	215.31
443.592	196.31
443.813	204.31
444.034	200.31
444.255	192.31
444.476	221.31
444.698	221.31
444.919	228.31
445.14	482.31
445.361	328.31
445.582	217.31
445.803	194.31
446.024	216.31
446.245	219.31
446.466	224.31
446.687	206.31
446.908	215.31
447.129	200.31
447.35	199.31
447.571	188.31
447.792	175.31
448.013	179.31
448.234	183.31
448.455	184.31
448.675	185.31
448.896	189.31
449.117	189.31
449.338	181.31
449.559	179.31
449.779	198.31
450	188.31
450.221	179.31
450.442	193.31
450.662	178.31
450.883	169.31
451.104	196.31
451.324	191.31
451.545	179.31
451.766	181.31
451.986	179.31
452.207	183.31
452.428	165.31
452.648	164.31
452.869	179.31
453.089	180.31
453.31	168.31
453.53	174.31
453.751	161.31
453.971	162.31
454.192	163.31
454.412	167.31
454.633	173.31
454.853	165.31
455.073	164.31
455.294	150.31
455.514	177.31
455.734	181.31
455.955	165.31
456.175	171.31
456.395	150.31
456.616	142.31
456.836	167.31
457.056	153.31
457.276	154.31
457.497	170.31
457.717	157.31
457.937	169.31
458.157	156.31
458.377	157.31
458.598	149.31
458.818	156.31
459.038	144.31
459.258	151.31
459.478	168.31
459.698	163.31
459.918	172.31
460.138	200.31
460.358	183.31
460.578	201.31
460.798	203.31
461.018	186.31
461.238	195.31
461.458	184.31
461.678	196.31
461.898	210.31
462.118	201.31
462.338	199.31
462.558	219.31
462.777	211.31
462.997	220.31
463.217	235.31
463.437	225.31
463.657	220.31
463.876	218.31
464.096	200.31
464.316	207.31
464.536	214.31
464.755	213.31
464.975	205.31
465.195	198.31
465.414	201.31
465.634	187.31
465.854	181.31
466.073	180.31
466.293	200.31
466.512	194.31
466.732	179.31
466.951	163.31
467.171	190.31
467.391	195.31
467.61	199.31
467.829	188.31
468.049	177.31
468.268	173.31
468.488	184.31
468.707	169.31
468.927	173.31
469.146	179.31
469.365	186.31
469.585	176.31
469.804	186.31
470.023	195.31
470.243	185.31
470.462	202.31
470.681	189.31
470.901	197.31
471.12	189.31
471.339	179.31
471.558	175.31
471.777	175.31
471.997	168.31
472.216	171.31
472.435	172.31
472.654	182.31
472.873	161.31
473.092	157.31
473.311	178.31
473.53	181.31
473.749	170.31
473.968	180.31
474.187	184.31
474.406	169.31
474.625	186.31
474.844	187.31
475.063	175.31
475.282	163.31
475.501	174.31
475.72	185.31
475.939	190.31
476.158	176.31
476.377	175.31
476.596	156.31
476.814	170.31
477.033	172.31
477.252	196.31
477.471	194.31
477.69	188.31
477.908	192.31
478.127	210.31
478.346	190.31
478.564	215.31
478.783	199.31
479.002	215.31
479.22	196.31
479.439	209.31
479.658	192.31
479.876	191.31
480.095	187.31
480.313	192.31
480.532	203.31
480.751	193.31
480.969	173.31
481.188	183.31
481.406	177.31
481.624	163.31
481.843	171.31
482.061	168.31
482.28	191.31
482.498	177.31
482.717	172.31
482.935	181.31
483.153	207.31
483.372	191.31
483.59	211.31
483.808	198.31
484.027	202.31
484.245	211.31
484.463	200.31
484.681	213.31
484.9	209.31
485.118	208.31
485.336	193.31
485.554	191.31
485.772	172.31
485.99	199.31
486.209	190.31
486.427	202.31
486.645	201.31
486.863	205.31
487.081	200.31
487.299	196.31
487.517	222.31
487.735	206.31
487.953	227.31
488.171	218.31
488.389	220.31
488.607	197.31
488.825	205.31
489.043	192.31
489.261	211.31
489.479	189.31
489.696	200.31
489.914	216.31
490.132	197.31
490.35	207.31
490.568	202.31
490.786	225.31
491.003	235.31
491.221	212.31
491.439	207.31
491.657	231.31
491.874	242.31
492.092	243.31
492.31	267.31
492.527	244.31
492.745	235.31
492.963	249.31
493.18	249.31
493.398	257.31
493.615	229.31
493.833	236.31
494.05	239.31
494.268	225.31
494.485	228.31
494.703	235.31
494.92	223.31
495.138	229.31
495.355	225.31
495.573	234.31
495.79	209.31
496.008	227.31
496.225	231.31
496.442	214.31
496.66	225.31
496.877	211.31
497.094	225.31
497.312	214.31
497.529	249.31
497.746	228.31
497.963	211.31
498.181	223.31
498.398	230.31
498.615	235.31
498.832	245.31
499.049	261.31
499.267	288.31
499.484	281.31
499.701	323.31
499.918	357.31
500.135	370.31
500.352	407.31
500.569	433.31
500.786	432.31
501.003	410.31
501.22	362.31
501.437	331.31
501.654	297.31
501.871	294.31
502.088	267.31
502.305	262.31
502.522	254.31
502.739	245.31
502.956	252.31
503.172	235.31
503.389	213.31
503.606	222.31
503.823	207.31
504.04	218.31
504.256	226.31
504.473	224.31
504.69	221.31
