Data from SampD_HRD10591_00044.txt Node
Date: Mon Jan 19 11:50:30 EST 2026
User: Yrep
Spectrometer: HR+D1059
Trigger mode: 0
Integration Time (sec): 3.443000E-1
Scans to average: 1
Electric dark correction enabled: true
Nonlinearity correction enabled: false
Boxcar width: 0
XAxis mode: Wavelengths
Number of Pixels in Spectrum: 2048
>>>>>Begin Spectral Data<<<<<
223.165	-23.25
223.4	-23.25
223.635	-23.25
223.869	-22.25
224.104	-25.25
224.338	-24.25
224.573	-23.25
224.808	-12.25
225.042	3.75
225.277	-8.25
225.511	1.75
225.746	3.75
225.98	7.75
226.215	21.75
226.449	9.75
226.683	21.75
226.918	22.75
227.152	45.75
227.387	47.75
227.621	35.75
227.856	40.75
228.09	44.75
228.324	48.75
228.559	48.75
228.793	76.75
229.027	79.75
229.262	59.75
229.496	59.75
229.73	74.75
229.964	89.75
230.199	81.75
230.433	69.75
230.667	89.75
230.901	77.75
231.136	73.75
231.37	74.75
231.604	74.75
231.838	89.75
232.072	80.75
232.306	79.75
232.541	87.75
232.775	71.75
233.009	80.75
233.243	91.75
233.477	86.75
233.711	81.75
233.945	85.75
234.179	89.75
234.413	90.75
234.647	79.75
234.881	79.75
235.115	74.75
235.349	73.75
235.583	95.75
235.817	93.75
236.051	79.75
236.285	85.75
236.519	92.75
236.753	84.75
236.987	68.75
237.221	77.75
237.455	90.75
237.689	89.75
237.922	95.75
238.156	100.75
238.39	90.75
238.624	90.75
238.858	78.75
239.091	79.75
239.325	70.75
239.559	87.75
239.793	79.75
240.027	86.75
240.26	70.75
240.494	81.75
240.728	87.75
240.961	72.75
241.195	88.75
241.429	93.75
241.662	70.75
241.896	96.75
242.13	94.75
242.363	96.75
242.597	78.75
242.83	97.75
243.064	73.75
243.298	78.75
243.531	72.75
243.765	89.75
243.998	81.75
244.232	91.75
244.465	84.75
244.699	88.75
244.932	79.75
245.166	95.75
245.399	90.75
245.633	91.75
245.866	81.75
246.099	71.75
246.333	95.75
246.566	79.75
246.8	86.75
247.033	94.75
247.266	86.75
247.5	67.75
247.733	72.75
247.966	88.75
248.2	86.75
248.433	84.75
248.666	97.75
248.899	98.75
249.133	101.75
249.366	111.75
249.599	96.75
249.832	78.75
250.066	102.75
250.299	87.75
250.532	93.75
250.765	94.75
250.998	78.75
251.231	83.75
251.465	92.75
251.698	78.75
251.931	83.75
252.164	90.75
252.397	77.75
252.63	91.75
252.863	77.75
253.096	70.75
253.329	100.75
253.562	107.75
253.795	80.75
254.028	89.75
254.261	97.75
254.494	84.75
254.727	93.75
254.96	90.75
255.193	87.75
255.426	94.75
255.659	93.75
255.892	95.75
256.124	79.75
256.357	106.75
256.59	87.75
256.823	106.75
257.056	100.75
257.289	95.75
257.521	91.75
257.754	84.75
257.987	91.75
258.22	107.75
258.452	107.75
258.685	104.75
258.918	90.75
259.151	92.75
259.383	98.75
259.616	96.75
259.849	97.75
260.081	91.75
260.314	101.75
260.547	94.75
260.779	103.75
261.012	101.75
261.244	105.75
261.477	110.75
261.71	77.75
261.942	97.75
262.175	91.75
262.407	93.75
262.64	93.75
262.872	89.75
263.105	93.75
263.337	106.75
263.57	92.75
263.802	104.75
264.035	95.75
264.267	100.75
264.499	94.75
264.732	106.75
264.964	93.75
265.197	105.75
265.429	101.75
265.661	97.75
265.894	102.75
266.126	118.75
266.358	109.75
266.591	104.75
266.823	101.75
267.055	97.75
267.287	97.75
267.52	97.75
267.752	105.75
267.984	102.75
268.216	82.75
268.448	102.75
268.681	111.75
268.913	115.75
269.145	121.75
269.377	122.75
269.609	106.75
269.841	98.75
270.073	105.75
270.306	114.75
270.538	101.75
270.77	96.75
271.002	110.75
271.234	103.75
271.466	110.75
271.698	117.75
271.93	103.75
272.162	113.75
272.394	117.75
272.626	98.75
272.858	103.75
273.09	110.75
273.322	110.75
273.553	95.75
273.785	108.75
274.017	102.75
274.249	83.75
274.481	111.75
274.713	93.75
274.945	101.75
275.176	103.75
275.408	92.75
275.64	94.75
275.872	99.75
276.104	112.75
276.335	95.75
276.567	104.75
276.799	98.75
277.031	102.75
277.262	94.75
277.494	109.75
277.726	97.75
277.957	112.75
278.189	102.75
278.421	96.75
278.652	106.75
278.884	117.75
279.115	104.75
279.347	98.75
279.579	105.75
279.81	98.75
280.042	100.75
280.273	95.75
280.505	93.75
280.736	98.75
280.968	102.75
281.199	106.75
281.431	112.75
281.662	106.75
281.894	117.75
282.125	102.75
282.356	101.75
282.588	100.75
282.819	94.75
283.051	103.75
283.282	97.75
283.513	98.75
283.745	120.75
283.976	119.75
284.207	123.75
284.439	90.75
284.67	109.75
284.901	116.75
285.132	97.75
285.364	105.75
285.595	125.75
285.826	107.75
286.057	120.75
286.288	123.75
286.52	121.75
286.751	113.75
286.982	123.75
287.213	102.75
287.444	114.75
287.675	115.75
287.906	121.75
288.138	109.75
288.369	110.75
288.6	109.75
288.831	98.75
289.062	113.75
289.293	123.75
289.524	98.75
289.755	104.75
289.986	112.75
290.217	121.75
290.448	107.75
290.679	109.75
290.91	98.75
291.141	101.75
291.371	118.75
291.602	102.75
291.833	130.75
292.064	118.75
292.295	116.75
292.526	112.75
292.757	118.75
292.987	110.75
293.218	114.75
293.449	107.75
293.68	110.75
293.91	106.75
294.141	127.75
294.372	105.75
294.603	140.75
294.833	113.75
295.064	111.75
295.295	109.75
295.525	117.75
295.756	126.75
295.987	120.75
296.217	105.75
296.448	116.75
296.679	112.75
296.909	113.75
297.14	98.75
297.37	120.75
297.601	120.75
297.831	110.75
298.062	121.75
298.292	132.75
298.523	128.75
298.753	107.75
298.984	119.75
299.214	111.75
299.445	106.75
299.675	119.75
299.905	122.75
300.136	120.75
300.366	134.75
300.597	109.75
300.827	113.75
301.057	119.75
301.288	121.75
301.518	116.75
301.748	130.75
301.979	145.75
302.209	130.75
302.439	128.75
302.669	117.75
302.9	127.75
303.13	117.75
303.36	112.75
303.59	125.75
303.82	118.75
304.051	121.75
304.281	115.75
304.511	122.75
304.741	113.75
304.971	126.75
305.201	133.75
305.431	119.75
305.661	121.75
305.891	119.75
306.121	116.75
306.352	123.75
306.582	115.75
306.812	126.75
307.042	115.75
307.272	119.75
307.502	126.75
307.731	121.75
307.961	111.75
308.191	119.75
308.421	113.75
308.651	126.75
308.881	109.75
309.111	122.75
309.341	121.75
309.571	115.75
309.8	127.75
310.03	125.75
310.26	117.75
310.49	115.75
310.72	120.75
310.949	122.75
311.179	115.75
311.409	113.75
311.639	123.75
311.868	120.75
312.098	121.75
312.328	120.75
312.557	141.75
312.787	109.75
313.017	116.75
313.246	96.75
313.476	104.75
313.706	132.75
313.935	125.75
314.165	132.75
314.394	122.75
314.624	124.75
314.853	107.75
315.083	119.75
315.312	127.75
315.542	132.75
315.771	123.75
316.001	122.75
316.23	130.75
316.46	118.75
316.689	107.75
316.919	118.75
317.148	114.75
317.377	128.75
317.607	124.75
317.836	128.75
318.065	119.75
318.295	123.75
318.524	117.75
318.753	114.75
318.983	130.75
319.212	134.75
319.441	117.75
319.67	133.75
319.9	126.75
320.129	130.75
320.358	126.75
320.587	121.75
320.816	124.75
321.046	114.75
321.275	120.75
321.504	118.75
321.733	118.75
321.962	112.75
322.191	111.75
322.42	124.75
322.649	135.75
322.878	117.75
323.108	125.75
323.337	130.75
323.566	112.75
323.795	125.75
324.024	129.75
324.253	130.75
324.482	142.75
324.71	130.75
324.939	131.75
325.168	131.75
325.397	121.75
325.626	136.75
325.855	121.75
326.084	134.75
326.313	151.75
326.542	134.75
326.77	142.75
326.999	142.75
327.228	135.75
327.457	133.75
327.686	131.75
327.914	127.75
328.143	141.75
328.372	123.75
328.6	131.75
328.829	125.75
329.058	118.75
329.287	134.75
329.515	121.75
329.744	152.75
329.972	125.75
330.201	138.75
330.43	130.75
330.658	148.75
330.887	119.75
331.115	151.75
331.344	141.75
331.572	144.75
331.801	134.75
332.03	123.75
332.258	138.75
332.486	132.75
332.715	148.75
332.943	144.75
333.172	157.75
333.4	147.75
333.629	143.75
333.857	129.75
334.085	149.75
334.314	153.75
334.542	143.75
334.771	138.75
334.999	142.75
335.227	133.75
335.455	145.75
335.684	141.75
335.912	144.75
336.14	131.75
336.369	130.75
336.597	125.75
336.825	146.75
337.053	136.75
337.281	127.75
337.51	127.75
337.738	135.75
337.966	128.75
338.194	126.75
338.422	130.75
338.65	158.75
338.878	136.75
339.106	141.75
339.334	154.75
339.562	117.75
339.79	125.75
340.018	124.75
340.246	123.75
340.474	126.75
340.702	133.75
340.93	110.75
341.158	137.75
341.386	128.75
341.614	131.75
341.842	128.75
342.07	125.75
342.298	123.75
342.526	123.75
342.754	133.75
342.981	133.75
343.209	131.75
343.437	169.75
343.665	135.75
343.893	157.75
344.12	154.75
344.348	143.75
344.576	134.75
344.804	136.75
345.031	135.75
345.259	125.75
345.487	129.75
345.714	130.75
345.942	127.75
346.17	135.75
346.397	135.75
346.625	130.75
346.853	134.75
347.08	123.75
347.308	136.75
347.535	126.75
347.763	144.75
347.99	135.75
348.218	133.75
348.445	126.75
348.673	133.75
348.9	133.75
349.128	125.75
349.355	135.75
349.583	144.75
349.81	133.75
350.037	117.75
350.265	126.75
350.492	128.75
350.72	119.75
350.947	143.75
351.174	131.75
351.402	129.75
351.629	126.75
351.856	130.75
352.083	118.75
352.311	114.75
352.538	135.75
352.765	127.75
352.992	131.75
353.22	144.75
353.447	128.75
353.674	135.75
353.901	121.75
354.128	125.75
354.355	113.75
354.583	126.75
354.81	123.75
355.037	129.75
355.264	138.75
355.491	119.75
355.718	122.75
355.945	134.75
356.172	126.75
356.399	123.75
356.626	120.75
356.853	126.75
357.08	130.75
357.307	123.75
357.534	136.75
357.761	129.75
357.988	137.75
358.215	132.75
358.441	119.75
358.668	117.75
358.895	144.75
359.122	123.75
359.349	132.75
359.576	118.75
359.802	131.75
360.029	111.75
360.256	121.75
360.483	114.75
360.709	123.75
360.936	143.75
361.163	131.75
361.39	112.75
361.616	138.75
361.843	120.75
362.07	138.75
362.296	145.75
362.523	121.75
362.749	127.75
362.976	122.75
363.203	142.75
363.429	120.75
363.656	131.75
363.882	122.75
364.109	118.75
364.335	126.75
364.562	144.75
364.788	114.75
365.015	126.75
365.241	126.75
365.468	141.75
365.694	103.75
365.92	130.75
366.147	134.75
366.373	123.75
366.599	138.75
366.826	122.75
367.052	122.75
367.278	113.75
367.505	129.75
367.731	145.75
367.957	131.75
368.184	126.75
368.41	142.75
368.636	137.75
368.862	139.75
369.089	134.75
369.315	130.75
369.541	135.75
369.767	133.75
369.993	141.75
370.219	119.75
370.445	111.75
370.672	118.75
370.898	139.75
371.124	117.75
371.35	126.75
371.576	145.75
371.802	129.75
372.028	140.75
372.254	139.75
372.48	147.75
372.706	132.75
372.932	129.75
373.158	146.75
373.384	142.75
373.61	134.75
373.835	141.75
374.061	134.75
374.287	134.75
374.513	142.75
374.739	148.75
374.965	144.75
375.191	143.75
375.416	130.75
375.642	139.75
375.868	130.75
376.094	136.75
376.319	139.75
376.545	118.75
376.771	127.75
376.997	119.75
377.222	144.75
377.448	131.75
377.674	135.75
377.899	153.75
378.125	126.75
378.35	126.75
378.576	130.75
378.802	133.75
379.027	136.75
379.253	147.75
379.478	134.75
379.704	136.75
379.929	135.75
380.155	138.75
380.38	131.75
380.606	147.75
380.831	130.75
381.057	134.75
381.282	136.75
381.507	147.75
381.733	144.75
381.958	144.75
382.184	137.75
382.409	136.75
382.634	152.75
382.86	139.75
383.085	161.75
383.31	155.75
383.535	161.75
383.761	161.75
383.986	133.75
384.211	130.75
384.436	154.75
384.662	150.75
384.887	150.75
385.112	144.75
385.337	158.75
385.562	150.75
385.787	155.75
386.013	142.75
386.238	163.75
386.463	158.75
386.688	188.75
386.913	146.75
387.138	145.75
387.363	151.75
387.588	171.75
387.813	135.75
388.038	165.75
388.263	177.75
388.488	150.75
388.713	151.75
388.938	139.75
389.163	159.75
389.387	166.75
389.612	159.75
389.837	145.75
390.062	162.75
390.287	163.75
390.512	159.75
390.736	167.75
390.961	161.75
391.186	152.75
391.411	177.75
391.636	151.75
391.86	159.75
392.085	168.75
392.31	171.75
392.534	162.75
392.759	174.75
392.984	165.75
393.208	165.75
393.433	160.75
393.658	162.75
393.882	156.75
394.107	161.75
394.331	171.75
394.556	145.75
394.78	163.75
395.005	173.75
395.229	171.75
395.454	167.75
395.678	148.75
395.903	182.75
396.127	147.75
396.352	179.75
396.576	176.75
396.801	147.75
397.025	146.75
397.249	165.75
397.474	178.75
397.698	169.75
397.922	186.75
398.147	157.75
398.371	180.75
398.595	179.75
398.82	171.75
399.044	187.75
399.268	201.75
399.492	237.75
399.717	232.75
399.941	229.75
400.165	210.75
400.389	197.75
400.613	193.75
400.837	202.75
401.062	192.75
401.286	168.75
401.51	183.75
401.734	178.75
401.958	185.75
402.182	188.75
402.406	195.75
402.63	176.75
402.854	203.75
403.078	192.75
403.302	201.75
403.526	187.75
403.75	182.75
403.974	210.75
404.198	194.75
404.422	186.75
404.645	203.75
404.869	206.75
405.093	189.75
405.317	212.75
405.541	183.75
405.765	201.75
405.988	190.75
406.212	180.75
406.436	195.75
406.66	201.75
406.883	197.75
407.107	208.75
407.331	219.75
407.555	219.75
407.778	222.75
408.002	191.75
408.226	211.75
408.449	192.75
408.673	185.75
408.896	218.75
409.12	185.75
409.344	209.75
409.567	181.75
409.791	209.75
410.014	200.75
410.238	184.75
410.461	199.75
410.685	194.75
410.908	193.75
411.132	191.75
411.355	187.75
411.578	195.75
411.802	184.75
412.025	190.75
412.249	182.75
412.472	180.75
412.695	198.75
412.919	185.75
413.142	173.75
413.365	170.75
413.589	171.75
413.812	191.75
414.035	184.75
414.258	178.75
414.482	186.75
414.705	171.75
414.928	199.75
415.151	199.75
415.374	184.75
415.597	199.75
415.821	169.75
416.044	179.75
416.267	181.75
416.49	208.75
416.713	189.75
416.936	197.75
417.159	181.75
417.382	185.75
417.605	192.75
417.828	193.75
418.051	182.75
418.274	191.75
418.497	187.75
418.72	193.75
418.943	196.75
419.166	192.75
419.389	211.75
419.611	194.75
419.834	191.75
420.057	197.75
420.28	205.75
420.503	199.75
420.726	181.75
420.948	190.75
421.171	194.75
421.394	177.75
421.617	198.75
421.839	195.75
422.062	198.75
422.285	191.75
422.507	192.75
422.73	196.75
422.953	182.75
423.175	193.75
423.398	206.75
423.621	198.75
423.843	219.75
424.066	193.75
424.288	211.75
424.511	202.75
424.733	207.75
424.956	193.75
425.178	192.75
425.401	208.75
425.623	196.75
425.846	175.75
426.068	174.75
426.291	188.75
426.513	175.75
426.735	197.75
426.958	192.75
427.18	181.75
427.402	189.75
427.625	169.75
427.847	182.75
428.069	183.75
428.292	183.75
428.514	185.75
428.736	180.75
428.958	186.75
429.181	177.75
429.403	163.75
429.625	178.75
429.847	173.75
430.069	175.75
430.292	176.75
430.514	177.75
430.736	162.75
430.958	167.75
431.18	183.75
431.402	183.75
431.624	158.75
431.846	156.75
432.068	176.75
432.29	173.75
432.512	178.75
432.734	189.75
432.956	191.75
433.178	189.75
433.4	200.75
433.622	185.75
433.844	191.75
434.066	188.75
434.287	168.75
434.509	157.75
434.731	178.75
434.953	191.75
435.175	200.75
435.397	181.75
435.618	173.75
435.84	177.75
436.062	177.75
436.284	166.75
436.505	184.75
436.727	173.75
436.949	184.75
437.17	175.75
437.392	185.75
437.614	146.75
437.835	161.75
438.057	179.75
438.278	171.75
438.5	177.75
438.721	193.75
438.943	202.75
439.165	180.75
439.386	182.75
439.608	182.75
439.829	174.75
440.05	186.75
440.272	179.75
440.493	204.75
440.715	183.75
440.936	193.75
441.158	207.75
441.379	186.75
441.6	182.75
441.822	184.75
442.043	182.75
442.264	191.75
442.486	191.75
442.707	208.75
442.928	205.75
443.149	184.75
443.371	200.75
443.592	183.75
443.813	184.75
444.034	189.75
444.255	200.75
444.476	208.75
444.698	219.75
444.919	214.75
445.14	477.75
445.361	325.75
445.582	207.75
445.803	182.75
446.024	188.75
446.245	189.75
446.466	195.75
446.687	179.75
446.908	190.75
447.129	189.75
447.35	182.75
447.571	190.75
447.792	197.75
448.013	176.75
448.234	177.75
448.455	179.75
448.675	170.75
448.896	181.75
449.117	172.75
449.338	169.75
449.559	175.75
449.779	170.75
450	175.75
450.221	173.75
450.442	197.75
450.662	167.75
450.883	168.75
451.104	182.75
451.324	177.75
451.545	183.75
451.766	172.75
451.986	170.75
452.207	177.75
452.428	172.75
452.648	162.75
452.869	165.75
453.089	163.75
453.31	163.75
453.53	165.75
453.751	146.75
453.971	155.75
454.192	168.75
454.412	178.75
454.633	156.75
454.853	179.75
455.073	165.75
455.294	170.75
455.514	182.75
455.734	163.75
455.955	145.75
456.175	162.75
456.395	162.75
456.616	154.75
456.836	166.75
457.056	164.75
457.276	133.75
457.497	151.75
457.717	161.75
457.937	157.75
458.157	159.75
458.377	144.75
458.598	149.75
458.818	144.75
459.038	138.75
459.258	154.75
459.478	167.75
459.698	157.75
459.918	192.75
460.138	166.75
460.358	190.75
460.578	192.75
460.798	189.75
461.018	195.75
461.238	188.75
461.458	199.75
461.678	192.75
461.898	186.75
462.118	203.75
462.338	197.75
462.558	190.75
462.777	199.75
462.997	219.75
463.217	224.75
463.437	213.75
463.657	199.75
463.876	197.75
464.096	203.75
464.316	218.75
464.536	212.75
464.755	200.75
464.975	190.75
465.195	195.75
465.414	175.75
465.634	189.75
465.854	150.75
466.073	174.75
466.293	181.75
466.512	181.75
466.732	159.75
466.951	157.75
467.171	181.75
467.391	177.75
467.61	178.75
467.829	161.75
468.049	160.75
468.268	178.75
468.488	189.75
468.707	187.75
468.927	170.75
469.146	175.75
469.365	187.75
469.585	179.75
469.804	186.75
470.023	177.75
470.243	179.75
470.462	179.75
470.681	169.75
470.901	173.75
471.12	169.75
471.339	183.75
471.558	183.75
471.777	175.75
471.997	179.75
472.216	197.75
472.435	165.75
472.654	163.75
472.873	167.75
473.092	168.75
473.311	173.75
473.53	167.75
473.749	174.75
473.968	176.75
474.187	177.75
474.406	182.75
474.625	191.75
474.844	185.75
475.063	178.75
475.282	166.75
475.501	189.75
475.72	179.75
475.939	172.75
476.158	180.75
476.377	182.75
476.596	178.75
476.814	170.75
477.033	150.75
477.252	170.75
477.471	176.75
477.69	199.75
477.908	192.75
478.127	197.75
478.346	199.75
478.564	187.75
478.783	186.75
479.002	191.75
479.22	199.75
479.439	194.75
479.658	170.75
479.876	189.75
480.095	209.75
480.313	189.75
480.532	216.75
480.751	198.75
480.969	188.75
481.188	168.75
481.406	161.75
481.624	174.75
481.843	155.75
482.061	164.75
482.28	179.75
482.498	176.75
482.717	163.75
482.935	181.75
483.153	197.75
483.372	200.75
483.59	198.75
483.808	207.75
484.027	207.75
484.245	186.75
484.463	186.75
484.681	217.75
484.9	201.75
485.118	205.75
485.336	199.75
485.554	170.75
485.772	182.75
485.99	181.75
486.209	185.75
486.427	174.75
486.645	175.75
486.863	174.75
487.081	198.75
487.299	188.75
487.517	206.75
487.735	203.75
487.953	223.75
488.171	215.75
488.389	217.75
488.607	186.75
488.825	200.75
489.043	183.75
489.261	200.75
489.479	193.75
489.696	211.75
489.914	198.75
490.132	195.75
490.35	210.75
490.568	205.75
490.786	213.75
491.003	218.75
491.221	232.75
491.439	210.75
491.657	221.75
491.874	243.75
492.092	264.75
492.31	250.75
492.527	235.75
492.745	241.75
492.963	243.75
493.18	228.75
493.398	234.75
493.615	233.75
493.833	222.75
494.05	223.75
494.268	211.75
494.485	228.75
494.703	238.75
494.92	229.75
495.138	216.75
495.355	224.75
495.573	234.75
495.79	208.75
496.008	212.75
496.225	217.75
496.442	215.75
496.66	242.75
496.877	230.75
497.094	216.75
497.312	217.75
497.529	228.75
497.746	235.75
497.963	228.75
498.181	233.75
498.398	215.75
498.615	234.75
498.832	232.75
499.049	253.75
499.267	259.75
499.484	288.75
499.701	300.75
499.918	361.75
500.135	356.75
500.352	407.75
500.569	442.75
500.786	407.75
501.003	392.75
501.22	351.75
501.437	325.75
501.654	288.75
501.871	277.75
502.088	254.75
502.305	251.75
502.522	224.75
502.739	227.75
502.956	229.75
503.172	220.75
503.389	220.75
503.606	190.75
503.823	212.75
504.04	211.75
504.256	209.75
504.473	223.75
504.69	209.75
504.907	221.75
505.123	210.75
