Data from SampD_HRD10591_00072.txt Node
Date: Mon Jan 19 11:50:40 EST 2026
User: Yrep
Spectrometer: HR+D1059
Trigger mode: 0
Integration Time (sec): 3.443000E-1
Scans to average: 1
Electric dark correction enabled: true
Nonlinearity correction enabled: false
Boxcar width: 0
XAxis mode: Wavelengths
Number of Pixels in Spectrum: 2048
>>>>>Begin Spectral Data<<<<<
223.165	-35.62
223.4	-35.62
223.635	-35.62
223.869	-21.62
224.104	-36.62
224.338	-4.62
224.573	-10.62
224.808	-7.62
225.042	-3.62
225.277	-0.62
225.511	-5.62
225.746	10.38
225.98	1.38
226.215	0.38
226.449	42.38
226.683	19.38
226.918	23.38
227.152	29.38
227.387	43.38
227.621	48.38
227.856	39.38
228.09	48.38
228.324	55.38
228.559	52.38
228.793	61.38
229.027	69.38
229.262	45.38
229.496	81.38
229.73	76.38
229.964	79.38
230.199	79.38
230.433	79.38
230.667	73.38
230.901	76.38
231.136	76.38
231.37	67.38
231.604	93.38
231.838	84.38
232.072	74.38
232.306	73.38
232.541	93.38
232.775	98.38
233.009	101.38
233.243	100.38
233.477	85.38
233.711	83.38
233.945	84.38
234.179	67.38
234.413	83.38
234.647	84.38
234.881	77.38
235.115	81.38
235.349	85.38
235.583	85.38
235.817	89.38
236.051	80.38
236.285	86.38
236.519	84.38
236.753	84.38
236.987	87.38
237.221	84.38
237.455	90.38
237.689	92.38
237.922	91.38
238.156	77.38
238.39	85.38
238.624	84.38
238.858	75.38
239.091	76.38
239.325	69.38
239.559	80.38
239.793	94.38
240.027	94.38
240.26	82.38
240.494	81.38
240.728	83.38
240.961	74.38
241.195	87.38
241.429	73.38
241.662	84.38
241.896	91.38
242.13	72.38
242.363	87.38
242.597	75.38
242.83	80.38
243.064	72.38
243.298	89.38
243.531	81.38
243.765	74.38
243.998	91.38
244.232	95.38
244.465	87.38
244.699	80.38
244.932	97.38
245.166	83.38
245.399	96.38
245.633	79.38
245.866	84.38
246.099	85.38
246.333	74.38
246.566	81.38
246.8	89.38
247.033	82.38
247.266	91.38
247.5	88.38
247.733	92.38
247.966	102.38
248.2	83.38
248.433	87.38
248.666	91.38
248.899	84.38
249.133	81.38
249.366	98.38
249.599	108.38
249.832	79.38
250.066	89.38
250.299	85.38
250.532	63.38
250.765	81.38
250.998	81.38
251.231	98.38
251.465	97.38
251.698	87.38
251.931	83.38
252.164	93.38
252.397	84.38
252.63	85.38
252.863	91.38
253.096	87.38
253.329	95.38
253.562	91.38
253.795	99.38
254.028	80.38
254.261	76.38
254.494	79.38
254.727	65.38
254.96	89.38
255.193	84.38
255.426	77.38
255.659	84.38
255.892	87.38
256.124	99.38
256.357	90.38
256.59	83.38
256.823	89.38
257.056	86.38
257.289	83.38
257.521	81.38
257.754	87.38
257.987	84.38
258.22	97.38
258.452	87.38
258.685	91.38
258.918	89.38
259.151	75.38
259.383	76.38
259.616	97.38
259.849	99.38
260.081	90.38
260.314	74.38
260.547	94.38
260.779	98.38
261.012	108.38
261.244	85.38
261.477	104.38
261.71	87.38
261.942	92.38
262.175	96.38
262.407	89.38
262.64	82.38
262.872	80.38
263.105	80.38
263.337	114.38
263.57	79.38
263.802	95.38
264.035	100.38
264.267	95.38
264.499	90.38
264.732	80.38
264.964	90.38
265.197	96.38
265.429	100.38
265.661	105.38
265.894	96.38
266.126	87.38
266.358	92.38
266.591	101.38
266.823	100.38
267.055	100.38
267.287	97.38
267.52	83.38
267.752	93.38
267.984	100.38
268.216	87.38
268.448	108.38
268.681	97.38
268.913	103.38
269.145	83.38
269.377	102.38
269.609	97.38
269.841	104.38
270.073	101.38
270.306	103.38
270.538	82.38
270.77	90.38
271.002	105.38
271.234	88.38
271.466	97.38
271.698	73.38
271.93	93.38
272.162	90.38
272.394	90.38
272.626	90.38
272.858	72.38
273.09	92.38
273.322	104.38
273.553	96.38
273.785	83.38
274.017	98.38
274.249	109.38
274.481	94.38
274.713	95.38
274.945	98.38
275.176	87.38
275.408	91.38
275.64	79.38
275.872	95.38
276.104	89.38
276.335	102.38
276.567	75.38
276.799	86.38
277.031	98.38
277.262	92.38
277.494	108.38
277.726	91.38
277.957	85.38
278.189	114.38
278.421	97.38
278.652	92.38
278.884	93.38
279.115	105.38
279.347	104.38
279.579	79.38
279.81	91.38
280.042	100.38
280.273	118.38
280.505	100.38
280.736	102.38
280.968	96.38
281.199	100.38
281.431	93.38
281.662	100.38
281.894	98.38
282.125	98.38
282.356	87.38
282.588	88.38
282.819	89.38
283.051	95.38
283.282	75.38
283.513	103.38
283.745	98.38
283.976	108.38
284.207	97.38
284.439	102.38
284.67	105.38
284.901	108.38
285.132	103.38
285.364	106.38
285.595	101.38
285.826	101.38
286.057	93.38
286.288	95.38
286.52	89.38
286.751	92.38
286.982	74.38
287.213	97.38
287.444	97.38
287.675	104.38
287.906	95.38
288.138	95.38
288.369	115.38
288.6	89.38
288.831	98.38
289.062	110.38
289.293	85.38
289.524	92.38
289.755	96.38
289.986	91.38
290.217	103.38
290.448	102.38
290.679	104.38
290.91	113.38
291.141	120.38
291.371	108.38
291.602	97.38
291.833	107.38
292.064	88.38
292.295	87.38
292.526	97.38
292.757	101.38
292.987	99.38
293.218	98.38
293.449	91.38
293.68	100.38
293.91	96.38
294.141	108.38
294.372	101.38
294.603	89.38
294.833	97.38
295.064	105.38
295.295	104.38
295.525	96.38
295.756	103.38
295.987	108.38
296.217	108.38
296.448	108.38
296.679	100.38
296.909	92.38
297.14	100.38
297.37	107.38
297.601	111.38
297.831	105.38
298.062	99.38
298.292	112.38
298.523	103.38
298.753	88.38
298.984	105.38
299.214	91.38
299.445	98.38
299.675	104.38
299.905	117.38
300.136	109.38
300.366	95.38
300.597	99.38
300.827	112.38
301.057	113.38
301.288	99.38
301.518	108.38
301.748	95.38
301.979	136.38
302.209	104.38
302.439	93.38
302.669	93.38
302.9	104.38
303.13	108.38
303.36	95.38
303.59	115.38
303.82	110.38
304.051	107.38
304.281	98.38
304.511	107.38
304.741	95.38
304.971	105.38
305.201	101.38
305.431	93.38
305.661	107.38
305.891	87.38
306.121	114.38
306.352	83.38
306.582	88.38
306.812	93.38
307.042	101.38
307.272	103.38
307.502	105.38
307.731	108.38
307.961	91.38
308.191	111.38
308.421	105.38
308.651	98.38
308.881	98.38
309.111	106.38
309.341	91.38
309.571	97.38
309.8	100.38
310.03	99.38
310.26	113.38
310.49	100.38
310.72	101.38
310.949	90.38
311.179	99.38
311.409	104.38
311.639	115.38
311.868	102.38
312.098	94.38
312.328	100.38
312.557	96.38
312.787	104.38
313.017	111.38
313.246	93.38
313.476	102.38
313.706	101.38
313.935	95.38
314.165	111.38
314.394	105.38
314.624	94.38
314.853	97.38
315.083	104.38
315.312	91.38
315.542	103.38
315.771	98.38
316.001	97.38
316.23	105.38
316.46	108.38
316.689	96.38
316.919	106.38
317.148	100.38
317.377	105.38
317.607	111.38
317.836	95.38
318.065	113.38
318.295	100.38
318.524	97.38
318.753	95.38
318.983	100.38
319.212	106.38
319.441	107.38
319.67	107.38
319.9	118.38
320.129	99.38
320.358	97.38
320.587	100.38
320.816	104.38
321.046	96.38
321.275	116.38
321.504	115.38
321.733	108.38
321.962	104.38
322.191	91.38
322.42	98.38
322.649	114.38
322.878	105.38
323.108	105.38
323.337	111.38
323.566	90.38
323.795	94.38
324.024	111.38
324.253	86.38
324.482	103.38
324.71	104.38
324.939	118.38
325.168	109.38
325.397	110.38
325.626	95.38
325.855	99.38
326.084	101.38
326.313	114.38
326.542	111.38
326.77	107.38
326.999	107.38
327.228	109.38
327.457	99.38
327.686	93.38
327.914	106.38
328.143	107.38
328.372	105.38
328.6	94.38
328.829	91.38
329.058	106.38
329.287	91.38
329.515	114.38
329.744	100.38
329.972	96.38
330.201	102.38
330.43	99.38
330.658	105.38
330.887	105.38
331.115	110.38
331.344	102.38
331.572	108.38
331.801	106.38
332.03	123.38
332.258	109.38
332.486	106.38
332.715	99.38
332.943	97.38
333.172	119.38
333.4	113.38
333.629	123.38
333.857	131.38
334.085	122.38
334.314	110.38
334.542	105.38
334.771	106.38
334.999	115.38
335.227	114.38
335.455	127.38
335.684	115.38
335.912	109.38
336.14	106.38
336.369	120.38
336.597	104.38
336.825	97.38
337.053	96.38
337.281	113.38
337.51	106.38
337.738	109.38
337.966	102.38
338.194	103.38
338.422	99.38
338.65	102.38
338.878	100.38
339.106	108.38
339.334	106.38
339.562	113.38
339.79	108.38
340.018	114.38
340.246	101.38
340.474	99.38
340.702	123.38
340.93	119.38
341.158	115.38
341.386	115.38
341.614	102.38
341.842	109.38
342.07	109.38
342.298	96.38
342.526	106.38
342.754	111.38
342.981	115.38
343.209	116.38
343.437	147.38
343.665	110.38
343.893	116.38
344.12	132.38
344.348	102.38
344.576	121.38
344.804	116.38
345.031	102.38
345.259	107.38
345.487	97.38
345.714	106.38
345.942	105.38
346.17	103.38
346.397	111.38
346.625	101.38
346.853	101.38
347.08	109.38
347.308	112.38
347.535	101.38
347.763	103.38
347.99	108.38
348.218	109.38
348.445	109.38
348.673	94.38
348.9	92.38
349.128	126.38
349.355	93.38
349.583	110.38
349.81	105.38
350.037	102.38
350.265	105.38
350.492	101.38
350.72	99.38
350.947	102.38
351.174	100.38
351.402	118.38
351.629	111.38
351.856	103.38
352.083	118.38
352.311	101.38
352.538	99.38
352.765	88.38
352.992	136.38
353.22	122.38
353.447	98.38
353.674	96.38
353.901	119.38
354.128	113.38
354.355	102.38
354.583	107.38
354.81	107.38
355.037	109.38
355.264	112.38
355.491	97.38
355.718	110.38
355.945	105.38
356.172	96.38
356.399	110.38
356.626	108.38
356.853	101.38
357.08	101.38
357.307	109.38
357.534	95.38
357.761	97.38
357.988	122.38
358.215	109.38
358.441	104.38
358.668	109.38
358.895	105.38
359.122	109.38
359.349	105.38
359.576	117.38
359.802	117.38
360.029	94.38
360.256	104.38
360.483	94.38
360.709	96.38
360.936	106.38
361.163	105.38
361.39	104.38
361.616	91.38
361.843	104.38
362.07	103.38
362.296	112.38
362.523	101.38
362.749	112.38
362.976	85.38
363.203	115.38
363.429	107.38
363.656	113.38
363.882	104.38
364.109	101.38
364.335	105.38
364.562	102.38
364.788	96.38
365.015	108.38
365.241	103.38
365.468	113.38
365.694	106.38
365.92	109.38
366.147	108.38
366.373	90.38
366.599	103.38
366.826	95.38
367.052	111.38
367.278	100.38
367.505	118.38
367.731	114.38
367.957	112.38
368.184	115.38
368.41	123.38
368.636	114.38
368.862	117.38
369.089	115.38
369.315	105.38
369.541	104.38
369.767	104.38
369.993	109.38
370.219	102.38
370.445	122.38
370.672	102.38
370.898	113.38
371.124	103.38
371.35	99.38
371.576	110.38
371.802	96.38
372.028	107.38
372.254	107.38
372.48	100.38
372.706	105.38
372.932	100.38
373.158	105.38
373.384	107.38
373.61	128.38
373.835	115.38
374.061	112.38
374.287	124.38
374.513	113.38
374.739	101.38
374.965	114.38
375.191	111.38
375.416	112.38
375.642	109.38
375.868	127.38
376.094	131.38
376.319	110.38
376.545	105.38
376.771	97.38
376.997	105.38
377.222	105.38
377.448	104.38
377.674	99.38
377.899	107.38
378.125	107.38
378.35	107.38
378.576	103.38
378.802	89.38
379.027	108.38
379.253	104.38
379.478	122.38
379.704	109.38
379.929	104.38
380.155	104.38
380.38	114.38
380.606	110.38
380.831	106.38
381.057	121.38
381.282	123.38
381.507	119.38
381.733	93.38
381.958	114.38
382.184	96.38
382.409	115.38
382.634	123.38
382.86	105.38
383.085	105.38
383.31	111.38
383.535	112.38
383.761	119.38
383.986	123.38
384.211	119.38
384.436	122.38
384.662	122.38
384.887	115.38
385.112	107.38
385.337	111.38
385.562	126.38
385.787	120.38
386.013	121.38
386.238	110.38
386.463	119.38
386.688	143.38
386.913	92.38
387.138	118.38
387.363	112.38
387.588	119.38
387.813	125.38
388.038	114.38
388.263	124.38
388.488	129.38
388.713	118.38
388.938	103.38
389.163	101.38
389.387	113.38
389.612	106.38
389.837	119.38
390.062	122.38
390.287	108.38
390.512	116.38
390.736	117.38
390.961	116.38
391.186	112.38
391.411	113.38
391.636	124.38
391.86	111.38
392.085	135.38
392.31	128.38
392.534	122.38
392.759	129.38
392.984	117.38
393.208	126.38
393.433	140.38
393.658	130.38
393.882	130.38
394.107	121.38
394.331	113.38
394.556	103.38
394.78	116.38
395.005	116.38
395.229	143.38
395.454	139.38
395.678	120.38
395.903	112.38
396.127	135.38
396.352	134.38
396.576	130.38
396.801	107.38
397.025	131.38
397.249	120.38
397.474	132.38
397.698	138.38
397.922	138.38
398.147	121.38
398.371	122.38
398.595	118.38
398.82	129.38
399.044	132.38
399.268	139.38
399.492	148.38
399.717	159.38
399.941	158.38
400.165	144.38
400.389	140.38
400.613	139.38
400.837	144.38
401.062	133.38
401.286	132.38
401.51	131.38
401.734	127.38
401.958	145.38
402.182	139.38
402.406	121.38
402.63	138.38
402.854	143.38
403.078	147.38
403.302	132.38
403.526	135.38
403.75	135.38
403.974	144.38
404.198	139.38
404.422	138.38
404.645	131.38
404.869	140.38
405.093	154.38
405.317	141.38
405.541	144.38
405.765	155.38
405.988	139.38
406.212	151.38
406.436	135.38
406.66	143.38
406.883	140.38
407.107	140.38
407.331	147.38
407.555	155.38
407.778	163.38
408.002	145.38
408.226	140.38
408.449	135.38
408.673	152.38
408.896	133.38
409.12	145.38
409.344	147.38
409.567	128.38
409.791	141.38
410.014	135.38
410.238	132.38
410.461	156.38
410.685	132.38
410.908	127.38
411.132	148.38
411.355	129.38
411.578	135.38
411.802	135.38
412.025	127.38
412.249	129.38
412.472	127.38
412.695	130.38
412.919	134.38
413.142	124.38
413.365	131.38
413.589	138.38
413.812	129.38
414.035	130.38
414.258	136.38
414.482	124.38
414.705	129.38
414.928	137.38
415.151	137.38
415.374	149.38
415.597	140.38
415.821	141.38
416.044	131.38
416.267	124.38
416.49	145.38
416.713	128.38
416.936	137.38
417.159	133.38
417.382	122.38
417.605	135.38
417.828	140.38
418.051	115.38
418.274	147.38
418.497	143.38
418.72	136.38
418.943	147.38
419.166	140.38
419.389	146.38
419.611	136.38
419.834	139.38
420.057	143.38
420.28	125.38
420.503	129.38
420.726	121.38
420.948	140.38
421.171	137.38
421.394	138.38
421.617	123.38
421.839	147.38
422.062	144.38
422.285	129.38
422.507	131.38
422.73	132.38
422.953	124.38
423.175	137.38
423.398	125.38
423.621	136.38
423.843	151.38
424.066	147.38
424.288	126.38
424.511	132.38
424.733	141.38
424.956	133.38
425.178	155.38
425.401	131.38
425.623	134.38
425.846	130.38
426.068	135.38
426.291	143.38
426.513	146.38
426.735	123.38
426.958	130.38
427.18	139.38
427.402	133.38
427.625	115.38
427.847	104.38
428.069	114.38
428.292	127.38
428.514	132.38
428.736	124.38
428.958	143.38
429.181	124.38
429.403	124.38
429.625	127.38
429.847	145.38
430.069	128.38
430.292	122.38
430.514	134.38
430.736	122.38
430.958	138.38
431.18	137.38
431.402	138.38
431.624	135.38
431.846	117.38
432.068	135.38
432.29	113.38
432.512	129.38
432.734	123.38
432.956	132.38
433.178	154.38
433.4	158.38
433.622	143.38
433.844	141.38
434.066	132.38
434.287	139.38
434.509	131.38
434.731	129.38
434.953	136.38
435.175	144.38
435.397	132.38
435.618	111.38
435.84	124.38
436.062	131.38
436.284	123.38
436.505	129.38
436.727	133.38
436.949	130.38
437.17	137.38
437.392	133.38
437.614	114.38
437.835	105.38
438.057	122.38
438.278	129.38
438.5	128.38
438.721	119.38
438.943	140.38
439.165	137.38
439.386	144.38
439.608	136.38
439.829	154.38
440.05	139.38
440.272	115.38
440.493	141.38
440.715	138.38
440.936	147.38
441.158	152.38
441.379	147.38
441.6	132.38
441.822	144.38
442.043	145.38
442.264	145.38
442.486	146.38
442.707	135.38
442.928	134.38
443.149	136.38
443.371	150.38
443.592	134.38
443.813	132.38
444.034	128.38
444.255	135.38
444.476	147.38
444.698	157.38
444.919	144.38
445.14	401.38
445.361	288.38
445.582	147.38
445.803	128.38
446.024	145.38
446.245	145.38
446.466	136.38
446.687	145.38
446.908	135.38
447.129	136.38
447.35	138.38
447.571	143.38
447.792	133.38
448.013	151.38
448.234	135.38
448.455	123.38
448.675	135.38
448.896	135.38
449.117	123.38
449.338	123.38
449.559	140.38
449.779	133.38
450	130.38
450.221	106.38
450.442	117.38
450.662	127.38
450.883	126.38
451.104	140.38
451.324	120.38
451.545	135.38
451.766	124.38
451.986	130.38
452.207	144.38
452.428	129.38
452.648	120.38
452.869	128.38
453.089	130.38
453.31	121.38
453.53	124.38
453.751	129.38
453.971	120.38
454.192	120.38
454.412	110.38
454.633	134.38
454.853	124.38
455.073	120.38
455.294	122.38
455.514	131.38
455.734	115.38
455.955	117.38
456.175	118.38
456.395	122.38
456.616	120.38
456.836	140.38
457.056	126.38
457.276	120.38
457.497	123.38
457.717	129.38
457.937	124.38
458.157	121.38
458.377	107.38
458.598	124.38
458.818	128.38
459.038	110.38
459.258	120.38
459.478	114.38
459.698	128.38
459.918	140.38
460.138	125.38
460.358	130.38
460.578	128.38
460.798	133.38
461.018	138.38
461.238	135.38
461.458	132.38
461.678	135.38
461.898	140.38
462.118	138.38
462.338	133.38
462.558	137.38
462.777	136.38
462.997	135.38
463.217	149.38
463.437	156.38
463.657	143.38
463.876	143.38
464.096	134.38
464.316	145.38
464.536	141.38
464.755	149.38
464.975	148.38
465.195	137.38
465.414	142.38
465.634	109.38
465.854	137.38
466.073	125.38
466.293	139.38
466.512	128.38
466.732	130.38
466.951	128.38
467.171	113.38
467.391	135.38
467.61	136.38
467.829	123.38
468.049	123.38
468.268	116.38
468.488	118.38
468.707	121.38
468.927	125.38
469.146	136.38
469.365	130.38
469.585	133.38
469.804	127.38
470.023	117.38
470.243	117.38
470.462	146.38
470.681	119.38
470.901	128.38
471.12	144.38
471.339	138.38
471.558	122.38
471.777	118.38
471.997	126.38
472.216	130.38
472.435	119.38
472.654	113.38
472.873	130.38
473.092	134.38
473.311	126.38
473.53	122.38
473.749	119.38
473.968	132.38
474.187	126.38
474.406	125.38
474.625	133.38
474.844	135.38
475.063	118.38
475.282	123.38
475.501	132.38
475.72	138.38
475.939	112.38
476.158	115.38
476.377	113.38
476.596	116.38
476.814	122.38
477.033	132.38
477.252	129.38
477.471	129.38
477.69	135.38
477.908	146.38
478.127	148.38
478.346	130.38
478.564	131.38
478.783	126.38
479.002	152.38
479.22	155.38
479.439	123.38
479.658	132.38
479.876	127.38
480.095	112.38
480.313	133.38
480.532	148.38
480.751	136.38
480.969	141.38
481.188	139.38
481.406	122.38
481.624	130.38
481.843	103.38
482.061	118.38
482.28	112.38
482.498	131.38
482.717	129.38
482.935	139.38
483.153	136.38
483.372	156.38
483.59	136.38
483.808	144.38
484.027	159.38
484.245	149.38
484.463	146.38
484.681	161.38
484.9	162.38
485.118	156.38
485.336	135.38
485.554	120.38
485.772	113.38
485.99	122.38
486.209	127.38
486.427	131.38
486.645	120.38
486.863	134.38
487.081	132.38
487.299	129.38
487.517	143.38
487.735	157.38
487.953	153.38
488.171	146.38
488.389	141.38
488.607	142.38
488.825	129.38
489.043	131.38
489.261	138.38
489.479	148.38
489.696	147.38
489.914	140.38
490.132	142.38
490.35	145.38
490.568	140.38
490.786	156.38
491.003	147.38
491.221	148.38
491.439	156.38
491.657	149.38
491.874	170.38
492.092	163.38
492.31	182.38
492.527	179.38
492.745	172.38
492.963	159.38
493.18	140.38
493.398	159.38
493.615	163.38
493.833	151.38
494.05	151.38
494.268	172.38
494.485	159.38
494.703	159.38
494.92	151.38
495.138	139.38
495.355	135.38
495.573	159.38
495.79	143.38
496.008	161.38
496.225	139.38
496.442	149.38
496.66	179.38
496.877	164.38
497.094	154.38
497.312	149.38
497.529	161.38
497.746	140.38
497.963	148.38
498.181	159.38
498.398	162.38
498.615	135.38
498.832	161.38
499.049	164.38
499.267	201.38
499.484	193.38
499.701	190.38
499.918	223.38
500.135	239.38
500.352	252.38
500.569	247.38
500.786	260.38
501.003	234.38
501.22	209.38
501.437	202.38
501.654	187.38
501.871	178.38
502.088	171.38
502.305	185.38
502.522	161.38
502.739	144.38
502.956	157.38
503.172	146.38
503.389	119.38
503.606	136.38
503.823	146.38
504.04	153.38
504.256	144.38
504.473	139.38
504.69	143.38
504.907	170.38
505.123	130.38
505.34	129.38
505.557	146.38
505.773	148.38
505.99	131.38
506.207	140.38
506.423	139.38
506.64	116.38
506.856	115.38
507.073	147.38
