Data from SampD_HRD10591_00062.txt Node
Date: Mon Jan 19 11:50:36 EST 2026
User: Yrep
Spectrometer: HR+D1059
Trigger mode: 0
Integration Time (sec): 3.443000E-1
Scans to average: 1
Electric dark correction enabled: true
Nonlinearity correction enabled: false
Boxcar width: 0
XAxis mode: Wavelengths
Number of Pixels in Spectrum: 2048
>>>>>Begin Spectral Data<<<<<
223.165	-27.88
223.4	-27.88
223.635	-27.88
223.869	-23.88
224.104	-10.88
224.338	-18.88
224.573	-28.88
224.808	-8.88
225.042	-2.88
225.277	7.12
225.511	-8.88
225.746	0.12
225.98	4.12
226.215	14.12
226.449	9.12
226.683	18.12
226.918	34.12
227.152	44.12
227.387	53.12
227.621	51.12
227.856	54.12
228.09	47.12
228.324	58.12
228.559	65.12
228.793	72.12
229.027	80.12
229.262	66.12
229.496	73.12
229.73	79.12
229.964	77.12
230.199	80.12
230.433	87.12
230.667	90.12
230.901	83.12
231.136	87.12
231.37	74.12
231.604	85.12
231.838	89.12
232.072	82.12
232.306	91.12
232.541	99.12
232.775	93.12
233.009	91.12
233.243	93.12
233.477	91.12
233.711	107.12
233.945	85.12
234.179	72.12
234.413	85.12
234.647	85.12
234.881	86.12
235.115	89.12
235.349	90.12
235.583	99.12
235.817	100.12
236.051	78.12
236.285	88.12
236.519	92.12
236.753	90.12
236.987	76.12
237.221	89.12
237.455	77.12
237.689	87.12
237.922	87.12
238.156	92.12
238.39	82.12
238.624	78.12
238.858	76.12
239.091	80.12
239.325	81.12
239.559	87.12
239.793	89.12
240.027	106.12
240.26	93.12
240.494	78.12
240.728	77.12
240.961	85.12
241.195	72.12
241.429	78.12
241.662	84.12
241.896	80.12
242.13	95.12
242.363	93.12
242.597	100.12
242.83	90.12
243.064	91.12
243.298	86.12
243.531	102.12
243.765	90.12
243.998	104.12
244.232	102.12
244.465	92.12
244.699	82.12
244.932	97.12
245.166	83.12
245.399	99.12
245.633	94.12
245.866	88.12
246.099	72.12
246.333	87.12
246.566	85.12
246.8	83.12
247.033	97.12
247.266	91.12
247.5	90.12
247.733	89.12
247.966	94.12
248.2	106.12
248.433	96.12
248.666	78.12
248.899	89.12
249.133	101.12
249.366	115.12
249.599	108.12
249.832	98.12
250.066	112.12
250.299	96.12
250.532	102.12
250.765	107.12
250.998	96.12
251.231	106.12
251.465	100.12
251.698	100.12
251.931	95.12
252.164	92.12
252.397	93.12
252.63	93.12
252.863	99.12
253.096	93.12
253.329	95.12
253.562	92.12
253.795	86.12
254.028	107.12
254.261	110.12
254.494	94.12
254.727	94.12
254.96	98.12
255.193	94.12
255.426	94.12
255.659	98.12
255.892	120.12
256.124	115.12
256.357	104.12
256.59	110.12
256.823	109.12
257.056	96.12
257.289	101.12
257.521	108.12
257.754	94.12
257.987	92.12
258.22	98.12
258.452	96.12
258.685	97.12
258.918	118.12
259.151	100.12
259.383	91.12
259.616	102.12
259.849	94.12
260.081	94.12
260.314	96.12
260.547	113.12
260.779	104.12
261.012	107.12
261.244	95.12
261.477	107.12
261.71	96.12
261.942	105.12
262.175	96.12
262.407	121.12
262.64	97.12
262.872	102.12
263.105	109.12
263.337	114.12
263.57	102.12
263.802	116.12
264.035	99.12
264.267	104.12
264.499	104.12
264.732	102.12
264.964	97.12
265.197	105.12
265.429	118.12
265.661	103.12
265.894	99.12
266.126	98.12
266.358	109.12
266.591	101.12
266.823	97.12
267.055	108.12
267.287	103.12
267.52	110.12
267.752	114.12
267.984	110.12
268.216	98.12
268.448	101.12
268.681	119.12
268.913	97.12
269.145	109.12
269.377	110.12
269.609	81.12
269.841	124.12
270.073	124.12
270.306	103.12
270.538	112.12
270.77	111.12
271.002	109.12
271.234	106.12
271.466	115.12
271.698	94.12
271.93	104.12
272.162	113.12
272.394	120.12
272.626	116.12
272.858	109.12
273.09	110.12
273.322	125.12
273.553	116.12
273.785	102.12
274.017	89.12
274.249	112.12
274.481	107.12
274.713	118.12
274.945	112.12
275.176	115.12
275.408	114.12
275.64	105.12
275.872	114.12
276.104	118.12
276.335	107.12
276.567	105.12
276.799	116.12
277.031	112.12
277.262	113.12
277.494	115.12
277.726	126.12
277.957	111.12
278.189	111.12
278.421	113.12
278.652	117.12
278.884	118.12
279.115	105.12
279.347	105.12
279.579	109.12
279.81	108.12
280.042	101.12
280.273	119.12
280.505	126.12
280.736	106.12
280.968	106.12
281.199	109.12
281.431	125.12
281.662	122.12
281.894	122.12
282.125	120.12
282.356	117.12
282.588	113.12
282.819	116.12
283.051	112.12
283.282	113.12
283.513	130.12
283.745	127.12
283.976	126.12
284.207	111.12
284.439	105.12
284.67	114.12
284.901	115.12
285.132	118.12
285.364	123.12
285.595	122.12
285.826	115.12
286.057	114.12
286.288	118.12
286.52	124.12
286.751	119.12
286.982	136.12
287.213	127.12
287.444	129.12
287.675	121.12
287.906	125.12
288.138	98.12
288.369	117.12
288.6	108.12
288.831	106.12
289.062	125.12
289.293	123.12
289.524	110.12
289.755	106.12
289.986	126.12
290.217	111.12
290.448	121.12
290.679	125.12
290.91	109.12
291.141	123.12
291.371	139.12
291.602	134.12
291.833	121.12
292.064	134.12
292.295	121.12
292.526	125.12
292.757	121.12
292.987	126.12
293.218	133.12
293.449	121.12
293.68	123.12
293.91	130.12
294.141	141.12
294.372	122.12
294.603	122.12
294.833	110.12
295.064	123.12
295.295	117.12
295.525	136.12
295.756	120.12
295.987	118.12
296.217	127.12
296.448	131.12
296.679	126.12
296.909	131.12
297.14	141.12
297.37	133.12
297.601	127.12
297.831	110.12
298.062	123.12
298.292	123.12
298.523	129.12
298.753	122.12
298.984	117.12
299.214	123.12
299.445	128.12
299.675	125.12
299.905	119.12
300.136	136.12
300.366	111.12
300.597	133.12
300.827	130.12
301.057	133.12
301.288	124.12
301.518	142.12
301.748	141.12
301.979	165.12
302.209	133.12
302.439	132.12
302.669	122.12
302.9	124.12
303.13	118.12
303.36	127.12
303.59	122.12
303.82	130.12
304.051	134.12
304.281	140.12
304.511	134.12
304.741	120.12
304.971	120.12
305.201	132.12
305.431	132.12
305.661	132.12
305.891	139.12
306.121	154.12
306.352	134.12
306.582	136.12
306.812	131.12
307.042	146.12
307.272	126.12
307.502	124.12
307.731	138.12
307.961	140.12
308.191	148.12
308.421	133.12
308.651	124.12
308.881	127.12
309.111	127.12
309.341	129.12
309.571	139.12
309.8	136.12
310.03	123.12
310.26	135.12
310.49	130.12
310.72	123.12
310.949	136.12
311.179	114.12
311.409	125.12
311.639	126.12
311.868	126.12
312.098	149.12
312.328	139.12
312.557	123.12
312.787	129.12
313.017	143.12
313.246	126.12
313.476	134.12
313.706	136.12
313.935	130.12
314.165	141.12
314.394	131.12
314.624	121.12
314.853	142.12
315.083	156.12
315.312	130.12
315.542	134.12
315.771	136.12
316.001	150.12
316.23	115.12
316.46	133.12
316.689	128.12
316.919	132.12
317.148	130.12
317.377	130.12
317.607	131.12
317.836	147.12
318.065	133.12
318.295	127.12
318.524	141.12
318.753	133.12
318.983	133.12
319.212	143.12
319.441	123.12
319.67	134.12
319.9	136.12
320.129	141.12
320.358	145.12
320.587	142.12
320.816	118.12
321.046	146.12
321.275	121.12
321.504	140.12
321.733	135.12
321.962	145.12
322.191	125.12
322.42	130.12
322.649	145.12
322.878	134.12
323.108	133.12
323.337	139.12
323.566	144.12
323.795	138.12
324.024	135.12
324.253	134.12
324.482	129.12
324.71	140.12
324.939	153.12
325.168	130.12
325.397	134.12
325.626	134.12
325.855	125.12
326.084	151.12
326.313	133.12
326.542	143.12
326.77	141.12
326.999	143.12
327.228	130.12
327.457	139.12
327.686	157.12
327.914	128.12
328.143	142.12
328.372	133.12
328.6	129.12
328.829	125.12
329.058	146.12
329.287	149.12
329.515	125.12
329.744	132.12
329.972	123.12
330.201	147.12
330.43	131.12
330.658	135.12
330.887	149.12
331.115	152.12
331.344	146.12
331.572	137.12
331.801	150.12
332.03	142.12
332.258	139.12
332.486	144.12
332.715	149.12
332.943	167.12
333.172	157.12
333.4	161.12
333.629	148.12
333.857	153.12
334.085	156.12
334.314	159.12
334.542	165.12
334.771	141.12
334.999	152.12
335.227	168.12
335.455	167.12
335.684	167.12
335.912	164.12
336.14	158.12
336.369	152.12
336.597	156.12
336.825	146.12
337.053	147.12
337.281	159.12
337.51	139.12
337.738	161.12
337.966	136.12
338.194	128.12
338.422	142.12
338.65	144.12
338.878	137.12
339.106	131.12
339.334	143.12
339.562	137.12
339.79	134.12
340.018	137.12
340.246	131.12
340.474	134.12
340.702	147.12
340.93	126.12
341.158	150.12
341.386	135.12
341.614	128.12
341.842	143.12
342.07	125.12
342.298	149.12
342.526	151.12
342.754	151.12
342.981	150.12
343.209	142.12
343.437	179.12
343.665	157.12
343.893	154.12
344.12	157.12
344.348	135.12
344.576	147.12
344.804	150.12
345.031	131.12
345.259	145.12
345.487	126.12
345.714	143.12
345.942	147.12
346.17	138.12
346.397	131.12
346.625	141.12
346.853	135.12
347.08	138.12
347.308	140.12
347.535	138.12
347.763	142.12
347.99	145.12
348.218	147.12
348.445	159.12
348.673	131.12
348.9	127.12
349.128	122.12
349.355	142.12
349.583	133.12
349.81	134.12
350.037	138.12
350.265	135.12
350.492	123.12
350.72	131.12
350.947	145.12
351.174	127.12
351.402	151.12
351.629	126.12
351.856	143.12
352.083	129.12
352.311	135.12
352.538	127.12
352.765	122.12
352.992	144.12
353.22	142.12
353.447	135.12
353.674	137.12
353.901	158.12
354.128	138.12
354.355	131.12
354.583	138.12
354.81	136.12
355.037	135.12
355.264	130.12
355.491	143.12
355.718	120.12
355.945	153.12
356.172	141.12
356.399	135.12
356.626	144.12
356.853	135.12
357.08	148.12
357.307	126.12
357.534	159.12
357.761	142.12
357.988	135.12
358.215	150.12
358.441	144.12
358.668	135.12
358.895	154.12
359.122	138.12
359.349	148.12
359.576	137.12
359.802	137.12
360.029	134.12
360.256	143.12
360.483	141.12
360.709	129.12
360.936	159.12
361.163	153.12
361.39	134.12
361.616	138.12
361.843	134.12
362.07	135.12
362.296	137.12
362.523	129.12
362.749	133.12
362.976	140.12
363.203	140.12
363.429	131.12
363.656	136.12
363.882	133.12
364.109	150.12
364.335	138.12
364.562	121.12
364.788	143.12
365.015	145.12
365.241	138.12
365.468	138.12
365.694	138.12
365.92	130.12
366.147	150.12
366.373	138.12
366.599	130.12
366.826	133.12
367.052	151.12
367.278	144.12
367.505	145.12
367.731	148.12
367.957	159.12
368.184	135.12
368.41	135.12
368.636	140.12
368.862	145.12
369.089	142.12
369.315	135.12
369.541	134.12
369.767	145.12
369.993	149.12
370.219	141.12
370.445	144.12
370.672	154.12
370.898	139.12
371.124	146.12
371.35	137.12
371.576	140.12
371.802	150.12
372.028	139.12
372.254	139.12
372.48	143.12
372.706	155.12
372.932	157.12
373.158	128.12
373.384	142.12
373.61	161.12
373.835	148.12
374.061	141.12
374.287	142.12
374.513	158.12
374.739	151.12
374.965	156.12
375.191	141.12
375.416	152.12
375.642	145.12
375.868	158.12
376.094	151.12
376.319	144.12
376.545	136.12
376.771	151.12
376.997	149.12
377.222	155.12
377.448	156.12
377.674	145.12
377.899	165.12
378.125	154.12
378.35	169.12
378.576	152.12
378.802	138.12
379.027	146.12
379.253	165.12
379.478	153.12
379.704	150.12
379.929	140.12
380.155	149.12
380.38	139.12
380.606	140.12
380.831	167.12
381.057	157.12
381.282	161.12
381.507	130.12
381.733	144.12
381.958	149.12
382.184	146.12
382.409	169.12
382.634	162.12
382.86	155.12
383.085	163.12
383.31	141.12
383.535	157.12
383.761	166.12
383.986	160.12
384.211	143.12
384.436	165.12
384.662	165.12
384.887	168.12
385.112	158.12
385.337	159.12
385.562	169.12
385.787	167.12
386.013	160.12
386.238	167.12
386.463	174.12
386.688	180.12
386.913	166.12
387.138	173.12
387.363	159.12
387.588	167.12
387.813	184.12
388.038	175.12
388.263	176.12
388.488	162.12
388.713	159.12
388.938	155.12
389.163	149.12
389.387	153.12
389.612	145.12
389.837	173.12
390.062	173.12
390.287	178.12
390.512	167.12
390.736	147.12
390.961	158.12
391.186	168.12
391.411	176.12
391.636	174.12
391.86	179.12
392.085	167.12
392.31	182.12
392.534	180.12
392.759	179.12
392.984	166.12
393.208	168.12
393.433	162.12
393.658	169.12
393.882	180.12
394.107	179.12
394.331	171.12
394.556	178.12
394.78	183.12
395.005	171.12
395.229	196.12
395.454	187.12
395.678	177.12
395.903	173.12
396.127	174.12
396.352	190.12
396.576	188.12
396.801	172.12
397.025	153.12
397.249	178.12
397.474	193.12
397.698	168.12
397.922	193.12
398.147	175.12
398.371	172.12
398.595	203.12
398.82	189.12
399.044	180.12
399.268	217.12
399.492	237.12
399.717	242.12
399.941	236.12
400.165	203.12
400.389	207.12
400.613	217.12
400.837	201.12
401.062	200.12
401.286	203.12
401.51	190.12
401.734	184.12
401.958	203.12
402.182	190.12
402.406	194.12
402.63	191.12
402.854	227.12
403.078	209.12
403.302	200.12
403.526	207.12
403.75	201.12
403.974	212.12
404.198	229.12
404.422	226.12
404.645	231.12
404.869	194.12
405.093	195.12
405.317	211.12
405.541	200.12
405.765	213.12
405.988	210.12
406.212	210.12
406.436	191.12
406.66	201.12
406.883	220.12
407.107	219.12
407.331	237.12
407.555	220.12
407.778	240.12
408.002	229.12
408.226	221.12
408.449	223.12
408.673	216.12
408.896	203.12
409.12	225.12
409.344	211.12
409.567	197.12
409.791	214.12
410.014	198.12
410.238	205.12
410.461	206.12
410.685	202.12
410.908	211.12
411.132	207.12
411.355	198.12
411.578	196.12
411.802	178.12
412.025	214.12
412.249	204.12
412.472	193.12
412.695	194.12
412.919	207.12
413.142	181.12
413.365	185.12
413.589	205.12
413.812	189.12
414.035	216.12
414.258	204.12
414.482	201.12
414.705	210.12
414.928	213.12
415.151	192.12
415.374	194.12
415.597	205.12
415.821	198.12
416.044	215.12
416.267	192.12
416.49	207.12
416.713	195.12
416.936	205.12
417.159	203.12
417.382	186.12
417.605	193.12
417.828	202.12
418.051	211.12
418.274	211.12
418.497	206.12
418.72	201.12
418.943	204.12
419.166	198.12
419.389	203.12
419.611	207.12
419.834	202.12
420.057	200.12
420.28	201.12
420.503	200.12
420.726	198.12
420.948	194.12
421.171	191.12
421.394	202.12
421.617	200.12
421.839	221.12
422.062	198.12
422.285	212.12
422.507	203.12
422.73	215.12
422.953	213.12
423.175	195.12
423.398	215.12
423.621	216.12
423.843	217.12
424.066	198.12
424.288	215.12
424.511	220.12
424.733	216.12
424.956	217.12
425.178	207.12
425.401	211.12
425.623	202.12
425.846	210.12
426.068	199.12
426.291	201.12
426.513	179.12
426.735	198.12
426.958	181.12
427.18	191.12
427.402	189.12
427.625	202.12
427.847	183.12
428.069	174.12
428.292	202.12
428.514	205.12
428.736	190.12
428.958	193.12
429.181	181.12
429.403	201.12
429.625	193.12
429.847	194.12
430.069	203.12
430.292	205.12
430.514	182.12
430.736	165.12
430.958	191.12
431.18	179.12
431.402	181.12
431.624	193.12
431.846	186.12
432.068	171.12
432.29	184.12
432.512	179.12
432.734	175.12
432.956	193.12
433.178	192.12
433.4	196.12
433.622	195.12
433.844	191.12
434.066	172.12
434.287	161.12
434.509	165.12
434.731	189.12
434.953	191.12
435.175	188.12
435.397	201.12
435.618	197.12
435.84	198.12
436.062	187.12
436.284	181.12
436.505	197.12
436.727	186.12
436.949	211.12
437.17	182.12
437.392	166.12
437.614	195.12
437.835	171.12
438.057	166.12
438.278	192.12
438.5	178.12
438.721	189.12
438.943	213.12
439.165	192.12
439.386	188.12
439.608	200.12
439.829	195.12
440.05	186.12
440.272	197.12
440.493	211.12
440.715	198.12
440.936	223.12
441.158	200.12
441.379	204.12
441.6	210.12
441.822	213.12
442.043	196.12
442.264	205.12
442.486	209.12
442.707	185.12
442.928	214.12
443.149	196.12
443.371	219.12
443.592	198.12
443.813	197.12
444.034	186.12
444.255	229.12
444.476	233.12
444.698	248.12
444.919	224.12
445.14	479.12
445.361	338.12
445.582	217.12
445.803	205.12
446.024	195.12
446.245	219.12
446.466	201.12
446.687	195.12
446.908	208.12
447.129	204.12
447.35	210.12
447.571	197.12
447.792	193.12
448.013	195.12
448.234	190.12
448.455	194.12
448.675	195.12
448.896	189.12
449.117	183.12
449.338	191.12
449.559	196.12
449.779	170.12
450	183.12
450.221	176.12
450.442	177.12
450.662	175.12
450.883	186.12
451.104	187.12
451.324	190.12
451.545	197.12
451.766	186.12
451.986	181.12
452.207	191.12
452.428	173.12
452.648	194.12
452.869	174.12
453.089	172.12
453.31	172.12
453.53	165.12
453.751	160.12
453.971	177.12
454.192	163.12
454.412	169.12
454.633	168.12
454.853	179.12
455.073	165.12
455.294	169.12
455.514	171.12
455.734	189.12
455.955	149.12
456.175	177.12
456.395	165.12
456.616	170.12
456.836	172.12
457.056	168.12
457.276	179.12
457.497	172.12
457.717	155.12
457.937	173.12
458.157	159.12
458.377	166.12
458.598	166.12
458.818	162.12
459.038	169.12
459.258	165.12
459.478	181.12
459.698	182.12
459.918	186.12
460.138	199.12
460.358	201.12
460.578	207.12
460.798	205.12
461.018	206.12
461.238	203.12
461.458	193.12
461.678	213.12
461.898	207.12
462.118	200.12
462.338	216.12
462.558	204.12
462.777	214.12
462.997	245.12
463.217	258.12
463.437	249.12
463.657	217.12
463.876	210.12
464.096	224.12
464.316	204.12
464.536	203.12
464.755	221.12
464.975	210.12
465.195	198.12
465.414	208.12
465.634	183.12
465.854	182.12
466.073	210.12
466.293	193.12
466.512	183.12
466.732	198.12
466.951	194.12
467.171	210.12
467.391	206.12
467.61	180.12
467.829	191.12
468.049	187.12
468.268	171.12
468.488	185.12
468.707	173.12
468.927	198.12
469.146	203.12
469.365	182.12
469.585	186.12
469.804	185.12
470.023	197.12
470.243	187.12
470.462	194.12
470.681	192.12
470.901	187.12
471.12	211.12
471.339	207.12
471.558	198.12
471.777	189.12
471.997	178.12
472.216	171.12
472.435	166.12
472.654	162.12
472.873	182.12
473.092	171.12
473.311	182.12
473.53	179.12
473.749	186.12
473.968	199.12
474.187	171.12
474.406	157.12
474.625	193.12
474.844	174.12
475.063	173.12
475.282	185.12
475.501	191.12
475.72	209.12
475.939	177.12
476.158	176.12
476.377	184.12
476.596	162.12
476.814	177.12
477.033	183.12
477.252	177.12
477.471	186.12
477.69	199.12
477.908	223.12
478.127	234.12
478.346	221.12
478.564	202.12
478.783	210.12
479.002	208.12
479.22	207.12
479.439	214.12
479.658	193.12
479.876	189.12
480.095	200.12
480.313	195.12
480.532	222.12
480.751	201.12
480.969	181.12
481.188	189.12
481.406	183.12
481.624	162.12
481.843	170.12
482.061	182.12
482.28	189.12
482.498	179.12
482.717	182.12
482.935	194.12
483.153	195.12
483.372	204.12
483.59	218.12
483.808	205.12
484.027	202.12
484.245	213.12
484.463	225.12
484.681	206.12
484.9	221.12
485.118	215.12
485.336	196.12
485.554	189.12
485.772	189.12
485.99	194.12
486.209	180.12
486.427	202.12
486.645	201.12
486.863	209.12
487.081	212.12
487.299	201.12
487.517	226.12
487.735	217.12
487.953	240.12
488.171	231.12
488.389	218.12
488.607	203.12
488.825	203.12
489.043	209.12
489.261	203.12
489.479	206.12
489.696	203.12
489.914	215.12
490.132	213.12
490.35	208.12
490.568	214.12
490.786	221.12
491.003	233.12
491.221	226.12
491.439	234.12
491.657	233.12
491.874	255.12
492.092	248.12
492.31	273.12
492.527	247.12
492.745	244.12
492.963	244.12
493.18	246.12
493.398	239.12
493.615	240.12
493.833	237.12
494.05	249.12
494.268	231.12
494.485	231.12
494.703	224.12
494.92	226.12
495.138	215.12
495.355	223.12
495.573	234.12
495.79	224.12
496.008	237.12
496.225	225.12
496.442	237.12
496.66	252.12
496.877	225.12
497.094	230.12
497.312	238.12
497.529	239.12
497.746	224.12
497.963	230.12
498.181	233.12
498.398	213.12
498.615	234.12
498.832	242.12
499.049	274.12
499.267	279.12
499.484	283.12
499.701	322.12
499.918	367.12
500.135	398.12
500.352	391.12
500.569	429.12
500.786	416.12
501.003	386.12
501.22	346.12
501.437	329.12
501.654	293.12
501.871	280.12
502.088	270.12
502.305	275.12
502.522	246.12
502.739	235.12
502.956	234.12
503.172	231.12
503.389	240.12
503.606	220.12
503.823	233.12
504.04	222.12
504.256	230.12
504.473	237.12
