Data from SampD_HRD10591_00085.txt Node
Date: Mon Jan 19 11:50:44 EST 2026
User: Yrep
Spectrometer: HR+D1059
Trigger mode: 0
Integration Time (sec): 3.443000E-1
Scans to average: 1
Electric dark correction enabled: true
Nonlinearity correction enabled: false
Boxcar width: 0
XAxis mode: Wavelengths
Number of Pixels in Spectrum: 2048
>>>>>Begin Spectral Data<<<<<
223.165	-27.31
223.4	-27.31
223.635	-27.31
223.869	-34.31
224.104	-24.31
224.338	-9.31
224.573	-16.31
224.808	-3.31
225.042	-5.31
225.277	-15.31
225.511	-9.31
225.746	17.69
225.98	11.69
226.215	4.69
226.449	32.69
226.683	15.69
226.918	29.69
227.152	32.69
227.387	26.69
227.621	40.69
227.856	60.69
228.09	48.69
228.324	47.69
228.559	68.69
228.793	62.69
229.027	74.69
229.262	54.69
229.496	65.69
229.73	80.69
229.964	87.69
230.199	70.69
230.433	69.69
230.667	78.69
230.901	87.69
231.136	89.69
231.37	89.69
231.604	84.69
231.838	101.69
232.072	88.69
232.306	79.69
232.541	79.69
232.775	101.69
233.009	83.69
233.243	85.69
233.477	87.69
233.711	75.69
233.945	81.69
234.179	76.69
234.413	91.69
234.647	91.69
234.881	88.69
235.115	92.69
235.349	96.69
235.583	81.69
235.817	92.69
236.051	85.69
236.285	79.69
236.519	86.69
236.753	95.69
236.987	88.69
237.221	97.69
237.455	88.69
237.689	88.69
237.922	90.69
238.156	72.69
238.39	66.69
238.624	80.69
238.858	86.69
239.091	99.69
239.325	75.69
239.559	75.69
239.793	70.69
240.027	98.69
240.26	67.69
240.494	89.69
240.728	95.69
240.961	74.69
241.195	99.69
241.429	96.69
241.662	82.69
241.896	82.69
242.13	90.69
242.363	89.69
242.597	87.69
242.83	80.69
243.064	85.69
243.298	92.69
243.531	93.69
243.765	86.69
243.998	97.69
244.232	81.69
244.465	80.69
244.699	85.69
244.932	80.69
245.166	93.69
245.399	98.69
245.633	88.69
245.866	95.69
246.099	102.69
246.333	83.69
246.566	93.69
246.8	82.69
247.033	99.69
247.266	83.69
247.5	88.69
247.733	94.69
247.966	88.69
248.2	87.69
248.433	96.69
248.666	89.69
248.899	84.69
249.133	96.69
249.366	96.69
249.599	109.69
249.832	104.69
250.066	110.69
250.299	102.69
250.532	86.69
250.765	79.69
250.998	78.69
251.231	100.69
251.465	100.69
251.698	95.69
251.931	95.69
252.164	76.69
252.397	97.69
252.63	92.69
252.863	97.69
253.096	91.69
253.329	90.69
253.562	82.69
253.795	90.69
254.028	105.69
254.261	105.69
254.494	97.69
254.727	92.69
254.96	89.69
255.193	94.69
255.426	102.69
255.659	95.69
255.892	92.69
256.124	91.69
256.357	75.69
256.59	93.69
256.823	89.69
257.056	88.69
257.289	87.69
257.521	75.69
257.754	83.69
257.987	82.69
258.22	92.69
258.452	87.69
258.685	85.69
258.918	94.69
259.151	99.69
259.383	100.69
259.616	98.69
259.849	87.69
260.081	103.69
260.314	97.69
260.547	91.69
260.779	99.69
261.012	105.69
261.244	105.69
261.477	100.69
261.71	91.69
261.942	79.69
262.175	85.69
262.407	106.69
262.64	96.69
262.872	97.69
263.105	87.69
263.337	103.69
263.57	104.69
263.802	91.69
264.035	99.69
264.267	95.69
264.499	101.69
264.732	81.69
264.964	113.69
265.197	104.69
265.429	112.69
265.661	90.69
265.894	106.69
266.126	100.69
266.358	117.69
266.591	97.69
266.823	105.69
267.055	97.69
267.287	106.69
267.52	87.69
267.752	106.69
267.984	107.69
268.216	106.69
268.448	112.69
268.681	120.69
268.913	109.69
269.145	100.69
269.377	108.69
269.609	87.69
269.841	107.69
270.073	104.69
270.306	105.69
270.538	93.69
270.77	96.69
271.002	109.69
271.234	106.69
271.466	105.69
271.698	92.69
271.93	99.69
272.162	102.69
272.394	107.69
272.626	105.69
272.858	114.69
273.09	108.69
273.322	99.69
273.553	99.69
273.785	120.69
274.017	106.69
274.249	109.69
274.481	99.69
274.713	105.69
274.945	109.69
275.176	112.69
275.408	103.69
275.64	108.69
275.872	113.69
276.104	115.69
276.335	110.69
276.567	102.69
276.799	104.69
277.031	132.69
277.262	106.69
277.494	120.69
277.726	105.69
277.957	107.69
278.189	105.69
278.421	100.69
278.652	117.69
278.884	104.69
279.115	116.69
279.347	106.69
279.579	114.69
279.81	127.69
280.042	113.69
280.273	120.69
280.505	112.69
280.736	110.69
280.968	107.69
281.199	107.69
281.431	115.69
281.662	110.69
281.894	104.69
282.125	115.69
282.356	123.69
282.588	114.69
282.819	115.69
283.051	99.69
283.282	112.69
283.513	111.69
283.745	108.69
283.976	115.69
284.207	119.69
284.439	112.69
284.67	118.69
284.901	106.69
285.132	117.69
285.364	109.69
285.595	118.69
285.826	103.69
286.057	120.69
286.288	122.69
286.52	126.69
286.751	114.69
286.982	113.69
287.213	111.69
287.444	111.69
287.675	109.69
287.906	128.69
288.138	124.69
288.369	117.69
288.6	116.69
288.831	113.69
289.062	125.69
289.293	96.69
289.524	98.69
289.755	111.69
289.986	111.69
290.217	131.69
290.448	112.69
290.679	113.69
290.91	132.69
291.141	111.69
291.371	113.69
291.602	118.69
291.833	117.69
292.064	117.69
292.295	118.69
292.526	109.69
292.757	105.69
292.987	125.69
293.218	120.69
293.449	127.69
293.68	134.69
293.91	107.69
294.141	112.69
294.372	122.69
294.603	120.69
294.833	115.69
295.064	115.69
295.295	111.69
295.525	112.69
295.756	129.69
295.987	104.69
296.217	107.69
296.448	116.69
296.679	118.69
296.909	137.69
297.14	135.69
297.37	117.69
297.601	117.69
297.831	117.69
298.062	122.69
298.292	131.69
298.523	126.69
298.753	113.69
298.984	136.69
299.214	119.69
299.445	111.69
299.675	128.69
299.905	132.69
300.136	116.69
300.366	132.69
300.597	135.69
300.827	129.69
301.057	130.69
301.288	115.69
301.518	108.69
301.748	115.69
301.979	178.69
302.209	114.69
302.439	117.69
302.669	121.69
302.9	132.69
303.13	113.69
303.36	116.69
303.59	110.69
303.82	113.69
304.051	123.69
304.281	108.69
304.511	131.69
304.741	127.69
304.971	114.69
305.201	127.69
305.431	124.69
305.661	119.69
305.891	124.69
306.121	131.69
306.352	115.69
306.582	120.69
306.812	126.69
307.042	120.69
307.272	117.69
307.502	126.69
307.731	115.69
307.961	117.69
308.191	117.69
308.421	123.69
308.651	131.69
308.881	133.69
309.111	131.69
309.341	112.69
309.571	116.69
309.8	116.69
310.03	110.69
310.26	109.69
310.49	143.69
310.72	132.69
310.949	119.69
311.179	109.69
311.409	131.69
311.639	122.69
311.868	134.69
312.098	130.69
312.328	117.69
312.557	125.69
312.787	131.69
313.017	131.69
313.246	129.69
313.476	120.69
313.706	122.69
313.935	135.69
314.165	131.69
314.394	133.69
314.624	122.69
314.853	135.69
315.083	133.69
315.312	130.69
315.542	124.69
315.771	129.69
316.001	134.69
316.23	136.69
316.46	123.69
316.689	132.69
316.919	119.69
317.148	126.69
317.377	138.69
317.607	116.69
317.836	126.69
318.065	122.69
318.295	138.69
318.524	126.69
318.753	144.69
318.983	132.69
319.212	124.69
319.441	135.69
319.67	121.69
319.9	132.69
320.129	120.69
320.358	115.69
320.587	127.69
320.816	117.69
321.046	120.69
321.275	127.69
321.504	131.69
321.733	124.69
321.962	128.69
322.191	128.69
322.42	125.69
322.649	130.69
322.878	133.69
323.108	135.69
323.337	129.69
323.566	127.69
323.795	130.69
324.024	132.69
324.253	115.69
324.482	143.69
324.71	131.69
324.939	135.69
325.168	117.69
325.397	128.69
325.626	145.69
325.855	103.69
326.084	132.69
326.313	127.69
326.542	136.69
326.77	130.69
326.999	138.69
327.228	131.69
327.457	131.69
327.686	133.69
327.914	131.69
328.143	137.69
328.372	126.69
328.6	138.69
328.829	128.69
329.058	105.69
329.287	135.69
329.515	139.69
329.744	127.69
329.972	122.69
330.201	136.69
330.43	120.69
330.658	106.69
330.887	134.69
331.115	129.69
331.344	137.69
331.572	151.69
331.801	127.69
332.03	144.69
332.258	133.69
332.486	137.69
332.715	145.69
332.943	137.69
333.172	154.69
333.4	153.69
333.629	162.69
333.857	156.69
334.085	151.69
334.314	146.69
334.542	144.69
334.771	149.69
334.999	151.69
335.227	143.69
335.455	144.69
335.684	152.69
335.912	148.69
336.14	131.69
336.369	139.69
336.597	120.69
336.825	146.69
337.053	137.69
337.281	134.69
337.51	134.69
337.738	153.69
337.966	140.69
338.194	136.69
338.422	114.69
338.65	151.69
338.878	138.69
339.106	137.69
339.334	161.69
339.562	139.69
339.79	132.69
340.018	114.69
340.246	143.69
340.474	140.69
340.702	134.69
340.93	143.69
341.158	134.69
341.386	140.69
341.614	121.69
341.842	122.69
342.07	116.69
342.298	128.69
342.526	139.69
342.754	132.69
342.981	126.69
343.209	134.69
343.437	170.69
343.665	136.69
343.893	154.69
344.12	145.69
344.348	172.69
344.576	137.69
344.804	124.69
345.031	139.69
345.259	131.69
345.487	141.69
345.714	135.69
345.942	119.69
346.17	145.69
346.397	133.69
346.625	115.69
346.853	133.69
347.08	131.69
347.308	136.69
347.535	148.69
347.763	128.69
347.99	152.69
348.218	135.69
348.445	137.69
348.673	122.69
348.9	139.69
349.128	137.69
349.355	143.69
349.583	141.69
349.81	135.69
350.037	131.69
350.265	128.69
350.492	125.69
350.72	114.69
350.947	131.69
351.174	127.69
351.402	125.69
351.629	130.69
351.856	136.69
352.083	128.69
352.311	132.69
352.538	131.69
352.765	120.69
352.992	131.69
353.22	138.69
353.447	120.69
353.674	132.69
353.901	142.69
354.128	134.69
354.355	109.69
354.583	130.69
354.81	123.69
355.037	131.69
355.264	136.69
355.491	145.69
355.718	138.69
355.945	145.69
356.172	126.69
356.399	124.69
356.626	141.69
356.853	127.69
357.08	135.69
357.307	135.69
357.534	140.69
357.761	138.69
357.988	139.69
358.215	133.69
358.441	126.69
358.668	128.69
358.895	123.69
359.122	115.69
359.349	131.69
359.576	140.69
359.802	123.69
360.029	109.69
360.256	130.69
360.483	130.69
360.709	125.69
360.936	140.69
361.163	129.69
361.39	128.69
361.616	131.69
361.843	121.69
362.07	132.69
362.296	130.69
362.523	137.69
362.749	133.69
362.976	137.69
363.203	145.69
363.429	132.69
363.656	141.69
363.882	127.69
364.109	130.69
364.335	133.69
364.562	135.69
364.788	124.69
365.015	121.69
365.241	134.69
365.468	147.69
365.694	122.69
365.92	125.69
366.147	131.69
366.373	123.69
366.599	124.69
366.826	126.69
367.052	136.69
367.278	140.69
367.505	137.69
367.731	156.69
367.957	140.69
368.184	124.69
368.41	125.69
368.636	127.69
368.862	140.69
369.089	130.69
369.315	132.69
369.541	145.69
369.767	151.69
369.993	137.69
370.219	128.69
370.445	140.69
370.672	136.69
370.898	132.69
371.124	139.69
371.35	132.69
371.576	128.69
371.802	138.69
372.028	151.69
372.254	147.69
372.48	147.69
372.706	138.69
372.932	154.69
373.158	142.69
373.384	140.69
373.61	129.69
373.835	155.69
374.061	112.69
374.287	152.69
374.513	143.69
374.739	149.69
374.965	148.69
375.191	128.69
375.416	148.69
375.642	164.69
375.868	148.69
376.094	129.69
376.319	136.69
376.545	134.69
376.771	157.69
376.997	140.69
377.222	145.69
377.448	148.69
377.674	139.69
377.899	148.69
378.125	143.69
378.35	155.69
378.576	137.69
378.802	128.69
379.027	156.69
379.253	150.69
379.478	144.69
379.704	148.69
379.929	141.69
380.155	136.69
380.38	132.69
380.606	134.69
380.831	143.69
381.057	161.69
381.282	135.69
381.507	147.69
381.733	144.69
381.958	158.69
382.184	133.69
382.409	152.69
382.634	152.69
382.86	141.69
383.085	159.69
383.31	156.69
383.535	153.69
383.761	157.69
383.986	156.69
384.211	157.69
384.436	166.69
384.662	160.69
384.887	142.69
385.112	154.69
385.337	155.69
385.562	146.69
385.787	151.69
386.013	166.69
386.238	163.69
386.463	133.69
386.688	189.69
386.913	159.69
387.138	167.69
387.363	169.69
387.588	145.69
387.813	160.69
388.038	165.69
388.263	157.69
388.488	146.69
388.713	149.69
388.938	145.69
389.163	147.69
389.387	152.69
389.612	151.69
389.837	163.69
390.062	149.69
390.287	153.69
390.512	162.69
390.736	152.69
390.961	170.69
391.186	161.69
391.411	173.69
391.636	164.69
391.86	171.69
392.085	193.69
392.31	159.69
392.534	168.69
392.759	181.69
392.984	179.69
393.208	172.69
393.433	162.69
393.658	174.69
393.882	177.69
394.107	175.69
394.331	162.69
394.556	149.69
394.78	180.69
395.005	164.69
395.229	158.69
395.454	172.69
395.678	160.69
395.903	175.69
396.127	182.69
396.352	171.69
396.576	169.69
396.801	172.69
397.025	165.69
397.249	177.69
397.474	182.69
397.698	187.69
397.922	162.69
398.147	171.69
398.371	148.69
398.595	171.69
398.82	180.69
399.044	195.69
399.268	195.69
399.492	234.69
399.717	246.69
399.941	233.69
400.165	225.69
400.389	214.69
400.613	200.69
400.837	196.69
401.062	183.69
401.286	188.69
401.51	197.69
401.734	181.69
401.958	183.69
402.182	192.69
402.406	189.69
402.63	204.69
402.854	201.69
403.078	193.69
403.302	204.69
403.526	214.69
403.75	209.69
403.974	219.69
404.198	205.69
404.422	231.69
404.645	213.69
404.869	200.69
405.093	210.69
405.317	200.69
405.541	197.69
405.765	200.69
405.988	194.69
406.212	195.69
406.436	207.69
406.66	220.69
406.883	211.69
407.107	212.69
407.331	214.69
407.555	234.69
407.778	202.69
408.002	220.69
408.226	195.69
408.449	194.69
408.673	196.69
408.896	205.69
409.12	208.69
409.344	197.69
409.567	203.69
409.791	210.69
410.014	200.69
410.238	211.69
410.461	218.69
410.685	182.69
410.908	177.69
411.132	212.69
411.355	187.69
411.578	215.69
411.802	200.69
412.025	192.69
412.249	212.69
412.472	200.69
412.695	181.69
412.919	175.69
413.142	185.69
413.365	195.69
413.589	191.69
413.812	183.69
414.035	193.69
414.258	188.69
414.482	191.69
414.705	177.69
414.928	205.69
415.151	189.69
415.374	193.69
415.597	193.69
415.821	200.69
416.044	195.69
416.267	209.69
416.49	188.69
416.713	200.69
416.936	185.69
417.159	201.69
417.382	191.69
417.605	186.69
417.828	195.69
418.051	195.69
418.274	211.69
418.497	210.69
418.72	194.69
418.943	192.69
419.166	205.69
419.389	215.69
419.611	208.69
419.834	207.69
420.057	202.69
420.28	209.69
420.503	189.69
420.726	185.69
420.948	186.69
421.171	174.69
421.394	199.69
421.617	197.69
421.839	207.69
422.062	216.69
422.285	188.69
422.507	196.69
422.73	188.69
422.953	199.69
423.175	203.69
423.398	202.69
423.621	223.69
423.843	199.69
424.066	188.69
424.288	198.69
424.511	208.69
424.733	207.69
424.956	194.69
425.178	180.69
425.401	188.69
425.623	195.69
425.846	181.69
426.068	196.69
426.291	183.69
426.513	181.69
426.735	184.69
426.958	181.69
427.18	176.69
427.402	203.69
427.625	178.69
427.847	185.69
428.069	185.69
428.292	173.69
428.514	192.69
428.736	183.69
428.958	170.69
429.181	165.69
429.403	188.69
429.625	187.69
429.847	178.69
430.069	180.69
430.292	187.69
430.514	185.69
430.736	185.69
430.958	173.69
431.18	180.69
431.402	183.69
431.624	200.69
431.846	187.69
432.068	175.69
432.29	163.69
432.512	181.69
432.734	171.69
432.956	183.69
433.178	195.69
433.4	176.69
433.622	179.69
433.844	189.69
434.066	195.69
434.287	166.69
434.509	176.69
434.731	174.69
434.953	184.69
435.175	187.69
435.397	193.69
435.618	183.69
435.84	193.69
436.062	185.69
436.284	179.69
436.505	184.69
436.727	182.69
436.949	193.69
437.17	195.69
437.392	172.69
437.614	158.69
437.835	155.69
438.057	163.69
438.278	160.69
438.5	174.69
438.721	179.69
438.943	173.69
439.165	207.69
439.386	188.69
439.608	187.69
439.829	192.69
440.05	180.69
440.272	182.69
440.493	182.69
440.715	194.69
440.936	209.69
441.158	213.69
441.379	192.69
441.6	220.69
441.822	206.69
442.043	200.69
442.264	202.69
442.486	204.69
442.707	195.69
442.928	196.69
443.149	195.69
443.371	211.69
443.592	199.69
443.813	190.69
444.034	195.69
444.255	202.69
444.476	215.69
444.698	219.69
444.919	233.69
445.14	483.69
445.361	325.69
445.582	200.69
445.803	205.69
446.024	200.69
446.245	184.69
446.466	209.69
446.687	196.69
446.908	182.69
447.129	196.69
447.35	179.69
447.571	186.69
447.792	185.69
448.013	170.69
448.234	176.69
448.455	200.69
448.675	170.69
448.896	194.69
449.117	186.69
449.338	168.69
449.559	191.69
449.779	182.69
450	176.69
450.221	185.69
450.442	171.69
450.662	171.69
450.883	181.69
451.104	189.69
451.324	175.69
451.545	165.69
451.766	167.69
451.986	177.69
452.207	161.69
452.428	161.69
452.648	178.69
452.869	175.69
453.089	170.69
453.31	181.69
453.53	153.69
453.751	167.69
453.971	167.69
454.192	153.69
454.412	151.69
454.633	156.69
454.853	172.69
455.073	152.69
455.294	175.69
455.514	171.69
455.734	170.69
455.955	162.69
456.175	156.69
456.395	156.69
456.616	156.69
456.836	163.69
457.056	165.69
457.276	157.69
457.497	152.69
457.717	149.69
457.937	162.69
458.157	139.69
458.377	157.69
458.598	165.69
458.818	169.69
459.038	148.69
459.258	166.69
459.478	162.69
459.698	186.69
459.918	192.69
460.138	176.69
460.358	191.69
460.578	204.69
460.798	209.69
461.018	189.69
461.238	197.69
461.458	195.69
461.678	181.69
461.898	193.69
462.118	205.69
462.338	208.69
462.558	199.69
462.777	212.69
462.997	215.69
463.217	226.69
463.437	246.69
463.657	216.69
463.876	219.69
464.096	200.69
464.316	203.69
464.536	211.69
464.755	220.69
464.975	217.69
465.195	188.69
465.414	203.69
465.634	172.69
465.854	175.69
466.073	181.69
466.293	180.69
466.512	161.69
466.732	181.69
466.951	197.69
467.171	167.69
467.391	186.69
467.61	168.69
467.829	179.69
468.049	192.69
468.268	179.69
468.488	168.69
468.707	187.69
468.927	179.69
469.146	179.69
469.365	183.69
469.585	178.69
469.804	186.69
470.023	195.69
470.243	196.69
470.462	224.69
470.681	196.69
470.901	182.69
471.12	185.69
471.339	191.69
471.558	172.69
471.777	196.69
471.997	171.69
472.216	172.69
472.435	178.69
472.654	163.69
472.873	175.69
473.092	173.69
473.311	169.69
473.53	184.69
473.749	183.69
473.968	176.69
474.187	178.69
474.406	157.69
474.625	184.69
474.844	184.69
475.063	166.69
475.282	178.69
475.501	170.69
475.72	176.69
475.939	181.69
476.158	167.69
476.377	166.69
476.596	165.69
476.814	166.69
477.033	186.69
477.252	178.69
477.471	172.69
477.69	185.69
477.908	200.69
478.127	199.69
478.346	188.69
478.564	216.69
478.783	189.69
479.002	203.69
479.22	185.69
479.439	200.69
479.658	181.69
479.876	190.69
480.095	199.69
480.313	211.69
480.532	208.69
480.751	207.69
480.969	167.69
481.188	168.69
481.406	175.69
481.624	157.69
481.843	165.69
482.061	177.69
482.28	178.69
482.498	167.69
482.717	177.69
482.935	186.69
483.153	204.69
483.372	202.69
483.59	207.69
483.808	196.69
484.027	191.69
484.245	209.69
484.463	200.69
484.681	212.69
484.9	200.69
485.118	200.69
485.336	184.69
485.554	179.69
485.772	162.69
485.99	173.69
486.209	183.69
486.427	171.69
486.645	182.69
486.863	201.69
487.081	179.69
487.299	202.69
487.517	199.69
487.735	230.69
487.953	223.69
488.171	233.69
488.389	211.69
488.607	212.69
488.825	194.69
489.043	208.69
489.261	202.69
489.479	195.69
489.696	209.69
489.914	194.69
490.132	218.69
490.35	219.69
490.568	189.69
490.786	220.69
491.003	241.69
491.221	226.69
491.439	238.69
491.657	220.69
491.874	237.69
492.092	257.69
492.31	247.69
492.527	241.69
492.745	247.69
492.963	237.69
493.18	204.69
493.398	219.69
493.615	227.69
493.833	225.69
494.05	224.69
494.268	203.69
494.485	243.69
494.703	213.69
494.92	224.69
495.138	204.69
495.355	230.69
495.573	233.69
495.79	214.69
496.008	232.69
496.225	218.69
496.442	226.69
496.66	225.69
496.877	228.69
497.094	233.69
497.312	216.69
497.529	237.69
497.746	235.69
497.963	216.69
498.181	235.69
498.398	224.69
498.615	222.69
498.832	236.69
499.049	263.69
499.267	268.69
499.484	295.69
499.701	326.69
499.918	349.69
500.135	381.69
500.352	413.69
500.569	411.69
500.786	425.69
501.003	378.69
501.22	339.69
501.437	312.69
501.654	296.69
501.871	271.69
502.088	252.69
502.305	275.69
502.522	245.69
502.739	251.69
502.956	237.69
503.172	223.69
503.389	221.69
503.606	203.69
503.823	211.69
504.04	208.69
504.256	213.69
504.473	209.69
504.69	229.69
