Data from SampD_HRD10591_00079.txt Node
Date: Mon Jan 19 11:50:42 EST 2026
User: Yrep
Spectrometer: HR+D1059
Trigger mode: 0
Integration Time (sec): 3.443000E-1
Scans to average: 1
Electric dark correction enabled: true
Nonlinearity correction enabled: false
Boxcar width: 0
XAxis mode: Wavelengths
Number of Pixels in Spectrum: 2048
>>>>>Begin Spectral Data<<<<<
223.165	-19.12
223.4	-19.12
223.635	-19.12
223.869	-20.12
224.104	-16.12
224.338	-14.12
224.573	-19.12
224.808	-8.12
225.042	-8.12
225.277	-9.12
225.511	-19.12
225.746	14.88
225.98	12.88
226.215	19.88
226.449	10.88
226.683	24.88
226.918	22.88
227.152	26.88
227.387	31.88
227.621	27.88
227.856	32.88
228.09	30.88
228.324	45.88
228.559	70.88
228.793	51.88
229.027	52.88
229.262	54.88
229.496	66.88
229.73	57.88
229.964	75.88
230.199	70.88
230.433	75.88
230.667	73.88
230.901	74.88
231.136	81.88
231.37	74.88
231.604	78.88
231.838	71.88
232.072	83.88
232.306	92.88
232.541	83.88
232.775	90.88
233.009	78.88
233.243	92.88
233.477	71.88
233.711	62.88
233.945	76.88
234.179	78.88
234.413	97.88
234.647	67.88
234.881	86.88
235.115	68.88
235.349	72.88
235.583	78.88
235.817	82.88
236.051	95.88
236.285	80.88
236.519	94.88
236.753	74.88
236.987	86.88
237.221	74.88
237.455	79.88
237.689	83.88
237.922	63.88
238.156	83.88
238.39	79.88
238.624	82.88
238.858	73.88
239.091	84.88
239.325	82.88
239.559	92.88
239.793	85.88
240.027	89.88
240.26	83.88
240.494	85.88
240.728	87.88
240.961	74.88
241.195	86.88
241.429	79.88
241.662	70.88
241.896	84.88
242.13	85.88
242.363	70.88
242.597	77.88
242.83	71.88
243.064	81.88
243.298	86.88
243.531	81.88
243.765	89.88
243.998	89.88
244.232	82.88
244.465	87.88
244.699	73.88
244.932	69.88
245.166	73.88
245.399	86.88
245.633	73.88
245.866	72.88
246.099	80.88
246.333	90.88
246.566	83.88
246.8	72.88
247.033	76.88
247.266	63.88
247.5	87.88
247.733	80.88
247.966	83.88
248.2	89.88
248.433	88.88
248.666	73.88
248.899	84.88
249.133	78.88
249.366	89.88
249.599	74.88
249.832	81.88
250.066	72.88
250.299	90.88
250.532	86.88
250.765	83.88
250.998	86.88
251.231	69.88
251.465	88.88
251.698	88.88
251.931	102.88
252.164	72.88
252.397	78.88
252.63	85.88
252.863	87.88
253.096	100.88
253.329	85.88
253.562	79.88
253.795	84.88
254.028	88.88
254.261	86.88
254.494	88.88
254.727	89.88
254.96	80.88
255.193	92.88
255.426	88.88
255.659	85.88
255.892	100.88
256.124	82.88
256.357	88.88
256.59	90.88
256.823	70.88
257.056	92.88
257.289	81.88
257.521	92.88
257.754	79.88
257.987	80.88
258.22	89.88
258.452	87.88
258.685	91.88
258.918	88.88
259.151	87.88
259.383	91.88
259.616	87.88
259.849	84.88
260.081	93.88
260.314	73.88
260.547	94.88
260.779	78.88
261.012	87.88
261.244	90.88
261.477	99.88
261.71	84.88
261.942	76.88
262.175	86.88
262.407	92.88
262.64	89.88
262.872	84.88
263.105	86.88
263.337	93.88
263.57	95.88
263.802	96.88
264.035	92.88
264.267	90.88
264.499	87.88
264.732	79.88
264.964	94.88
265.197	85.88
265.429	96.88
265.661	106.88
265.894	89.88
266.126	102.88
266.358	94.88
266.591	89.88
266.823	80.88
267.055	88.88
267.287	87.88
267.52	90.88
267.752	87.88
267.984	99.88
268.216	98.88
268.448	92.88
268.681	92.88
268.913	92.88
269.145	97.88
269.377	94.88
269.609	92.88
269.841	91.88
270.073	90.88
270.306	94.88
270.538	97.88
270.77	82.88
271.002	85.88
271.234	94.88
271.466	94.88
271.698	109.88
271.93	94.88
272.162	78.88
272.394	102.88
272.626	90.88
272.858	80.88
273.09	88.88
273.322	95.88
273.553	74.88
273.785	96.88
274.017	87.88
274.249	86.88
274.481	83.88
274.713	92.88
274.945	83.88
275.176	84.88
275.408	104.88
275.64	90.88
275.872	94.88
276.104	99.88
276.335	90.88
276.567	91.88
276.799	95.88
277.031	94.88
277.262	80.88
277.494	106.88
277.726	92.88
277.957	95.88
278.189	106.88
278.421	97.88
278.652	104.88
278.884	102.88
279.115	94.88
279.347	99.88
279.579	89.88
279.81	89.88
280.042	96.88
280.273	95.88
280.505	106.88
280.736	94.88
280.968	94.88
281.199	95.88
281.431	107.88
281.662	98.88
281.894	108.88
282.125	97.88
282.356	87.88
282.588	87.88
282.819	90.88
283.051	90.88
283.282	83.88
283.513	104.88
283.745	93.88
283.976	99.88
284.207	103.88
284.439	92.88
284.67	104.88
284.901	97.88
285.132	86.88
285.364	95.88
285.595	86.88
285.826	105.88
286.057	107.88
286.288	82.88
286.52	86.88
286.751	94.88
286.982	100.88
287.213	89.88
287.444	100.88
287.675	102.88
287.906	91.88
288.138	102.88
288.369	94.88
288.6	80.88
288.831	82.88
289.062	103.88
289.293	98.88
289.524	90.88
289.755	100.88
289.986	105.88
290.217	111.88
290.448	95.88
290.679	90.88
290.91	107.88
291.141	94.88
291.371	98.88
291.602	93.88
291.833	96.88
292.064	95.88
292.295	92.88
292.526	98.88
292.757	91.88
292.987	101.88
293.218	102.88
293.449	90.88
293.68	108.88
293.91	94.88
294.141	114.88
294.372	113.88
294.603	98.88
294.833	102.88
295.064	98.88
295.295	98.88
295.525	103.88
295.756	105.88
295.987	111.88
296.217	99.88
296.448	98.88
296.679	115.88
296.909	120.88
297.14	95.88
297.37	94.88
297.601	105.88
297.831	95.88
298.062	122.88
298.292	108.88
298.523	115.88
298.753	94.88
298.984	100.88
299.214	102.88
299.445	113.88
299.675	105.88
299.905	97.88
300.136	104.88
300.366	107.88
300.597	98.88
300.827	106.88
301.057	93.88
301.288	98.88
301.518	103.88
301.748	105.88
301.979	142.88
302.209	91.88
302.439	94.88
302.669	94.88
302.9	110.88
303.13	106.88
303.36	91.88
303.59	113.88
303.82	100.88
304.051	90.88
304.281	108.88
304.511	106.88
304.741	100.88
304.971	97.88
305.201	101.88
305.431	97.88
305.661	108.88
305.891	101.88
306.121	99.88
306.352	100.88
306.582	99.88
306.812	100.88
307.042	101.88
307.272	100.88
307.502	103.88
307.731	93.88
307.961	103.88
308.191	101.88
308.421	115.88
308.651	91.88
308.881	105.88
309.111	104.88
309.341	102.88
309.571	116.88
309.8	105.88
310.03	95.88
310.26	91.88
310.49	93.88
310.72	100.88
310.949	101.88
311.179	87.88
311.409	101.88
311.639	106.88
311.868	96.88
312.098	109.88
312.328	98.88
312.557	96.88
312.787	108.88
313.017	108.88
313.246	101.88
313.476	112.88
313.706	94.88
313.935	97.88
314.165	101.88
314.394	118.88
314.624	104.88
314.853	109.88
315.083	106.88
315.312	103.88
315.542	109.88
315.771	106.88
316.001	91.88
316.23	95.88
316.46	82.88
316.689	101.88
316.919	107.88
317.148	105.88
317.377	94.88
317.607	95.88
317.836	99.88
318.065	104.88
318.295	99.88
318.524	110.88
318.753	95.88
318.983	120.88
319.212	114.88
319.441	98.88
319.67	98.88
319.9	106.88
320.129	116.88
320.358	94.88
320.587	110.88
320.816	111.88
321.046	92.88
321.275	107.88
321.504	97.88
321.733	122.88
321.962	99.88
322.191	116.88
322.42	99.88
322.649	99.88
322.878	103.88
323.108	121.88
323.337	115.88
323.566	95.88
323.795	110.88
324.024	114.88
324.253	113.88
324.482	105.88
324.71	105.88
324.939	103.88
325.168	110.88
325.397	100.88
325.626	96.88
325.855	110.88
326.084	108.88
326.313	92.88
326.542	99.88
326.77	94.88
326.999	108.88
327.228	113.88
327.457	96.88
327.686	88.88
327.914	89.88
328.143	117.88
328.372	106.88
328.6	109.88
328.829	109.88
329.058	89.88
329.287	107.88
329.515	96.88
329.744	112.88
329.972	118.88
330.201	104.88
330.43	111.88
330.658	114.88
330.887	87.88
331.115	94.88
331.344	100.88
331.572	119.88
331.801	102.88
332.03	117.88
332.258	113.88
332.486	98.88
332.715	121.88
332.943	110.88
333.172	115.88
333.4	112.88
333.629	129.88
333.857	108.88
334.085	119.88
334.314	104.88
334.542	117.88
334.771	116.88
334.999	116.88
335.227	110.88
335.455	105.88
335.684	121.88
335.912	111.88
336.14	120.88
336.369	108.88
336.597	114.88
336.825	114.88
337.053	110.88
337.281	121.88
337.51	94.88
337.738	104.88
337.966	99.88
338.194	100.88
338.422	114.88
338.65	112.88
338.878	100.88
339.106	102.88
339.334	117.88
339.562	100.88
339.79	115.88
340.018	113.88
340.246	100.88
340.474	108.88
340.702	112.88
340.93	118.88
341.158	102.88
341.386	99.88
341.614	105.88
341.842	113.88
342.07	103.88
342.298	99.88
342.526	104.88
342.754	96.88
342.981	98.88
343.209	127.88
343.437	140.88
343.665	114.88
343.893	113.88
344.12	118.88
344.348	119.88
344.576	121.88
344.804	106.88
345.031	120.88
345.259	107.88
345.487	103.88
345.714	112.88
345.942	104.88
346.17	118.88
346.397	106.88
346.625	107.88
346.853	103.88
347.08	104.88
347.308	129.88
347.535	110.88
347.763	102.88
347.99	102.88
348.218	105.88
348.445	104.88
348.673	113.88
348.9	100.88
349.128	103.88
349.355	108.88
349.583	108.88
349.81	95.88
350.037	89.88
350.265	105.88
350.492	105.88
350.72	93.88
350.947	131.88
351.174	95.88
351.402	108.88
351.629	102.88
351.856	111.88
352.083	120.88
352.311	105.88
352.538	99.88
352.765	98.88
352.992	125.88
353.22	110.88
353.447	100.88
353.674	119.88
353.901	110.88
354.128	115.88
354.355	97.88
354.583	112.88
354.81	103.88
355.037	107.88
355.264	102.88
355.491	99.88
355.718	104.88
355.945	112.88
356.172	110.88
356.399	104.88
356.626	114.88
356.853	114.88
357.08	90.88
357.307	101.88
357.534	101.88
357.761	105.88
357.988	107.88
358.215	107.88
358.441	106.88
358.668	96.88
358.895	111.88
359.122	111.88
359.349	96.88
359.576	108.88
359.802	93.88
360.029	111.88
360.256	96.88
360.483	91.88
360.709	104.88
360.936	123.88
361.163	107.88
361.39	101.88
361.616	119.88
361.843	98.88
362.07	105.88
362.296	109.88
362.523	106.88
362.749	100.88
362.976	115.88
363.203	122.88
363.429	96.88
363.656	96.88
363.882	104.88
364.109	110.88
364.335	112.88
364.562	105.88
364.788	92.88
365.015	112.88
365.241	107.88
365.468	106.88
365.694	100.88
365.92	95.88
366.147	90.88
366.373	104.88
366.599	103.88
366.826	105.88
367.052	100.88
367.278	113.88
367.505	111.88
367.731	115.88
367.957	94.88
368.184	99.88
368.41	91.88
368.636	120.88
368.862	110.88
369.089	103.88
369.315	110.88
369.541	107.88
369.767	118.88
369.993	104.88
370.219	108.88
370.445	108.88
370.672	115.88
370.898	105.88
371.124	108.88
371.35	122.88
371.576	119.88
371.802	99.88
372.028	102.88
372.254	100.88
372.48	116.88
372.706	126.88
372.932	101.88
373.158	107.88
373.384	101.88
373.61	124.88
373.835	122.88
374.061	107.88
374.287	111.88
374.513	114.88
374.739	99.88
374.965	91.88
375.191	130.88
375.416	113.88
375.642	118.88
375.868	117.88
376.094	116.88
376.319	117.88
376.545	114.88
376.771	98.88
376.997	121.88
377.222	112.88
377.448	107.88
377.674	105.88
377.899	116.88
378.125	105.88
378.35	116.88
378.576	102.88
378.802	114.88
379.027	101.88
379.253	109.88
379.478	112.88
379.704	118.88
379.929	99.88
380.155	99.88
380.38	103.88
380.606	93.88
380.831	107.88
381.057	130.88
381.282	107.88
381.507	96.88
381.733	109.88
381.958	126.88
382.184	121.88
382.409	110.88
382.634	107.88
382.86	107.88
383.085	122.88
383.31	124.88
383.535	94.88
383.761	111.88
383.986	131.88
384.211	118.88
384.436	114.88
384.662	115.88
384.887	123.88
385.112	106.88
385.337	114.88
385.562	123.88
385.787	113.88
386.013	113.88
386.238	119.88
386.463	128.88
386.688	144.88
386.913	106.88
387.138	105.88
387.363	122.88
387.588	140.88
387.813	121.88
388.038	120.88
388.263	118.88
388.488	115.88
388.713	105.88
388.938	114.88
389.163	114.88
389.387	103.88
389.612	121.88
389.837	93.88
390.062	121.88
390.287	111.88
390.512	108.88
390.736	104.88
390.961	122.88
391.186	120.88
391.411	112.88
391.636	116.88
391.86	108.88
392.085	132.88
392.31	143.88
392.534	121.88
392.759	110.88
392.984	123.88
393.208	123.88
393.433	116.88
393.658	118.88
393.882	124.88
394.107	133.88
394.331	117.88
394.556	122.88
394.78	116.88
395.005	118.88
395.229	127.88
395.454	131.88
395.678	131.88
395.903	131.88
396.127	120.88
396.352	130.88
396.576	128.88
396.801	118.88
397.025	131.88
397.249	128.88
397.474	136.88
397.698	128.88
397.922	130.88
398.147	118.88
398.371	131.88
398.595	136.88
398.82	132.88
399.044	143.88
399.268	149.88
399.492	130.88
399.717	160.88
399.941	164.88
400.165	144.88
400.389	132.88
400.613	134.88
400.837	133.88
401.062	127.88
401.286	143.88
401.51	135.88
401.734	128.88
401.958	134.88
402.182	118.88
402.406	134.88
402.63	135.88
402.854	137.88
403.078	124.88
403.302	139.88
403.526	135.88
403.75	152.88
403.974	138.88
404.198	143.88
404.422	144.88
404.645	127.88
404.869	129.88
405.093	138.88
405.317	132.88
405.541	142.88
405.765	137.88
405.988	142.88
406.212	144.88
406.436	132.88
406.66	137.88
406.883	144.88
407.107	156.88
407.331	145.88
407.555	132.88
407.778	145.88
408.002	148.88
408.226	134.88
408.449	142.88
408.673	161.88
408.896	151.88
409.12	143.88
409.344	147.88
409.567	137.88
409.791	134.88
410.014	158.88
410.238	138.88
410.461	134.88
410.685	134.88
410.908	136.88
411.132	142.88
411.355	134.88
411.578	127.88
411.802	134.88
412.025	116.88
412.249	123.88
412.472	125.88
412.695	121.88
412.919	129.88
413.142	135.88
413.365	106.88
413.589	131.88
413.812	126.88
414.035	144.88
414.258	130.88
414.482	122.88
414.705	128.88
414.928	132.88
415.151	129.88
415.374	133.88
415.597	129.88
415.821	139.88
416.044	127.88
416.267	126.88
416.49	139.88
416.713	139.88
416.936	133.88
417.159	126.88
417.382	140.88
417.605	131.88
417.828	131.88
418.051	129.88
418.274	121.88
418.497	145.88
418.72	142.88
418.943	137.88
419.166	135.88
419.389	148.88
419.611	147.88
419.834	116.88
420.057	139.88
420.28	152.88
420.503	144.88
420.726	146.88
420.948	125.88
421.171	142.88
421.394	146.88
421.617	140.88
421.839	137.88
422.062	146.88
422.285	133.88
422.507	141.88
422.73	160.88
422.953	129.88
423.175	124.88
423.398	137.88
423.621	164.88
423.843	146.88
424.066	129.88
424.288	130.88
424.511	146.88
424.733	146.88
424.956	145.88
425.178	129.88
425.401	129.88
425.623	143.88
425.846	122.88
426.068	145.88
426.291	126.88
426.513	145.88
426.735	147.88
426.958	146.88
427.18	129.88
427.402	134.88
427.625	120.88
427.847	144.88
428.069	145.88
428.292	138.88
428.514	127.88
428.736	124.88
428.958	120.88
429.181	117.88
429.403	129.88
429.625	121.88
429.847	144.88
430.069	137.88
430.292	141.88
430.514	118.88
430.736	137.88
430.958	145.88
431.18	135.88
431.402	124.88
431.624	117.88
431.846	116.88
432.068	124.88
432.29	104.88
432.512	136.88
432.734	124.88
432.956	131.88
433.178	143.88
433.4	129.88
433.622	127.88
433.844	131.88
434.066	118.88
434.287	137.88
434.509	122.88
434.731	135.88
434.953	124.88
435.175	130.88
435.397	151.88
435.618	126.88
435.84	121.88
436.062	129.88
436.284	126.88
436.505	143.88
436.727	115.88
436.949	124.88
437.17	124.88
437.392	128.88
437.614	126.88
437.835	116.88
438.057	136.88
438.278	110.88
438.5	135.88
438.721	126.88
438.943	132.88
439.165	126.88
439.386	119.88
439.608	135.88
439.829	139.88
440.05	141.88
440.272	134.88
440.493	144.88
440.715	145.88
440.936	145.88
441.158	135.88
441.379	130.88
441.6	134.88
441.822	130.88
442.043	131.88
442.264	144.88
442.486	146.88
442.707	132.88
442.928	137.88
443.149	143.88
443.371	127.88
443.592	127.88
443.813	150.88
444.034	128.88
444.255	140.88
444.476	142.88
444.698	142.88
444.919	159.88
445.14	407.88
445.361	272.88
445.582	159.88
445.803	137.88
446.024	128.88
446.245	149.88
446.466	139.88
446.687	133.88
446.908	131.88
447.129	142.88
447.35	146.88
447.571	135.88
447.792	123.88
448.013	126.88
448.234	116.88
448.455	123.88
448.675	126.88
448.896	136.88
449.117	118.88
449.338	112.88
449.559	129.88
449.779	130.88
450	132.88
450.221	123.88
450.442	123.88
450.662	127.88
450.883	133.88
451.104	119.88
451.324	127.88
451.545	122.88
451.766	130.88
451.986	128.88
452.207	129.88
452.428	127.88
452.648	131.88
452.869	131.88
453.089	109.88
453.31	113.88
453.53	117.88
453.751	118.88
453.971	106.88
454.192	112.88
454.412	112.88
454.633	115.88
454.853	139.88
455.073	110.88
455.294	107.88
455.514	132.88
455.734	109.88
455.955	118.88
456.175	111.88
456.395	121.88
456.616	125.88
456.836	128.88
457.056	120.88
457.276	105.88
457.497	115.88
457.717	105.88
457.937	116.88
458.157	112.88
458.377	112.88
458.598	128.88
458.818	100.88
459.038	108.88
459.258	112.88
459.478	131.88
459.698	117.88
459.918	137.88
460.138	127.88
460.358	144.88
460.578	140.88
460.798	147.88
461.018	127.88
461.238	124.88
461.458	152.88
461.678	142.88
461.898	136.88
462.118	131.88
462.338	139.88
462.558	135.88
462.777	142.88
462.997	128.88
463.217	160.88
463.437	151.88
463.657	162.88
463.876	151.88
464.096	148.88
464.316	148.88
464.536	146.88
464.755	137.88
464.975	135.88
465.195	136.88
465.414	118.88
465.634	138.88
465.854	129.88
466.073	142.88
466.293	133.88
466.512	115.88
466.732	124.88
466.951	144.88
467.171	125.88
467.391	136.88
467.61	132.88
467.829	129.88
468.049	130.88
468.268	134.88
468.488	136.88
468.707	135.88
468.927	119.88
469.146	135.88
469.365	116.88
469.585	126.88
469.804	139.88
470.023	127.88
470.243	151.88
470.462	139.88
470.681	136.88
470.901	119.88
471.12	122.88
471.339	134.88
471.558	135.88
471.777	133.88
471.997	135.88
472.216	125.88
472.435	130.88
472.654	123.88
472.873	142.88
473.092	132.88
473.311	116.88
473.53	122.88
473.749	138.88
473.968	130.88
474.187	121.88
474.406	107.88
474.625	118.88
474.844	130.88
475.063	110.88
475.282	101.88
475.501	120.88
475.72	133.88
475.939	114.88
476.158	128.88
476.377	127.88
476.596	135.88
476.814	120.88
477.033	119.88
477.252	114.88
477.471	121.88
477.69	135.88
477.908	148.88
478.127	156.88
478.346	146.88
478.564	127.88
478.783	139.88
479.002	133.88
479.22	147.88
479.439	136.88
479.658	142.88
479.876	146.88
480.095	138.88
480.313	139.88
480.532	137.88
480.751	125.88
480.969	128.88
481.188	130.88
481.406	127.88
481.624	129.88
481.843	138.88
482.061	133.88
482.28	121.88
482.498	119.88
482.717	123.88
482.935	125.88
483.153	146.88
483.372	127.88
483.59	136.88
483.808	137.88
484.027	130.88
484.245	131.88
484.463	140.88
484.681	160.88
484.9	132.88
485.118	139.88
485.336	151.88
485.554	128.88
485.772	131.88
485.99	127.88
486.209	130.88
486.427	139.88
486.645	132.88
486.863	139.88
487.081	136.88
487.299	142.88
487.517	131.88
487.735	145.88
487.953	137.88
488.171	151.88
488.389	144.88
488.607	135.88
488.825	140.88
489.043	143.88
489.261	142.88
489.479	145.88
489.696	137.88
489.914	133.88
490.132	130.88
490.35	119.88
490.568	142.88
490.786	137.88
491.003	150.88
491.221	140.88
491.439	155.88
491.657	150.88
491.874	171.88
492.092	158.88
492.31	175.88
492.527	165.88
492.745	171.88
492.963	166.88
493.18	163.88
493.398	146.88
493.615	148.88
493.833	153.88
494.05	146.88
494.268	139.88
494.485	167.88
494.703	164.88
494.92	174.88
495.138	166.88
495.355	166.88
495.573	155.88
495.79	142.88
496.008	152.88
496.225	154.88
496.442	148.88
496.66	170.88
496.877	154.88
497.094	176.88
497.312	152.88
497.529	156.88
497.746	164.88
497.963	168.88
498.181	133.88
498.398	154.88
498.615	154.88
498.832	148.88
499.049	173.88
499.267	183.88
499.484	188.88
499.701	196.88
499.918	210.88
500.135	233.88
500.352	253.88
500.569	250.88
500.786	247.88
501.003	228.88
501.22	226.88
501.437	212.88
501.654	194.88
501.871	174.88
502.088	170.88
502.305	151.88
502.522	151.88
502.739	167.88
502.956	155.88
503.172	142.88
503.389	159.88
503.606	143.88
503.823	154.88
504.04	152.88
504.256	145.88
504.473	153.88
504.69	145.88
504.907	156.88
505.123	147.88
505.34	156.88
505.557	141.88
505.773	158.88
505.99	134.88
506.207	134.88
506.423	122.88
506.64	148.88
506.856	139.88
507.073	134.88
507.289	120.88
507.506	124.88
