Data from SampD_HRD10591_00059.txt Node
Date: Mon Jan 19 11:50:35 EST 2026
User: Yrep
Spectrometer: HR+D1059
Trigger mode: 0
Integration Time (sec): 3.443000E-1
Scans to average: 1
Electric dark correction enabled: true
Nonlinearity correction enabled: false
Boxcar width: 0
XAxis mode: Wavelengths
Number of Pixels in Spectrum: 2048
>>>>>Begin Spectral Data<<<<<
223.165	-15.88
223.4	-15.88
223.635	-15.88
223.869	-15.88
224.104	-24.88
224.338	-6.88
224.573	-19.88
224.808	-16.88
225.042	9.12
225.277	-15.88
225.511	-5.88
225.746	14.12
225.98	-11.88
226.215	7.12
226.449	15.12
226.683	22.12
226.918	16.12
227.152	50.12
227.387	42.12
227.621	46.12
227.856	48.12
228.09	51.12
228.324	50.12
228.559	60.12
228.793	55.12
229.027	72.12
229.262	74.12
229.496	80.12
229.73	65.12
229.964	79.12
230.199	55.12
230.433	76.12
230.667	81.12
230.901	73.12
231.136	86.12
231.37	86.12
231.604	89.12
231.838	82.12
232.072	86.12
232.306	93.12
232.541	96.12
232.775	92.12
233.009	88.12
233.243	96.12
233.477	90.12
233.711	87.12
233.945	84.12
234.179	78.12
234.413	104.12
234.647	92.12
234.881	104.12
235.115	84.12
235.349	86.12
235.583	88.12
235.817	95.12
236.051	88.12
236.285	102.12
236.519	85.12
236.753	83.12
236.987	73.12
237.221	88.12
237.455	86.12
237.689	92.12
237.922	78.12
238.156	82.12
238.39	76.12
238.624	80.12
238.858	111.12
239.091	98.12
239.325	91.12
239.559	71.12
239.793	87.12
240.027	90.12
240.26	93.12
240.494	93.12
240.728	89.12
240.961	96.12
241.195	88.12
241.429	93.12
241.662	100.12
241.896	98.12
242.13	87.12
242.363	81.12
242.597	81.12
242.83	96.12
243.064	81.12
243.298	89.12
243.531	81.12
243.765	87.12
243.998	97.12
244.232	100.12
244.465	98.12
244.699	93.12
244.932	95.12
245.166	82.12
245.399	92.12
245.633	84.12
245.866	88.12
246.099	87.12
246.333	97.12
246.566	74.12
246.8	84.12
247.033	106.12
247.266	88.12
247.5	84.12
247.733	97.12
247.966	91.12
248.2	89.12
248.433	96.12
248.666	94.12
248.899	90.12
249.133	102.12
249.366	104.12
249.599	93.12
249.832	94.12
250.066	107.12
250.299	91.12
250.532	90.12
250.765	86.12
250.998	89.12
251.231	96.12
251.465	102.12
251.698	76.12
251.931	85.12
252.164	84.12
252.397	81.12
252.63	98.12
252.863	86.12
253.096	86.12
253.329	105.12
253.562	105.12
253.795	96.12
254.028	102.12
254.261	102.12
254.494	98.12
254.727	103.12
254.96	99.12
255.193	93.12
255.426	107.12
255.659	87.12
255.892	97.12
256.124	96.12
256.357	103.12
256.59	94.12
256.823	93.12
257.056	109.12
257.289	100.12
257.521	108.12
257.754	102.12
257.987	95.12
258.22	112.12
258.452	114.12
258.685	101.12
258.918	107.12
259.151	87.12
259.383	98.12
259.616	85.12
259.849	104.12
260.081	104.12
260.314	94.12
260.547	92.12
260.779	97.12
261.012	103.12
261.244	105.12
261.477	111.12
261.71	105.12
261.942	102.12
262.175	93.12
262.407	102.12
262.64	105.12
262.872	110.12
263.105	115.12
263.337	113.12
263.57	120.12
263.802	112.12
264.035	102.12
264.267	101.12
264.499	109.12
264.732	101.12
264.964	105.12
265.197	112.12
265.429	109.12
265.661	110.12
265.894	101.12
266.126	121.12
266.358	112.12
266.591	101.12
266.823	95.12
267.055	102.12
267.287	102.12
267.52	105.12
267.752	111.12
267.984	123.12
268.216	97.12
268.448	93.12
268.681	104.12
268.913	114.12
269.145	113.12
269.377	103.12
269.609	104.12
269.841	109.12
270.073	94.12
270.306	120.12
270.538	115.12
270.77	103.12
271.002	108.12
271.234	94.12
271.466	102.12
271.698	117.12
271.93	82.12
272.162	117.12
272.394	110.12
272.626	102.12
272.858	98.12
273.09	114.12
273.322	99.12
273.553	129.12
273.785	118.12
274.017	117.12
274.249	115.12
274.481	97.12
274.713	103.12
274.945	120.12
275.176	104.12
275.408	115.12
275.64	101.12
275.872	98.12
276.104	114.12
276.335	114.12
276.567	111.12
276.799	99.12
277.031	105.12
277.262	122.12
277.494	105.12
277.726	122.12
277.957	113.12
278.189	115.12
278.421	126.12
278.652	100.12
278.884	101.12
279.115	107.12
279.347	120.12
279.579	114.12
279.81	91.12
280.042	126.12
280.273	124.12
280.505	119.12
280.736	126.12
280.968	106.12
281.199	113.12
281.431	117.12
281.662	117.12
281.894	114.12
282.125	132.12
282.356	95.12
282.588	98.12
282.819	114.12
283.051	107.12
283.282	122.12
283.513	126.12
283.745	121.12
283.976	120.12
284.207	118.12
284.439	118.12
284.67	120.12
284.901	127.12
285.132	103.12
285.364	121.12
285.595	136.12
285.826	127.12
286.057	120.12
286.288	105.12
286.52	133.12
286.751	120.12
286.982	124.12
287.213	109.12
287.444	122.12
287.675	105.12
287.906	125.12
288.138	122.12
288.369	108.12
288.6	125.12
288.831	126.12
289.062	120.12
289.293	109.12
289.524	116.12
289.755	106.12
289.986	116.12
290.217	125.12
290.448	121.12
290.679	123.12
290.91	118.12
291.141	132.12
291.371	125.12
291.602	112.12
291.833	114.12
292.064	130.12
292.295	120.12
292.526	128.12
292.757	120.12
292.987	126.12
293.218	112.12
293.449	124.12
293.68	127.12
293.91	123.12
294.141	126.12
294.372	112.12
294.603	123.12
294.833	114.12
295.064	126.12
295.295	129.12
295.525	119.12
295.756	119.12
295.987	136.12
296.217	114.12
296.448	114.12
296.679	107.12
296.909	118.12
297.14	133.12
297.37	140.12
297.601	128.12
297.831	117.12
298.062	141.12
298.292	138.12
298.523	140.12
298.753	136.12
298.984	131.12
299.214	120.12
299.445	117.12
299.675	129.12
299.905	139.12
300.136	138.12
300.366	126.12
300.597	120.12
300.827	124.12
301.057	121.12
301.288	122.12
301.518	122.12
301.748	124.12
301.979	174.12
302.209	134.12
302.439	131.12
302.669	122.12
302.9	124.12
303.13	127.12
303.36	132.12
303.59	128.12
303.82	124.12
304.051	147.12
304.281	142.12
304.511	139.12
304.741	115.12
304.971	127.12
305.201	148.12
305.431	129.12
305.661	118.12
305.891	127.12
306.121	134.12
306.352	139.12
306.582	130.12
306.812	135.12
307.042	128.12
307.272	120.12
307.502	129.12
307.731	135.12
307.961	122.12
308.191	113.12
308.421	140.12
308.651	136.12
308.881	128.12
309.111	131.12
309.341	123.12
309.571	118.12
309.8	117.12
310.03	124.12
310.26	112.12
310.49	121.12
310.72	135.12
310.949	126.12
311.179	129.12
311.409	122.12
311.639	129.12
311.868	131.12
312.098	134.12
312.328	134.12
312.557	149.12
312.787	135.12
313.017	130.12
313.246	127.12
313.476	132.12
313.706	119.12
313.935	127.12
314.165	120.12
314.394	128.12
314.624	113.12
314.853	148.12
315.083	123.12
315.312	115.12
315.542	133.12
315.771	128.12
316.001	130.12
316.23	134.12
316.46	156.12
316.689	126.12
316.919	113.12
317.148	141.12
317.377	128.12
317.607	140.12
317.836	112.12
318.065	117.12
318.295	128.12
318.524	122.12
318.753	138.12
318.983	119.12
319.212	121.12
319.441	128.12
319.67	134.12
319.9	123.12
320.129	123.12
320.358	127.12
320.587	127.12
320.816	128.12
321.046	128.12
321.275	142.12
321.504	143.12
321.733	122.12
321.962	139.12
322.191	122.12
322.42	124.12
322.649	122.12
322.878	144.12
323.108	143.12
323.337	145.12
323.566	141.12
323.795	121.12
324.024	123.12
324.253	136.12
324.482	135.12
324.71	139.12
324.939	126.12
325.168	127.12
325.397	121.12
325.626	146.12
325.855	136.12
326.084	125.12
326.313	155.12
326.542	137.12
326.77	130.12
326.999	128.12
327.228	141.12
327.457	145.12
327.686	143.12
327.914	129.12
328.143	139.12
328.372	132.12
328.6	119.12
328.829	139.12
329.058	140.12
329.287	131.12
329.515	125.12
329.744	140.12
329.972	124.12
330.201	125.12
330.43	132.12
330.658	137.12
330.887	127.12
331.115	144.12
331.344	130.12
331.572	159.12
331.801	138.12
332.03	148.12
332.258	141.12
332.486	145.12
332.715	150.12
332.943	144.12
333.172	176.12
333.4	155.12
333.629	150.12
333.857	151.12
334.085	148.12
334.314	157.12
334.542	148.12
334.771	152.12
334.999	163.12
335.227	150.12
335.455	153.12
335.684	156.12
335.912	152.12
336.14	131.12
336.369	151.12
336.597	172.12
336.825	141.12
337.053	137.12
337.281	143.12
337.51	145.12
337.738	139.12
337.966	137.12
338.194	143.12
338.422	164.12
338.65	143.12
338.878	145.12
339.106	132.12
339.334	145.12
339.562	114.12
339.79	142.12
340.018	146.12
340.246	138.12
340.474	137.12
340.702	135.12
340.93	135.12
341.158	150.12
341.386	141.12
341.614	134.12
341.842	141.12
342.07	144.12
342.298	136.12
342.526	132.12
342.754	129.12
342.981	140.12
343.209	156.12
343.437	179.12
343.665	137.12
343.893	152.12
344.12	171.12
344.348	145.12
344.576	129.12
344.804	125.12
345.031	133.12
345.259	143.12
345.487	154.12
345.714	149.12
345.942	136.12
346.17	141.12
346.397	142.12
346.625	131.12
346.853	153.12
347.08	148.12
347.308	143.12
347.535	145.12
347.763	142.12
347.99	141.12
348.218	131.12
348.445	142.12
348.673	142.12
348.9	135.12
349.128	160.12
349.355	132.12
349.583	133.12
349.81	149.12
350.037	143.12
350.265	133.12
350.492	127.12
350.72	125.12
350.947	150.12
351.174	156.12
351.402	129.12
351.629	137.12
351.856	130.12
352.083	132.12
352.311	118.12
352.538	129.12
352.765	137.12
352.992	156.12
353.22	127.12
353.447	137.12
353.674	132.12
353.901	122.12
354.128	131.12
354.355	132.12
354.583	135.12
354.81	145.12
355.037	150.12
355.264	134.12
355.491	155.12
355.718	144.12
355.945	138.12
356.172	144.12
356.399	122.12
356.626	125.12
356.853	138.12
357.08	146.12
357.307	141.12
357.534	141.12
357.761	142.12
357.988	138.12
358.215	148.12
358.441	133.12
358.668	134.12
358.895	138.12
359.122	151.12
359.349	144.12
359.576	134.12
359.802	134.12
360.029	122.12
360.256	140.12
360.483	139.12
360.709	144.12
360.936	148.12
361.163	143.12
361.39	127.12
361.616	123.12
361.843	133.12
362.07	133.12
362.296	145.12
362.523	144.12
362.749	137.12
362.976	142.12
363.203	159.12
363.429	134.12
363.656	129.12
363.882	129.12
364.109	150.12
364.335	139.12
364.562	127.12
364.788	136.12
365.015	151.12
365.241	133.12
365.468	126.12
365.694	134.12
365.92	151.12
366.147	137.12
366.373	146.12
366.599	129.12
366.826	128.12
367.052	139.12
367.278	155.12
367.505	135.12
367.731	160.12
367.957	146.12
368.184	133.12
368.41	141.12
368.636	152.12
368.862	153.12
369.089	146.12
369.315	135.12
369.541	145.12
369.767	131.12
369.993	148.12
370.219	141.12
370.445	145.12
370.672	150.12
370.898	152.12
371.124	135.12
371.35	138.12
371.576	144.12
371.802	162.12
372.028	148.12
372.254	147.12
372.48	149.12
372.706	153.12
372.932	140.12
373.158	149.12
373.384	150.12
373.61	156.12
373.835	149.12
374.061	155.12
374.287	139.12
374.513	141.12
374.739	151.12
374.965	144.12
375.191	163.12
375.416	168.12
375.642	146.12
375.868	150.12
376.094	149.12
376.319	142.12
376.545	140.12
376.771	132.12
376.997	151.12
377.222	156.12
377.448	164.12
377.674	143.12
377.899	165.12
378.125	145.12
378.35	149.12
378.576	136.12
378.802	140.12
379.027	157.12
379.253	140.12
379.478	145.12
379.704	142.12
379.929	140.12
380.155	152.12
380.38	148.12
380.606	134.12
380.831	161.12
381.057	168.12
381.282	152.12
381.507	157.12
381.733	159.12
381.958	132.12
382.184	154.12
382.409	152.12
382.634	159.12
382.86	158.12
383.085	170.12
383.31	153.12
383.535	152.12
383.761	155.12
383.986	158.12
384.211	143.12
384.436	149.12
384.662	169.12
384.887	165.12
385.112	169.12
385.337	168.12
385.562	168.12
385.787	170.12
386.013	156.12
386.238	170.12
386.463	164.12
386.688	212.12
386.913	170.12
387.138	146.12
387.363	152.12
387.588	167.12
387.813	171.12
388.038	160.12
388.263	160.12
388.488	168.12
388.713	183.12
388.938	159.12
389.163	168.12
389.387	160.12
389.612	161.12
389.837	158.12
390.062	164.12
390.287	168.12
390.512	150.12
390.736	178.12
390.961	165.12
391.186	171.12
391.411	186.12
391.636	168.12
391.86	176.12
392.085	173.12
392.31	167.12
392.534	152.12
392.759	180.12
392.984	186.12
393.208	183.12
393.433	177.12
393.658	164.12
393.882	192.12
394.107	173.12
394.331	172.12
394.556	178.12
394.78	183.12
395.005	189.12
395.229	170.12
395.454	187.12
395.678	170.12
395.903	175.12
396.127	164.12
396.352	160.12
396.576	161.12
396.801	169.12
397.025	177.12
397.249	190.12
397.474	206.12
397.698	200.12
397.922	166.12
398.147	168.12
398.371	169.12
398.595	201.12
398.82	197.12
399.044	188.12
399.268	221.12
399.492	242.12
399.717	242.12
399.941	237.12
400.165	230.12
400.389	186.12
400.613	207.12
400.837	188.12
401.062	199.12
401.286	208.12
401.51	188.12
401.734	187.12
401.958	178.12
402.182	182.12
402.406	191.12
402.63	203.12
402.854	210.12
403.078	206.12
403.302	216.12
403.526	220.12
403.75	217.12
403.974	204.12
404.198	206.12
404.422	216.12
404.645	217.12
404.869	216.12
405.093	205.12
405.317	203.12
405.541	204.12
405.765	203.12
405.988	206.12
406.212	212.12
406.436	212.12
406.66	211.12
406.883	206.12
407.107	213.12
407.331	212.12
407.555	220.12
407.778	200.12
408.002	229.12
408.226	219.12
408.449	199.12
408.673	221.12
408.896	212.12
409.12	184.12
409.344	220.12
409.567	198.12
409.791	205.12
410.014	203.12
410.238	201.12
410.461	215.12
410.685	214.12
410.908	203.12
411.132	194.12
411.355	201.12
411.578	207.12
411.802	197.12
412.025	190.12
412.249	175.12
412.472	188.12
412.695	205.12
412.919	183.12
413.142	201.12
413.365	207.12
413.589	213.12
413.812	190.12
414.035	210.12
414.258	194.12
414.482	184.12
414.705	201.12
414.928	207.12
415.151	202.12
415.374	206.12
415.597	202.12
415.821	192.12
416.044	202.12
416.267	197.12
416.49	194.12
416.713	200.12
416.936	207.12
417.159	198.12
417.382	194.12
417.605	187.12
417.828	194.12
418.051	186.12
418.274	200.12
418.497	193.12
418.72	205.12
418.943	201.12
419.166	222.12
419.389	221.12
419.611	194.12
419.834	204.12
420.057	202.12
420.28	207.12
420.503	203.12
420.726	206.12
420.948	185.12
421.171	212.12
421.394	204.12
421.617	204.12
421.839	206.12
422.062	226.12
422.285	207.12
422.507	214.12
422.73	191.12
422.953	208.12
423.175	214.12
423.398	212.12
423.621	209.12
423.843	193.12
424.066	213.12
424.288	209.12
424.511	214.12
424.733	212.12
424.956	207.12
425.178	204.12
425.401	201.12
425.623	208.12
425.846	187.12
426.068	203.12
426.291	193.12
426.513	199.12
426.735	193.12
426.958	197.12
427.18	196.12
427.402	197.12
427.625	184.12
427.847	191.12
428.069	186.12
428.292	191.12
428.514	181.12
428.736	193.12
428.958	178.12
429.181	186.12
429.403	186.12
429.625	191.12
429.847	164.12
430.069	197.12
430.292	191.12
430.514	184.12
430.736	181.12
430.958	180.12
431.18	192.12
431.402	184.12
431.624	186.12
431.846	179.12
432.068	173.12
432.29	197.12
432.512	205.12
432.734	187.12
432.956	181.12
433.178	203.12
433.4	189.12
433.622	185.12
433.844	189.12
434.066	188.12
434.287	183.12
434.509	173.12
434.731	176.12
434.953	193.12
435.175	191.12
435.397	189.12
435.618	181.12
435.84	163.12
436.062	185.12
436.284	178.12
436.505	198.12
436.727	196.12
436.949	199.12
437.17	186.12
437.392	188.12
437.614	204.12
437.835	168.12
438.057	172.12
438.278	189.12
438.5	182.12
438.721	194.12
438.943	207.12
439.165	196.12
439.386	211.12
439.608	204.12
439.829	204.12
440.05	198.12
440.272	214.12
440.493	192.12
440.715	209.12
440.936	197.12
441.158	208.12
441.379	201.12
441.6	191.12
441.822	203.12
442.043	203.12
442.264	205.12
442.486	210.12
442.707	197.12
442.928	218.12
443.149	205.12
443.371	207.12
443.592	213.12
443.813	190.12
444.034	217.12
444.255	205.12
444.476	220.12
444.698	229.12
444.919	218.12
445.14	481.12
445.361	321.12
445.582	204.12
445.803	194.12
446.024	217.12
446.245	221.12
446.466	195.12
446.687	208.12
446.908	199.12
447.129	202.12
447.35	200.12
447.571	206.12
447.792	201.12
448.013	176.12
448.234	196.12
448.455	169.12
448.675	198.12
448.896	191.12
449.117	188.12
449.338	183.12
449.559	188.12
449.779	167.12
450	190.12
450.221	175.12
450.442	177.12
450.662	188.12
450.883	170.12
451.104	183.12
451.324	185.12
451.545	181.12
451.766	193.12
451.986	164.12
452.207	180.12
452.428	178.12
452.648	187.12
452.869	181.12
453.089	176.12
453.31	157.12
453.53	175.12
453.751	175.12
453.971	161.12
454.192	182.12
454.412	181.12
454.633	177.12
454.853	184.12
455.073	188.12
455.294	167.12
455.514	170.12
455.734	173.12
455.955	164.12
456.175	172.12
456.395	161.12
456.616	165.12
456.836	158.12
457.056	150.12
457.276	159.12
457.497	158.12
457.717	166.12
457.937	161.12
458.157	168.12
458.377	158.12
458.598	152.12
458.818	168.12
459.038	165.12
459.258	151.12
459.478	169.12
459.698	169.12
459.918	179.12
460.138	190.12
460.358	207.12
460.578	196.12
460.798	199.12
461.018	193.12
461.238	195.12
461.458	189.12
461.678	178.12
461.898	199.12
462.118	200.12
462.338	211.12
462.558	207.12
462.777	208.12
462.997	249.12
463.217	240.12
463.437	221.12
463.657	218.12
463.876	218.12
464.096	222.12
464.316	225.12
464.536	235.12
464.755	221.12
464.975	202.12
465.195	195.12
465.414	210.12
465.634	179.12
465.854	182.12
466.073	189.12
466.293	188.12
466.512	195.12
466.732	190.12
466.951	193.12
467.171	182.12
467.391	200.12
467.61	179.12
467.829	201.12
468.049	195.12
468.268	174.12
468.488	187.12
468.707	194.12
468.927	168.12
469.146	172.12
469.365	189.12
469.585	202.12
469.804	191.12
470.023	188.12
470.243	201.12
470.462	179.12
470.681	196.12
470.901	212.12
471.12	188.12
471.339	197.12
471.558	202.12
471.777	196.12
471.997	170.12
472.216	189.12
472.435	175.12
472.654	162.12
472.873	190.12
473.092	181.12
473.311	175.12
473.53	178.12
473.749	151.12
473.968	189.12
474.187	173.12
474.406	184.12
474.625	169.12
474.844	181.12
475.063	161.12
475.282	181.12
475.501	182.12
475.72	185.12
475.939	187.12
476.158	194.12
476.377	200.12
476.596	167.12
476.814	183.12
477.033	178.12
477.252	192.12
477.471	174.12
477.69	196.12
477.908	178.12
478.127	205.12
478.346	194.12
478.564	197.12
478.783	187.12
479.002	209.12
479.22	203.12
479.439	201.12
479.658	186.12
479.876	187.12
480.095	186.12
480.313	208.12
480.532	210.12
480.751	194.12
480.969	189.12
481.188	173.12
481.406	169.12
481.624	171.12
481.843	168.12
482.061	171.12
482.28	181.12
482.498	186.12
482.717	183.12
482.935	201.12
483.153	204.12
483.372	216.12
483.59	208.12
483.808	196.12
484.027	205.12
484.245	206.12
484.463	207.12
484.681	220.12
484.9	224.12
485.118	203.12
485.336	200.12
485.554	188.12
485.772	196.12
485.99	184.12
486.209	178.12
486.427	191.12
486.645	207.12
486.863	210.12
487.081	196.12
487.299	197.12
487.517	199.12
487.735	214.12
487.953	221.12
488.171	221.12
488.389	212.12
488.607	192.12
488.825	197.12
489.043	195.12
489.261	209.12
489.479	214.12
489.696	204.12
489.914	220.12
490.132	206.12
490.35	205.12
490.568	215.12
490.786	224.12
491.003	241.12
491.221	246.12
491.439	227.12
491.657	236.12
491.874	230.12
492.092	255.12
492.31	269.12
492.527	248.12
492.745	238.12
492.963	232.12
493.18	239.12
493.398	223.12
493.615	236.12
493.833	229.12
494.05	217.12
494.268	215.12
494.485	229.12
494.703	219.12
494.92	222.12
495.138	231.12
495.355	246.12
495.573	244.12
495.79	240.12
496.008	228.12
496.225	237.12
496.442	239.12
496.66	234.12
496.877	243.12
497.094	236.12
497.312	229.12
497.529	239.12
497.746	228.12
497.963	233.12
498.181	235.12
498.398	235.12
498.615	235.12
498.832	242.12
499.049	255.12
499.267	282.12
499.484	282.12
499.701	326.12
499.918	353.12
500.135	374.12
500.352	401.12
500.569	433.12
500.786	432.12
501.003	398.12
501.22	360.12
501.437	322.12
501.654	308.12
501.871	265.12
502.088	257.12
502.305	256.12
502.522	252.12
502.739	269.12
502.956	221.12
503.172	236.12
503.389	219.12
503.606	213.12
503.823	209.12
504.04	219.12
504.256	228.12
504.473	226.12
