Data from SampD_HRD10591_00023.txt Node
Date: Mon Jan 19 11:50:23 EST 2026
User: Yrep
Spectrometer: HR+D1059
Trigger mode: 0
Integration Time (sec): 3.443000E-1
Scans to average: 1
Electric dark correction enabled: true
Nonlinearity correction enabled: false
Boxcar width: 0
XAxis mode: Wavelengths
Number of Pixels in Spectrum: 2048
>>>>>Begin Spectral Data<<<<<
223.165	-6.69
223.4	-6.69
223.635	-6.69
223.869	-23.69
224.104	-28.69
224.338	-17.69
224.573	-20.69
224.808	2.31
225.042	-4.69
225.277	-5.69
225.511	0.31
225.746	-2.69
225.98	-1.69
226.215	3.31
226.449	22.31
226.683	18.31
226.918	23.31
227.152	42.31
227.387	42.31
227.621	20.31
227.856	44.31
228.09	24.31
228.324	52.31
228.559	66.31
228.793	75.31
229.027	79.31
229.262	63.31
229.496	71.31
229.73	77.31
229.964	85.31
230.199	72.31
230.433	63.31
230.667	69.31
230.901	76.31
231.136	84.31
231.37	83.31
231.604	85.31
231.838	95.31
232.072	75.31
232.306	90.31
232.541	103.31
232.775	100.31
233.009	88.31
233.243	93.31
233.477	90.31
233.711	96.31
233.945	78.31
234.179	95.31
234.413	78.31
234.647	86.31
234.881	96.31
235.115	112.31
235.349	94.31
235.583	88.31
235.817	92.31
236.051	91.31
236.285	76.31
236.519	82.31
236.753	90.31
236.987	98.31
237.221	86.31
237.455	91.31
237.689	92.31
237.922	79.31
238.156	74.31
238.39	87.31
238.624	88.31
238.858	96.31
239.091	88.31
239.325	93.31
239.559	93.31
239.793	75.31
240.027	98.31
240.26	88.31
240.494	88.31
240.728	90.31
240.961	88.31
241.195	113.31
241.429	104.31
241.662	82.31
241.896	100.31
242.13	84.31
242.363	93.31
242.597	93.31
242.83	77.31
243.064	94.31
243.298	92.31
243.531	88.31
243.765	84.31
243.998	94.31
244.232	97.31
244.465	84.31
244.699	88.31
244.932	82.31
245.166	95.31
245.399	92.31
245.633	103.31
245.866	85.31
246.099	94.31
246.333	108.31
246.566	75.31
246.8	80.31
247.033	83.31
247.266	90.31
247.5	85.31
247.733	84.31
247.966	95.31
248.2	97.31
248.433	84.31
248.666	79.31
248.899	88.31
249.133	101.31
249.366	90.31
249.599	99.31
249.832	94.31
250.066	99.31
250.299	77.31
250.532	103.31
250.765	91.31
250.998	94.31
251.231	87.31
251.465	88.31
251.698	101.31
251.931	96.31
252.164	80.31
252.397	106.31
252.63	73.31
252.863	92.31
253.096	85.31
253.329	94.31
253.562	88.31
253.795	89.31
254.028	111.31
254.261	107.31
254.494	102.31
254.727	100.31
254.96	96.31
255.193	85.31
255.426	98.31
255.659	83.31
255.892	110.31
256.124	89.31
256.357	104.31
256.59	96.31
256.823	97.31
257.056	95.31
257.289	93.31
257.521	96.31
257.754	95.31
257.987	103.31
258.22	104.31
258.452	103.31
258.685	105.31
258.918	113.31
259.151	100.31
259.383	96.31
259.616	96.31
259.849	102.31
260.081	92.31
260.314	98.31
260.547	93.31
260.779	100.31
261.012	95.31
261.244	87.31
261.477	112.31
261.71	95.31
261.942	105.31
262.175	98.31
262.407	96.31
262.64	106.31
262.872	99.31
263.105	114.31
263.337	109.31
263.57	93.31
263.802	102.31
264.035	91.31
264.267	103.31
264.499	97.31
264.732	106.31
264.964	106.31
265.197	106.31
265.429	90.31
265.661	97.31
265.894	96.31
266.126	103.31
266.358	100.31
266.591	95.31
266.823	101.31
267.055	109.31
267.287	99.31
267.52	99.31
267.752	102.31
267.984	111.31
268.216	88.31
268.448	105.31
268.681	95.31
268.913	96.31
269.145	100.31
269.377	96.31
269.609	86.31
269.841	101.31
270.073	111.31
270.306	101.31
270.538	103.31
270.77	115.31
271.002	117.31
271.234	114.31
271.466	109.31
271.698	94.31
271.93	112.31
272.162	114.31
272.394	104.31
272.626	108.31
272.858	113.31
273.09	116.31
273.322	107.31
273.553	99.31
273.785	98.31
274.017	117.31
274.249	113.31
274.481	110.31
274.713	100.31
274.945	113.31
275.176	92.31
275.408	106.31
275.64	104.31
275.872	123.31
276.104	127.31
276.335	108.31
276.567	127.31
276.799	112.31
277.031	120.31
277.262	113.31
277.494	94.31
277.726	107.31
277.957	116.31
278.189	107.31
278.421	111.31
278.652	117.31
278.884	106.31
279.115	115.31
279.347	118.31
279.579	115.31
279.81	111.31
280.042	100.31
280.273	116.31
280.505	112.31
280.736	111.31
280.968	114.31
281.199	112.31
281.431	115.31
281.662	108.31
281.894	120.31
282.125	110.31
282.356	115.31
282.588	103.31
282.819	115.31
283.051	110.31
283.282	114.31
283.513	122.31
283.745	87.31
283.976	123.31
284.207	114.31
284.439	108.31
284.67	128.31
284.901	125.31
285.132	115.31
285.364	114.31
285.595	123.31
285.826	126.31
286.057	116.31
286.288	112.31
286.52	111.31
286.751	125.31
286.982	112.31
287.213	120.31
287.444	98.31
287.675	126.31
287.906	122.31
288.138	129.31
288.369	124.31
288.6	113.31
288.831	115.31
289.062	131.31
289.293	116.31
289.524	122.31
289.755	111.31
289.986	118.31
290.217	125.31
290.448	121.31
290.679	137.31
290.91	128.31
291.141	143.31
291.371	119.31
291.602	116.31
291.833	116.31
292.064	111.31
292.295	128.31
292.526	118.31
292.757	124.31
292.987	115.31
293.218	119.31
293.449	120.31
293.68	127.31
293.91	119.31
294.141	118.31
294.372	132.31
294.603	136.31
294.833	124.31
295.064	117.31
295.295	124.31
295.525	119.31
295.756	111.31
295.987	125.31
296.217	137.31
296.448	146.31
296.679	118.31
296.909	136.31
297.14	116.31
297.37	126.31
297.601	135.31
297.831	129.31
298.062	126.31
298.292	123.31
298.523	130.31
298.753	135.31
298.984	116.31
299.214	126.31
299.445	112.31
299.675	133.31
299.905	128.31
300.136	112.31
300.366	115.31
300.597	126.31
300.827	124.31
301.057	124.31
301.288	133.31
301.518	131.31
301.748	123.31
301.979	189.31
302.209	124.31
302.439	121.31
302.669	119.31
302.9	127.31
303.13	131.31
303.36	123.31
303.59	128.31
303.82	138.31
304.051	115.31
304.281	126.31
304.511	130.31
304.741	114.31
304.971	119.31
305.201	139.31
305.431	139.31
305.661	138.31
305.891	120.31
306.121	111.31
306.352	121.31
306.582	134.31
306.812	127.31
307.042	122.31
307.272	127.31
307.502	123.31
307.731	136.31
307.961	129.31
308.191	108.31
308.421	124.31
308.651	126.31
308.881	134.31
309.111	135.31
309.341	134.31
309.571	115.31
309.8	133.31
310.03	119.31
310.26	124.31
310.49	122.31
310.72	128.31
310.949	137.31
311.179	129.31
311.409	135.31
311.639	115.31
311.868	127.31
312.098	121.31
312.328	125.31
312.557	130.31
312.787	123.31
313.017	139.31
313.246	134.31
313.476	128.31
313.706	124.31
313.935	122.31
314.165	150.31
314.394	130.31
314.624	128.31
314.853	136.31
315.083	139.31
315.312	138.31
315.542	126.31
315.771	112.31
316.001	127.31
316.23	134.31
316.46	119.31
316.689	114.31
316.919	129.31
317.148	131.31
317.377	131.31
317.607	137.31
317.836	115.31
318.065	133.31
318.295	126.31
318.524	129.31
318.753	126.31
318.983	114.31
319.212	133.31
319.441	122.31
319.67	125.31
319.9	132.31
320.129	111.31
320.358	136.31
320.587	140.31
320.816	125.31
321.046	139.31
321.275	130.31
321.504	112.31
321.733	128.31
321.962	120.31
322.191	132.31
322.42	130.31
322.649	135.31
322.878	122.31
323.108	154.31
323.337	137.31
323.566	138.31
323.795	129.31
324.024	142.31
324.253	117.31
324.482	126.31
324.71	117.31
324.939	132.31
325.168	142.31
325.397	128.31
325.626	133.31
325.855	119.31
326.084	128.31
326.313	137.31
326.542	132.31
326.77	130.31
326.999	127.31
327.228	142.31
327.457	138.31
327.686	124.31
327.914	146.31
328.143	142.31
328.372	124.31
328.6	135.31
328.829	124.31
329.058	115.31
329.287	141.31
329.515	149.31
329.744	138.31
329.972	130.31
330.201	138.31
330.43	136.31
330.658	132.31
330.887	124.31
331.115	136.31
331.344	142.31
331.572	152.31
331.801	134.31
332.03	126.31
332.258	164.31
332.486	139.31
332.715	153.31
332.943	148.31
333.172	154.31
333.4	138.31
333.629	156.31
333.857	139.31
334.085	150.31
334.314	146.31
334.542	139.31
334.771	152.31
334.999	146.31
335.227	147.31
335.455	150.31
335.684	149.31
335.912	144.31
336.14	155.31
336.369	138.31
336.597	139.31
336.825	143.31
337.053	154.31
337.281	147.31
337.51	146.31
337.738	140.31
337.966	138.31
338.194	138.31
338.422	141.31
338.65	138.31
338.878	135.31
339.106	144.31
339.334	134.31
339.562	126.31
339.79	145.31
340.018	128.31
340.246	130.31
340.474	130.31
340.702	128.31
340.93	154.31
341.158	133.31
341.386	135.31
341.614	141.31
341.842	126.31
342.07	131.31
342.298	125.31
342.526	139.31
342.754	115.31
342.981	136.31
343.209	150.31
343.437	178.31
343.665	126.31
343.893	152.31
344.12	154.31
344.348	135.31
344.576	143.31
344.804	141.31
345.031	132.31
345.259	149.31
345.487	131.31
345.714	140.31
345.942	149.31
346.17	136.31
346.397	118.31
346.625	134.31
346.853	130.31
347.08	121.31
347.308	128.31
347.535	132.31
347.763	134.31
347.99	125.31
348.218	141.31
348.445	132.31
348.673	130.31
348.9	149.31
349.128	162.31
349.355	136.31
349.583	125.31
349.81	140.31
350.037	135.31
350.265	139.31
350.492	134.31
350.72	120.31
350.947	127.31
351.174	123.31
351.402	112.31
351.629	139.31
351.856	123.31
352.083	119.31
352.311	140.31
352.538	125.31
352.765	123.31
352.992	137.31
353.22	124.31
353.447	141.31
353.674	139.31
353.901	131.31
354.128	142.31
354.355	136.31
354.583	146.31
354.81	156.31
355.037	139.31
355.264	129.31
355.491	140.31
355.718	144.31
355.945	142.31
356.172	136.31
356.399	125.31
356.626	143.31
356.853	135.31
357.08	132.31
357.307	130.31
357.534	141.31
357.761	140.31
357.988	139.31
358.215	159.31
358.441	130.31
358.668	134.31
358.895	148.31
359.122	138.31
359.349	130.31
359.576	128.31
359.802	119.31
360.029	121.31
360.256	155.31
360.483	135.31
360.709	132.31
360.936	141.31
361.163	139.31
361.39	146.31
361.616	124.31
361.843	120.31
362.07	146.31
362.296	147.31
362.523	140.31
362.749	134.31
362.976	126.31
363.203	138.31
363.429	146.31
363.656	142.31
363.882	138.31
364.109	145.31
364.335	135.31
364.562	132.31
364.788	134.31
365.015	131.31
365.241	141.31
365.468	155.31
365.694	135.31
365.92	134.31
366.147	119.31
366.373	127.31
366.599	136.31
366.826	122.31
367.052	141.31
367.278	137.31
367.505	139.31
367.731	156.31
367.957	142.31
368.184	132.31
368.41	144.31
368.636	139.31
368.862	135.31
369.089	139.31
369.315	141.31
369.541	153.31
369.767	143.31
369.993	151.31
370.219	133.31
370.445	134.31
370.672	137.31
370.898	136.31
371.124	139.31
371.35	130.31
371.576	136.31
371.802	132.31
372.028	148.31
372.254	135.31
372.48	148.31
372.706	124.31
372.932	136.31
373.158	146.31
373.384	166.31
373.61	147.31
373.835	148.31
374.061	151.31
374.287	154.31
374.513	154.31
374.739	153.31
374.965	141.31
375.191	164.31
375.416	152.31
375.642	139.31
375.868	156.31
376.094	160.31
376.319	158.31
376.545	139.31
376.771	146.31
376.997	135.31
377.222	151.31
377.448	134.31
377.674	133.31
377.899	146.31
378.125	154.31
378.35	155.31
378.576	150.31
378.802	130.31
379.027	137.31
379.253	150.31
379.478	146.31
379.704	134.31
379.929	136.31
380.155	131.31
380.38	136.31
380.606	156.31
380.831	155.31
381.057	166.31
381.282	146.31
381.507	149.31
381.733	146.31
381.958	137.31
382.184	151.31
382.409	136.31
382.634	174.31
382.86	162.31
383.085	139.31
383.31	153.31
383.535	154.31
383.761	161.31
383.986	171.31
384.211	168.31
384.436	152.31
384.662	161.31
384.887	167.31
385.112	176.31
385.337	165.31
385.562	166.31
385.787	158.31
386.013	151.31
386.238	154.31
386.463	166.31
386.688	190.31
386.913	152.31
387.138	167.31
387.363	170.31
387.588	168.31
387.813	165.31
388.038	172.31
388.263	172.31
388.488	158.31
388.713	167.31
388.938	167.31
389.163	153.31
389.387	162.31
389.612	170.31
389.837	172.31
390.062	154.31
390.287	171.31
390.512	164.31
390.736	166.31
390.961	149.31
391.186	167.31
391.411	158.31
391.636	165.31
391.86	174.31
392.085	168.31
392.31	185.31
392.534	180.31
392.759	175.31
392.984	174.31
393.208	163.31
393.433	165.31
393.658	186.31
393.882	170.31
394.107	165.31
394.331	166.31
394.556	161.31
394.78	150.31
395.005	176.31
395.229	156.31
395.454	182.31
395.678	158.31
395.903	176.31
396.127	192.31
396.352	166.31
396.576	166.31
396.801	180.31
397.025	182.31
397.249	196.31
397.474	184.31
397.698	189.31
397.922	171.31
398.147	185.31
398.371	183.31
398.595	173.31
398.82	184.31
399.044	188.31
399.268	197.31
399.492	230.31
399.717	251.31
399.941	234.31
400.165	226.31
400.389	218.31
400.613	177.31
400.837	187.31
401.062	200.31
401.286	187.31
401.51	196.31
401.734	184.31
401.958	186.31
402.182	200.31
402.406	196.31
402.63	211.31
402.854	192.31
403.078	215.31
403.302	203.31
403.526	188.31
403.75	210.31
403.974	204.31
404.198	208.31
404.422	211.31
404.645	212.31
404.869	206.31
405.093	206.31
405.317	204.31
405.541	195.31
405.765	226.31
405.988	195.31
406.212	207.31
406.436	204.31
406.66	207.31
406.883	206.31
407.107	225.31
407.331	220.31
407.555	227.31
407.778	230.31
408.002	240.31
408.226	210.31
408.449	206.31
408.673	219.31
408.896	215.31
409.12	201.31
409.344	194.31
409.567	204.31
409.791	212.31
410.014	196.31
410.238	197.31
410.461	211.31
410.685	208.31
410.908	212.31
411.132	190.31
411.355	193.31
411.578	215.31
411.802	198.31
412.025	190.31
412.249	200.31
412.472	193.31
412.695	184.31
412.919	184.31
413.142	196.31
413.365	191.31
413.589	180.31
413.812	192.31
414.035	208.31
414.258	197.31
414.482	203.31
414.705	187.31
414.928	199.31
415.151	201.31
415.374	194.31
415.597	190.31
415.821	189.31
416.044	188.31
416.267	187.31
416.49	185.31
416.713	194.31
416.936	204.31
417.159	204.31
417.382	187.31
417.605	193.31
417.828	196.31
418.051	194.31
418.274	207.31
418.497	207.31
418.72	181.31
418.943	196.31
419.166	207.31
419.389	227.31
419.611	201.31
419.834	212.31
420.057	210.31
420.28	189.31
420.503	193.31
420.726	198.31
420.948	203.31
421.171	201.31
421.394	198.31
421.617	192.31
421.839	199.31
422.062	205.31
422.285	209.31
422.507	203.31
422.73	194.31
422.953	203.31
423.175	211.31
423.398	207.31
423.621	217.31
423.843	214.31
424.066	215.31
424.288	212.31
424.511	196.31
424.733	199.31
424.956	198.31
425.178	205.31
425.401	185.31
425.623	191.31
425.846	186.31
426.068	194.31
426.291	191.31
426.513	190.31
426.735	202.31
426.958	190.31
427.18	193.31
427.402	197.31
427.625	182.31
427.847	172.31
428.069	182.31
428.292	194.31
428.514	185.31
428.736	183.31
428.958	183.31
429.181	209.31
429.403	171.31
429.625	181.31
429.847	166.31
430.069	201.31
430.292	190.31
430.514	172.31
430.736	174.31
430.958	188.31
431.18	181.31
431.402	180.31
431.624	186.31
431.846	187.31
432.068	174.31
432.29	176.31
432.512	175.31
432.734	182.31
432.956	189.31
433.178	207.31
433.4	204.31
433.622	198.31
433.844	191.31
434.066	188.31
434.287	170.31
434.509	172.31
434.731	181.31
434.953	190.31
435.175	183.31
435.397	186.31
435.618	183.31
435.84	172.31
436.062	183.31
436.284	202.31
436.505	176.31
436.727	186.31
436.949	201.31
437.17	191.31
437.392	191.31
437.614	196.31
437.835	194.31
438.057	178.31
438.278	160.31
438.5	172.31
438.721	187.31
438.943	185.31
439.165	182.31
439.386	183.31
439.608	192.31
439.829	192.31
440.05	209.31
440.272	198.31
440.493	198.31
440.715	198.31
440.936	188.31
441.158	188.31
441.379	204.31
441.6	195.31
441.822	212.31
442.043	217.31
442.264	195.31
442.486	194.31
442.707	197.31
442.928	196.31
443.149	209.31
443.371	196.31
443.592	206.31
443.813	219.31
444.034	220.31
444.255	207.31
444.476	204.31
444.698	218.31
444.919	222.31
445.14	416.31
445.361	291.31
445.582	199.31
445.803	196.31
446.024	215.31
446.245	216.31
446.466	200.31
446.687	198.31
446.908	207.31
447.129	215.31
447.35	199.31
447.571	198.31
447.792	191.31
448.013	187.31
448.234	186.31
448.455	203.31
448.675	187.31
448.896	204.31
449.117	192.31
449.338	182.31
449.559	196.31
449.779	182.31
450	199.31
450.221	191.31
450.442	183.31
450.662	201.31
450.883	194.31
451.104	180.31
451.324	194.31
451.545	182.31
451.766	180.31
451.986	200.31
452.207	179.31
452.428	190.31
452.648	167.31
452.869	178.31
453.089	189.31
453.31	169.31
453.53	153.31
453.751	182.31
453.971	155.31
454.192	167.31
454.412	151.31
454.633	162.31
454.853	182.31
455.073	186.31
455.294	176.31
455.514	170.31
455.734	172.31
455.955	171.31
456.175	161.31
456.395	170.31
456.616	164.31
456.836	162.31
457.056	166.31
457.276	167.31
457.497	176.31
457.717	163.31
457.937	168.31
458.157	147.31
458.377	166.31
458.598	142.31
458.818	152.31
459.038	180.31
459.258	154.31
459.478	153.31
459.698	179.31
459.918	179.31
460.138	173.31
460.358	200.31
460.578	215.31
460.798	202.31
461.018	203.31
461.238	200.31
461.458	194.31
461.678	190.31
461.898	202.31
462.118	201.31
462.338	208.31
462.558	205.31
462.777	217.31
462.997	223.31
463.217	232.31
463.437	229.31
463.657	208.31
463.876	220.31
464.096	220.31
464.316	223.31
464.536	230.31
464.755	218.31
464.975	212.31
465.195	199.31
465.414	196.31
465.634	176.31
465.854	182.31
466.073	188.31
466.293	169.31
466.512	191.31
466.732	193.31
466.951	192.31
467.171	193.31
467.391	179.31
467.61	184.31
467.829	191.31
468.049	187.31
468.268	187.31
468.488	182.31
468.707	174.31
468.927	190.31
469.146	182.31
469.365	202.31
469.585	183.31
469.804	192.31
470.023	186.31
470.243	197.31
470.462	196.31
470.681	206.31
470.901	206.31
471.12	187.31
471.339	195.31
471.558	188.31
471.777	177.31
471.997	179.31
472.216	171.31
472.435	172.31
472.654	160.31
472.873	176.31
473.092	177.31
473.311	177.31
473.53	179.31
473.749	184.31
473.968	195.31
474.187	189.31
474.406	186.31
474.625	189.31
474.844	178.31
475.063	188.31
475.282	163.31
475.501	176.31
475.72	188.31
475.939	182.31
476.158	192.31
476.377	173.31
476.596	170.31
476.814	175.31
477.033	186.31
477.252	171.31
477.471	185.31
477.69	208.31
477.908	195.31
478.127	226.31
478.346	215.31
478.564	216.31
478.783	199.31
479.002	205.31
479.22	213.31
479.439	198.31
479.658	200.31
479.876	187.31
480.095	196.31
480.313	210.31
480.532	216.31
480.751	206.31
480.969	175.31
481.188	180.31
481.406	168.31
481.624	176.31
481.843	168.31
482.061	185.31
482.28	205.31
482.498	183.31
482.717	184.31
482.935	205.31
483.153	186.31
483.372	211.31
483.59	200.31
483.808	208.31
484.027	211.31
484.245	194.31
484.463	201.31
484.681	194.31
484.9	201.31
485.118	206.31
485.336	196.31
485.554	174.31
485.772	184.31
485.99	182.31
486.209	199.31
486.427	191.31
486.645	191.31
486.863	206.31
487.081	207.31
487.299	203.31
487.517	207.31
487.735	237.31
487.953	234.31
488.171	238.31
488.389	207.31
488.607	205.31
488.825	198.31
489.043	203.31
489.261	214.31
489.479	216.31
489.696	214.31
489.914	197.31
490.132	205.31
490.35	203.31
490.568	220.31
490.786	216.31
491.003	213.31
491.221	215.31
491.439	239.31
491.657	251.31
491.874	243.31
492.092	264.31
492.31	286.31
492.527	250.31
492.745	226.31
492.963	238.31
493.18	227.31
493.398	250.31
493.615	232.31
493.833	235.31
494.05	230.31
494.268	243.31
494.485	232.31
494.703	219.31
494.92	232.31
495.138	224.31
495.355	241.31
495.573	230.31
495.79	217.31
496.008	232.31
496.225	227.31
496.442	235.31
496.66	242.31
496.877	228.31
497.094	239.31
497.312	246.31
497.529	235.31
497.746	221.31
497.963	223.31
498.181	218.31
498.398	230.31
498.615	251.31
498.832	253.31
499.049	258.31
499.267	283.31
499.484	305.31
499.701	328.31
499.918	356.31
500.135	367.31
500.352	407.31
500.569	424.31
500.786	429.31
501.003	384.31
501.22	368.31
501.437	319.31
501.654	290.31
501.871	274.31
502.088	271.31
502.305	265.31
502.522	255.31
502.739	241.31
502.956	239.31
503.172	228.31
503.389	211.31
503.606	219.31
503.823	206.31
504.04	218.31
504.256	220.31
504.473	218.31
504.69	222.31
