Data from SampD_HRD10591_00020.txt Node
Date: Mon Jan 19 11:50:22 EST 2026
User: Yrep
Spectrometer: HR+D1059
Trigger mode: 0
Integration Time (sec): 3.443000E-1
Scans to average: 1
Electric dark correction enabled: true
Nonlinearity correction enabled: false
Boxcar width: 0
XAxis mode: Wavelengths
Number of Pixels in Spectrum: 2048
>>>>>Begin Spectral Data<<<<<
223.165	-34.75
223.4	-34.75
223.635	-34.75
223.869	-32.75
224.104	-12.75
224.338	-27.75
224.573	-24.75
224.808	-8.75
225.042	15.25
225.277	-0.75
225.511	-3.75
225.746	18.25
225.98	2.25
226.215	14.25
226.449	21.25
226.683	17.25
226.918	29.25
227.152	28.25
227.387	38.25
227.621	42.25
227.856	43.25
228.09	51.25
228.324	47.25
228.559	48.25
228.793	48.25
229.027	50.25
229.262	73.25
229.496	75.25
229.73	84.25
229.964	72.25
230.199	78.25
230.433	79.25
230.667	82.25
230.901	65.25
231.136	81.25
231.37	70.25
231.604	80.25
231.838	91.25
232.072	72.25
232.306	91.25
232.541	79.25
232.775	77.25
233.009	92.25
233.243	71.25
233.477	82.25
233.711	84.25
233.945	94.25
234.179	79.25
234.413	78.25
234.647	71.25
234.881	82.25
235.115	76.25
235.349	91.25
235.583	70.25
235.817	78.25
236.051	79.25
236.285	86.25
236.519	95.25
236.753	79.25
236.987	70.25
237.221	82.25
237.455	76.25
237.689	84.25
237.922	86.25
238.156	76.25
238.39	81.25
238.624	78.25
238.858	89.25
239.091	88.25
239.325	82.25
239.559	65.25
239.793	68.25
240.027	94.25
240.26	85.25
240.494	84.25
240.728	92.25
240.961	74.25
241.195	76.25
241.429	86.25
241.662	83.25
241.896	73.25
242.13	71.25
242.363	90.25
242.597	83.25
242.83	95.25
243.064	67.25
243.298	88.25
243.531	80.25
243.765	75.25
243.998	86.25
244.232	82.25
244.465	79.25
244.699	95.25
244.932	95.25
245.166	84.25
245.399	70.25
245.633	94.25
245.866	86.25
246.099	93.25
246.333	90.25
246.566	94.25
246.8	86.25
247.033	76.25
247.266	83.25
247.5	87.25
247.733	83.25
247.966	97.25
248.2	97.25
248.433	75.25
248.666	71.25
248.899	87.25
249.133	86.25
249.366	100.25
249.599	79.25
249.832	88.25
250.066	91.25
250.299	88.25
250.532	95.25
250.765	96.25
250.998	96.25
251.231	80.25
251.465	93.25
251.698	73.25
251.931	87.25
252.164	83.25
252.397	79.25
252.63	95.25
252.863	89.25
253.096	98.25
253.329	100.25
253.562	99.25
253.795	99.25
254.028	97.25
254.261	84.25
254.494	99.25
254.727	100.25
254.96	87.25
255.193	89.25
255.426	79.25
255.659	85.25
255.892	102.25
256.124	95.25
256.357	109.25
256.59	88.25
256.823	103.25
257.056	87.25
257.289	116.25
257.521	107.25
257.754	88.25
257.987	87.25
258.22	106.25
258.452	92.25
258.685	87.25
258.918	103.25
259.151	110.25
259.383	90.25
259.616	88.25
259.849	72.25
260.081	92.25
260.314	93.25
260.547	109.25
260.779	94.25
261.012	93.25
261.244	98.25
261.477	104.25
261.71	90.25
261.942	101.25
262.175	84.25
262.407	83.25
262.64	104.25
262.872	101.25
263.105	89.25
263.337	122.25
263.57	91.25
263.802	90.25
264.035	97.25
264.267	86.25
264.499	103.25
264.732	97.25
264.964	108.25
265.197	97.25
265.429	87.25
265.661	111.25
265.894	112.25
266.126	106.25
266.358	94.25
266.591	104.25
266.823	104.25
267.055	108.25
267.287	113.25
267.52	100.25
267.752	112.25
267.984	104.25
268.216	103.25
268.448	116.25
268.681	112.25
268.913	112.25
269.145	108.25
269.377	101.25
269.609	110.25
269.841	100.25
270.073	103.25
270.306	98.25
270.538	108.25
270.77	95.25
271.002	107.25
271.234	98.25
271.466	124.25
271.698	102.25
271.93	95.25
272.162	112.25
272.394	119.25
272.626	99.25
272.858	106.25
273.09	107.25
273.322	100.25
273.553	99.25
273.785	111.25
274.017	93.25
274.249	105.25
274.481	108.25
274.713	98.25
274.945	107.25
275.176	107.25
275.408	108.25
275.64	101.25
275.872	94.25
276.104	104.25
276.335	117.25
276.567	92.25
276.799	108.25
277.031	97.25
277.262	104.25
277.494	112.25
277.726	112.25
277.957	97.25
278.189	112.25
278.421	122.25
278.652	98.25
278.884	105.25
279.115	94.25
279.347	117.25
279.579	102.25
279.81	99.25
280.042	96.25
280.273	98.25
280.505	100.25
280.736	103.25
280.968	100.25
281.199	121.25
281.431	107.25
281.662	125.25
281.894	113.25
282.125	125.25
282.356	108.25
282.588	118.25
282.819	120.25
283.051	129.25
283.282	117.25
283.513	126.25
283.745	112.25
283.976	124.25
284.207	114.25
284.439	118.25
284.67	119.25
284.901	126.25
285.132	108.25
285.364	113.25
285.595	124.25
285.826	113.25
286.057	117.25
286.288	112.25
286.52	112.25
286.751	131.25
286.982	126.25
287.213	110.25
287.444	109.25
287.675	119.25
287.906	115.25
288.138	114.25
288.369	111.25
288.6	116.25
288.831	127.25
289.062	134.25
289.293	114.25
289.524	116.25
289.755	120.25
289.986	110.25
290.217	103.25
290.448	116.25
290.679	107.25
290.91	113.25
291.141	103.25
291.371	121.25
291.602	118.25
291.833	108.25
292.064	114.25
292.295	102.25
292.526	115.25
292.757	124.25
292.987	125.25
293.218	126.25
293.449	104.25
293.68	124.25
293.91	107.25
294.141	115.25
294.372	120.25
294.603	109.25
294.833	111.25
295.064	106.25
295.295	103.25
295.525	119.25
295.756	119.25
295.987	129.25
296.217	120.25
296.448	112.25
296.679	119.25
296.909	127.25
297.14	108.25
297.37	145.25
297.601	117.25
297.831	117.25
298.062	118.25
298.292	123.25
298.523	128.25
298.753	135.25
298.984	120.25
299.214	123.25
299.445	121.25
299.675	137.25
299.905	121.25
300.136	113.25
300.366	120.25
300.597	131.25
300.827	127.25
301.057	136.25
301.288	119.25
301.518	120.25
301.748	123.25
301.979	162.25
302.209	129.25
302.439	114.25
302.669	106.25
302.9	127.25
303.13	134.25
303.36	136.25
303.59	142.25
303.82	134.25
304.051	112.25
304.281	113.25
304.511	122.25
304.741	120.25
304.971	116.25
305.201	123.25
305.431	124.25
305.661	111.25
305.891	131.25
306.121	119.25
306.352	128.25
306.582	126.25
306.812	114.25
307.042	116.25
307.272	114.25
307.502	121.25
307.731	125.25
307.961	116.25
308.191	123.25
308.421	131.25
308.651	127.25
308.881	105.25
309.111	123.25
309.341	108.25
309.571	121.25
309.8	116.25
310.03	118.25
310.26	123.25
310.49	137.25
310.72	134.25
310.949	116.25
311.179	126.25
311.409	124.25
311.639	116.25
311.868	131.25
312.098	136.25
312.328	137.25
312.557	118.25
312.787	131.25
313.017	146.25
313.246	149.25
313.476	138.25
313.706	120.25
313.935	128.25
314.165	123.25
314.394	130.25
314.624	138.25
314.853	132.25
315.083	130.25
315.312	114.25
315.542	122.25
315.771	122.25
316.001	123.25
316.23	126.25
316.46	116.25
316.689	126.25
316.919	129.25
317.148	127.25
317.377	139.25
317.607	122.25
317.836	130.25
318.065	123.25
318.295	126.25
318.524	116.25
318.753	139.25
318.983	124.25
319.212	140.25
319.441	127.25
319.67	119.25
319.9	123.25
320.129	134.25
320.358	120.25
320.587	132.25
320.816	119.25
321.046	134.25
321.275	122.25
321.504	124.25
321.733	127.25
321.962	124.25
322.191	131.25
322.42	127.25
322.649	133.25
322.878	119.25
323.108	131.25
323.337	136.25
323.566	134.25
323.795	130.25
324.024	122.25
324.253	119.25
324.482	132.25
324.71	118.25
324.939	129.25
325.168	112.25
325.397	133.25
325.626	143.25
325.855	131.25
326.084	137.25
326.313	134.25
326.542	135.25
326.77	115.25
326.999	129.25
327.228	126.25
327.457	128.25
327.686	126.25
327.914	128.25
328.143	137.25
328.372	133.25
328.6	131.25
328.829	130.25
329.058	117.25
329.287	121.25
329.515	138.25
329.744	132.25
329.972	142.25
330.201	127.25
330.43	123.25
330.658	128.25
330.887	130.25
331.115	137.25
331.344	137.25
331.572	141.25
331.801	139.25
332.03	144.25
332.258	143.25
332.486	136.25
332.715	135.25
332.943	143.25
333.172	164.25
333.4	164.25
333.629	164.25
333.857	157.25
334.085	159.25
334.314	142.25
334.542	136.25
334.771	135.25
334.999	152.25
335.227	130.25
335.455	135.25
335.684	162.25
335.912	140.25
336.14	153.25
336.369	157.25
336.597	142.25
336.825	162.25
337.053	156.25
337.281	153.25
337.51	132.25
337.738	127.25
337.966	127.25
338.194	137.25
338.422	138.25
338.65	161.25
338.878	154.25
339.106	147.25
339.334	155.25
339.562	119.25
339.79	125.25
340.018	127.25
340.246	145.25
340.474	126.25
340.702	137.25
340.93	130.25
341.158	132.25
341.386	129.25
341.614	134.25
341.842	139.25
342.07	124.25
342.298	134.25
342.526	142.25
342.754	145.25
342.981	140.25
343.209	136.25
343.437	178.25
343.665	143.25
343.893	142.25
344.12	156.25
344.348	154.25
344.576	127.25
344.804	133.25
345.031	151.25
345.259	129.25
345.487	122.25
345.714	141.25
345.942	136.25
346.17	143.25
346.397	133.25
346.625	129.25
346.853	126.25
347.08	137.25
347.308	132.25
347.535	133.25
347.763	134.25
347.99	139.25
348.218	130.25
348.445	126.25
348.673	138.25
348.9	129.25
349.128	118.25
349.355	143.25
349.583	135.25
349.81	125.25
350.037	129.25
350.265	130.25
350.492	133.25
350.72	123.25
350.947	125.25
351.174	136.25
351.402	131.25
351.629	112.25
351.856	115.25
352.083	139.25
352.311	146.25
352.538	120.25
352.765	130.25
352.992	152.25
353.22	134.25
353.447	122.25
353.674	131.25
353.901	137.25
354.128	139.25
354.355	132.25
354.583	121.25
354.81	138.25
355.037	125.25
355.264	134.25
355.491	131.25
355.718	122.25
355.945	140.25
356.172	138.25
356.399	137.25
356.626	151.25
356.853	146.25
357.08	134.25
357.307	136.25
357.534	142.25
357.761	139.25
357.988	139.25
358.215	138.25
358.441	134.25
358.668	127.25
358.895	135.25
359.122	129.25
359.349	147.25
359.576	144.25
359.802	122.25
360.029	136.25
360.256	141.25
360.483	122.25
360.709	129.25
360.936	128.25
361.163	137.25
361.39	127.25
361.616	124.25
361.843	126.25
362.07	135.25
362.296	131.25
362.523	131.25
362.749	131.25
362.976	129.25
363.203	130.25
363.429	118.25
363.656	127.25
363.882	117.25
364.109	132.25
364.335	146.25
364.562	117.25
364.788	134.25
365.015	140.25
365.241	131.25
365.468	137.25
365.694	131.25
365.92	138.25
366.147	132.25
366.373	127.25
366.599	125.25
366.826	128.25
367.052	127.25
367.278	138.25
367.505	128.25
367.731	139.25
367.957	123.25
368.184	135.25
368.41	137.25
368.636	137.25
368.862	132.25
369.089	131.25
369.315	124.25
369.541	145.25
369.767	124.25
369.993	137.25
370.219	139.25
370.445	124.25
370.672	122.25
370.898	130.25
371.124	137.25
371.35	163.25
371.576	136.25
371.802	144.25
372.028	135.25
372.254	133.25
372.48	121.25
372.706	147.25
372.932	139.25
373.158	139.25
373.384	141.25
373.61	130.25
373.835	148.25
374.061	145.25
374.287	144.25
374.513	143.25
374.739	143.25
374.965	142.25
375.191	149.25
375.416	127.25
375.642	137.25
375.868	149.25
376.094	161.25
376.319	138.25
376.545	144.25
376.771	150.25
376.997	169.25
377.222	127.25
377.448	128.25
377.674	142.25
377.899	144.25
378.125	134.25
378.35	134.25
378.576	134.25
378.802	126.25
379.027	127.25
379.253	135.25
379.478	120.25
379.704	139.25
379.929	126.25
380.155	148.25
380.38	140.25
380.606	128.25
380.831	133.25
381.057	153.25
381.282	127.25
381.507	147.25
381.733	129.25
381.958	145.25
382.184	137.25
382.409	158.25
382.634	146.25
382.86	142.25
383.085	152.25
383.31	155.25
383.535	173.25
383.761	160.25
383.986	168.25
384.211	161.25
384.436	153.25
384.662	170.25
384.887	136.25
385.112	158.25
385.337	158.25
385.562	154.25
385.787	167.25
386.013	145.25
386.238	152.25
386.463	177.25
386.688	186.25
386.913	168.25
387.138	146.25
387.363	163.25
387.588	164.25
387.813	160.25
388.038	172.25
388.263	171.25
388.488	142.25
388.713	167.25
388.938	162.25
389.163	155.25
389.387	161.25
389.612	165.25
389.837	167.25
390.062	158.25
390.287	153.25
390.512	164.25
390.736	165.25
390.961	173.25
391.186	167.25
391.411	169.25
391.636	175.25
391.86	182.25
392.085	165.25
392.31	167.25
392.534	166.25
392.759	165.25
392.984	166.25
393.208	177.25
393.433	159.25
393.658	175.25
393.882	162.25
394.107	180.25
394.331	177.25
394.556	161.25
394.78	171.25
395.005	172.25
395.229	172.25
395.454	178.25
395.678	176.25
395.903	172.25
396.127	171.25
396.352	190.25
396.576	182.25
396.801	182.25
397.025	190.25
397.249	191.25
397.474	185.25
397.698	171.25
397.922	177.25
398.147	161.25
398.371	169.25
398.595	184.25
398.82	174.25
399.044	193.25
399.268	198.25
399.492	231.25
399.717	243.25
399.941	216.25
400.165	212.25
400.389	210.25
400.613	184.25
400.837	193.25
401.062	191.25
401.286	197.25
401.51	187.25
401.734	176.25
401.958	191.25
402.182	187.25
402.406	200.25
402.63	190.25
402.854	209.25
403.078	197.25
403.302	201.25
403.526	214.25
403.75	202.25
403.974	190.25
404.198	208.25
404.422	211.25
404.645	199.25
404.869	193.25
405.093	218.25
405.317	209.25
405.541	203.25
405.765	216.25
405.988	185.25
406.212	211.25
406.436	197.25
406.66	216.25
406.883	202.25
407.107	216.25
407.331	220.25
407.555	207.25
407.778	229.25
408.002	201.25
408.226	194.25
408.449	220.25
408.673	198.25
408.896	194.25
409.12	201.25
409.344	203.25
409.567	203.25
409.791	217.25
410.014	219.25
410.238	197.25
410.461	212.25
410.685	194.25
410.908	216.25
411.132	211.25
411.355	193.25
411.578	191.25
411.802	206.25
412.025	180.25
412.249	198.25
412.472	199.25
412.695	209.25
412.919	190.25
413.142	199.25
413.365	195.25
413.589	201.25
413.812	201.25
414.035	188.25
414.258	192.25
414.482	195.25
414.705	190.25
414.928	199.25
415.151	177.25
415.374	200.25
415.597	188.25
415.821	182.25
416.044	201.25
416.267	182.25
416.49	193.25
416.713	172.25
416.936	181.25
417.159	200.25
417.382	197.25
417.605	190.25
417.828	194.25
418.051	191.25
418.274	208.25
418.497	211.25
418.72	211.25
418.943	207.25
419.166	199.25
419.389	216.25
419.611	219.25
419.834	210.25
420.057	202.25
420.28	186.25
420.503	179.25
420.726	198.25
420.948	192.25
421.171	198.25
421.394	200.25
421.617	223.25
421.839	206.25
422.062	204.25
422.285	208.25
422.507	206.25
422.73	198.25
422.953	194.25
423.175	207.25
423.398	203.25
423.621	211.25
423.843	214.25
424.066	201.25
424.288	202.25
424.511	214.25
424.733	210.25
424.956	198.25
425.178	187.25
425.401	203.25
425.623	183.25
425.846	184.25
426.068	183.25
426.291	191.25
426.513	180.25
426.735	194.25
426.958	202.25
427.18	181.25
427.402	212.25
427.625	178.25
427.847	170.25
428.069	185.25
428.292	192.25
428.514	196.25
428.736	171.25
428.958	185.25
429.181	176.25
429.403	184.25
429.625	184.25
429.847	185.25
430.069	184.25
430.292	187.25
430.514	199.25
430.736	175.25
430.958	201.25
431.18	181.25
431.402	185.25
431.624	180.25
431.846	180.25
432.068	183.25
432.29	175.25
432.512	190.25
432.734	193.25
432.956	199.25
433.178	188.25
433.4	187.25
433.622	184.25
433.844	200.25
434.066	191.25
434.287	159.25
434.509	178.25
434.731	185.25
434.953	183.25
435.175	190.25
435.397	197.25
435.618	190.25
435.84	195.25
436.062	180.25
436.284	170.25
436.505	176.25
436.727	182.25
436.949	168.25
437.17	181.25
437.392	184.25
437.614	172.25
437.835	163.25
438.057	169.25
438.278	171.25
438.5	197.25
438.721	197.25
438.943	190.25
439.165	185.25
439.386	169.25
439.608	211.25
439.829	178.25
440.05	201.25
440.272	200.25
440.493	195.25
440.715	212.25
440.936	201.25
441.158	190.25
441.379	194.25
441.6	212.25
441.822	208.25
442.043	211.25
442.264	212.25
442.486	208.25
442.707	191.25
442.928	206.25
443.149	208.25
443.371	206.25
443.592	201.25
443.813	201.25
444.034	198.25
444.255	220.25
444.476	215.25
444.698	231.25
444.919	219.25
445.14	403.25
445.361	290.25
445.582	216.25
445.803	200.25
446.024	212.25
446.245	208.25
446.466	214.25
446.687	199.25
446.908	216.25
447.129	189.25
447.35	195.25
447.571	194.25
447.792	198.25
448.013	178.25
448.234	183.25
448.455	177.25
448.675	183.25
448.896	198.25
449.117	192.25
449.338	180.25
449.559	190.25
449.779	166.25
450	186.25
450.221	181.25
450.442	179.25
450.662	199.25
450.883	187.25
451.104	188.25
451.324	173.25
451.545	200.25
451.766	176.25
451.986	178.25
452.207	185.25
452.428	180.25
452.648	186.25
452.869	175.25
453.089	166.25
453.31	169.25
453.53	170.25
453.751	158.25
453.971	163.25
454.192	169.25
454.412	152.25
454.633	167.25
454.853	163.25
455.073	152.25
455.294	166.25
455.514	180.25
455.734	143.25
455.955	155.25
456.175	148.25
456.395	168.25
456.616	153.25
456.836	178.25
457.056	181.25
457.276	161.25
457.497	167.25
457.717	160.25
457.937	163.25
458.157	180.25
458.377	152.25
458.598	142.25
458.818	147.25
459.038	161.25
459.258	161.25
459.478	162.25
459.698	177.25
459.918	176.25
460.138	195.25
460.358	196.25
460.578	190.25
460.798	219.25
461.018	192.25
461.238	208.25
461.458	201.25
461.678	194.25
461.898	208.25
462.118	207.25
462.338	190.25
462.558	212.25
462.777	215.25
462.997	233.25
463.217	225.25
463.437	231.25
463.657	219.25
463.876	218.25
464.096	199.25
464.316	202.25
464.536	208.25
464.755	223.25
464.975	192.25
465.195	200.25
465.414	188.25
465.634	183.25
465.854	172.25
466.073	186.25
466.293	166.25
466.512	178.25
466.732	187.25
466.951	180.25
467.171	180.25
467.391	187.25
467.61	192.25
467.829	188.25
468.049	199.25
468.268	176.25
468.488	169.25
468.707	174.25
468.927	171.25
469.146	176.25
469.365	179.25
469.585	191.25
469.804	182.25
470.023	173.25
470.243	196.25
470.462	170.25
470.681	195.25
470.901	183.25
471.12	190.25
471.339	175.25
471.558	197.25
471.777	174.25
471.997	182.25
472.216	190.25
472.435	164.25
472.654	181.25
472.873	183.25
473.092	173.25
473.311	186.25
473.53	178.25
473.749	172.25
473.968	181.25
474.187	172.25
474.406	174.25
474.625	182.25
474.844	185.25
475.063	177.25
475.282	192.25
475.501	169.25
475.72	184.25
475.939	187.25
476.158	180.25
476.377	180.25
476.596	177.25
476.814	182.25
477.033	175.25
477.252	176.25
477.471	179.25
477.69	190.25
477.908	203.25
478.127	202.25
478.346	184.25
478.564	212.25
478.783	199.25
479.002	188.25
479.22	214.25
479.439	208.25
479.658	196.25
479.876	196.25
480.095	182.25
480.313	201.25
480.532	191.25
480.751	195.25
480.969	192.25
481.188	183.25
481.406	180.25
481.624	166.25
481.843	168.25
482.061	180.25
482.28	176.25
482.498	169.25
482.717	176.25
482.935	194.25
483.153	196.25
483.372	185.25
483.59	210.25
483.808	189.25
484.027	195.25
484.245	197.25
484.463	206.25
484.681	223.25
484.9	218.25
485.118	184.25
485.336	200.25
485.554	190.25
485.772	188.25
485.99	172.25
486.209	181.25
486.427	186.25
486.645	193.25
486.863	201.25
487.081	205.25
487.299	214.25
487.517	223.25
487.735	242.25
487.953	227.25
488.171	230.25
488.389	222.25
488.607	217.25
488.825	207.25
489.043	198.25
489.261	212.25
489.479	199.25
489.696	206.25
489.914	208.25
490.132	212.25
490.35	204.25
490.568	204.25
490.786	224.25
491.003	225.25
491.221	223.25
491.439	227.25
491.657	233.25
491.874	240.25
492.092	269.25
492.31	258.25
492.527	241.25
492.745	237.25
492.963	243.25
493.18	247.25
493.398	222.25
493.615	218.25
493.833	236.25
494.05	237.25
494.268	228.25
494.485	240.25
494.703	248.25
494.92	224.25
495.138	215.25
495.355	239.25
495.573	243.25
495.79	246.25
496.008	243.25
496.225	215.25
496.442	216.25
496.66	244.25
496.877	230.25
497.094	262.25
497.312	219.25
497.529	230.25
497.746	219.25
497.963	211.25
498.181	228.25
498.398	217.25
498.615	233.25
498.832	237.25
499.049	257.25
499.267	276.25
499.484	278.25
499.701	307.25
499.918	356.25
500.135	372.25
500.352	432.25
500.569	433.25
500.786	429.25
501.003	377.25
501.22	361.25
501.437	324.25
501.654	312.25
501.871	270.25
502.088	255.25
502.305	239.25
502.522	241.25
502.739	242.25
502.956	239.25
503.172	238.25
503.389	225.25
503.606	210.25
503.823	215.25
504.04	227.25
504.256	214.25
504.473	222.25
504.69	225.25
504.907	225.25
