Data from SampD_HRD10591_00092.txt Node
Date: Mon Jan 19 11:50:47 EST 2026
User: Yrep
Spectrometer: HR+D1059
Trigger mode: 0
Integration Time (sec): 3.443000E-1
Scans to average: 1
Electric dark correction enabled: true
Nonlinearity correction enabled: false
Boxcar width: 0
XAxis mode: Wavelengths
Number of Pixels in Spectrum: 2048
>>>>>Begin Spectral Data<<<<<
223.165	-22.44
223.4	-22.44
223.635	-22.44
223.869	-13.44
224.104	-22.44
224.338	-22.44
224.573	-24.44
224.808	-6.44
225.042	5.56
225.277	-2.44
225.511	-3.44
225.746	8.56
225.98	11.56
226.215	11.56
226.449	21.56
226.683	5.56
226.918	31.56
227.152	21.56
227.387	30.56
227.621	29.56
227.856	35.56
228.09	42.56
228.324	44.56
228.559	72.56
228.793	65.56
229.027	72.56
229.262	75.56
229.496	75.56
229.73	85.56
229.964	64.56
230.199	57.56
230.433	68.56
230.667	77.56
230.901	72.56
231.136	76.56
231.37	80.56
231.604	83.56
231.838	68.56
232.072	104.56
232.306	101.56
232.541	86.56
232.775	85.56
233.009	79.56
233.243	77.56
233.477	84.56
233.711	82.56
233.945	92.56
234.179	88.56
234.413	86.56
234.647	77.56
234.881	96.56
235.115	88.56
235.349	82.56
235.583	83.56
235.817	99.56
236.051	87.56
236.285	83.56
236.519	76.56
236.753	79.56
236.987	81.56
237.221	83.56
237.455	75.56
237.689	103.56
237.922	79.56
238.156	84.56
238.39	82.56
238.624	69.56
238.858	87.56
239.091	77.56
239.325	76.56
239.559	89.56
239.793	90.56
240.027	104.56
240.26	82.56
240.494	95.56
240.728	81.56
240.961	77.56
241.195	101.56
241.429	81.56
241.662	90.56
241.896	91.56
242.13	81.56
242.363	84.56
242.597	89.56
242.83	80.56
243.064	73.56
243.298	97.56
243.531	85.56
243.765	93.56
243.998	93.56
244.232	91.56
244.465	87.56
244.699	92.56
244.932	85.56
245.166	79.56
245.399	94.56
245.633	80.56
245.866	75.56
246.099	93.56
246.333	95.56
246.566	91.56
246.8	93.56
247.033	87.56
247.266	90.56
247.5	88.56
247.733	91.56
247.966	99.56
248.2	99.56
248.433	83.56
248.666	81.56
248.899	91.56
249.133	87.56
249.366	99.56
249.599	83.56
249.832	83.56
250.066	87.56
250.299	96.56
250.532	99.56
250.765	82.56
250.998	80.56
251.231	93.56
251.465	81.56
251.698	91.56
251.931	95.56
252.164	101.56
252.397	94.56
252.63	85.56
252.863	91.56
253.096	98.56
253.329	91.56
253.562	91.56
253.795	108.56
254.028	92.56
254.261	90.56
254.494	90.56
254.727	98.56
254.96	93.56
255.193	98.56
255.426	84.56
255.659	83.56
255.892	98.56
256.124	91.56
256.357	110.56
256.59	95.56
256.823	96.56
257.056	81.56
257.289	100.56
257.521	90.56
257.754	100.56
257.987	93.56
258.22	108.56
258.452	97.56
258.685	99.56
258.918	81.56
259.151	98.56
259.383	99.56
259.616	90.56
259.849	81.56
260.081	102.56
260.314	95.56
260.547	85.56
260.779	100.56
261.012	82.56
261.244	88.56
261.477	102.56
261.71	97.56
261.942	85.56
262.175	104.56
262.407	102.56
262.64	83.56
262.872	97.56
263.105	93.56
263.337	107.56
263.57	97.56
263.802	107.56
264.035	111.56
264.267	96.56
264.499	96.56
264.732	109.56
264.964	95.56
265.197	94.56
265.429	95.56
265.661	109.56
265.894	91.56
266.126	118.56
266.358	100.56
266.591	112.56
266.823	96.56
267.055	104.56
267.287	113.56
267.52	99.56
267.752	100.56
267.984	103.56
268.216	116.56
268.448	108.56
268.681	105.56
268.913	124.56
269.145	106.56
269.377	100.56
269.609	90.56
269.841	108.56
270.073	90.56
270.306	108.56
270.538	97.56
270.77	97.56
271.002	97.56
271.234	100.56
271.466	113.56
271.698	89.56
271.93	98.56
272.162	101.56
272.394	106.56
272.626	116.56
272.858	101.56
273.09	113.56
273.322	107.56
273.553	111.56
273.785	95.56
274.017	94.56
274.249	121.56
274.481	108.56
274.713	100.56
274.945	115.56
275.176	91.56
275.408	98.56
275.64	105.56
275.872	97.56
276.104	115.56
276.335	104.56
276.567	97.56
276.799	96.56
277.031	99.56
277.262	112.56
277.494	126.56
277.726	113.56
277.957	109.56
278.189	109.56
278.421	110.56
278.652	105.56
278.884	113.56
279.115	121.56
279.347	109.56
279.579	101.56
279.81	104.56
280.042	119.56
280.273	106.56
280.505	104.56
280.736	117.56
280.968	114.56
281.199	114.56
281.431	115.56
281.662	106.56
281.894	125.56
282.125	107.56
282.356	101.56
282.588	115.56
282.819	106.56
283.051	123.56
283.282	118.56
283.513	108.56
283.745	115.56
283.976	113.56
284.207	106.56
284.439	116.56
284.67	111.56
284.901	97.56
285.132	110.56
285.364	109.56
285.595	99.56
285.826	117.56
286.057	117.56
286.288	120.56
286.52	111.56
286.751	117.56
286.982	121.56
287.213	120.56
287.444	115.56
287.675	117.56
287.906	118.56
288.138	128.56
288.369	121.56
288.6	125.56
288.831	127.56
289.062	118.56
289.293	119.56
289.524	106.56
289.755	108.56
289.986	123.56
290.217	131.56
290.448	115.56
290.679	114.56
290.91	111.56
291.141	108.56
291.371	126.56
291.602	109.56
291.833	105.56
292.064	131.56
292.295	102.56
292.526	99.56
292.757	126.56
292.987	120.56
293.218	114.56
293.449	108.56
293.68	121.56
293.91	120.56
294.141	100.56
294.372	121.56
294.603	129.56
294.833	133.56
295.064	122.56
295.295	127.56
295.525	113.56
295.756	139.56
295.987	108.56
296.217	120.56
296.448	112.56
296.679	116.56
296.909	122.56
297.14	117.56
297.37	143.56
297.601	117.56
297.831	126.56
298.062	137.56
298.292	133.56
298.523	125.56
298.753	124.56
298.984	106.56
299.214	120.56
299.445	117.56
299.675	108.56
299.905	114.56
300.136	118.56
300.366	122.56
300.597	130.56
300.827	115.56
301.057	120.56
301.288	123.56
301.518	129.56
301.748	115.56
301.979	183.56
302.209	128.56
302.439	119.56
302.669	129.56
302.9	119.56
303.13	129.56
303.36	126.56
303.59	122.56
303.82	136.56
304.051	143.56
304.281	132.56
304.511	118.56
304.741	115.56
304.971	116.56
305.201	132.56
305.431	136.56
305.661	107.56
305.891	125.56
306.121	127.56
306.352	110.56
306.582	113.56
306.812	130.56
307.042	114.56
307.272	106.56
307.502	113.56
307.731	119.56
307.961	130.56
308.191	120.56
308.421	114.56
308.651	121.56
308.881	125.56
309.111	110.56
309.341	117.56
309.571	117.56
309.8	117.56
310.03	111.56
310.26	116.56
310.49	123.56
310.72	134.56
310.949	130.56
311.179	121.56
311.409	112.56
311.639	124.56
311.868	136.56
312.098	132.56
312.328	124.56
312.557	126.56
312.787	112.56
313.017	133.56
313.246	122.56
313.476	131.56
313.706	136.56
313.935	124.56
314.165	129.56
314.394	129.56
314.624	128.56
314.853	116.56
315.083	132.56
315.312	115.56
315.542	131.56
315.771	130.56
316.001	137.56
316.23	121.56
316.46	109.56
316.689	123.56
316.919	121.56
317.148	115.56
317.377	132.56
317.607	109.56
317.836	132.56
318.065	127.56
318.295	142.56
318.524	137.56
318.753	136.56
318.983	137.56
319.212	137.56
319.441	136.56
319.67	117.56
319.9	112.56
320.129	124.56
320.358	134.56
320.587	114.56
320.816	122.56
321.046	123.56
321.275	135.56
321.504	124.56
321.733	130.56
321.962	132.56
322.191	134.56
322.42	118.56
322.649	126.56
322.878	131.56
323.108	126.56
323.337	132.56
323.566	123.56
323.795	125.56
324.024	130.56
324.253	128.56
324.482	132.56
324.71	126.56
324.939	147.56
325.168	129.56
325.397	133.56
325.626	128.56
325.855	125.56
326.084	131.56
326.313	133.56
326.542	126.56
326.77	139.56
326.999	144.56
327.228	129.56
327.457	133.56
327.686	138.56
327.914	149.56
328.143	148.56
328.372	140.56
328.6	112.56
328.829	126.56
329.058	127.56
329.287	129.56
329.515	133.56
329.744	137.56
329.972	139.56
330.201	131.56
330.43	132.56
330.658	126.56
330.887	131.56
331.115	138.56
331.344	129.56
331.572	154.56
331.801	135.56
332.03	152.56
332.258	159.56
332.486	144.56
332.715	134.56
332.943	136.56
333.172	150.56
333.4	150.56
333.629	165.56
333.857	135.56
334.085	146.56
334.314	153.56
334.542	160.56
334.771	138.56
334.999	152.56
335.227	147.56
335.455	136.56
335.684	153.56
335.912	147.56
336.14	135.56
336.369	159.56
336.597	130.56
336.825	153.56
337.053	140.56
337.281	147.56
337.51	134.56
337.738	141.56
337.966	135.56
338.194	131.56
338.422	149.56
338.65	151.56
338.878	135.56
339.106	147.56
339.334	152.56
339.562	137.56
339.79	132.56
340.018	136.56
340.246	129.56
340.474	133.56
340.702	146.56
340.93	129.56
341.158	135.56
341.386	151.56
341.614	123.56
341.842	127.56
342.07	136.56
342.298	128.56
342.526	137.56
342.754	132.56
342.981	127.56
343.209	141.56
343.437	163.56
343.665	139.56
343.893	160.56
344.12	166.56
344.348	142.56
344.576	132.56
344.804	139.56
345.031	145.56
345.259	132.56
345.487	133.56
345.714	134.56
345.942	140.56
346.17	124.56
346.397	123.56
346.625	138.56
346.853	132.56
347.08	128.56
347.308	134.56
347.535	135.56
347.763	138.56
347.99	145.56
348.218	133.56
348.445	131.56
348.673	131.56
348.9	150.56
349.128	143.56
349.355	140.56
349.583	145.56
349.81	149.56
350.037	142.56
350.265	117.56
350.492	130.56
350.72	130.56
350.947	119.56
351.174	141.56
351.402	139.56
351.629	123.56
351.856	128.56
352.083	133.56
352.311	143.56
352.538	116.56
352.765	132.56
352.992	157.56
353.22	128.56
353.447	121.56
353.674	114.56
353.901	131.56
354.128	141.56
354.355	121.56
354.583	128.56
354.81	155.56
355.037	137.56
355.264	142.56
355.491	135.56
355.718	129.56
355.945	140.56
356.172	114.56
356.399	138.56
356.626	128.56
356.853	135.56
357.08	120.56
357.307	130.56
357.534	147.56
357.761	131.56
357.988	137.56
358.215	128.56
358.441	114.56
358.668	122.56
358.895	126.56
359.122	125.56
359.349	131.56
359.576	127.56
359.802	139.56
360.029	137.56
360.256	124.56
360.483	151.56
360.709	125.56
360.936	151.56
361.163	119.56
361.39	112.56
361.616	120.56
361.843	128.56
362.07	135.56
362.296	132.56
362.523	115.56
362.749	145.56
362.976	131.56
363.203	122.56
363.429	138.56
363.656	129.56
363.882	134.56
364.109	148.56
364.335	125.56
364.562	132.56
364.788	113.56
365.015	132.56
365.241	127.56
365.468	132.56
365.694	135.56
365.92	131.56
366.147	122.56
366.373	137.56
366.599	129.56
366.826	122.56
367.052	137.56
367.278	147.56
367.505	119.56
367.731	154.56
367.957	142.56
368.184	128.56
368.41	148.56
368.636	140.56
368.862	145.56
369.089	133.56
369.315	135.56
369.541	128.56
369.767	134.56
369.993	138.56
370.219	151.56
370.445	127.56
370.672	123.56
370.898	144.56
371.124	149.56
371.35	127.56
371.576	139.56
371.802	148.56
372.028	140.56
372.254	134.56
372.48	135.56
372.706	159.56
372.932	123.56
373.158	137.56
373.384	140.56
373.61	138.56
373.835	149.56
374.061	135.56
374.287	136.56
374.513	161.56
374.739	147.56
374.965	152.56
375.191	151.56
375.416	138.56
375.642	153.56
375.868	155.56
376.094	149.56
376.319	138.56
376.545	135.56
376.771	156.56
376.997	146.56
377.222	152.56
377.448	145.56
377.674	139.56
377.899	154.56
378.125	142.56
378.35	152.56
378.576	139.56
378.802	125.56
379.027	129.56
379.253	130.56
379.478	159.56
379.704	168.56
379.929	155.56
380.155	144.56
380.38	130.56
380.606	138.56
380.831	146.56
381.057	154.56
381.282	135.56
381.507	144.56
381.733	149.56
381.958	149.56
382.184	155.56
382.409	144.56
382.634	156.56
382.86	150.56
383.085	151.56
383.31	151.56
383.535	159.56
383.761	132.56
383.986	168.56
384.211	169.56
384.436	164.56
384.662	160.56
384.887	157.56
385.112	145.56
385.337	152.56
385.562	151.56
385.787	154.56
386.013	177.56
386.238	171.56
386.463	159.56
386.688	183.56
386.913	173.56
387.138	153.56
387.363	157.56
387.588	172.56
387.813	172.56
388.038	163.56
388.263	171.56
388.488	150.56
388.713	168.56
388.938	166.56
389.163	152.56
389.387	161.56
389.612	160.56
389.837	146.56
390.062	166.56
390.287	150.56
390.512	152.56
390.736	145.56
390.961	159.56
391.186	144.56
391.411	159.56
391.636	178.56
391.86	199.56
392.085	175.56
392.31	174.56
392.534	171.56
392.759	163.56
392.984	161.56
393.208	181.56
393.433	157.56
393.658	170.56
393.882	166.56
394.107	175.56
394.331	163.56
394.556	179.56
394.78	183.56
395.005	156.56
395.229	166.56
395.454	159.56
395.678	168.56
395.903	193.56
396.127	182.56
396.352	177.56
396.576	184.56
396.801	164.56
397.025	174.56
397.249	183.56
397.474	166.56
397.698	180.56
397.922	168.56
398.147	171.56
398.371	180.56
398.595	188.56
398.82	178.56
399.044	198.56
399.268	214.56
399.492	223.56
399.717	250.56
399.941	241.56
400.165	225.56
400.389	198.56
400.613	201.56
400.837	193.56
401.062	178.56
401.286	189.56
401.51	185.56
401.734	181.56
401.958	189.56
402.182	195.56
402.406	194.56
402.63	182.56
402.854	194.56
403.078	196.56
403.302	186.56
403.526	208.56
403.75	211.56
403.974	194.56
404.198	211.56
404.422	204.56
404.645	207.56
404.869	200.56
405.093	219.56
405.317	211.56
405.541	185.56
405.765	187.56
405.988	223.56
406.212	193.56
406.436	208.56
406.66	212.56
406.883	213.56
407.107	218.56
407.331	207.56
407.555	230.56
407.778	195.56
408.002	207.56
408.226	211.56
408.449	205.56
408.673	212.56
408.896	198.56
409.12	204.56
409.344	196.56
409.567	205.56
409.791	194.56
410.014	200.56
410.238	211.56
410.461	201.56
410.685	199.56
410.908	201.56
411.132	218.56
411.355	195.56
411.578	200.56
411.802	191.56
412.025	180.56
412.249	191.56
412.472	188.56
412.695	199.56
412.919	187.56
413.142	198.56
413.365	189.56
413.589	194.56
413.812	185.56
414.035	201.56
414.258	200.56
414.482	183.56
414.705	195.56
414.928	177.56
415.151	199.56
415.374	195.56
415.597	196.56
415.821	195.56
416.044	192.56
416.267	196.56
416.49	192.56
416.713	187.56
416.936	176.56
417.159	197.56
417.382	189.56
417.605	209.56
417.828	193.56
418.051	199.56
418.274	199.56
418.497	198.56
418.72	200.56
418.943	192.56
419.166	192.56
419.389	212.56
419.611	199.56
419.834	215.56
420.057	196.56
420.28	195.56
420.503	197.56
420.726	191.56
420.948	192.56
421.171	203.56
421.394	187.56
421.617	189.56
421.839	201.56
422.062	205.56
422.285	184.56
422.507	206.56
422.73	186.56
422.953	201.56
423.175	201.56
423.398	211.56
423.621	197.56
423.843	198.56
424.066	202.56
424.288	212.56
424.511	213.56
424.733	210.56
424.956	200.56
425.178	207.56
425.401	211.56
425.623	194.56
425.846	185.56
426.068	180.56
426.291	188.56
426.513	191.56
426.735	182.56
426.958	178.56
427.18	190.56
427.402	192.56
427.625	180.56
427.847	174.56
428.069	182.56
428.292	192.56
428.514	191.56
428.736	172.56
428.958	183.56
429.181	177.56
429.403	176.56
429.625	186.56
429.847	179.56
430.069	179.56
430.292	188.56
430.514	193.56
430.736	178.56
430.958	194.56
431.18	167.56
431.402	173.56
431.624	191.56
431.846	183.56
432.068	176.56
432.29	183.56
432.512	198.56
432.734	185.56
432.956	187.56
433.178	201.56
433.4	188.56
433.622	185.56
433.844	172.56
434.066	186.56
434.287	179.56
434.509	183.56
434.731	202.56
434.953	184.56
435.175	185.56
435.397	194.56
435.618	171.56
435.84	176.56
436.062	173.56
436.284	182.56
436.505	182.56
436.727	192.56
436.949	191.56
437.17	173.56
437.392	173.56
437.614	172.56
437.835	167.56
438.057	157.56
438.278	164.56
438.5	183.56
438.721	180.56
438.943	192.56
439.165	191.56
439.386	193.56
439.608	186.56
439.829	185.56
440.05	212.56
440.272	188.56
440.493	183.56
440.715	187.56
440.936	191.56
441.158	200.56
441.379	208.56
441.6	189.56
441.822	192.56
442.043	206.56
442.264	198.56
442.486	199.56
442.707	212.56
442.928	185.56
443.149	194.56
443.371	202.56
443.592	196.56
443.813	202.56
444.034	204.56
444.255	211.56
444.476	223.56
444.698	238.56
444.919	218.56
445.14	472.56
445.361	329.56
445.582	218.56
445.803	211.56
446.024	182.56
446.245	193.56
446.466	184.56
446.687	196.56
446.908	199.56
447.129	196.56
447.35	201.56
447.571	180.56
447.792	197.56
448.013	179.56
448.234	186.56
448.455	186.56
448.675	187.56
448.896	170.56
449.117	189.56
449.338	194.56
449.559	172.56
449.779	174.56
450	185.56
450.221	178.56
450.442	182.56
450.662	167.56
450.883	171.56
451.104	179.56
451.324	176.56
451.545	178.56
451.766	190.56
451.986	178.56
452.207	172.56
452.428	175.56
452.648	175.56
452.869	162.56
453.089	172.56
453.31	172.56
453.53	161.56
453.751	157.56
453.971	172.56
454.192	150.56
454.412	153.56
454.633	155.56
454.853	174.56
455.073	174.56
455.294	155.56
455.514	168.56
455.734	177.56
455.955	181.56
456.175	172.56
456.395	166.56
456.616	166.56
456.836	159.56
457.056	168.56
457.276	137.56
457.497	166.56
457.717	172.56
457.937	156.56
458.157	164.56
458.377	144.56
458.598	173.56
458.818	161.56
459.038	166.56
459.258	182.56
459.478	163.56
459.698	171.56
459.918	179.56
460.138	183.56
460.358	189.56
460.578	199.56
460.798	197.56
461.018	207.56
461.238	183.56
461.458	188.56
461.678	191.56
461.898	194.56
462.118	184.56
462.338	198.56
462.558	212.56
462.777	220.56
462.997	224.56
463.217	233.56
463.437	233.56
463.657	219.56
463.876	198.56
464.096	223.56
464.316	220.56
464.536	199.56
464.755	208.56
464.975	202.56
465.195	179.56
465.414	192.56
465.634	177.56
465.854	179.56
466.073	181.56
466.293	180.56
466.512	177.56
466.732	180.56
466.951	184.56
467.171	186.56
467.391	186.56
467.61	174.56
467.829	192.56
468.049	192.56
468.268	162.56
468.488	172.56
468.707	180.56
468.927	198.56
469.146	180.56
469.365	202.56
469.585	196.56
469.804	186.56
470.023	187.56
470.243	214.56
470.462	193.56
470.681	193.56
470.901	180.56
471.12	172.56
471.339	195.56
471.558	198.56
471.777	190.56
471.997	183.56
472.216	171.56
472.435	186.56
472.654	182.56
472.873	181.56
473.092	171.56
473.311	161.56
473.53	180.56
473.749	186.56
473.968	184.56
474.187	172.56
474.406	153.56
474.625	161.56
474.844	176.56
475.063	181.56
475.282	173.56
475.501	179.56
475.72	192.56
475.939	197.56
476.158	180.56
476.377	175.56
476.596	170.56
476.814	161.56
477.033	167.56
477.252	194.56
477.471	203.56
477.69	182.56
477.908	188.56
478.127	205.56
478.346	201.56
478.564	196.56
478.783	195.56
479.002	205.56
479.22	203.56
479.439	203.56
479.658	185.56
479.876	184.56
480.095	183.56
480.313	196.56
480.532	201.56
480.751	189.56
480.969	175.56
481.188	162.56
481.406	163.56
481.624	165.56
481.843	187.56
482.061	195.56
482.28	179.56
482.498	192.56
482.717	173.56
482.935	193.56
483.153	210.56
483.372	195.56
483.59	207.56
483.808	200.56
484.027	203.56
484.245	192.56
484.463	212.56
484.681	218.56
484.9	189.56
485.118	216.56
485.336	184.56
485.554	195.56
485.772	184.56
485.99	183.56
486.209	189.56
486.427	188.56
486.645	195.56
486.863	205.56
487.081	194.56
487.299	196.56
487.517	192.56
487.735	213.56
487.953	227.56
488.171	213.56
488.389	224.56
488.607	202.56
488.825	209.56
489.043	201.56
489.261	204.56
489.479	186.56
489.696	191.56
489.914	198.56
490.132	216.56
490.35	220.56
490.568	231.56
490.786	219.56
491.003	227.56
491.221	216.56
491.439	196.56
491.657	225.56
491.874	253.56
492.092	233.56
492.31	262.56
492.527	234.56
492.745	232.56
492.963	228.56
493.18	225.56
493.398	241.56
493.615	238.56
493.833	224.56
494.05	215.56
494.268	224.56
494.485	236.56
494.703	228.56
494.92	230.56
495.138	221.56
495.355	223.56
495.573	225.56
495.79	225.56
496.008	226.56
496.225	228.56
496.442	222.56
496.66	225.56
496.877	228.56
497.094	229.56
497.312	233.56
497.529	217.56
497.746	225.56
497.963	229.56
498.181	238.56
498.398	211.56
498.615	239.56
498.832	241.56
499.049	242.56
499.267	265.56
499.484	279.56
499.701	311.56
499.918	343.56
500.135	373.56
500.352	414.56
500.569	409.56
500.786	415.56
501.003	374.56
501.22	348.56
501.437	325.56
501.654	280.56
501.871	267.56
502.088	257.56
502.305	238.56
502.522	251.56
502.739	241.56
502.956	251.56
503.172	234.56
503.389	220.56
503.606	208.56
503.823	198.56
504.04	211.56
504.256	218.56
504.473	210.56
504.69	226.56
504.907	234.56
