Data from SampD_HRD10591_00056.txt Node
Date: Mon Jan 19 11:50:34 EST 2026
User: Yrep
Spectrometer: HR+D1059
Trigger mode: 0
Integration Time (sec): 3.443000E-1
Scans to average: 1
Electric dark correction enabled: true
Nonlinearity correction enabled: false
Boxcar width: 0
XAxis mode: Wavelengths
Number of Pixels in Spectrum: 2048
>>>>>Begin Spectral Data<<<<<
223.165	-22.69
223.4	-22.69
223.635	-22.69
223.869	-19.69
224.104	-24.69
224.338	-3.69
224.573	-18.69
224.808	-10.69
225.042	-0.69
225.277	-6.69
225.511	-6.69
225.746	1.31
225.98	0.31
226.215	4.31
226.449	17.31
226.683	31.31
226.918	24.31
227.152	35.31
227.387	38.31
227.621	49.31
227.856	44.31
228.09	35.31
228.324	53.31
228.559	68.31
228.793	55.31
229.027	63.31
229.262	75.31
229.496	79.31
229.73	80.31
229.964	81.31
230.199	92.31
230.433	68.31
230.667	88.31
230.901	87.31
231.136	79.31
231.37	79.31
231.604	81.31
231.838	76.31
232.072	101.31
232.306	88.31
232.541	76.31
232.775	83.31
233.009	91.31
233.243	88.31
233.477	92.31
233.711	104.31
233.945	77.31
234.179	83.31
234.413	98.31
234.647	87.31
234.881	88.31
235.115	84.31
235.349	83.31
235.583	79.31
235.817	88.31
236.051	71.31
236.285	81.31
236.519	100.31
236.753	85.31
236.987	73.31
237.221	79.31
237.455	91.31
237.689	80.31
237.922	71.31
238.156	65.31
238.39	85.31
238.624	72.31
238.858	92.31
239.091	95.31
239.325	91.31
239.559	92.31
239.793	82.31
240.027	88.31
240.26	88.31
240.494	91.31
240.728	82.31
240.961	82.31
241.195	90.31
241.429	93.31
241.662	92.31
241.896	79.31
242.13	93.31
242.363	72.31
242.597	92.31
242.83	73.31
243.064	95.31
243.298	96.31
243.531	89.31
243.765	98.31
243.998	80.31
244.232	87.31
244.465	87.31
244.699	82.31
244.932	85.31
245.166	90.31
245.399	100.31
245.633	94.31
245.866	99.31
246.099	93.31
246.333	80.31
246.566	78.31
246.8	92.31
247.033	92.31
247.266	87.31
247.5	92.31
247.733	92.31
247.966	75.31
248.2	86.31
248.433	99.31
248.666	74.31
248.899	83.31
249.133	87.31
249.366	91.31
249.599	79.31
249.832	90.31
250.066	104.31
250.299	94.31
250.532	98.31
250.765	89.31
250.998	93.31
251.231	83.31
251.465	87.31
251.698	89.31
251.931	89.31
252.164	100.31
252.397	93.31
252.63	97.31
252.863	93.31
253.096	88.31
253.329	112.31
253.562	94.31
253.795	104.31
254.028	89.31
254.261	92.31
254.494	97.31
254.727	100.31
254.96	98.31
255.193	93.31
255.426	88.31
255.659	86.31
255.892	98.31
256.124	104.31
256.357	88.31
256.59	92.31
256.823	80.31
257.056	104.31
257.289	94.31
257.521	108.31
257.754	100.31
257.987	89.31
258.22	95.31
258.452	106.31
258.685	101.31
258.918	113.31
259.151	99.31
259.383	101.31
259.616	94.31
259.849	95.31
260.081	99.31
260.314	112.31
260.547	94.31
260.779	109.31
261.012	90.31
261.244	89.31
261.477	108.31
261.71	102.31
261.942	96.31
262.175	108.31
262.407	99.31
262.64	91.31
262.872	103.31
263.105	93.31
263.337	105.31
263.57	84.31
263.802	93.31
264.035	83.31
264.267	93.31
264.499	89.31
264.732	105.31
264.964	91.31
265.197	92.31
265.429	92.31
265.661	89.31
265.894	108.31
266.126	101.31
266.358	90.31
266.591	107.31
266.823	95.31
267.055	87.31
267.287	108.31
267.52	100.31
267.752	100.31
267.984	84.31
268.216	100.31
268.448	104.31
268.681	111.31
268.913	112.31
269.145	106.31
269.377	115.31
269.609	98.31
269.841	86.31
270.073	99.31
270.306	104.31
270.538	108.31
270.77	99.31
271.002	92.31
271.234	109.31
271.466	106.31
271.698	116.31
271.93	100.31
272.162	103.31
272.394	107.31
272.626	102.31
272.858	98.31
273.09	108.31
273.322	102.31
273.553	102.31
273.785	105.31
274.017	91.31
274.249	98.31
274.481	91.31
274.713	99.31
274.945	105.31
275.176	117.31
275.408	115.31
275.64	109.31
275.872	101.31
276.104	108.31
276.335	107.31
276.567	91.31
276.799	109.31
277.031	101.31
277.262	108.31
277.494	121.31
277.726	114.31
277.957	97.31
278.189	108.31
278.421	118.31
278.652	102.31
278.884	107.31
279.115	126.31
279.347	121.31
279.579	120.31
279.81	110.31
280.042	112.31
280.273	113.31
280.505	92.31
280.736	116.31
280.968	110.31
281.199	125.31
281.431	120.31
281.662	115.31
281.894	113.31
282.125	108.31
282.356	115.31
282.588	114.31
282.819	105.31
283.051	119.31
283.282	123.31
283.513	125.31
283.745	116.31
283.976	116.31
284.207	110.31
284.439	111.31
284.67	118.31
284.901	112.31
285.132	92.31
285.364	112.31
285.595	124.31
285.826	111.31
286.057	113.31
286.288	106.31
286.52	98.31
286.751	107.31
286.982	125.31
287.213	116.31
287.444	116.31
287.675	109.31
287.906	108.31
288.138	110.31
288.369	115.31
288.6	115.31
288.831	117.31
289.062	124.31
289.293	125.31
289.524	107.31
289.755	121.31
289.986	121.31
290.217	107.31
290.448	113.31
290.679	122.31
290.91	130.31
291.141	116.31
291.371	119.31
291.602	123.31
291.833	125.31
292.064	121.31
292.295	119.31
292.526	104.31
292.757	115.31
292.987	122.31
293.218	107.31
293.449	120.31
293.68	130.31
293.91	130.31
294.141	112.31
294.372	121.31
294.603	108.31
294.833	117.31
295.064	128.31
295.295	109.31
295.525	109.31
295.756	139.31
295.987	115.31
296.217	115.31
296.448	114.31
296.679	114.31
296.909	128.31
297.14	117.31
297.37	135.31
297.601	110.31
297.831	111.31
298.062	119.31
298.292	120.31
298.523	127.31
298.753	122.31
298.984	113.31
299.214	128.31
299.445	113.31
299.675	121.31
299.905	116.31
300.136	111.31
300.366	123.31
300.597	120.31
300.827	116.31
301.057	126.31
301.288	128.31
301.518	128.31
301.748	116.31
301.979	168.31
302.209	124.31
302.439	118.31
302.669	117.31
302.9	123.31
303.13	125.31
303.36	127.31
303.59	131.31
303.82	140.31
304.051	115.31
304.281	125.31
304.511	124.31
304.741	115.31
304.971	113.31
305.201	130.31
305.431	124.31
305.661	118.31
305.891	123.31
306.121	106.31
306.352	118.31
306.582	117.31
306.812	113.31
307.042	127.31
307.272	116.31
307.502	113.31
307.731	119.31
307.961	124.31
308.191	118.31
308.421	111.31
308.651	131.31
308.881	117.31
309.111	131.31
309.341	125.31
309.571	124.31
309.8	115.31
310.03	143.31
310.26	125.31
310.49	118.31
310.72	141.31
310.949	120.31
311.179	114.31
311.409	121.31
311.639	132.31
311.868	132.31
312.098	120.31
312.328	115.31
312.557	128.31
312.787	112.31
313.017	129.31
313.246	128.31
313.476	128.31
313.706	123.31
313.935	120.31
314.165	144.31
314.394	139.31
314.624	125.31
314.853	135.31
315.083	122.31
315.312	132.31
315.542	132.31
315.771	119.31
316.001	122.31
316.23	132.31
316.46	129.31
316.689	133.31
316.919	147.31
317.148	122.31
317.377	122.31
317.607	142.31
317.836	108.31
318.065	122.31
318.295	131.31
318.524	127.31
318.753	129.31
318.983	121.31
319.212	126.31
319.441	129.31
319.67	118.31
319.9	112.31
320.129	128.31
320.358	126.31
320.587	140.31
320.816	120.31
321.046	127.31
321.275	127.31
321.504	128.31
321.733	135.31
321.962	136.31
322.191	131.31
322.42	134.31
322.649	120.31
322.878	136.31
323.108	130.31
323.337	120.31
323.566	127.31
323.795	135.31
324.024	127.31
324.253	118.31
324.482	131.31
324.71	135.31
324.939	132.31
325.168	128.31
325.397	129.31
325.626	134.31
325.855	120.31
326.084	130.31
326.313	123.31
326.542	126.31
326.77	124.31
326.999	124.31
327.228	132.31
327.457	121.31
327.686	122.31
327.914	139.31
328.143	165.31
328.372	136.31
328.6	115.31
328.829	121.31
329.058	132.31
329.287	114.31
329.515	125.31
329.744	125.31
329.972	134.31
330.201	129.31
330.43	123.31
330.658	135.31
330.887	125.31
331.115	125.31
331.344	137.31
331.572	148.31
331.801	131.31
332.03	131.31
332.258	147.31
332.486	136.31
332.715	147.31
332.943	138.31
333.172	143.31
333.4	167.31
333.629	153.31
333.857	151.31
334.085	155.31
334.314	160.31
334.542	150.31
334.771	147.31
334.999	162.31
335.227	143.31
335.455	161.31
335.684	168.31
335.912	163.31
336.14	153.31
336.369	130.31
336.597	155.31
336.825	144.31
337.053	140.31
337.281	151.31
337.51	135.31
337.738	147.31
337.966	125.31
338.194	125.31
338.422	137.31
338.65	135.31
338.878	148.31
339.106	134.31
339.334	147.31
339.562	122.31
339.79	128.31
340.018	125.31
340.246	128.31
340.474	136.31
340.702	147.31
340.93	140.31
341.158	134.31
341.386	138.31
341.614	137.31
341.842	126.31
342.07	132.31
342.298	136.31
342.526	129.31
342.754	135.31
342.981	128.31
343.209	129.31
343.437	188.31
343.665	157.31
343.893	156.31
344.12	143.31
344.348	143.31
344.576	147.31
344.804	141.31
345.031	143.31
345.259	135.31
345.487	130.31
345.714	146.31
345.942	127.31
346.17	134.31
346.397	136.31
346.625	124.31
346.853	136.31
347.08	132.31
347.308	145.31
347.535	135.31
347.763	139.31
347.99	140.31
348.218	156.31
348.445	127.31
348.673	143.31
348.9	143.31
349.128	140.31
349.355	130.31
349.583	127.31
349.81	131.31
350.037	126.31
350.265	135.31
350.492	143.31
350.72	127.31
350.947	130.31
351.174	128.31
351.402	144.31
351.629	122.31
351.856	143.31
352.083	129.31
352.311	127.31
352.538	121.31
352.765	133.31
352.992	135.31
353.22	126.31
353.447	123.31
353.674	140.31
353.901	134.31
354.128	143.31
354.355	124.31
354.583	138.31
354.81	128.31
355.037	133.31
355.264	147.31
355.491	128.31
355.718	117.31
355.945	139.31
356.172	136.31
356.399	130.31
356.626	137.31
356.853	128.31
357.08	128.31
357.307	143.31
357.534	132.31
357.761	139.31
357.988	130.31
358.215	139.31
358.441	120.31
358.668	139.31
358.895	133.31
359.122	136.31
359.349	119.31
359.576	116.31
359.802	128.31
360.029	147.31
360.256	128.31
360.483	121.31
360.709	132.31
360.936	150.31
361.163	126.31
361.39	121.31
361.616	131.31
361.843	122.31
362.07	123.31
362.296	122.31
362.523	136.31
362.749	136.31
362.976	128.31
363.203	135.31
363.429	114.31
363.656	118.31
363.882	123.31
364.109	141.31
364.335	137.31
364.562	136.31
364.788	118.31
365.015	126.31
365.241	133.31
365.468	147.31
365.694	125.31
365.92	128.31
366.147	129.31
366.373	142.31
366.599	122.31
366.826	145.31
367.052	130.31
367.278	133.31
367.505	123.31
367.731	148.31
367.957	115.31
368.184	130.31
368.41	127.31
368.636	141.31
368.862	151.31
369.089	126.31
369.315	139.31
369.541	138.31
369.767	131.31
369.993	134.31
370.219	138.31
370.445	155.31
370.672	133.31
370.898	136.31
371.124	133.31
371.35	125.31
371.576	157.31
371.802	140.31
372.028	136.31
372.254	147.31
372.48	151.31
372.706	153.31
372.932	132.31
373.158	140.31
373.384	149.31
373.61	137.31
373.835	132.31
374.061	151.31
374.287	150.31
374.513	145.31
374.739	141.31
374.965	147.31
375.191	147.31
375.416	150.31
375.642	138.31
375.868	143.31
376.094	161.31
376.319	146.31
376.545	140.31
376.771	146.31
376.997	151.31
377.222	135.31
377.448	136.31
377.674	119.31
377.899	147.31
378.125	133.31
378.35	145.31
378.576	139.31
378.802	152.31
379.027	154.31
379.253	160.31
379.478	160.31
379.704	140.31
379.929	120.31
380.155	149.31
380.38	135.31
380.606	153.31
380.831	151.31
381.057	155.31
381.282	130.31
381.507	141.31
381.733	147.31
381.958	147.31
382.184	148.31
382.409	149.31
382.634	137.31
382.86	139.31
383.085	159.31
383.31	158.31
383.535	149.31
383.761	148.31
383.986	163.31
384.211	168.31
384.436	149.31
384.662	162.31
384.887	165.31
385.112	156.31
385.337	138.31
385.562	149.31
385.787	151.31
386.013	162.31
386.238	163.31
386.463	147.31
386.688	188.31
386.913	162.31
387.138	159.31
387.363	156.31
387.588	159.31
387.813	168.31
388.038	164.31
388.263	173.31
388.488	162.31
388.713	146.31
388.938	140.31
389.163	146.31
389.387	152.31
389.612	169.31
389.837	148.31
390.062	167.31
390.287	153.31
390.512	160.31
390.736	174.31
390.961	165.31
391.186	163.31
391.411	161.31
391.636	181.31
391.86	173.31
392.085	177.31
392.31	164.31
392.534	186.31
392.759	169.31
392.984	141.31
393.208	166.31
393.433	154.31
393.658	167.31
393.882	172.31
394.107	169.31
394.331	159.31
394.556	159.31
394.78	189.31
395.005	157.31
395.229	162.31
395.454	183.31
395.678	178.31
395.903	196.31
396.127	190.31
396.352	176.31
396.576	169.31
396.801	173.31
397.025	171.31
397.249	159.31
397.474	186.31
397.698	180.31
397.922	168.31
398.147	169.31
398.371	166.31
398.595	188.31
398.82	196.31
399.044	201.31
399.268	202.31
399.492	236.31
399.717	252.31
399.941	219.31
400.165	217.31
400.389	189.31
400.613	193.31
400.837	211.31
401.062	183.31
401.286	192.31
401.51	182.31
401.734	189.31
401.958	192.31
402.182	192.31
402.406	191.31
402.63	210.31
402.854	191.31
403.078	173.31
403.302	190.31
403.526	204.31
403.75	202.31
403.974	209.31
404.198	217.31
404.422	197.31
404.645	198.31
404.869	192.31
405.093	196.31
405.317	204.31
405.541	218.31
405.765	209.31
405.988	213.31
406.212	197.31
406.436	209.31
406.66	197.31
406.883	190.31
407.107	196.31
407.331	193.31
407.555	226.31
407.778	219.31
408.002	207.31
408.226	211.31
408.449	197.31
408.673	214.31
408.896	197.31
409.12	211.31
409.344	235.31
409.567	202.31
409.791	206.31
410.014	226.31
410.238	199.31
410.461	210.31
410.685	200.31
410.908	195.31
411.132	207.31
411.355	199.31
411.578	213.31
411.802	192.31
412.025	211.31
412.249	179.31
412.472	194.31
412.695	192.31
412.919	181.31
413.142	190.31
413.365	195.31
413.589	181.31
413.812	188.31
414.035	201.31
414.258	184.31
414.482	191.31
414.705	201.31
414.928	203.31
415.151	203.31
415.374	204.31
415.597	188.31
415.821	181.31
416.044	198.31
416.267	199.31
416.49	200.31
416.713	187.31
416.936	198.31
417.159	181.31
417.382	194.31
417.605	187.31
417.828	191.31
418.051	203.31
418.274	206.31
418.497	186.31
418.72	200.31
418.943	227.31
419.166	213.31
419.389	215.31
419.611	203.31
419.834	208.31
420.057	218.31
420.28	181.31
420.503	194.31
420.726	195.31
420.948	194.31
421.171	189.31
421.394	203.31
421.617	203.31
421.839	198.31
422.062	193.31
422.285	201.31
422.507	201.31
422.73	189.31
422.953	185.31
423.175	193.31
423.398	203.31
423.621	197.31
423.843	223.31
424.066	234.31
424.288	207.31
424.511	192.31
424.733	207.31
424.956	187.31
425.178	194.31
425.401	202.31
425.623	190.31
425.846	186.31
426.068	200.31
426.291	179.31
426.513	185.31
426.735	198.31
426.958	198.31
427.18	173.31
427.402	187.31
427.625	195.31
427.847	188.31
428.069	202.31
428.292	180.31
428.514	196.31
428.736	194.31
428.958	184.31
429.181	191.31
429.403	187.31
429.625	176.31
429.847	194.31
430.069	180.31
430.292	188.31
430.514	177.31
430.736	181.31
430.958	183.31
431.18	181.31
431.402	184.31
431.624	169.31
431.846	159.31
432.068	179.31
432.29	179.31
432.512	186.31
432.734	168.31
432.956	201.31
433.178	188.31
433.4	183.31
433.622	199.31
433.844	195.31
434.066	180.31
434.287	185.31
434.509	161.31
434.731	180.31
434.953	176.31
435.175	197.31
435.397	199.31
435.618	171.31
435.84	202.31
436.062	189.31
436.284	194.31
436.505	186.31
436.727	193.31
436.949	197.31
437.17	186.31
437.392	183.31
437.614	192.31
437.835	184.31
438.057	171.31
438.278	172.31
438.5	186.31
438.721	180.31
438.943	176.31
439.165	159.31
439.386	185.31
439.608	186.31
439.829	187.31
440.05	212.31
440.272	197.31
440.493	191.31
440.715	198.31
440.936	190.31
441.158	197.31
441.379	196.31
441.6	199.31
441.822	186.31
442.043	203.31
442.264	215.31
442.486	192.31
442.707	197.31
442.928	195.31
443.149	191.31
443.371	203.31
443.592	207.31
443.813	211.31
444.034	190.31
444.255	211.31
444.476	204.31
444.698	225.31
444.919	240.31
445.14	480.31
445.361	332.31
445.582	221.31
445.803	205.31
446.024	226.31
446.245	197.31
446.466	216.31
446.687	196.31
446.908	188.31
447.129	202.31
447.35	179.31
447.571	187.31
447.792	188.31
448.013	187.31
448.234	191.31
448.455	186.31
448.675	184.31
448.896	184.31
449.117	193.31
449.338	171.31
449.559	201.31
449.779	178.31
450	176.31
450.221	166.31
450.442	180.31
450.662	177.31
450.883	179.31
451.104	186.31
451.324	186.31
451.545	187.31
451.766	179.31
451.986	168.31
452.207	177.31
452.428	169.31
452.648	177.31
452.869	171.31
453.089	180.31
453.31	166.31
453.53	182.31
453.751	172.31
453.971	165.31
454.192	151.31
454.412	169.31
454.633	174.31
454.853	168.31
455.073	176.31
455.294	175.31
455.514	171.31
455.734	177.31
455.955	157.31
456.175	161.31
456.395	173.31
456.616	167.31
456.836	168.31
457.056	143.31
457.276	155.31
457.497	157.31
457.717	164.31
457.937	153.31
458.157	162.31
458.377	168.31
458.598	160.31
458.818	164.31
459.038	156.31
459.258	173.31
459.478	151.31
459.698	161.31
459.918	177.31
460.138	179.31
460.358	193.31
460.578	214.31
460.798	195.31
461.018	204.31
461.238	201.31
461.458	189.31
461.678	183.31
461.898	203.31
462.118	199.31
462.338	201.31
462.558	188.31
462.777	199.31
462.997	218.31
463.217	226.31
463.437	232.31
463.657	200.31
463.876	219.31
464.096	231.31
464.316	213.31
464.536	214.31
464.755	216.31
464.975	201.31
465.195	204.31
465.414	197.31
465.634	180.31
465.854	190.31
466.073	189.31
466.293	192.31
466.512	180.31
466.732	189.31
466.951	172.31
467.171	173.31
467.391	171.31
467.61	189.31
467.829	179.31
468.049	189.31
468.268	185.31
468.488	180.31
468.707	177.31
468.927	181.31
469.146	195.31
469.365	201.31
469.585	178.31
469.804	183.31
470.023	185.31
470.243	197.31
470.462	196.31
470.681	192.31
470.901	207.31
471.12	204.31
471.339	185.31
471.558	192.31
471.777	204.31
471.997	188.31
472.216	182.31
472.435	175.31
472.654	172.31
472.873	188.31
473.092	168.31
473.311	189.31
473.53	171.31
473.749	187.31
473.968	188.31
474.187	172.31
474.406	177.31
474.625	179.31
474.844	185.31
475.063	171.31
475.282	165.31
475.501	172.31
475.72	188.31
475.939	179.31
476.158	179.31
476.377	189.31
476.596	175.31
476.814	183.31
477.033	166.31
477.252	174.31
477.471	171.31
477.69	179.31
477.908	197.31
478.127	196.31
478.346	184.31
478.564	184.31
478.783	196.31
479.002	204.31
479.22	207.31
479.439	191.31
479.658	201.31
479.876	186.31
480.095	193.31
480.313	203.31
480.532	190.31
480.751	202.31
480.969	162.31
481.188	168.31
481.406	186.31
481.624	176.31
481.843	173.31
482.061	171.31
482.28	182.31
482.498	176.31
482.717	185.31
482.935	186.31
483.153	205.31
483.372	191.31
483.59	192.31
483.808	192.31
484.027	194.31
484.245	201.31
484.463	191.31
484.681	215.31
484.9	198.31
485.118	197.31
485.336	188.31
485.554	197.31
485.772	180.31
485.99	174.31
486.209	184.31
486.427	184.31
486.645	163.31
486.863	209.31
487.081	205.31
487.299	194.31
487.517	201.31
487.735	211.31
487.953	217.31
488.171	234.31
488.389	214.31
488.607	216.31
488.825	191.31
489.043	199.31
489.261	205.31
489.479	209.31
489.696	226.31
489.914	192.31
490.132	213.31
490.35	223.31
490.568	218.31
490.786	226.31
491.003	220.31
491.221	199.31
491.439	231.31
491.657	221.31
491.874	233.31
492.092	246.31
492.31	258.31
492.527	239.31
492.745	249.31
492.963	243.31
493.18	245.31
493.398	244.31
493.615	228.31
493.833	230.31
494.05	207.31
494.268	218.31
494.485	232.31
494.703	240.31
494.92	246.31
495.138	233.31
495.355	234.31
495.573	236.31
495.79	216.31
496.008	216.31
496.225	223.31
496.442	224.31
496.66	256.31
496.877	240.31
497.094	250.31
497.312	255.31
497.529	245.31
497.746	221.31
497.963	225.31
498.181	218.31
498.398	236.31
498.615	234.31
498.832	250.31
499.049	253.31
499.267	290.31
499.484	283.31
499.701	310.31
499.918	345.31
500.135	365.31
500.352	422.31
500.569	440.31
500.786	425.31
501.003	388.31
501.22	347.31
501.437	315.31
501.654	308.31
501.871	268.31
502.088	268.31
502.305	263.31
502.522	262.31
502.739	225.31
502.956	237.31
503.172	237.31
503.389	225.31
503.606	198.31
503.823	238.31
504.04	235.31
504.256	215.31
504.473	226.31
504.69	231.31
504.907	231.31
