Data from SampD_HRD10591_00048.txt Node
Date: Mon Jan 19 11:50:31 EST 2026
User: Yrep
Spectrometer: HR+D1059
Trigger mode: 0
Integration Time (sec): 3.443000E-1
Scans to average: 1
Electric dark correction enabled: true
Nonlinearity correction enabled: false
Boxcar width: 0
XAxis mode: Wavelengths
Number of Pixels in Spectrum: 2048
>>>>>Begin Spectral Data<<<<<
223.165	-24.75
223.4	-24.75
223.635	-24.75
223.869	-15.75
224.104	-32.75
224.338	-9.75
224.573	-6.75
224.808	-18.75
225.042	-1.75
225.277	-0.75
225.511	-19.75
225.746	3.25
225.98	11.25
226.215	8.25
226.449	15.25
226.683	24.25
226.918	25.25
227.152	43.25
227.387	42.25
227.621	44.25
227.856	52.25
228.09	33.25
228.324	55.25
228.559	59.25
228.793	59.25
229.027	67.25
229.262	70.25
229.496	65.25
229.73	75.25
229.964	86.25
230.199	81.25
230.433	70.25
230.667	81.25
230.901	95.25
231.136	75.25
231.37	83.25
231.604	93.25
231.838	93.25
232.072	92.25
232.306	70.25
232.541	87.25
232.775	88.25
233.009	81.25
233.243	81.25
233.477	81.25
233.711	85.25
233.945	65.25
234.179	91.25
234.413	76.25
234.647	102.25
234.881	91.25
235.115	85.25
235.349	70.25
235.583	93.25
235.817	97.25
236.051	97.25
236.285	77.25
236.519	84.25
236.753	87.25
236.987	86.25
237.221	88.25
237.455	107.25
237.689	87.25
237.922	74.25
238.156	77.25
238.39	70.25
238.624	73.25
238.858	86.25
239.091	88.25
239.325	83.25
239.559	74.25
239.793	77.25
240.027	89.25
240.26	89.25
240.494	83.25
240.728	64.25
240.961	86.25
241.195	95.25
241.429	101.25
241.662	81.25
241.896	89.25
242.13	76.25
242.363	79.25
242.597	84.25
242.83	87.25
243.064	91.25
243.298	80.25
243.531	84.25
243.765	72.25
243.998	91.25
244.232	95.25
244.465	95.25
244.699	68.25
244.932	88.25
245.166	88.25
245.399	99.25
245.633	99.25
245.866	95.25
246.099	94.25
246.333	76.25
246.566	85.25
246.8	88.25
247.033	75.25
247.266	95.25
247.5	82.25
247.733	97.25
247.966	93.25
248.2	96.25
248.433	90.25
248.666	84.25
248.899	76.25
249.133	89.25
249.366	106.25
249.599	91.25
249.832	82.25
250.066	100.25
250.299	94.25
250.532	84.25
250.765	75.25
250.998	93.25
251.231	90.25
251.465	90.25
251.698	92.25
251.931	96.25
252.164	104.25
252.397	85.25
252.63	86.25
252.863	101.25
253.096	90.25
253.329	95.25
253.562	97.25
253.795	85.25
254.028	106.25
254.261	95.25
254.494	94.25
254.727	100.25
254.96	96.25
255.193	79.25
255.426	84.25
255.659	72.25
255.892	112.25
256.124	98.25
256.357	84.25
256.59	98.25
256.823	100.25
257.056	109.25
257.289	99.25
257.521	99.25
257.754	91.25
257.987	108.25
258.22	97.25
258.452	103.25
258.685	90.25
258.918	101.25
259.151	79.25
259.383	94.25
259.616	95.25
259.849	94.25
260.081	91.25
260.314	107.25
260.547	84.25
260.779	88.25
261.012	96.25
261.244	91.25
261.477	110.25
261.71	113.25
261.942	101.25
262.175	107.25
262.407	83.25
262.64	103.25
262.872	87.25
263.105	96.25
263.337	96.25
263.57	91.25
263.802	93.25
264.035	102.25
264.267	107.25
264.499	105.25
264.732	112.25
264.964	99.25
265.197	91.25
265.429	109.25
265.661	95.25
265.894	118.25
266.126	101.25
266.358	107.25
266.591	108.25
266.823	102.25
267.055	97.25
267.287	117.25
267.52	98.25
267.752	99.25
267.984	106.25
268.216	107.25
268.448	97.25
268.681	109.25
268.913	91.25
269.145	100.25
269.377	111.25
269.609	105.25
269.841	109.25
270.073	100.25
270.306	111.25
270.538	103.25
270.77	109.25
271.002	101.25
271.234	112.25
271.466	98.25
271.698	98.25
271.93	107.25
272.162	91.25
272.394	107.25
272.626	95.25
272.858	109.25
273.09	97.25
273.322	117.25
273.553	100.25
273.785	92.25
274.017	89.25
274.249	89.25
274.481	94.25
274.713	104.25
274.945	121.25
275.176	103.25
275.408	109.25
275.64	98.25
275.872	129.25
276.104	108.25
276.335	113.25
276.567	101.25
276.799	113.25
277.031	108.25
277.262	108.25
277.494	113.25
277.726	108.25
277.957	111.25
278.189	104.25
278.421	106.25
278.652	111.25
278.884	111.25
279.115	120.25
279.347	99.25
279.579	108.25
279.81	117.25
280.042	113.25
280.273	116.25
280.505	113.25
280.736	117.25
280.968	108.25
281.199	113.25
281.431	95.25
281.662	99.25
281.894	106.25
282.125	104.25
282.356	106.25
282.588	117.25
282.819	115.25
283.051	93.25
283.282	98.25
283.513	115.25
283.745	118.25
283.976	123.25
284.207	116.25
284.439	120.25
284.67	130.25
284.901	103.25
285.132	114.25
285.364	103.25
285.595	110.25
285.826	124.25
286.057	133.25
286.288	119.25
286.52	127.25
286.751	122.25
286.982	116.25
287.213	113.25
287.444	106.25
287.675	106.25
287.906	130.25
288.138	113.25
288.369	113.25
288.6	99.25
288.831	106.25
289.062	127.25
289.293	127.25
289.524	126.25
289.755	104.25
289.986	96.25
290.217	121.25
290.448	118.25
290.679	115.25
290.91	120.25
291.141	106.25
291.371	116.25
291.602	112.25
291.833	120.25
292.064	124.25
292.295	129.25
292.526	112.25
292.757	120.25
292.987	140.25
293.218	133.25
293.449	117.25
293.68	113.25
293.91	109.25
294.141	123.25
294.372	121.25
294.603	128.25
294.833	124.25
295.064	132.25
295.295	116.25
295.525	121.25
295.756	139.25
295.987	107.25
296.217	133.25
296.448	127.25
296.679	135.25
296.909	129.25
297.14	143.25
297.37	136.25
297.601	124.25
297.831	120.25
298.062	121.25
298.292	103.25
298.523	128.25
298.753	127.25
298.984	120.25
299.214	141.25
299.445	132.25
299.675	123.25
299.905	121.25
300.136	134.25
300.366	107.25
300.597	124.25
300.827	131.25
301.057	127.25
301.288	128.25
301.518	123.25
301.748	125.25
301.979	174.25
302.209	122.25
302.439	125.25
302.669	116.25
302.9	113.25
303.13	106.25
303.36	124.25
303.59	130.25
303.82	109.25
304.051	135.25
304.281	144.25
304.511	129.25
304.741	130.25
304.971	115.25
305.201	136.25
305.431	136.25
305.661	135.25
305.891	126.25
306.121	150.25
306.352	141.25
306.582	120.25
306.812	123.25
307.042	108.25
307.272	115.25
307.502	129.25
307.731	121.25
307.961	132.25
308.191	132.25
308.421	123.25
308.651	119.25
308.881	134.25
309.111	132.25
309.341	126.25
309.571	128.25
309.8	112.25
310.03	126.25
310.26	119.25
310.49	120.25
310.72	128.25
310.949	124.25
311.179	126.25
311.409	134.25
311.639	130.25
311.868	124.25
312.098	115.25
312.328	127.25
312.557	136.25
312.787	111.25
313.017	129.25
313.246	127.25
313.476	130.25
313.706	130.25
313.935	141.25
314.165	125.25
314.394	133.25
314.624	125.25
314.853	118.25
315.083	122.25
315.312	139.25
315.542	130.25
315.771	129.25
316.001	139.25
316.23	132.25
316.46	121.25
316.689	121.25
316.919	106.25
317.148	126.25
317.377	144.25
317.607	132.25
317.836	121.25
318.065	124.25
318.295	121.25
318.524	124.25
318.753	125.25
318.983	131.25
319.212	134.25
319.441	111.25
319.67	127.25
319.9	118.25
320.129	116.25
320.358	117.25
320.587	124.25
320.816	127.25
321.046	138.25
321.275	145.25
321.504	137.25
321.733	127.25
321.962	137.25
322.191	133.25
322.42	123.25
322.649	129.25
322.878	143.25
323.108	129.25
323.337	122.25
323.566	124.25
323.795	124.25
324.024	141.25
324.253	128.25
324.482	115.25
324.71	120.25
324.939	127.25
325.168	137.25
325.397	122.25
325.626	134.25
325.855	133.25
326.084	137.25
326.313	141.25
326.542	136.25
326.77	130.25
326.999	122.25
327.228	136.25
327.457	130.25
327.686	145.25
327.914	127.25
328.143	141.25
328.372	133.25
328.6	139.25
328.829	130.25
329.058	135.25
329.287	133.25
329.515	133.25
329.744	132.25
329.972	123.25
330.201	129.25
330.43	145.25
330.658	138.25
330.887	133.25
331.115	129.25
331.344	143.25
331.572	139.25
331.801	146.25
332.03	145.25
332.258	163.25
332.486	151.25
332.715	139.25
332.943	150.25
333.172	151.25
333.4	149.25
333.629	150.25
333.857	140.25
334.085	147.25
334.314	148.25
334.542	162.25
334.771	149.25
334.999	134.25
335.227	140.25
335.455	141.25
335.684	148.25
335.912	146.25
336.14	131.25
336.369	140.25
336.597	143.25
336.825	136.25
337.053	127.25
337.281	125.25
337.51	143.25
337.738	122.25
337.966	130.25
338.194	130.25
338.422	133.25
338.65	130.25
338.878	129.25
339.106	150.25
339.334	139.25
339.562	129.25
339.79	122.25
340.018	143.25
340.246	139.25
340.474	128.25
340.702	140.25
340.93	147.25
341.158	115.25
341.386	128.25
341.614	132.25
341.842	135.25
342.07	129.25
342.298	144.25
342.526	125.25
342.754	153.25
342.981	133.25
343.209	143.25
343.437	177.25
343.665	145.25
343.893	153.25
344.12	159.25
344.348	153.25
344.576	143.25
344.804	144.25
345.031	137.25
345.259	134.25
345.487	130.25
345.714	140.25
345.942	139.25
346.17	140.25
346.397	129.25
346.625	123.25
346.853	130.25
347.08	136.25
347.308	132.25
347.535	149.25
347.763	146.25
347.99	129.25
348.218	131.25
348.445	133.25
348.673	132.25
348.9	142.25
349.128	139.25
349.355	133.25
349.583	138.25
349.81	130.25
350.037	135.25
350.265	138.25
350.492	152.25
350.72	121.25
350.947	127.25
351.174	137.25
351.402	138.25
351.629	133.25
351.856	136.25
352.083	130.25
352.311	123.25
352.538	114.25
352.765	147.25
352.992	144.25
353.22	143.25
353.447	123.25
353.674	133.25
353.901	134.25
354.128	138.25
354.355	137.25
354.583	146.25
354.81	144.25
355.037	138.25
355.264	131.25
355.491	124.25
355.718	147.25
355.945	148.25
356.172	146.25
356.399	134.25
356.626	131.25
356.853	119.25
357.08	133.25
357.307	133.25
357.534	128.25
357.761	141.25
357.988	141.25
358.215	140.25
358.441	139.25
358.668	146.25
358.895	117.25
359.122	136.25
359.349	122.25
359.576	119.25
359.802	133.25
360.029	128.25
360.256	129.25
360.483	116.25
360.709	128.25
360.936	128.25
361.163	129.25
361.39	144.25
361.616	138.25
361.843	128.25
362.07	129.25
362.296	143.25
362.523	139.25
362.749	131.25
362.976	130.25
363.203	136.25
363.429	134.25
363.656	125.25
363.882	119.25
364.109	132.25
364.335	145.25
364.562	133.25
364.788	112.25
365.015	123.25
365.241	135.25
365.468	152.25
365.694	141.25
365.92	145.25
366.147	128.25
366.373	123.25
366.599	123.25
366.826	137.25
367.052	135.25
367.278	128.25
367.505	152.25
367.731	156.25
367.957	126.25
368.184	130.25
368.41	145.25
368.636	143.25
368.862	146.25
369.089	132.25
369.315	135.25
369.541	135.25
369.767	145.25
369.993	139.25
370.219	141.25
370.445	143.25
370.672	130.25
370.898	138.25
371.124	131.25
371.35	134.25
371.576	136.25
371.802	152.25
372.028	147.25
372.254	135.25
372.48	133.25
372.706	116.25
372.932	144.25
373.158	140.25
373.384	143.25
373.61	149.25
373.835	151.25
374.061	154.25
374.287	162.25
374.513	150.25
374.739	131.25
374.965	152.25
375.191	173.25
375.416	143.25
375.642	143.25
375.868	140.25
376.094	145.25
376.319	135.25
376.545	150.25
376.771	144.25
376.997	159.25
377.222	147.25
377.448	149.25
377.674	135.25
377.899	143.25
378.125	140.25
378.35	155.25
378.576	133.25
378.802	136.25
379.027	154.25
379.253	148.25
379.478	125.25
379.704	147.25
379.929	139.25
380.155	151.25
380.38	139.25
380.606	146.25
380.831	157.25
381.057	157.25
381.282	142.25
381.507	152.25
381.733	144.25
381.958	158.25
382.184	139.25
382.409	141.25
382.634	148.25
382.86	151.25
383.085	151.25
383.31	154.25
383.535	171.25
383.761	152.25
383.986	162.25
384.211	145.25
384.436	160.25
384.662	156.25
384.887	160.25
385.112	143.25
385.337	163.25
385.562	149.25
385.787	159.25
386.013	154.25
386.238	166.25
386.463	155.25
386.688	190.25
386.913	164.25
387.138	173.25
387.363	163.25
387.588	164.25
387.813	145.25
388.038	147.25
388.263	157.25
388.488	166.25
388.713	166.25
388.938	149.25
389.163	149.25
389.387	144.25
389.612	138.25
389.837	163.25
390.062	161.25
390.287	174.25
390.512	172.25
390.736	161.25
390.961	164.25
391.186	180.25
391.411	173.25
391.636	161.25
391.86	162.25
392.085	185.25
392.31	185.25
392.534	173.25
392.759	171.25
392.984	163.25
393.208	171.25
393.433	175.25
393.658	163.25
393.882	168.25
394.107	169.25
394.331	166.25
394.556	165.25
394.78	187.25
395.005	172.25
395.229	173.25
395.454	170.25
395.678	182.25
395.903	176.25
396.127	178.25
396.352	185.25
396.576	175.25
396.801	168.25
397.025	168.25
397.249	165.25
397.474	195.25
397.698	185.25
397.922	192.25
398.147	196.25
398.371	184.25
398.595	188.25
398.82	192.25
399.044	191.25
399.268	212.25
399.492	241.25
399.717	246.25
399.941	239.25
400.165	209.25
400.389	187.25
400.613	199.25
400.837	195.25
401.062	204.25
401.286	170.25
401.51	183.25
401.734	188.25
401.958	199.25
402.182	201.25
402.406	214.25
402.63	193.25
402.854	203.25
403.078	183.25
403.302	201.25
403.526	205.25
403.75	207.25
403.974	218.25
404.198	187.25
404.422	195.25
404.645	194.25
404.869	205.25
405.093	214.25
405.317	200.25
405.541	194.25
405.765	197.25
405.988	201.25
406.212	201.25
406.436	208.25
406.66	209.25
406.883	219.25
407.107	227.25
407.331	208.25
407.555	236.25
407.778	232.25
408.002	218.25
408.226	229.25
408.449	213.25
408.673	208.25
408.896	203.25
409.12	213.25
409.344	200.25
409.567	203.25
409.791	220.25
410.014	215.25
410.238	200.25
410.461	209.25
410.685	226.25
410.908	201.25
411.132	194.25
411.355	189.25
411.578	209.25
411.802	200.25
412.025	194.25
412.249	211.25
412.472	179.25
412.695	195.25
412.919	193.25
413.142	189.25
413.365	196.25
413.589	204.25
413.812	199.25
414.035	196.25
414.258	195.25
414.482	214.25
414.705	197.25
414.928	190.25
415.151	202.25
415.374	192.25
415.597	185.25
415.821	186.25
416.044	198.25
416.267	200.25
416.49	184.25
416.713	214.25
416.936	194.25
417.159	199.25
417.382	208.25
417.605	197.25
417.828	206.25
418.051	189.25
418.274	188.25
418.497	182.25
418.72	188.25
418.943	195.25
419.166	212.25
419.389	216.25
419.611	200.25
419.834	191.25
420.057	208.25
420.28	203.25
420.503	204.25
420.726	200.25
420.948	171.25
421.171	209.25
421.394	202.25
421.617	200.25
421.839	193.25
422.062	200.25
422.285	204.25
422.507	193.25
422.73	197.25
422.953	188.25
423.175	208.25
423.398	196.25
423.621	212.25
423.843	203.25
424.066	209.25
424.288	201.25
424.511	209.25
424.733	211.25
424.956	196.25
425.178	209.25
425.401	202.25
425.623	204.25
425.846	175.25
426.068	187.25
426.291	211.25
426.513	210.25
426.735	196.25
426.958	192.25
427.18	188.25
427.402	191.25
427.625	202.25
427.847	178.25
428.069	184.25
428.292	182.25
428.514	196.25
428.736	193.25
428.958	186.25
429.181	175.25
429.403	190.25
429.625	173.25
429.847	194.25
430.069	179.25
430.292	201.25
430.514	168.25
430.736	179.25
430.958	186.25
431.18	192.25
431.402	178.25
431.624	170.25
431.846	172.25
432.068	167.25
432.29	184.25
432.512	189.25
432.734	176.25
432.956	191.25
433.178	200.25
433.4	183.25
433.622	192.25
433.844	198.25
434.066	187.25
434.287	182.25
434.509	170.25
434.731	200.25
434.953	189.25
435.175	187.25
435.397	197.25
435.618	189.25
435.84	187.25
436.062	180.25
436.284	173.25
436.505	182.25
436.727	187.25
436.949	176.25
437.17	201.25
437.392	177.25
437.614	185.25
437.835	162.25
438.057	182.25
438.278	172.25
438.5	179.25
438.721	190.25
438.943	188.25
439.165	195.25
439.386	197.25
439.608	196.25
439.829	195.25
440.05	189.25
440.272	194.25
440.493	200.25
440.715	214.25
440.936	203.25
441.158	197.25
441.379	198.25
441.6	210.25
441.822	199.25
442.043	207.25
442.264	212.25
442.486	203.25
442.707	195.25
442.928	209.25
443.149	193.25
443.371	213.25
443.592	202.25
443.813	197.25
444.034	208.25
444.255	189.25
444.476	209.25
444.698	221.25
444.919	218.25
445.14	482.25
445.361	318.25
445.582	213.25
445.803	213.25
446.024	213.25
446.245	220.25
446.466	215.25
446.687	184.25
446.908	198.25
447.129	217.25
447.35	209.25
447.571	191.25
447.792	187.25
448.013	199.25
448.234	194.25
448.455	183.25
448.675	198.25
448.896	181.25
449.117	188.25
449.338	181.25
449.559	192.25
449.779	173.25
450	198.25
450.221	189.25
450.442	194.25
450.662	185.25
450.883	182.25
451.104	195.25
451.324	191.25
451.545	192.25
451.766	189.25
451.986	174.25
452.207	185.25
452.428	170.25
452.648	173.25
452.869	176.25
453.089	162.25
453.31	170.25
453.53	176.25
453.751	159.25
453.971	169.25
454.192	169.25
454.412	161.25
454.633	168.25
454.853	172.25
455.073	163.25
455.294	168.25
455.514	190.25
455.734	173.25
455.955	172.25
456.175	173.25
456.395	164.25
456.616	152.25
456.836	155.25
457.056	172.25
457.276	156.25
457.497	153.25
457.717	143.25
457.937	163.25
458.157	164.25
458.377	154.25
458.598	157.25
458.818	163.25
459.038	165.25
459.258	165.25
459.478	180.25
459.698	168.25
459.918	189.25
460.138	209.25
460.358	196.25
460.578	199.25
460.798	197.25
461.018	195.25
461.238	190.25
461.458	195.25
461.678	193.25
461.898	204.25
462.118	204.25
462.338	196.25
462.558	220.25
462.777	225.25
462.997	231.25
463.217	237.25
463.437	209.25
463.657	218.25
463.876	196.25
464.096	204.25
464.316	211.25
464.536	218.25
464.755	194.25
464.975	195.25
465.195	208.25
465.414	195.25
465.634	189.25
465.854	188.25
466.073	182.25
466.293	177.25
466.512	189.25
466.732	177.25
466.951	179.25
467.171	188.25
467.391	180.25
467.61	200.25
467.829	194.25
468.049	184.25
468.268	179.25
468.488	169.25
468.707	188.25
468.927	196.25
469.146	187.25
469.365	196.25
469.585	187.25
469.804	200.25
470.023	182.25
470.243	202.25
470.462	181.25
470.681	212.25
470.901	196.25
471.12	179.25
471.339	194.25
471.558	196.25
471.777	176.25
471.997	178.25
472.216	168.25
472.435	161.25
472.654	147.25
472.873	177.25
473.092	182.25
473.311	186.25
473.53	167.25
473.749	186.25
473.968	181.25
474.187	170.25
474.406	159.25
474.625	176.25
474.844	187.25
475.063	184.25
475.282	189.25
475.501	165.25
475.72	182.25
475.939	186.25
476.158	176.25
476.377	179.25
476.596	181.25
476.814	164.25
477.033	207.25
477.252	185.25
477.471	183.25
477.69	174.25
477.908	196.25
478.127	212.25
478.346	202.25
478.564	194.25
478.783	198.25
479.002	217.25
479.22	225.25
479.439	197.25
479.658	192.25
479.876	196.25
480.095	187.25
480.313	207.25
480.532	212.25
480.751	209.25
480.969	178.25
481.188	181.25
481.406	171.25
481.624	169.25
481.843	170.25
482.061	179.25
482.28	187.25
482.498	169.25
482.717	185.25
482.935	195.25
483.153	204.25
483.372	214.25
483.59	204.25
483.808	209.25
484.027	207.25
484.245	199.25
484.463	202.25
484.681	199.25
484.9	201.25
485.118	220.25
485.336	201.25
485.554	194.25
485.772	186.25
485.99	193.25
486.209	188.25
486.427	188.25
486.645	189.25
486.863	201.25
487.081	199.25
487.299	216.25
487.517	204.25
487.735	221.25
487.953	228.25
488.171	225.25
488.389	230.25
488.607	210.25
488.825	215.25
489.043	171.25
489.261	191.25
489.479	207.25
489.696	201.25
489.914	196.25
490.132	208.25
490.35	208.25
490.568	218.25
490.786	233.25
491.003	217.25
491.221	221.25
491.439	223.25
491.657	238.25
491.874	260.25
492.092	246.25
492.31	263.25
492.527	240.25
492.745	258.25
492.963	242.25
493.18	233.25
493.398	228.25
493.615	233.25
493.833	232.25
494.05	228.25
494.268	241.25
494.485	231.25
494.703	221.25
494.92	231.25
495.138	225.25
495.355	234.25
495.573	241.25
495.79	222.25
496.008	230.25
496.225	238.25
496.442	232.25
496.66	239.25
496.877	232.25
497.094	232.25
497.312	220.25
497.529	233.25
497.746	236.25
497.963	237.25
498.181	239.25
498.398	234.25
498.615	226.25
498.832	251.25
499.049	263.25
499.267	306.25
499.484	311.25
499.701	322.25
499.918	359.25
500.135	382.25
500.352	420.25
500.569	418.25
500.786	413.25
501.003	380.25
501.22	345.25
501.437	308.25
501.654	304.25
501.871	276.25
502.088	261.25
502.305	256.25
502.522	252.25
502.739	243.25
502.956	233.25
503.172	241.25
503.389	218.25
503.606	215.25
503.823	220.25
504.04	215.25
504.256	228.25
504.473	231.25
504.69	223.25
504.907	230.25
