Data from SampD_HRD10591_00054.txt Node
Date: Mon Jan 19 11:50:34 EST 2026
User: Yrep
Spectrometer: HR+D1059
Trigger mode: 0
Integration Time (sec): 3.443000E-1
Scans to average: 1
Electric dark correction enabled: true
Nonlinearity correction enabled: false
Boxcar width: 0
XAxis mode: Wavelengths
Number of Pixels in Spectrum: 2048
>>>>>Begin Spectral Data<<<<<
223.165	-18.25
223.4	-18.25
223.635	-18.25
223.869	-17.25
224.104	-20.25
224.338	-2.25
224.573	-17.25
224.808	-24.25
225.042	4.75
225.277	-9.25
225.511	2.75
225.746	-1.25
225.98	-3.25
226.215	27.75
226.449	-1.25
226.683	24.75
226.918	33.75
227.152	20.75
227.387	36.75
227.621	31.75
227.856	37.75
228.09	37.75
228.324	47.75
228.559	47.75
228.793	68.75
229.027	59.75
229.262	79.75
229.496	65.75
229.73	67.75
229.964	73.75
230.199	76.75
230.433	83.75
230.667	68.75
230.901	81.75
231.136	92.75
231.37	76.75
231.604	84.75
231.838	93.75
232.072	76.75
232.306	75.75
232.541	71.75
232.775	80.75
233.009	65.75
233.243	67.75
233.477	90.75
233.711	72.75
233.945	79.75
234.179	85.75
234.413	83.75
234.647	83.75
234.881	84.75
235.115	75.75
235.349	71.75
235.583	91.75
235.817	84.75
236.051	69.75
236.285	89.75
236.519	78.75
236.753	58.75
236.987	77.75
237.221	62.75
237.455	66.75
237.689	82.75
237.922	62.75
238.156	81.75
238.39	62.75
238.624	61.75
238.858	70.75
239.091	82.75
239.325	75.75
239.559	81.75
239.793	75.75
240.027	78.75
240.26	76.75
240.494	87.75
240.728	59.75
240.961	65.75
241.195	81.75
241.429	88.75
241.662	68.75
241.896	72.75
242.13	79.75
242.363	70.75
242.597	91.75
242.83	84.75
243.064	80.75
243.298	93.75
243.531	67.75
243.765	82.75
243.998	87.75
244.232	91.75
244.465	66.75
244.699	65.75
244.932	80.75
245.166	89.75
245.399	94.75
245.633	81.75
245.866	69.75
246.099	75.75
246.333	93.75
246.566	72.75
246.8	66.75
247.033	83.75
247.266	84.75
247.5	73.75
247.733	83.75
247.966	79.75
248.2	89.75
248.433	84.75
248.666	68.75
248.899	76.75
249.133	71.75
249.366	89.75
249.599	82.75
249.832	73.75
250.066	75.75
250.299	86.75
250.532	81.75
250.765	75.75
250.998	72.75
251.231	72.75
251.465	82.75
251.698	87.75
251.931	87.75
252.164	91.75
252.397	79.75
252.63	84.75
252.863	84.75
253.096	96.75
253.329	84.75
253.562	85.75
253.795	91.75
254.028	97.75
254.261	80.75
254.494	82.75
254.727	93.75
254.96	91.75
255.193	83.75
255.426	81.75
255.659	93.75
255.892	80.75
256.124	87.75
256.357	91.75
256.59	79.75
256.823	80.75
257.056	78.75
257.289	80.75
257.521	81.75
257.754	75.75
257.987	79.75
258.22	99.75
258.452	84.75
258.685	88.75
258.918	80.75
259.151	82.75
259.383	85.75
259.616	85.75
259.849	87.75
260.081	91.75
260.314	79.75
260.547	69.75
260.779	91.75
261.012	99.75
261.244	86.75
261.477	100.75
261.71	95.75
261.942	92.75
262.175	93.75
262.407	91.75
262.64	83.75
262.872	78.75
263.105	81.75
263.337	87.75
263.57	76.75
263.802	97.75
264.035	69.75
264.267	81.75
264.499	87.75
264.732	91.75
264.964	79.75
265.197	87.75
265.429	85.75
265.661	84.75
265.894	94.75
266.126	105.75
266.358	90.75
266.591	76.75
266.823	74.75
267.055	93.75
267.287	94.75
267.52	87.75
267.752	91.75
267.984	82.75
268.216	77.75
268.448	97.75
268.681	105.75
268.913	97.75
269.145	84.75
269.377	89.75
269.609	79.75
269.841	83.75
270.073	76.75
270.306	92.75
270.538	93.75
270.77	84.75
271.002	94.75
271.234	89.75
271.466	95.75
271.698	79.75
271.93	83.75
272.162	85.75
272.394	94.75
272.626	81.75
272.858	84.75
273.09	93.75
273.322	99.75
273.553	78.75
273.785	87.75
274.017	86.75
274.249	82.75
274.481	85.75
274.713	91.75
274.945	93.75
275.176	94.75
275.408	85.75
275.64	85.75
275.872	77.75
276.104	90.75
276.335	89.75
276.567	82.75
276.799	90.75
277.031	88.75
277.262	89.75
277.494	99.75
277.726	98.75
277.957	98.75
278.189	86.75
278.421	88.75
278.652	94.75
278.884	102.75
279.115	93.75
279.347	86.75
279.579	88.75
279.81	98.75
280.042	97.75
280.273	89.75
280.505	81.75
280.736	88.75
280.968	107.75
281.199	91.75
281.431	84.75
281.662	98.75
281.894	91.75
282.125	80.75
282.356	88.75
282.588	105.75
282.819	81.75
283.051	96.75
283.282	90.75
283.513	91.75
283.745	82.75
283.976	94.75
284.207	87.75
284.439	94.75
284.67	88.75
284.901	97.75
285.132	92.75
285.364	76.75
285.595	92.75
285.826	95.75
286.057	108.75
286.288	97.75
286.52	108.75
286.751	98.75
286.982	92.75
287.213	93.75
287.444	98.75
287.675	101.75
287.906	88.75
288.138	91.75
288.369	96.75
288.6	89.75
288.831	93.75
289.062	95.75
289.293	102.75
289.524	95.75
289.755	100.75
289.986	88.75
290.217	99.75
290.448	87.75
290.679	87.75
290.91	96.75
291.141	100.75
291.371	91.75
291.602	96.75
291.833	103.75
292.064	99.75
292.295	92.75
292.526	100.75
292.757	96.75
292.987	103.75
293.218	105.75
293.449	90.75
293.68	95.75
293.91	73.75
294.141	101.75
294.372	93.75
294.603	85.75
294.833	96.75
295.064	96.75
295.295	101.75
295.525	110.75
295.756	107.75
295.987	93.75
296.217	100.75
296.448	105.75
296.679	96.75
296.909	104.75
297.14	99.75
297.37	96.75
297.601	103.75
297.831	92.75
298.062	99.75
298.292	111.75
298.523	97.75
298.753	95.75
298.984	111.75
299.214	88.75
299.445	93.75
299.675	111.75
299.905	102.75
300.136	103.75
300.366	82.75
300.597	88.75
300.827	96.75
301.057	92.75
301.288	84.75
301.518	112.75
301.748	108.75
301.979	139.75
302.209	98.75
302.439	103.75
302.669	122.75
302.9	92.75
303.13	109.75
303.36	111.75
303.59	110.75
303.82	102.75
304.051	84.75
304.281	108.75
304.511	103.75
304.741	97.75
304.971	103.75
305.201	106.75
305.431	105.75
305.661	106.75
305.891	96.75
306.121	100.75
306.352	105.75
306.582	92.75
306.812	109.75
307.042	113.75
307.272	104.75
307.502	95.75
307.731	97.75
307.961	109.75
308.191	103.75
308.421	101.75
308.651	90.75
308.881	105.75
309.111	103.75
309.341	110.75
309.571	102.75
309.8	102.75
310.03	87.75
310.26	107.75
310.49	103.75
310.72	109.75
310.949	91.75
311.179	109.75
311.409	104.75
311.639	99.75
311.868	99.75
312.098	116.75
312.328	111.75
312.557	108.75
312.787	95.75
313.017	101.75
313.246	96.75
313.476	102.75
313.706	108.75
313.935	103.75
314.165	109.75
314.394	103.75
314.624	87.75
314.853	93.75
315.083	100.75
315.312	88.75
315.542	95.75
315.771	89.75
316.001	88.75
316.23	102.75
316.46	90.75
316.689	104.75
316.919	105.75
317.148	108.75
317.377	109.75
317.607	104.75
317.836	95.75
318.065	101.75
318.295	105.75
318.524	104.75
318.753	100.75
318.983	93.75
319.212	94.75
319.441	100.75
319.67	108.75
319.9	106.75
320.129	96.75
320.358	95.75
320.587	111.75
320.816	91.75
321.046	97.75
321.275	112.75
321.504	106.75
321.733	91.75
321.962	90.75
322.191	90.75
322.42	104.75
322.649	100.75
322.878	112.75
323.108	94.75
323.337	97.75
323.566	93.75
323.795	110.75
324.024	102.75
324.253	105.75
324.482	96.75
324.71	104.75
324.939	105.75
325.168	96.75
325.397	107.75
325.626	109.75
325.855	104.75
326.084	119.75
326.313	130.75
326.542	94.75
326.77	112.75
326.999	107.75
327.228	105.75
327.457	109.75
327.686	108.75
327.914	111.75
328.143	120.75
328.372	96.75
328.6	115.75
328.829	115.75
329.058	103.75
329.287	108.75
329.515	95.75
329.744	117.75
329.972	123.75
330.201	114.75
330.43	117.75
330.658	100.75
330.887	96.75
331.115	104.75
331.344	104.75
331.572	124.75
331.801	98.75
332.03	119.75
332.258	100.75
332.486	114.75
332.715	103.75
332.943	99.75
333.172	105.75
333.4	113.75
333.629	109.75
333.857	112.75
334.085	133.75
334.314	117.75
334.542	101.75
334.771	118.75
334.999	114.75
335.227	110.75
335.455	109.75
335.684	117.75
335.912	114.75
336.14	116.75
336.369	108.75
336.597	110.75
336.825	112.75
337.053	112.75
337.281	90.75
337.51	115.75
337.738	119.75
337.966	104.75
338.194	121.75
338.422	109.75
338.65	120.75
338.878	113.75
339.106	95.75
339.334	118.75
339.562	121.75
339.79	97.75
340.018	95.75
340.246	124.75
340.474	117.75
340.702	111.75
340.93	102.75
341.158	107.75
341.386	87.75
341.614	108.75
341.842	108.75
342.07	105.75
342.298	110.75
342.526	112.75
342.754	101.75
342.981	109.75
343.209	94.75
343.437	145.75
343.665	115.75
343.893	113.75
344.12	129.75
344.348	100.75
344.576	114.75
344.804	94.75
345.031	109.75
345.259	101.75
345.487	103.75
345.714	95.75
345.942	95.75
346.17	105.75
346.397	97.75
346.625	97.75
346.853	95.75
347.08	91.75
347.308	111.75
347.535	93.75
347.763	109.75
347.99	99.75
348.218	95.75
348.445	106.75
348.673	107.75
348.9	104.75
349.128	110.75
349.355	92.75
349.583	108.75
349.81	105.75
350.037	117.75
350.265	102.75
350.492	85.75
350.72	115.75
350.947	100.75
351.174	105.75
351.402	96.75
351.629	102.75
351.856	94.75
352.083	95.75
352.311	104.75
352.538	99.75
352.765	99.75
352.992	126.75
353.22	111.75
353.447	93.75
353.674	125.75
353.901	108.75
354.128	113.75
354.355	110.75
354.583	108.75
354.81	111.75
355.037	95.75
355.264	110.75
355.491	95.75
355.718	101.75
355.945	101.75
356.172	109.75
356.399	108.75
356.626	108.75
356.853	100.75
357.08	111.75
357.307	94.75
357.534	114.75
357.761	118.75
357.988	113.75
358.215	119.75
358.441	113.75
358.668	94.75
358.895	104.75
359.122	95.75
359.349	117.75
359.576	98.75
359.802	112.75
360.029	113.75
360.256	107.75
360.483	101.75
360.709	104.75
360.936	111.75
361.163	92.75
361.39	101.75
361.616	107.75
361.843	100.75
362.07	107.75
362.296	106.75
362.523	107.75
362.749	113.75
362.976	108.75
363.203	105.75
363.429	108.75
363.656	109.75
363.882	101.75
364.109	100.75
364.335	120.75
364.562	107.75
364.788	110.75
365.015	98.75
365.241	111.75
365.468	111.75
365.694	99.75
365.92	108.75
366.147	105.75
366.373	106.75
366.599	110.75
366.826	97.75
367.052	113.75
367.278	120.75
367.505	104.75
367.731	131.75
367.957	104.75
368.184	102.75
368.41	119.75
368.636	111.75
368.862	100.75
369.089	102.75
369.315	102.75
369.541	111.75
369.767	121.75
369.993	111.75
370.219	88.75
370.445	102.75
370.672	103.75
370.898	105.75
371.124	114.75
371.35	110.75
371.576	112.75
371.802	103.75
372.028	113.75
372.254	113.75
372.48	118.75
372.706	118.75
372.932	109.75
373.158	124.75
373.384	108.75
373.61	109.75
373.835	116.75
374.061	105.75
374.287	112.75
374.513	117.75
374.739	112.75
374.965	99.75
375.191	110.75
375.416	95.75
375.642	125.75
375.868	120.75
376.094	119.75
376.319	108.75
376.545	102.75
376.771	110.75
376.997	104.75
377.222	105.75
377.448	105.75
377.674	99.75
377.899	110.75
378.125	91.75
378.35	128.75
378.576	115.75
378.802	101.75
379.027	92.75
379.253	116.75
379.478	110.75
379.704	107.75
379.929	111.75
380.155	116.75
380.38	116.75
380.606	106.75
380.831	118.75
381.057	126.75
381.282	113.75
381.507	107.75
381.733	107.75
381.958	112.75
382.184	113.75
382.409	101.75
382.634	107.75
382.86	111.75
383.085	128.75
383.31	110.75
383.535	112.75
383.761	124.75
383.986	120.75
384.211	116.75
384.436	120.75
384.662	112.75
384.887	110.75
385.112	111.75
385.337	106.75
385.562	111.75
385.787	110.75
386.013	107.75
386.238	109.75
386.463	110.75
386.688	135.75
386.913	134.75
387.138	102.75
387.363	126.75
387.588	140.75
387.813	132.75
388.038	118.75
388.263	111.75
388.488	121.75
388.713	130.75
388.938	121.75
389.163	100.75
389.387	118.75
389.612	126.75
389.837	112.75
390.062	114.75
390.287	127.75
390.512	117.75
390.736	120.75
390.961	118.75
391.186	118.75
391.411	120.75
391.636	116.75
391.86	115.75
392.085	134.75
392.31	134.75
392.534	116.75
392.759	127.75
392.984	125.75
393.208	128.75
393.433	109.75
393.658	125.75
393.882	128.75
394.107	128.75
394.331	129.75
394.556	134.75
394.78	132.75
395.005	126.75
395.229	120.75
395.454	130.75
395.678	120.75
395.903	117.75
396.127	136.75
396.352	126.75
396.576	119.75
396.801	130.75
397.025	121.75
397.249	130.75
397.474	134.75
397.698	136.75
397.922	137.75
398.147	120.75
398.371	136.75
398.595	128.75
398.82	121.75
399.044	131.75
399.268	131.75
399.492	163.75
399.717	155.75
399.941	152.75
400.165	153.75
400.389	135.75
400.613	142.75
400.837	119.75
401.062	133.75
401.286	141.75
401.51	131.75
401.734	141.75
401.958	136.75
402.182	129.75
402.406	112.75
402.63	127.75
402.854	141.75
403.078	141.75
403.302	145.75
403.526	177.75
403.75	133.75
403.974	151.75
404.198	145.75
404.422	150.75
404.645	113.75
404.869	144.75
405.093	143.75
405.317	150.75
405.541	142.75
405.765	128.75
405.988	133.75
406.212	139.75
406.436	121.75
406.66	139.75
406.883	138.75
407.107	149.75
407.331	150.75
407.555	152.75
407.778	147.75
408.002	139.75
408.226	124.75
408.449	143.75
408.673	135.75
408.896	131.75
409.12	122.75
409.344	159.75
409.567	129.75
409.791	148.75
410.014	142.75
410.238	126.75
410.461	145.75
410.685	157.75
410.908	143.75
411.132	155.75
411.355	153.75
411.578	137.75
411.802	140.75
412.025	134.75
412.249	124.75
412.472	115.75
412.695	135.75
412.919	131.75
413.142	136.75
413.365	137.75
413.589	121.75
413.812	140.75
414.035	129.75
414.258	146.75
414.482	135.75
414.705	140.75
414.928	141.75
415.151	127.75
415.374	118.75
415.597	147.75
415.821	136.75
416.044	140.75
416.267	136.75
416.49	135.75
416.713	143.75
416.936	126.75
417.159	132.75
417.382	138.75
417.605	125.75
417.828	140.75
418.051	145.75
418.274	140.75
418.497	135.75
418.72	134.75
418.943	143.75
419.166	123.75
419.389	127.75
419.611	134.75
419.834	124.75
420.057	146.75
420.28	130.75
420.503	144.75
420.726	132.75
420.948	133.75
421.171	128.75
421.394	126.75
421.617	132.75
421.839	134.75
422.062	145.75
422.285	131.75
422.507	135.75
422.73	139.75
422.953	127.75
423.175	131.75
423.398	144.75
423.621	142.75
423.843	122.75
424.066	133.75
424.288	139.75
424.511	137.75
424.733	138.75
424.956	143.75
425.178	124.75
425.401	133.75
425.623	137.75
425.846	119.75
426.068	139.75
426.291	134.75
426.513	133.75
426.735	132.75
426.958	123.75
427.18	144.75
427.402	137.75
427.625	137.75
427.847	114.75
428.069	114.75
428.292	132.75
428.514	139.75
428.736	136.75
428.958	129.75
429.181	125.75
429.403	138.75
429.625	125.75
429.847	124.75
430.069	128.75
430.292	130.75
430.514	120.75
430.736	121.75
430.958	118.75
431.18	134.75
431.402	126.75
431.624	132.75
431.846	112.75
432.068	130.75
432.29	133.75
432.512	130.75
432.734	131.75
432.956	131.75
433.178	135.75
433.4	146.75
433.622	133.75
433.844	144.75
434.066	123.75
434.287	112.75
434.509	120.75
434.731	122.75
434.953	130.75
435.175	142.75
435.397	143.75
435.618	126.75
435.84	122.75
436.062	128.75
436.284	137.75
436.505	120.75
436.727	129.75
436.949	125.75
437.17	124.75
437.392	129.75
437.614	124.75
437.835	130.75
438.057	123.75
438.278	119.75
438.5	118.75
438.721	119.75
438.943	134.75
439.165	134.75
439.386	159.75
439.608	148.75
439.829	130.75
440.05	135.75
440.272	135.75
440.493	135.75
440.715	134.75
440.936	141.75
441.158	143.75
441.379	132.75
441.6	137.75
441.822	144.75
442.043	138.75
442.264	149.75
442.486	142.75
442.707	142.75
442.928	125.75
443.149	137.75
443.371	151.75
443.592	140.75
443.813	134.75
444.034	136.75
444.255	127.75
444.476	145.75
444.698	157.75
444.919	149.75
445.14	412.75
445.361	267.75
445.582	151.75
445.803	137.75
446.024	146.75
446.245	140.75
446.466	139.75
446.687	123.75
446.908	140.75
447.129	135.75
447.35	115.75
447.571	136.75
447.792	141.75
448.013	142.75
448.234	133.75
448.455	117.75
448.675	125.75
448.896	130.75
449.117	128.75
449.338	116.75
449.559	120.75
449.779	133.75
450	118.75
450.221	131.75
450.442	130.75
450.662	136.75
450.883	104.75
451.104	137.75
451.324	135.75
451.545	115.75
451.766	141.75
451.986	135.75
452.207	128.75
452.428	128.75
452.648	128.75
452.869	127.75
453.089	120.75
453.31	118.75
453.53	134.75
453.751	117.75
453.971	105.75
454.192	114.75
454.412	121.75
454.633	112.75
454.853	131.75
455.073	122.75
455.294	121.75
455.514	124.75
455.734	117.75
455.955	121.75
456.175	111.75
456.395	111.75
456.616	114.75
456.836	109.75
457.056	126.75
457.276	119.75
457.497	115.75
457.717	131.75
457.937	120.75
458.157	121.75
458.377	119.75
458.598	118.75
458.818	123.75
459.038	118.75
459.258	107.75
459.478	129.75
459.698	129.75
459.918	120.75
460.138	131.75
460.358	130.75
460.578	160.75
460.798	145.75
461.018	124.75
461.238	151.75
461.458	144.75
461.678	145.75
461.898	141.75
462.118	132.75
462.338	134.75
462.558	139.75
462.777	130.75
462.997	155.75
463.217	149.75
463.437	143.75
463.657	134.75
463.876	141.75
464.096	148.75
464.316	134.75
464.536	136.75
464.755	156.75
464.975	144.75
465.195	148.75
465.414	136.75
465.634	133.75
465.854	98.75
466.073	129.75
466.293	135.75
466.512	125.75
466.732	143.75
466.951	128.75
467.171	130.75
467.391	140.75
467.61	145.75
467.829	113.75
468.049	120.75
468.268	113.75
468.488	130.75
468.707	127.75
468.927	134.75
469.146	124.75
469.365	129.75
469.585	127.75
469.804	135.75
470.023	129.75
470.243	139.75
470.462	133.75
470.681	123.75
470.901	129.75
471.12	135.75
471.339	126.75
471.558	126.75
471.777	124.75
471.997	133.75
472.216	140.75
472.435	113.75
472.654	119.75
472.873	128.75
473.092	131.75
473.311	124.75
473.53	126.75
473.749	131.75
473.968	140.75
474.187	139.75
474.406	128.75
474.625	122.75
474.844	129.75
475.063	132.75
475.282	118.75
475.501	118.75
475.72	127.75
475.939	136.75
476.158	127.75
476.377	126.75
476.596	146.75
476.814	126.75
477.033	119.75
477.252	126.75
477.471	139.75
477.69	128.75
477.908	155.75
478.127	154.75
478.346	141.75
478.564	117.75
478.783	128.75
479.002	147.75
479.22	124.75
479.439	149.75
479.658	139.75
479.876	131.75
480.095	126.75
480.313	136.75
480.532	140.75
480.751	134.75
480.969	118.75
481.188	124.75
481.406	141.75
481.624	123.75
481.843	109.75
482.061	117.75
482.28	142.75
482.498	128.75
482.717	124.75
482.935	132.75
483.153	134.75
483.372	151.75
483.59	140.75
483.808	134.75
484.027	158.75
484.245	153.75
484.463	149.75
484.681	177.75
484.9	150.75
485.118	136.75
485.336	139.75
485.554	127.75
485.772	130.75
485.99	138.75
486.209	133.75
486.427	123.75
486.645	139.75
486.863	149.75
487.081	128.75
487.299	133.75
487.517	155.75
487.735	148.75
487.953	178.75
488.171	170.75
488.389	155.75
488.607	140.75
488.825	128.75
489.043	134.75
489.261	143.75
489.479	129.75
489.696	143.75
489.914	143.75
490.132	145.75
490.35	149.75
490.568	146.75
490.786	155.75
491.003	135.75
491.221	161.75
491.439	155.75
491.657	155.75
491.874	163.75
492.092	169.75
492.31	170.75
492.527	166.75
492.745	162.75
492.963	151.75
493.18	165.75
493.398	155.75
493.615	155.75
493.833	152.75
494.05	146.75
494.268	153.75
494.485	155.75
494.703	161.75
494.92	155.75
495.138	161.75
495.355	151.75
495.573	164.75
495.79	166.75
496.008	148.75
496.225	161.75
496.442	150.75
496.66	151.75
496.877	141.75
497.094	161.75
497.312	163.75
497.529	161.75
497.746	166.75
497.963	147.75
498.181	143.75
498.398	158.75
498.615	164.75
498.832	159.75
499.049	180.75
499.267	176.75
499.484	195.75
499.701	198.75
499.918	215.75
500.135	237.75
500.352	253.75
500.569	244.75
500.786	242.75
501.003	220.75
501.22	223.75
501.437	207.75
501.654	190.75
501.871	171.75
502.088	165.75
502.305	169.75
502.522	156.75
502.739	146.75
502.956	157.75
503.172	141.75
503.389	145.75
503.606	146.75
503.823	140.75
504.04	156.75
504.256	143.75
504.473	144.75
504.69	167.75
504.907	157.75
505.123	140.75
505.34	147.75
505.557	144.75
505.773	139.75
505.99	135.75
506.207	129.75
506.423	154.75
506.64	142.75
506.856	112.75
507.073	126.75
507.289	133.75
507.506	136.75
507.722	128.75
