Data from SampD_HRD10591_00047.txt Node
Date: Mon Jan 19 11:50:31 EST 2026
User: Yrep
Spectrometer: HR+D1059
Trigger mode: 0
Integration Time (sec): 3.443000E-1
Scans to average: 1
Electric dark correction enabled: true
Nonlinearity correction enabled: false
Boxcar width: 0
XAxis mode: Wavelengths
Number of Pixels in Spectrum: 2048
>>>>>Begin Spectral Data<<<<<
223.165	-28.5
223.4	-28.5
223.635	-28.5
223.869	-13.5
224.104	-35.5
224.338	-24.5
224.573	-10.5
224.808	-14.5
225.042	7.5
225.277	-3.5
225.511	-6.5
225.746	0.5
225.98	6.5
226.215	7.5
226.449	22.5
226.683	16.5
226.918	27.5
227.152	48.5
227.387	43.5
227.621	45.5
227.856	50.5
228.09	60.5
228.324	63.5
228.559	66.5
228.793	47.5
229.027	48.5
229.262	73.5
229.496	60.5
229.73	80.5
229.964	86.5
230.199	70.5
230.433	77.5
230.667	86.5
230.901	67.5
231.136	82.5
231.37	75.5
231.604	83.5
231.838	80.5
232.072	91.5
232.306	88.5
232.541	80.5
232.775	90.5
233.009	81.5
233.243	87.5
233.477	78.5
233.711	87.5
233.945	84.5
234.179	82.5
234.413	79.5
234.647	92.5
234.881	74.5
235.115	83.5
235.349	86.5
235.583	81.5
235.817	72.5
236.051	74.5
236.285	85.5
236.519	71.5
236.753	91.5
236.987	85.5
237.221	68.5
237.455	87.5
237.689	88.5
237.922	90.5
238.156	71.5
238.39	75.5
238.624	80.5
238.858	87.5
239.091	85.5
239.325	80.5
239.559	81.5
239.793	76.5
240.027	82.5
240.26	86.5
240.494	70.5
240.728	80.5
240.961	77.5
241.195	85.5
241.429	75.5
241.662	64.5
241.896	72.5
242.13	68.5
242.363	78.5
242.597	82.5
242.83	81.5
243.064	72.5
243.298	87.5
243.531	79.5
243.765	96.5
243.998	79.5
244.232	87.5
244.465	79.5
244.699	79.5
244.932	86.5
245.166	79.5
245.399	88.5
245.633	88.5
245.866	79.5
246.099	87.5
246.333	78.5
246.566	82.5
246.8	90.5
247.033	89.5
247.266	91.5
247.5	84.5
247.733	84.5
247.966	80.5
248.2	90.5
248.433	82.5
248.666	81.5
248.899	91.5
249.133	89.5
249.366	98.5
249.599	86.5
249.832	88.5
250.066	78.5
250.299	79.5
250.532	88.5
250.765	90.5
250.998	94.5
251.231	71.5
251.465	72.5
251.698	81.5
251.931	87.5
252.164	76.5
252.397	81.5
252.63	88.5
252.863	66.5
253.096	72.5
253.329	103.5
253.562	95.5
253.795	91.5
254.028	85.5
254.261	86.5
254.494	92.5
254.727	93.5
254.96	80.5
255.193	84.5
255.426	88.5
255.659	86.5
255.892	81.5
256.124	99.5
256.357	85.5
256.59	89.5
256.823	83.5
257.056	75.5
257.289	89.5
257.521	100.5
257.754	83.5
257.987	75.5
258.22	96.5
258.452	77.5
258.685	81.5
258.918	84.5
259.151	85.5
259.383	99.5
259.616	84.5
259.849	99.5
260.081	97.5
260.314	90.5
260.547	93.5
260.779	96.5
261.012	93.5
261.244	87.5
261.477	106.5
261.71	95.5
261.942	86.5
262.175	86.5
262.407	98.5
262.64	82.5
262.872	79.5
263.105	77.5
263.337	107.5
263.57	93.5
263.802	104.5
264.035	89.5
264.267	86.5
264.499	83.5
264.732	93.5
264.964	95.5
265.197	87.5
265.429	93.5
265.661	87.5
265.894	87.5
266.126	90.5
266.358	89.5
266.591	97.5
266.823	97.5
267.055	80.5
267.287	100.5
267.52	91.5
267.752	83.5
267.984	76.5
268.216	90.5
268.448	95.5
268.681	81.5
268.913	97.5
269.145	74.5
269.377	89.5
269.609	90.5
269.841	97.5
270.073	111.5
270.306	97.5
270.538	78.5
270.77	96.5
271.002	79.5
271.234	82.5
271.466	100.5
271.698	90.5
271.93	93.5
272.162	92.5
272.394	92.5
272.626	100.5
272.858	103.5
273.09	102.5
273.322	102.5
273.553	97.5
273.785	85.5
274.017	92.5
274.249	91.5
274.481	85.5
274.713	103.5
274.945	93.5
275.176	79.5
275.408	84.5
275.64	97.5
275.872	75.5
276.104	86.5
276.335	91.5
276.567	100.5
276.799	87.5
277.031	74.5
277.262	99.5
277.494	86.5
277.726	107.5
277.957	119.5
278.189	106.5
278.421	109.5
278.652	97.5
278.884	89.5
279.115	99.5
279.347	102.5
279.579	90.5
279.81	84.5
280.042	81.5
280.273	92.5
280.505	97.5
280.736	82.5
280.968	102.5
281.199	106.5
281.431	91.5
281.662	93.5
281.894	99.5
282.125	103.5
282.356	103.5
282.588	73.5
282.819	99.5
283.051	91.5
283.282	97.5
283.513	103.5
283.745	101.5
283.976	99.5
284.207	94.5
284.439	88.5
284.67	106.5
284.901	103.5
285.132	92.5
285.364	106.5
285.595	94.5
285.826	99.5
286.057	102.5
286.288	93.5
286.52	89.5
286.751	85.5
286.982	104.5
287.213	85.5
287.444	99.5
287.675	90.5
287.906	117.5
288.138	106.5
288.369	100.5
288.6	94.5
288.831	100.5
289.062	88.5
289.293	97.5
289.524	89.5
289.755	96.5
289.986	99.5
290.217	108.5
290.448	97.5
290.679	98.5
290.91	112.5
291.141	102.5
291.371	93.5
291.602	96.5
291.833	100.5
292.064	104.5
292.295	99.5
292.526	102.5
292.757	100.5
292.987	96.5
293.218	96.5
293.449	98.5
293.68	101.5
293.91	104.5
294.141	99.5
294.372	106.5
294.603	108.5
294.833	94.5
295.064	94.5
295.295	106.5
295.525	92.5
295.756	93.5
295.987	105.5
296.217	99.5
296.448	89.5
296.679	102.5
296.909	104.5
297.14	98.5
297.37	97.5
297.601	99.5
297.831	109.5
298.062	96.5
298.292	100.5
298.523	100.5
298.753	109.5
298.984	95.5
299.214	104.5
299.445	104.5
299.675	102.5
299.905	94.5
300.136	112.5
300.366	107.5
300.597	112.5
300.827	108.5
301.057	106.5
301.288	91.5
301.518	106.5
301.748	92.5
301.979	135.5
302.209	108.5
302.439	90.5
302.669	92.5
302.9	91.5
303.13	103.5
303.36	95.5
303.59	101.5
303.82	102.5
304.051	107.5
304.281	106.5
304.511	122.5
304.741	104.5
304.971	86.5
305.201	102.5
305.431	98.5
305.661	103.5
305.891	93.5
306.121	106.5
306.352	108.5
306.582	121.5
306.812	92.5
307.042	94.5
307.272	110.5
307.502	91.5
307.731	116.5
307.961	104.5
308.191	100.5
308.421	99.5
308.651	109.5
308.881	104.5
309.111	96.5
309.341	103.5
309.571	86.5
309.8	87.5
310.03	104.5
310.26	106.5
310.49	105.5
310.72	110.5
310.949	106.5
311.179	100.5
311.409	86.5
311.639	102.5
311.868	102.5
312.098	108.5
312.328	112.5
312.557	112.5
312.787	96.5
313.017	101.5
313.246	101.5
313.476	107.5
313.706	93.5
313.935	82.5
314.165	104.5
314.394	104.5
314.624	107.5
314.853	103.5
315.083	102.5
315.312	102.5
315.542	108.5
315.771	90.5
316.001	113.5
316.23	106.5
316.46	103.5
316.689	79.5
316.919	103.5
317.148	101.5
317.377	104.5
317.607	104.5
317.836	108.5
318.065	111.5
318.295	102.5
318.524	100.5
318.753	94.5
318.983	91.5
319.212	91.5
319.441	98.5
319.67	104.5
319.9	107.5
320.129	112.5
320.358	106.5
320.587	100.5
320.816	103.5
321.046	105.5
321.275	114.5
321.504	94.5
321.733	112.5
321.962	106.5
322.191	106.5
322.42	110.5
322.649	104.5
322.878	129.5
323.108	104.5
323.337	96.5
323.566	90.5
323.795	97.5
324.024	101.5
324.253	118.5
324.482	98.5
324.71	106.5
324.939	112.5
325.168	104.5
325.397	100.5
325.626	106.5
325.855	102.5
326.084	104.5
326.313	118.5
326.542	117.5
326.77	112.5
326.999	120.5
327.228	107.5
327.457	99.5
327.686	101.5
327.914	106.5
328.143	112.5
328.372	105.5
328.6	101.5
328.829	108.5
329.058	116.5
329.287	107.5
329.515	111.5
329.744	105.5
329.972	110.5
330.201	123.5
330.43	115.5
330.658	97.5
330.887	108.5
331.115	111.5
331.344	107.5
331.572	120.5
331.801	114.5
332.03	97.5
332.258	96.5
332.486	100.5
332.715	106.5
332.943	103.5
333.172	112.5
333.4	111.5
333.629	108.5
333.857	107.5
334.085	114.5
334.314	126.5
334.542	116.5
334.771	113.5
334.999	101.5
335.227	104.5
335.455	116.5
335.684	118.5
335.912	123.5
336.14	122.5
336.369	107.5
336.597	105.5
336.825	122.5
337.053	104.5
337.281	104.5
337.51	111.5
337.738	111.5
337.966	99.5
338.194	115.5
338.422	96.5
338.65	103.5
338.878	118.5
339.106	114.5
339.334	114.5
339.562	104.5
339.79	106.5
340.018	106.5
340.246	101.5
340.474	102.5
340.702	116.5
340.93	98.5
341.158	98.5
341.386	101.5
341.614	106.5
341.842	103.5
342.07	105.5
342.298	105.5
342.526	105.5
342.754	109.5
342.981	94.5
343.209	97.5
343.437	122.5
343.665	105.5
343.893	111.5
344.12	116.5
344.348	114.5
344.576	112.5
344.804	101.5
345.031	121.5
345.259	112.5
345.487	107.5
345.714	109.5
345.942	100.5
346.17	101.5
346.397	108.5
346.625	104.5
346.853	122.5
347.08	101.5
347.308	114.5
347.535	96.5
347.763	103.5
347.99	124.5
348.218	105.5
348.445	103.5
348.673	99.5
348.9	106.5
349.128	121.5
349.355	107.5
349.583	99.5
349.81	107.5
350.037	97.5
350.265	110.5
350.492	98.5
350.72	99.5
350.947	99.5
351.174	97.5
351.402	112.5
351.629	105.5
351.856	96.5
352.083	98.5
352.311	110.5
352.538	108.5
352.765	104.5
352.992	126.5
353.22	106.5
353.447	108.5
353.674	113.5
353.901	116.5
354.128	96.5
354.355	98.5
354.583	89.5
354.81	96.5
355.037	106.5
355.264	108.5
355.491	99.5
355.718	90.5
355.945	123.5
356.172	103.5
356.399	91.5
356.626	96.5
356.853	101.5
357.08	96.5
357.307	114.5
357.534	110.5
357.761	96.5
357.988	112.5
358.215	104.5
358.441	95.5
358.668	102.5
358.895	103.5
359.122	106.5
359.349	96.5
359.576	101.5
359.802	102.5
360.029	95.5
360.256	100.5
360.483	98.5
360.709	110.5
360.936	118.5
361.163	106.5
361.39	124.5
361.616	112.5
361.843	111.5
362.07	109.5
362.296	114.5
362.523	108.5
362.749	92.5
362.976	108.5
363.203	113.5
363.429	89.5
363.656	106.5
363.882	116.5
364.109	121.5
364.335	102.5
364.562	102.5
364.788	105.5
365.015	102.5
365.241	102.5
365.468	121.5
365.694	100.5
365.92	96.5
366.147	103.5
366.373	94.5
366.599	92.5
366.826	94.5
367.052	112.5
367.278	122.5
367.505	111.5
367.731	131.5
367.957	99.5
368.184	108.5
368.41	107.5
368.636	93.5
368.862	118.5
369.089	127.5
369.315	104.5
369.541	96.5
369.767	122.5
369.993	106.5
370.219	86.5
370.445	110.5
370.672	104.5
370.898	108.5
371.124	111.5
371.35	114.5
371.576	110.5
371.802	101.5
372.028	107.5
372.254	105.5
372.48	112.5
372.706	108.5
372.932	119.5
373.158	121.5
373.384	115.5
373.61	112.5
373.835	114.5
374.061	103.5
374.287	101.5
374.513	103.5
374.739	113.5
374.965	115.5
375.191	120.5
375.416	100.5
375.642	129.5
375.868	108.5
376.094	122.5
376.319	105.5
376.545	118.5
376.771	111.5
376.997	100.5
377.222	96.5
377.448	123.5
377.674	97.5
377.899	111.5
378.125	103.5
378.35	101.5
378.576	113.5
378.802	89.5
379.027	125.5
379.253	131.5
379.478	110.5
379.704	102.5
379.929	96.5
380.155	98.5
380.38	104.5
380.606	113.5
380.831	114.5
381.057	118.5
381.282	103.5
381.507	110.5
381.733	115.5
381.958	107.5
382.184	107.5
382.409	112.5
382.634	98.5
382.86	104.5
383.085	130.5
383.31	115.5
383.535	121.5
383.761	114.5
383.986	120.5
384.211	104.5
384.436	105.5
384.662	116.5
384.887	122.5
385.112	126.5
385.337	122.5
385.562	113.5
385.787	120.5
386.013	123.5
386.238	120.5
386.463	130.5
386.688	150.5
386.913	107.5
387.138	116.5
387.363	112.5
387.588	136.5
387.813	126.5
388.038	120.5
388.263	133.5
388.488	121.5
388.713	106.5
388.938	114.5
389.163	120.5
389.387	106.5
389.612	111.5
389.837	126.5
390.062	118.5
390.287	109.5
390.512	112.5
390.736	105.5
390.961	117.5
391.186	120.5
391.411	128.5
391.636	104.5
391.86	118.5
392.085	132.5
392.31	119.5
392.534	118.5
392.759	116.5
392.984	126.5
393.208	121.5
393.433	126.5
393.658	113.5
393.882	125.5
394.107	130.5
394.331	118.5
394.556	121.5
394.78	147.5
395.005	134.5
395.229	129.5
395.454	132.5
395.678	130.5
395.903	120.5
396.127	120.5
396.352	106.5
396.576	126.5
396.801	111.5
397.025	110.5
397.249	116.5
397.474	127.5
397.698	119.5
397.922	113.5
398.147	120.5
398.371	143.5
398.595	124.5
398.82	127.5
399.044	124.5
399.268	140.5
399.492	164.5
399.717	156.5
399.941	175.5
400.165	148.5
400.389	130.5
400.613	143.5
400.837	148.5
401.062	119.5
401.286	120.5
401.51	126.5
401.734	135.5
401.958	114.5
402.182	131.5
402.406	131.5
402.63	137.5
402.854	143.5
403.078	147.5
403.302	127.5
403.526	146.5
403.75	143.5
403.974	134.5
404.198	145.5
404.422	135.5
404.645	118.5
404.869	127.5
405.093	126.5
405.317	144.5
405.541	142.5
405.765	136.5
405.988	144.5
406.212	155.5
406.436	128.5
406.66	152.5
406.883	130.5
407.107	139.5
407.331	144.5
407.555	148.5
407.778	155.5
408.002	129.5
408.226	115.5
408.449	144.5
408.673	139.5
408.896	135.5
409.12	134.5
409.344	144.5
409.567	144.5
409.791	126.5
410.014	141.5
410.238	150.5
410.461	135.5
410.685	128.5
410.908	139.5
411.132	148.5
411.355	127.5
411.578	137.5
411.802	147.5
412.025	123.5
412.249	136.5
412.472	118.5
412.695	143.5
412.919	138.5
413.142	140.5
413.365	125.5
413.589	137.5
413.812	131.5
414.035	145.5
414.258	135.5
414.482	144.5
414.705	142.5
414.928	159.5
415.151	134.5
415.374	128.5
415.597	130.5
415.821	132.5
416.044	144.5
416.267	124.5
416.49	137.5
416.713	130.5
416.936	123.5
417.159	127.5
417.382	129.5
417.605	139.5
417.828	133.5
418.051	125.5
418.274	122.5
418.497	136.5
418.72	147.5
418.943	147.5
419.166	135.5
419.389	144.5
419.611	135.5
419.834	122.5
420.057	128.5
420.28	131.5
420.503	128.5
420.726	123.5
420.948	136.5
421.171	145.5
421.394	137.5
421.617	132.5
421.839	139.5
422.062	138.5
422.285	147.5
422.507	145.5
422.73	139.5
422.953	139.5
423.175	148.5
423.398	125.5
423.621	144.5
423.843	114.5
424.066	130.5
424.288	133.5
424.511	131.5
424.733	150.5
424.956	135.5
425.178	151.5
425.401	135.5
425.623	126.5
425.846	137.5
426.068	139.5
426.291	123.5
426.513	142.5
426.735	136.5
426.958	126.5
427.18	116.5
427.402	135.5
427.625	136.5
427.847	120.5
428.069	135.5
428.292	131.5
428.514	132.5
428.736	132.5
428.958	133.5
429.181	136.5
429.403	143.5
429.625	114.5
429.847	120.5
430.069	126.5
430.292	128.5
430.514	126.5
430.736	113.5
430.958	119.5
431.18	124.5
431.402	124.5
431.624	123.5
431.846	123.5
432.068	135.5
432.29	130.5
432.512	128.5
432.734	143.5
432.956	116.5
433.178	146.5
433.4	131.5
433.622	132.5
433.844	137.5
434.066	119.5
434.287	119.5
434.509	112.5
434.731	143.5
434.953	124.5
435.175	123.5
435.397	131.5
435.618	121.5
435.84	125.5
436.062	115.5
436.284	128.5
436.505	129.5
436.727	138.5
436.949	143.5
437.17	118.5
437.392	117.5
437.614	130.5
437.835	130.5
438.057	117.5
438.278	112.5
438.5	113.5
438.721	142.5
438.943	135.5
439.165	134.5
439.386	129.5
439.608	135.5
439.829	124.5
440.05	139.5
440.272	132.5
440.493	131.5
440.715	144.5
440.936	131.5
441.158	137.5
441.379	135.5
441.6	126.5
441.822	116.5
442.043	123.5
442.264	118.5
442.486	145.5
442.707	131.5
442.928	128.5
443.149	130.5
443.371	148.5
443.592	143.5
443.813	135.5
444.034	114.5
444.255	147.5
444.476	141.5
444.698	147.5
444.919	151.5
445.14	386.5
445.361	259.5
445.582	139.5
445.803	150.5
446.024	131.5
446.245	141.5
446.466	146.5
446.687	128.5
446.908	141.5
447.129	139.5
447.35	134.5
447.571	131.5
447.792	118.5
448.013	126.5
448.234	124.5
448.455	125.5
448.675	131.5
448.896	110.5
449.117	127.5
449.338	116.5
449.559	135.5
449.779	136.5
450	119.5
450.221	115.5
450.442	121.5
450.662	117.5
450.883	109.5
451.104	130.5
451.324	126.5
451.545	124.5
451.766	126.5
451.986	124.5
452.207	138.5
452.428	127.5
452.648	124.5
452.869	114.5
453.089	129.5
453.31	124.5
453.53	120.5
453.751	104.5
453.971	105.5
454.192	122.5
454.412	127.5
454.633	124.5
454.853	137.5
455.073	131.5
455.294	111.5
455.514	129.5
455.734	127.5
455.955	113.5
456.175	134.5
456.395	135.5
456.616	111.5
456.836	116.5
457.056	118.5
457.276	109.5
457.497	112.5
457.717	108.5
457.937	121.5
458.157	114.5
458.377	116.5
458.598	121.5
458.818	118.5
459.038	112.5
459.258	109.5
459.478	115.5
459.698	116.5
459.918	127.5
460.138	132.5
460.358	133.5
460.578	147.5
460.798	129.5
461.018	140.5
461.238	131.5
461.458	128.5
461.678	130.5
461.898	122.5
462.118	138.5
462.338	128.5
462.558	144.5
462.777	138.5
462.997	142.5
463.217	144.5
463.437	137.5
463.657	136.5
463.876	145.5
464.096	148.5
464.316	142.5
464.536	127.5
464.755	134.5
464.975	114.5
465.195	137.5
465.414	125.5
465.634	119.5
465.854	127.5
466.073	121.5
466.293	137.5
466.512	126.5
466.732	120.5
466.951	106.5
467.171	121.5
467.391	120.5
467.61	142.5
467.829	121.5
468.049	127.5
468.268	120.5
468.488	131.5
468.707	120.5
468.927	127.5
469.146	106.5
469.365	133.5
469.585	129.5
469.804	115.5
470.023	131.5
470.243	132.5
470.462	130.5
470.681	119.5
470.901	139.5
471.12	112.5
471.339	128.5
471.558	129.5
471.777	124.5
471.997	142.5
472.216	136.5
472.435	130.5
472.654	122.5
472.873	132.5
473.092	129.5
473.311	132.5
473.53	117.5
473.749	116.5
473.968	131.5
474.187	120.5
474.406	117.5
474.625	124.5
474.844	134.5
475.063	130.5
475.282	118.5
475.501	128.5
475.72	137.5
475.939	129.5
476.158	131.5
476.377	130.5
476.596	120.5
476.814	129.5
477.033	129.5
477.252	137.5
477.471	135.5
477.69	137.5
477.908	130.5
478.127	160.5
478.346	150.5
478.564	130.5
478.783	143.5
479.002	141.5
479.22	147.5
479.439	135.5
479.658	137.5
479.876	131.5
480.095	130.5
480.313	139.5
480.532	149.5
480.751	137.5
480.969	127.5
481.188	118.5
481.406	112.5
481.624	138.5
481.843	122.5
482.061	130.5
482.28	136.5
482.498	115.5
482.717	123.5
482.935	127.5
483.153	139.5
483.372	137.5
483.59	130.5
483.808	122.5
484.027	128.5
484.245	147.5
484.463	140.5
484.681	163.5
484.9	132.5
485.118	132.5
485.336	134.5
485.554	136.5
485.772	124.5
485.99	127.5
486.209	137.5
486.427	125.5
486.645	123.5
486.863	130.5
487.081	125.5
487.299	124.5
487.517	133.5
487.735	152.5
487.953	166.5
488.171	142.5
488.389	142.5
488.607	137.5
488.825	139.5
489.043	123.5
489.261	138.5
489.479	147.5
489.696	123.5
489.914	147.5
490.132	124.5
490.35	140.5
490.568	133.5
490.786	144.5
491.003	145.5
491.221	160.5
491.439	139.5
491.657	152.5
491.874	166.5
492.092	176.5
492.31	170.5
492.527	160.5
492.745	159.5
492.963	150.5
493.18	138.5
493.398	162.5
493.615	138.5
493.833	157.5
494.05	137.5
494.268	147.5
494.485	160.5
494.703	159.5
494.92	138.5
495.138	151.5
495.355	156.5
495.573	152.5
495.79	150.5
496.008	162.5
496.225	146.5
496.442	145.5
496.66	157.5
496.877	150.5
497.094	157.5
497.312	158.5
497.529	159.5
497.746	146.5
497.963	152.5
498.181	123.5
498.398	154.5
498.615	164.5
498.832	153.5
499.049	167.5
499.267	171.5
499.484	175.5
499.701	188.5
499.918	200.5
500.135	212.5
500.352	235.5
500.569	244.5
500.786	246.5
501.003	240.5
501.22	208.5
501.437	209.5
501.654	187.5
501.871	168.5
502.088	170.5
502.305	165.5
502.522	158.5
502.739	160.5
502.956	160.5
503.172	147.5
503.389	130.5
503.606	138.5
503.823	141.5
504.04	151.5
504.256	146.5
504.473	147.5
504.69	147.5
504.907	165.5
505.123	149.5
505.34	129.5
505.557	124.5
505.773	122.5
505.99	129.5
506.207	131.5
506.423	138.5
506.64	123.5
506.856	122.5
507.073	139.5
507.289	113.5
507.506	126.5
507.722	142.5
507.939	117.5
508.155	122.5
508.372	133.5
508.588	127.5
508.805	135.5
509.021	124.5
509.238	122.5
509.454	110.5
509.67	103.5
509.887	117.5
510.103	125.5
510.319	125.5
510.536	125.5
510.752	110.5
510.968	109.5
511.184	108.5
511.401	101.5
511.617	121.5
511.833	112.5
512.049	121.5
512.265	110.5
512.481	131.5
512.698	119.5
512.914	107.5
513.13	122.5
513.346	115.5
513.562	100.5
513.778	121.5
513.994	121.5
514.21	124.5
514.426	134.5
514.642	133.5
514.858	104.5
515.074	131.5
515.29	123.5
515.506	118.5
515.721	120.5
515.937	132.5
516.153	117.5
516.369	124.5
516.585	135.5
516.801	120.5
517.016	125.5
517.232	121.5
517.448	146.5
517.664	137.5
517.879	150.5
518.095	144.5
518.311	151.5
518.527	127.5
518.742	118.5
518.958	116.5
519.173	129.5
519.389	137.5
519.605	117.5
519.82	132.5
520.036	134.5
520.251	128.5
520.467	119.5
520.682	126.5
520.898	100.5
521.113	104.5
521.329	117.5
521.544	112.5
521.76	119.5
521.975	137.5
522.19	118.5
522.406	122.5
522.621	130.5
522.836	131.5
523.052	134.5
523.267	102.5
523.482	111.5
523.698	120.5
523.913	134.5
524.128	118.5
524.343	120.5
524.559	127.5
524.774	120.5
524.989	128.5
525.204	130.5
525.419	120.5
