Data from SampD_HRD10591_00070.txt Node
Date: Mon Jan 19 11:50:39 EST 2026
User: Yrep
Spectrometer: HR+D1059
Trigger mode: 0
Integration Time (sec): 3.443000E-1
Scans to average: 1
Electric dark correction enabled: true
Nonlinearity correction enabled: false
Boxcar width: 0
XAxis mode: Wavelengths
Number of Pixels in Spectrum: 2048
>>>>>Begin Spectral Data<<<<<
223.165	-21.88
223.4	-21.88
223.635	-21.88
223.869	-28.88
224.104	-30.88
224.338	-9.88
224.573	-9.88
224.808	-15.88
225.042	7.12
225.277	5.12
225.511	-2.88
225.746	-0.88
225.98	9.12
226.215	10.12
226.449	10.12
226.683	19.12
226.918	32.12
227.152	28.12
227.387	33.12
227.621	34.12
227.856	44.12
228.09	49.12
228.324	58.12
228.559	64.12
228.793	50.12
229.027	61.12
229.262	68.12
229.496	63.12
229.73	84.12
229.964	63.12
230.199	61.12
230.433	64.12
230.667	73.12
230.901	61.12
231.136	82.12
231.37	80.12
231.604	85.12
231.838	84.12
232.072	84.12
232.306	76.12
232.541	87.12
232.775	79.12
233.009	84.12
233.243	90.12
233.477	79.12
233.711	88.12
233.945	75.12
234.179	73.12
234.413	79.12
234.647	76.12
234.881	85.12
235.115	90.12
235.349	85.12
235.583	88.12
235.817	87.12
236.051	96.12
236.285	87.12
236.519	79.12
236.753	92.12
236.987	71.12
237.221	70.12
237.455	67.12
237.689	71.12
237.922	73.12
238.156	88.12
238.39	81.12
238.624	89.12
238.858	74.12
239.091	70.12
239.325	77.12
239.559	91.12
239.793	91.12
240.027	103.12
240.26	81.12
240.494	87.12
240.728	64.12
240.961	68.12
241.195	82.12
241.429	87.12
241.662	83.12
241.896	80.12
242.13	82.12
242.363	81.12
242.597	76.12
242.83	91.12
243.064	83.12
243.298	74.12
243.531	81.12
243.765	91.12
243.998	91.12
244.232	87.12
244.465	96.12
244.699	88.12
244.932	91.12
245.166	85.12
245.399	82.12
245.633	73.12
245.866	95.12
246.099	85.12
246.333	75.12
246.566	85.12
246.8	92.12
247.033	94.12
247.266	88.12
247.5	86.12
247.733	93.12
247.966	83.12
248.2	90.12
248.433	91.12
248.666	91.12
248.899	89.12
249.133	81.12
249.366	103.12
249.599	81.12
249.832	81.12
250.066	96.12
250.299	89.12
250.532	91.12
250.765	93.12
250.998	91.12
251.231	93.12
251.465	100.12
251.698	87.12
251.931	75.12
252.164	87.12
252.397	84.12
252.63	91.12
252.863	83.12
253.096	106.12
253.329	87.12
253.562	99.12
253.795	98.12
254.028	90.12
254.261	79.12
254.494	100.12
254.727	106.12
254.96	93.12
255.193	103.12
255.426	96.12
255.659	98.12
255.892	94.12
256.124	87.12
256.357	77.12
256.59	83.12
256.823	90.12
257.056	98.12
257.289	97.12
257.521	107.12
257.754	100.12
257.987	96.12
258.22	85.12
258.452	87.12
258.685	88.12
258.918	77.12
259.151	93.12
259.383	109.12
259.616	92.12
259.849	101.12
260.081	92.12
260.314	95.12
260.547	86.12
260.779	93.12
261.012	90.12
261.244	91.12
261.477	108.12
261.71	102.12
261.942	101.12
262.175	92.12
262.407	95.12
262.64	100.12
262.872	97.12
263.105	98.12
263.337	104.12
263.57	95.12
263.802	99.12
264.035	92.12
264.267	99.12
264.499	90.12
264.732	100.12
264.964	107.12
265.197	93.12
265.429	91.12
265.661	103.12
265.894	100.12
266.126	109.12
266.358	98.12
266.591	86.12
266.823	99.12
267.055	98.12
267.287	99.12
267.52	91.12
267.752	116.12
267.984	106.12
268.216	88.12
268.448	87.12
268.681	91.12
268.913	88.12
269.145	99.12
269.377	97.12
269.609	99.12
269.841	106.12
270.073	98.12
270.306	110.12
270.538	113.12
270.77	101.12
271.002	96.12
271.234	113.12
271.466	107.12
271.698	98.12
271.93	107.12
272.162	101.12
272.394	119.12
272.626	108.12
272.858	91.12
273.09	116.12
273.322	109.12
273.553	108.12
273.785	112.12
274.017	104.12
274.249	105.12
274.481	96.12
274.713	114.12
274.945	91.12
275.176	106.12
275.408	120.12
275.64	101.12
275.872	104.12
276.104	108.12
276.335	99.12
276.567	95.12
276.799	105.12
277.031	105.12
277.262	101.12
277.494	114.12
277.726	109.12
277.957	95.12
278.189	106.12
278.421	105.12
278.652	107.12
278.884	113.12
279.115	108.12
279.347	94.12
279.579	106.12
279.81	107.12
280.042	111.12
280.273	99.12
280.505	112.12
280.736	106.12
280.968	107.12
281.199	112.12
281.431	115.12
281.662	101.12
281.894	134.12
282.125	101.12
282.356	101.12
282.588	101.12
282.819	110.12
283.051	101.12
283.282	108.12
283.513	115.12
283.745	111.12
283.976	116.12
284.207	123.12
284.439	105.12
284.67	113.12
284.901	117.12
285.132	133.12
285.364	120.12
285.595	108.12
285.826	108.12
286.057	118.12
286.288	114.12
286.52	106.12
286.751	110.12
286.982	110.12
287.213	117.12
287.444	114.12
287.675	119.12
287.906	112.12
288.138	104.12
288.369	128.12
288.6	120.12
288.831	117.12
289.062	116.12
289.293	120.12
289.524	116.12
289.755	112.12
289.986	115.12
290.217	107.12
290.448	120.12
290.679	119.12
290.91	130.12
291.141	108.12
291.371	128.12
291.602	112.12
291.833	114.12
292.064	109.12
292.295	121.12
292.526	112.12
292.757	115.12
292.987	113.12
293.218	115.12
293.449	117.12
293.68	109.12
293.91	122.12
294.141	114.12
294.372	120.12
294.603	121.12
294.833	125.12
295.064	108.12
295.295	114.12
295.525	117.12
295.756	121.12
295.987	125.12
296.217	117.12
296.448	111.12
296.679	109.12
296.909	132.12
297.14	130.12
297.37	124.12
297.601	118.12
297.831	114.12
298.062	107.12
298.292	117.12
298.523	125.12
298.753	140.12
298.984	124.12
299.214	124.12
299.445	104.12
299.675	131.12
299.905	113.12
300.136	123.12
300.366	122.12
300.597	124.12
300.827	113.12
301.057	124.12
301.288	122.12
301.518	128.12
301.748	118.12
301.979	163.12
302.209	114.12
302.439	124.12
302.669	128.12
302.9	124.12
303.13	134.12
303.36	117.12
303.59	121.12
303.82	125.12
304.051	129.12
304.281	139.12
304.511	140.12
304.741	126.12
304.971	107.12
305.201	117.12
305.431	124.12
305.661	135.12
305.891	115.12
306.121	124.12
306.352	117.12
306.582	111.12
306.812	121.12
307.042	122.12
307.272	112.12
307.502	121.12
307.731	122.12
307.961	135.12
308.191	121.12
308.421	121.12
308.651	124.12
308.881	124.12
309.111	128.12
309.341	128.12
309.571	114.12
309.8	114.12
310.03	124.12
310.26	130.12
310.49	121.12
310.72	121.12
310.949	122.12
311.179	127.12
311.409	125.12
311.639	128.12
311.868	116.12
312.098	124.12
312.328	127.12
312.557	128.12
312.787	126.12
313.017	130.12
313.246	124.12
313.476	124.12
313.706	140.12
313.935	131.12
314.165	123.12
314.394	145.12
314.624	132.12
314.853	124.12
315.083	128.12
315.312	127.12
315.542	109.12
315.771	131.12
316.001	137.12
316.23	124.12
316.46	130.12
316.689	130.12
316.919	130.12
317.148	145.12
317.377	138.12
317.607	135.12
317.836	124.12
318.065	113.12
318.295	110.12
318.524	114.12
318.753	134.12
318.983	125.12
319.212	135.12
319.441	120.12
319.67	132.12
319.9	117.12
320.129	123.12
320.358	123.12
320.587	130.12
320.816	127.12
321.046	117.12
321.275	129.12
321.504	107.12
321.733	118.12
321.962	134.12
322.191	126.12
322.42	125.12
322.649	120.12
322.878	127.12
323.108	123.12
323.337	129.12
323.566	133.12
323.795	134.12
324.024	131.12
324.253	120.12
324.482	120.12
324.71	131.12
324.939	125.12
325.168	132.12
325.397	133.12
325.626	121.12
325.855	106.12
326.084	131.12
326.313	132.12
326.542	127.12
326.77	134.12
326.999	135.12
327.228	115.12
327.457	137.12
327.686	130.12
327.914	144.12
328.143	135.12
328.372	130.12
328.6	130.12
328.829	133.12
329.058	137.12
329.287	116.12
329.515	139.12
329.744	133.12
329.972	117.12
330.201	144.12
330.43	128.12
330.658	127.12
330.887	135.12
331.115	140.12
331.344	135.12
331.572	143.12
331.801	145.12
332.03	137.12
332.258	159.12
332.486	145.12
332.715	137.12
332.943	151.12
333.172	147.12
333.4	157.12
333.629	153.12
333.857	146.12
334.085	146.12
334.314	157.12
334.542	144.12
334.771	155.12
334.999	147.12
335.227	128.12
335.455	140.12
335.684	142.12
335.912	153.12
336.14	151.12
336.369	152.12
336.597	146.12
336.825	129.12
337.053	140.12
337.281	140.12
337.51	139.12
337.738	149.12
337.966	130.12
338.194	121.12
338.422	116.12
338.65	149.12
338.878	150.12
339.106	146.12
339.334	156.12
339.562	131.12
339.79	140.12
340.018	137.12
340.246	122.12
340.474	130.12
340.702	129.12
340.93	139.12
341.158	130.12
341.386	135.12
341.614	130.12
341.842	136.12
342.07	133.12
342.298	130.12
342.526	128.12
342.754	131.12
342.981	147.12
343.209	147.12
343.437	173.12
343.665	156.12
343.893	147.12
344.12	170.12
344.348	157.12
344.576	141.12
344.804	139.12
345.031	140.12
345.259	137.12
345.487	139.12
345.714	125.12
345.942	127.12
346.17	141.12
346.397	125.12
346.625	126.12
346.853	135.12
347.08	128.12
347.308	120.12
347.535	115.12
347.763	144.12
347.99	148.12
348.218	137.12
348.445	133.12
348.673	149.12
348.9	139.12
349.128	136.12
349.355	122.12
349.583	140.12
349.81	135.12
350.037	128.12
350.265	139.12
350.492	125.12
350.72	132.12
350.947	149.12
351.174	136.12
351.402	131.12
351.629	130.12
351.856	131.12
352.083	120.12
352.311	129.12
352.538	125.12
352.765	119.12
352.992	147.12
353.22	140.12
353.447	131.12
353.674	147.12
353.901	132.12
354.128	121.12
354.355	126.12
354.583	120.12
354.81	136.12
355.037	137.12
355.264	137.12
355.491	128.12
355.718	124.12
355.945	117.12
356.172	131.12
356.399	122.12
356.626	119.12
356.853	139.12
357.08	145.12
357.307	147.12
357.534	140.12
357.761	147.12
357.988	143.12
358.215	144.12
358.441	118.12
358.668	138.12
358.895	145.12
359.122	147.12
359.349	140.12
359.576	136.12
359.802	147.12
360.029	139.12
360.256	130.12
360.483	126.12
360.709	125.12
360.936	132.12
361.163	128.12
361.39	124.12
361.616	135.12
361.843	132.12
362.07	133.12
362.296	137.12
362.523	129.12
362.749	133.12
362.976	124.12
363.203	150.12
363.429	138.12
363.656	146.12
363.882	138.12
364.109	131.12
364.335	119.12
364.562	134.12
364.788	119.12
365.015	129.12
365.241	135.12
365.468	138.12
365.694	122.12
365.92	134.12
366.147	131.12
366.373	125.12
366.599	130.12
366.826	133.12
367.052	122.12
367.278	153.12
367.505	147.12
367.731	163.12
367.957	132.12
368.184	133.12
368.41	137.12
368.636	141.12
368.862	134.12
369.089	137.12
369.315	133.12
369.541	144.12
369.767	120.12
369.993	132.12
370.219	133.12
370.445	138.12
370.672	133.12
370.898	127.12
371.124	140.12
371.35	149.12
371.576	138.12
371.802	134.12
372.028	135.12
372.254	138.12
372.48	127.12
372.706	136.12
372.932	145.12
373.158	145.12
373.384	139.12
373.61	161.12
373.835	138.12
374.061	147.12
374.287	135.12
374.513	146.12
374.739	155.12
374.965	145.12
375.191	136.12
375.416	158.12
375.642	150.12
375.868	145.12
376.094	146.12
376.319	140.12
376.545	136.12
376.771	133.12
376.997	153.12
377.222	144.12
377.448	137.12
377.674	133.12
377.899	138.12
378.125	131.12
378.35	132.12
378.576	136.12
378.802	162.12
379.027	129.12
379.253	148.12
379.478	130.12
379.704	147.12
379.929	139.12
380.155	149.12
380.38	160.12
380.606	156.12
380.831	136.12
381.057	144.12
381.282	138.12
381.507	152.12
381.733	131.12
381.958	132.12
382.184	134.12
382.409	139.12
382.634	148.12
382.86	159.12
383.085	159.12
383.31	156.12
383.535	148.12
383.761	165.12
383.986	153.12
384.211	134.12
384.436	133.12
384.662	166.12
384.887	144.12
385.112	163.12
385.337	168.12
385.562	179.12
385.787	169.12
386.013	182.12
386.238	151.12
386.463	162.12
386.688	188.12
386.913	144.12
387.138	160.12
387.363	168.12
387.588	159.12
387.813	176.12
388.038	163.12
388.263	162.12
388.488	143.12
388.713	163.12
388.938	153.12
389.163	157.12
389.387	143.12
389.612	154.12
389.837	157.12
390.062	165.12
390.287	163.12
390.512	145.12
390.736	164.12
390.961	160.12
391.186	175.12
391.411	174.12
391.636	176.12
391.86	181.12
392.085	176.12
392.31	157.12
392.534	157.12
392.759	170.12
392.984	181.12
393.208	187.12
393.433	160.12
393.658	173.12
393.882	163.12
394.107	167.12
394.331	168.12
394.556	163.12
394.78	177.12
395.005	165.12
395.229	173.12
395.454	167.12
395.678	177.12
395.903	177.12
396.127	180.12
396.352	156.12
396.576	156.12
396.801	164.12
397.025	173.12
397.249	183.12
397.474	178.12
397.698	168.12
397.922	175.12
398.147	181.12
398.371	179.12
398.595	188.12
398.82	195.12
399.044	197.12
399.268	202.12
399.492	241.12
399.717	248.12
399.941	226.12
400.165	212.12
400.389	187.12
400.613	189.12
400.837	208.12
401.062	189.12
401.286	178.12
401.51	197.12
401.734	167.12
401.958	180.12
402.182	201.12
402.406	183.12
402.63	174.12
402.854	183.12
403.078	199.12
403.302	213.12
403.526	209.12
403.75	212.12
403.974	209.12
404.198	212.12
404.422	223.12
404.645	188.12
404.869	214.12
405.093	192.12
405.317	195.12
405.541	214.12
405.765	196.12
405.988	199.12
406.212	204.12
406.436	185.12
406.66	195.12
406.883	222.12
407.107	217.12
407.331	226.12
407.555	201.12
407.778	219.12
408.002	214.12
408.226	214.12
408.449	211.12
408.673	211.12
408.896	209.12
409.12	199.12
409.344	215.12
409.567	203.12
409.791	201.12
410.014	225.12
410.238	208.12
410.461	204.12
410.685	199.12
410.908	204.12
411.132	201.12
411.355	195.12
411.578	196.12
411.802	194.12
412.025	196.12
412.249	203.12
412.472	193.12
412.695	183.12
412.919	185.12
413.142	181.12
413.365	186.12
413.589	189.12
413.812	203.12
414.035	189.12
414.258	213.12
414.482	184.12
414.705	180.12
414.928	191.12
415.151	187.12
415.374	202.12
415.597	207.12
415.821	185.12
416.044	170.12
416.267	201.12
416.49	192.12
416.713	184.12
416.936	187.12
417.159	188.12
417.382	195.12
417.605	179.12
417.828	209.12
418.051	170.12
418.274	225.12
418.497	192.12
418.72	196.12
418.943	200.12
419.166	194.12
419.389	216.12
419.611	207.12
419.834	210.12
420.057	219.12
420.28	204.12
420.503	212.12
420.726	211.12
420.948	195.12
421.171	195.12
421.394	197.12
421.617	197.12
421.839	185.12
422.062	186.12
422.285	188.12
422.507	197.12
422.73	196.12
422.953	206.12
423.175	198.12
423.398	196.12
423.621	189.12
423.843	219.12
424.066	224.12
424.288	200.12
424.511	196.12
424.733	212.12
424.956	217.12
425.178	198.12
425.401	193.12
425.623	188.12
425.846	191.12
426.068	194.12
426.291	197.12
426.513	201.12
426.735	189.12
426.958	187.12
427.18	194.12
427.402	194.12
427.625	161.12
427.847	187.12
428.069	177.12
428.292	182.12
428.514	191.12
428.736	187.12
428.958	191.12
429.181	185.12
429.403	168.12
429.625	186.12
429.847	183.12
430.069	184.12
430.292	199.12
430.514	186.12
430.736	191.12
430.958	184.12
431.18	176.12
431.402	172.12
431.624	180.12
431.846	185.12
432.068	153.12
432.29	179.12
432.512	194.12
432.734	172.12
432.956	195.12
433.178	212.12
433.4	189.12
433.622	203.12
433.844	192.12
434.066	193.12
434.287	170.12
434.509	173.12
434.731	186.12
434.953	180.12
435.175	180.12
435.397	201.12
435.618	193.12
435.84	167.12
436.062	178.12
436.284	187.12
436.505	176.12
436.727	192.12
436.949	182.12
437.17	192.12
437.392	170.12
437.614	181.12
437.835	159.12
438.057	168.12
438.278	170.12
438.5	181.12
438.721	181.12
438.943	196.12
439.165	180.12
439.386	186.12
439.608	175.12
439.829	193.12
440.05	193.12
440.272	188.12
440.493	202.12
440.715	189.12
440.936	195.12
441.158	209.12
441.379	203.12
441.6	200.12
441.822	209.12
442.043	211.12
442.264	207.12
442.486	201.12
442.707	199.12
442.928	193.12
443.149	195.12
443.371	195.12
443.592	194.12
443.813	191.12
444.034	194.12
444.255	203.12
444.476	210.12
444.698	227.12
444.919	217.12
445.14	479.12
445.361	329.12
445.582	207.12
445.803	202.12
446.024	187.12
446.245	207.12
446.466	195.12
446.687	199.12
446.908	197.12
447.129	187.12
447.35	195.12
447.571	184.12
447.792	179.12
448.013	185.12
448.234	188.12
448.455	191.12
448.675	177.12
448.896	177.12
449.117	192.12
449.338	162.12
449.559	173.12
449.779	164.12
450	188.12
450.221	186.12
450.442	172.12
450.662	180.12
450.883	172.12
451.104	193.12
451.324	176.12
451.545	179.12
451.766	187.12
451.986	174.12
452.207	170.12
452.428	169.12
452.648	192.12
452.869	181.12
453.089	156.12
453.31	170.12
453.53	151.12
453.751	156.12
453.971	163.12
454.192	152.12
454.412	169.12
454.633	180.12
454.853	171.12
455.073	183.12
455.294	175.12
455.514	169.12
455.734	163.12
455.955	157.12
456.175	166.12
456.395	161.12
456.616	181.12
456.836	171.12
457.056	178.12
457.276	154.12
457.497	161.12
457.717	163.12
457.937	162.12
458.157	161.12
458.377	161.12
458.598	167.12
458.818	138.12
459.038	157.12
459.258	161.12
459.478	169.12
459.698	163.12
459.918	179.12
460.138	171.12
460.358	193.12
460.578	216.12
460.798	193.12
461.018	208.12
461.238	203.12
461.458	200.12
461.678	190.12
461.898	187.12
462.118	204.12
462.338	217.12
462.558	198.12
462.777	195.12
462.997	223.12
463.217	247.12
463.437	221.12
463.657	219.12
463.876	213.12
464.096	195.12
464.316	200.12
464.536	211.12
464.755	223.12
464.975	208.12
465.195	225.12
465.414	183.12
465.634	181.12
465.854	188.12
466.073	197.12
466.293	187.12
466.512	186.12
466.732	168.12
466.951	181.12
467.171	188.12
467.391	179.12
467.61	183.12
467.829	169.12
468.049	184.12
468.268	177.12
468.488	173.12
468.707	183.12
468.927	184.12
469.146	180.12
469.365	187.12
469.585	196.12
469.804	207.12
470.023	191.12
470.243	199.12
470.462	221.12
470.681	209.12
470.901	180.12
471.12	186.12
471.339	180.12
471.558	189.12
471.777	195.12
471.997	177.12
472.216	173.12
472.435	179.12
472.654	168.12
472.873	168.12
473.092	184.12
473.311	185.12
473.53	172.12
473.749	179.12
473.968	191.12
474.187	171.12
474.406	171.12
474.625	166.12
474.844	185.12
475.063	171.12
475.282	175.12
475.501	182.12
475.72	194.12
475.939	179.12
476.158	188.12
476.377	184.12
476.596	186.12
476.814	172.12
477.033	176.12
477.252	169.12
477.471	185.12
477.69	196.12
477.908	201.12
478.127	215.12
478.346	197.12
478.564	194.12
478.783	210.12
479.002	223.12
479.22	187.12
479.439	185.12
479.658	182.12
479.876	180.12
480.095	192.12
480.313	195.12
480.532	209.12
480.751	211.12
480.969	179.12
481.188	163.12
481.406	185.12
481.624	173.12
481.843	167.12
482.061	178.12
482.28	195.12
482.498	182.12
482.717	164.12
482.935	201.12
483.153	212.12
483.372	193.12
483.59	199.12
483.808	201.12
484.027	184.12
484.245	191.12
484.463	183.12
484.681	227.12
484.9	210.12
485.118	203.12
485.336	191.12
485.554	169.12
485.772	200.12
485.99	178.12
486.209	192.12
486.427	192.12
486.645	184.12
486.863	215.12
487.081	214.12
487.299	201.12
487.517	217.12
487.735	220.12
487.953	224.12
488.171	240.12
488.389	215.12
488.607	202.12
488.825	188.12
489.043	203.12
489.261	202.12
489.479	200.12
489.696	228.12
489.914	201.12
490.132	216.12
490.35	207.12
490.568	198.12
490.786	223.12
491.003	207.12
491.221	236.12
491.439	217.12
491.657	241.12
491.874	234.12
492.092	235.12
492.31	252.12
492.527	245.12
492.745	237.12
492.963	243.12
493.18	243.12
493.398	227.12
493.615	227.12
493.833	234.12
494.05	235.12
494.268	215.12
494.485	219.12
494.703	218.12
494.92	220.12
495.138	218.12
495.355	240.12
495.573	218.12
495.79	220.12
496.008	236.12
496.225	219.12
496.442	218.12
496.66	239.12
496.877	241.12
497.094	235.12
497.312	220.12
497.529	232.12
497.746	239.12
497.963	202.12
498.181	213.12
498.398	225.12
498.615	247.12
498.832	245.12
499.049	268.12
499.267	276.12
499.484	284.12
499.701	328.12
499.918	348.12
500.135	372.12
500.352	380.12
500.569	419.12
500.786	423.12
501.003	391.12
501.22	348.12
501.437	329.12
501.654	275.12
501.871	279.12
502.088	272.12
502.305	276.12
502.522	244.12
502.739	247.12
502.956	228.12
503.172	243.12
503.389	218.12
503.606	217.12
503.823	215.12
504.04	213.12
504.256	215.12
504.473	216.12
504.69	224.12
504.907	237.12
