Data from SampD_HRD10591_00022.txt Node
Date: Mon Jan 19 11:50:22 EST 2026
User: Yrep
Spectrometer: HR+D1059
Trigger mode: 0
Integration Time (sec): 3.443000E-1
Scans to average: 1
Electric dark correction enabled: true
Nonlinearity correction enabled: false
Boxcar width: 0
XAxis mode: Wavelengths
Number of Pixels in Spectrum: 2048
>>>>>Begin Spectral Data<<<<<
223.165	-23.19
223.4	-23.19
223.635	-23.19
223.869	-27.19
224.104	-26.19
224.338	-19.19
224.573	-6.19
224.808	-22.19
225.042	-5.19
225.277	-14.19
225.511	-1.19
225.746	16.81
225.98	20.81
226.215	24.81
226.449	-0.19
226.683	20.81
226.918	28.81
227.152	32.81
227.387	50.81
227.621	50.81
227.856	45.81
228.09	63.81
228.324	58.81
228.559	65.81
228.793	71.81
229.027	83.81
229.262	72.81
229.496	75.81
229.73	75.81
229.964	73.81
230.199	72.81
230.433	75.81
230.667	67.81
230.901	80.81
231.136	81.81
231.37	93.81
231.604	78.81
231.838	77.81
232.072	78.81
232.306	82.81
232.541	88.81
232.775	83.81
233.009	81.81
233.243	87.81
233.477	90.81
233.711	94.81
233.945	99.81
234.179	85.81
234.413	96.81
234.647	91.81
234.881	81.81
235.115	79.81
235.349	75.81
235.583	98.81
235.817	76.81
236.051	89.81
236.285	80.81
236.519	89.81
236.753	85.81
236.987	79.81
237.221	77.81
237.455	81.81
237.689	89.81
237.922	84.81
238.156	83.81
238.39	80.81
238.624	93.81
238.858	80.81
239.091	74.81
239.325	71.81
239.559	88.81
239.793	88.81
240.027	94.81
240.26	93.81
240.494	84.81
240.728	80.81
240.961	89.81
241.195	96.81
241.429	83.81
241.662	76.81
241.896	91.81
242.13	95.81
242.363	93.81
242.597	77.81
242.83	96.81
243.064	79.81
243.298	95.81
243.531	80.81
243.765	89.81
243.998	89.81
244.232	102.81
244.465	90.81
244.699	79.81
244.932	83.81
245.166	86.81
245.399	86.81
245.633	96.81
245.866	84.81
246.099	91.81
246.333	91.81
246.566	95.81
246.8	66.81
247.033	85.81
247.266	87.81
247.5	76.81
247.733	95.81
247.966	79.81
248.2	92.81
248.433	91.81
248.666	100.81
248.899	102.81
249.133	73.81
249.366	95.81
249.599	86.81
249.832	81.81
250.066	100.81
250.299	83.81
250.532	95.81
250.765	90.81
250.998	81.81
251.231	91.81
251.465	92.81
251.698	68.81
251.931	81.81
252.164	101.81
252.397	97.81
252.63	83.81
252.863	91.81
253.096	87.81
253.329	93.81
253.562	83.81
253.795	82.81
254.028	79.81
254.261	92.81
254.494	79.81
254.727	95.81
254.96	83.81
255.193	85.81
255.426	81.81
255.659	89.81
255.892	96.81
256.124	88.81
256.357	100.81
256.59	100.81
256.823	100.81
257.056	91.81
257.289	83.81
257.521	87.81
257.754	89.81
257.987	96.81
258.22	90.81
258.452	85.81
258.685	85.81
258.918	92.81
259.151	88.81
259.383	87.81
259.616	97.81
259.849	91.81
260.081	92.81
260.314	100.81
260.547	92.81
260.779	92.81
261.012	108.81
261.244	93.81
261.477	104.81
261.71	74.81
261.942	90.81
262.175	89.81
262.407	88.81
262.64	96.81
262.872	99.81
263.105	101.81
263.337	105.81
263.57	89.81
263.802	77.81
264.035	79.81
264.267	100.81
264.499	94.81
264.732	97.81
264.964	96.81
265.197	98.81
265.429	96.81
265.661	89.81
265.894	90.81
266.126	100.81
266.358	90.81
266.591	87.81
266.823	103.81
267.055	103.81
267.287	95.81
267.52	90.81
267.752	109.81
267.984	95.81
268.216	98.81
268.448	109.81
268.681	99.81
268.913	95.81
269.145	105.81
269.377	120.81
269.609	96.81
269.841	100.81
270.073	87.81
270.306	105.81
270.538	97.81
270.77	96.81
271.002	101.81
271.234	101.81
271.466	108.81
271.698	91.81
271.93	89.81
272.162	89.81
272.394	100.81
272.626	101.81
272.858	84.81
273.09	104.81
273.322	98.81
273.553	92.81
273.785	103.81
274.017	88.81
274.249	95.81
274.481	102.81
274.713	84.81
274.945	104.81
275.176	83.81
275.408	107.81
275.64	94.81
275.872	94.81
276.104	103.81
276.335	98.81
276.567	85.81
276.799	85.81
277.031	91.81
277.262	107.81
277.494	101.81
277.726	88.81
277.957	103.81
278.189	100.81
278.421	99.81
278.652	84.81
278.884	105.81
279.115	103.81
279.347	100.81
279.579	95.81
279.81	104.81
280.042	89.81
280.273	97.81
280.505	82.81
280.736	89.81
280.968	95.81
281.199	109.81
281.431	108.81
281.662	106.81
281.894	102.81
282.125	90.81
282.356	100.81
282.588	99.81
282.819	104.81
283.051	103.81
283.282	85.81
283.513	95.81
283.745	100.81
283.976	95.81
284.207	92.81
284.439	100.81
284.67	111.81
284.901	97.81
285.132	99.81
285.364	92.81
285.595	111.81
285.826	102.81
286.057	122.81
286.288	100.81
286.52	104.81
286.751	109.81
286.982	96.81
287.213	95.81
287.444	103.81
287.675	96.81
287.906	104.81
288.138	111.81
288.369	108.81
288.6	95.81
288.831	94.81
289.062	104.81
289.293	105.81
289.524	101.81
289.755	99.81
289.986	108.81
290.217	110.81
290.448	102.81
290.679	101.81
290.91	111.81
291.141	103.81
291.371	101.81
291.602	105.81
291.833	108.81
292.064	111.81
292.295	101.81
292.526	83.81
292.757	95.81
292.987	111.81
293.218	97.81
293.449	102.81
293.68	103.81
293.91	100.81
294.141	116.81
294.372	101.81
294.603	100.81
294.833	104.81
295.064	108.81
295.295	89.81
295.525	106.81
295.756	108.81
295.987	106.81
296.217	110.81
296.448	108.81
296.679	102.81
296.909	105.81
297.14	105.81
297.37	117.81
297.601	95.81
297.831	110.81
298.062	108.81
298.292	88.81
298.523	118.81
298.753	91.81
298.984	96.81
299.214	105.81
299.445	116.81
299.675	122.81
299.905	118.81
300.136	113.81
300.366	105.81
300.597	99.81
300.827	107.81
301.057	93.81
301.288	102.81
301.518	97.81
301.748	113.81
301.979	140.81
302.209	97.81
302.439	98.81
302.669	91.81
302.9	120.81
303.13	101.81
303.36	104.81
303.59	111.81
303.82	107.81
304.051	113.81
304.281	118.81
304.511	125.81
304.741	115.81
304.971	106.81
305.201	94.81
305.431	108.81
305.661	106.81
305.891	116.81
306.121	109.81
306.352	113.81
306.582	111.81
306.812	115.81
307.042	111.81
307.272	111.81
307.502	104.81
307.731	99.81
307.961	101.81
308.191	106.81
308.421	113.81
308.651	115.81
308.881	105.81
309.111	106.81
309.341	103.81
309.571	97.81
309.8	107.81
310.03	98.81
310.26	103.81
310.49	112.81
310.72	92.81
310.949	112.81
311.179	108.81
311.409	107.81
311.639	102.81
311.868	114.81
312.098	122.81
312.328	109.81
312.557	119.81
312.787	116.81
313.017	104.81
313.246	117.81
313.476	97.81
313.706	101.81
313.935	112.81
314.165	115.81
314.394	117.81
314.624	97.81
314.853	114.81
315.083	105.81
315.312	95.81
315.542	112.81
315.771	109.81
316.001	106.81
316.23	95.81
316.46	93.81
316.689	112.81
316.919	113.81
317.148	115.81
317.377	106.81
317.607	97.81
317.836	105.81
318.065	119.81
318.295	111.81
318.524	112.81
318.753	109.81
318.983	101.81
319.212	103.81
319.441	102.81
319.67	120.81
319.9	105.81
320.129	116.81
320.358	119.81
320.587	108.81
320.816	106.81
321.046	101.81
321.275	123.81
321.504	113.81
321.733	108.81
321.962	122.81
322.191	113.81
322.42	107.81
322.649	110.81
322.878	113.81
323.108	92.81
323.337	119.81
323.566	109.81
323.795	133.81
324.024	107.81
324.253	98.81
324.482	108.81
324.71	105.81
324.939	119.81
325.168	107.81
325.397	111.81
325.626	112.81
325.855	106.81
326.084	110.81
326.313	112.81
326.542	124.81
326.77	107.81
326.999	111.81
327.228	103.81
327.457	97.81
327.686	113.81
327.914	113.81
328.143	114.81
328.372	104.81
328.6	124.81
328.829	105.81
329.058	101.81
329.287	118.81
329.515	108.81
329.744	104.81
329.972	118.81
330.201	103.81
330.43	111.81
330.658	113.81
330.887	124.81
331.115	109.81
331.344	104.81
331.572	110.81
331.801	102.81
332.03	103.81
332.258	114.81
332.486	121.81
332.715	106.81
332.943	109.81
333.172	117.81
333.4	116.81
333.629	119.81
333.857	129.81
334.085	138.81
334.314	122.81
334.542	108.81
334.771	117.81
334.999	111.81
335.227	110.81
335.455	128.81
335.684	137.81
335.912	122.81
336.14	112.81
336.369	110.81
336.597	119.81
336.825	111.81
337.053	121.81
337.281	108.81
337.51	105.81
337.738	119.81
337.966	98.81
338.194	87.81
338.422	111.81
338.65	117.81
338.878	124.81
339.106	102.81
339.334	134.81
339.562	112.81
339.79	100.81
340.018	111.81
340.246	105.81
340.474	113.81
340.702	102.81
340.93	101.81
341.158	105.81
341.386	103.81
341.614	107.81
341.842	116.81
342.07	116.81
342.298	94.81
342.526	108.81
342.754	112.81
342.981	103.81
343.209	111.81
343.437	143.81
343.665	112.81
343.893	128.81
344.12	143.81
344.348	102.81
344.576	96.81
344.804	116.81
345.031	109.81
345.259	110.81
345.487	108.81
345.714	94.81
345.942	96.81
346.17	121.81
346.397	108.81
346.625	124.81
346.853	125.81
347.08	119.81
347.308	116.81
347.535	92.81
347.763	107.81
347.99	126.81
348.218	110.81
348.445	117.81
348.673	111.81
348.9	129.81
349.128	122.81
349.355	110.81
349.583	106.81
349.81	105.81
350.037	109.81
350.265	123.81
350.492	125.81
350.72	107.81
350.947	97.81
351.174	107.81
351.402	111.81
351.629	116.81
351.856	112.81
352.083	108.81
352.311	117.81
352.538	112.81
352.765	117.81
352.992	135.81
353.22	103.81
353.447	95.81
353.674	118.81
353.901	115.81
354.128	123.81
354.355	107.81
354.583	110.81
354.81	121.81
355.037	108.81
355.264	112.81
355.491	108.81
355.718	101.81
355.945	124.81
356.172	101.81
356.399	117.81
356.626	115.81
356.853	114.81
357.08	119.81
357.307	111.81
357.534	89.81
357.761	112.81
357.988	108.81
358.215	99.81
358.441	124.81
358.668	127.81
358.895	117.81
359.122	104.81
359.349	100.81
359.576	104.81
359.802	120.81
360.029	115.81
360.256	115.81
360.483	112.81
360.709	113.81
360.936	137.81
361.163	125.81
361.39	119.81
361.616	112.81
361.843	130.81
362.07	112.81
362.296	119.81
362.523	97.81
362.749	115.81
362.976	98.81
363.203	116.81
363.429	88.81
363.656	113.81
363.882	117.81
364.109	111.81
364.335	116.81
364.562	117.81
364.788	111.81
365.015	111.81
365.241	118.81
365.468	109.81
365.694	109.81
365.92	125.81
366.147	102.81
366.373	112.81
366.599	116.81
366.826	99.81
367.052	98.81
367.278	115.81
367.505	108.81
367.731	116.81
367.957	113.81
368.184	107.81
368.41	113.81
368.636	117.81
368.862	110.81
369.089	122.81
369.315	125.81
369.541	128.81
369.767	104.81
369.993	110.81
370.219	112.81
370.445	119.81
370.672	121.81
370.898	112.81
371.124	97.81
371.35	120.81
371.576	117.81
371.802	112.81
372.028	115.81
372.254	121.81
372.48	93.81
372.706	121.81
372.932	125.81
373.158	123.81
373.384	113.81
373.61	119.81
373.835	116.81
374.061	121.81
374.287	125.81
374.513	124.81
374.739	117.81
374.965	113.81
375.191	121.81
375.416	114.81
375.642	120.81
375.868	119.81
376.094	126.81
376.319	107.81
376.545	123.81
376.771	115.81
376.997	123.81
377.222	113.81
377.448	104.81
377.674	112.81
377.899	108.81
378.125	108.81
378.35	125.81
378.576	115.81
378.802	108.81
379.027	120.81
379.253	121.81
379.478	108.81
379.704	110.81
379.929	112.81
380.155	108.81
380.38	115.81
380.606	110.81
380.831	105.81
381.057	133.81
381.282	128.81
381.507	121.81
381.733	113.81
381.958	103.81
382.184	110.81
382.409	125.81
382.634	120.81
382.86	131.81
383.085	123.81
383.31	118.81
383.535	138.81
383.761	130.81
383.986	105.81
384.211	112.81
384.436	109.81
384.662	128.81
384.887	137.81
385.112	123.81
385.337	123.81
385.562	108.81
385.787	122.81
386.013	126.81
386.238	129.81
386.463	131.81
386.688	148.81
386.913	130.81
387.138	120.81
387.363	120.81
387.588	132.81
387.813	121.81
388.038	130.81
388.263	128.81
388.488	123.81
388.713	110.81
388.938	115.81
389.163	117.81
389.387	116.81
389.612	122.81
389.837	129.81
390.062	117.81
390.287	131.81
390.512	123.81
390.736	136.81
390.961	124.81
391.186	117.81
391.411	134.81
391.636	115.81
391.86	138.81
392.085	113.81
392.31	129.81
392.534	121.81
392.759	111.81
392.984	129.81
393.208	134.81
393.433	127.81
393.658	111.81
393.882	113.81
394.107	146.81
394.331	139.81
394.556	121.81
394.78	140.81
395.005	118.81
395.229	123.81
395.454	126.81
395.678	141.81
395.903	139.81
396.127	133.81
396.352	129.81
396.576	129.81
396.801	123.81
397.025	132.81
397.249	127.81
397.474	140.81
397.698	121.81
397.922	128.81
398.147	145.81
398.371	129.81
398.595	141.81
398.82	146.81
399.044	120.81
399.268	150.81
399.492	156.81
399.717	165.81
399.941	155.81
400.165	137.81
400.389	141.81
400.613	141.81
400.837	150.81
401.062	153.81
401.286	143.81
401.51	136.81
401.734	125.81
401.958	134.81
402.182	136.81
402.406	149.81
402.63	137.81
402.854	137.81
403.078	162.81
403.302	133.81
403.526	143.81
403.75	169.81
403.974	153.81
404.198	150.81
404.422	131.81
404.645	129.81
404.869	171.81
405.093	143.81
405.317	154.81
405.541	149.81
405.765	142.81
405.988	145.81
406.212	137.81
406.436	150.81
406.66	168.81
406.883	145.81
407.107	151.81
407.331	144.81
407.555	157.81
407.778	141.81
408.002	148.81
408.226	142.81
408.449	145.81
408.673	137.81
408.896	144.81
409.12	142.81
409.344	147.81
409.567	142.81
409.791	154.81
410.014	155.81
410.238	132.81
410.461	149.81
410.685	155.81
410.908	132.81
411.132	138.81
411.355	142.81
411.578	145.81
411.802	135.81
412.025	135.81
412.249	135.81
412.472	137.81
412.695	134.81
412.919	137.81
413.142	131.81
413.365	136.81
413.589	147.81
413.812	135.81
414.035	153.81
414.258	126.81
414.482	136.81
414.705	132.81
414.928	149.81
415.151	151.81
415.374	129.81
415.597	135.81
415.821	140.81
416.044	136.81
416.267	150.81
416.49	149.81
416.713	137.81
416.936	137.81
417.159	139.81
417.382	136.81
417.605	130.81
417.828	149.81
418.051	136.81
418.274	147.81
418.497	127.81
418.72	140.81
418.943	144.81
419.166	151.81
419.389	133.81
419.611	143.81
419.834	143.81
420.057	148.81
420.28	136.81
420.503	151.81
420.726	143.81
420.948	139.81
421.171	143.81
421.394	120.81
421.617	140.81
421.839	127.81
422.062	127.81
422.285	141.81
422.507	136.81
422.73	151.81
422.953	128.81
423.175	137.81
423.398	136.81
423.621	147.81
423.843	134.81
424.066	149.81
424.288	132.81
424.511	143.81
424.733	179.81
424.956	162.81
425.178	138.81
425.401	137.81
425.623	128.81
425.846	142.81
426.068	143.81
426.291	139.81
426.513	137.81
426.735	143.81
426.958	127.81
427.18	144.81
427.402	125.81
427.625	131.81
427.847	131.81
428.069	117.81
428.292	139.81
428.514	133.81
428.736	135.81
428.958	133.81
429.181	133.81
429.403	135.81
429.625	132.81
429.847	120.81
430.069	118.81
430.292	139.81
430.514	142.81
430.736	141.81
430.958	140.81
431.18	130.81
431.402	122.81
431.624	133.81
431.846	128.81
432.068	128.81
432.29	140.81
432.512	144.81
432.734	137.81
432.956	136.81
433.178	162.81
433.4	138.81
433.622	151.81
433.844	147.81
434.066	123.81
434.287	135.81
434.509	120.81
434.731	135.81
434.953	138.81
435.175	138.81
435.397	134.81
435.618	136.81
435.84	123.81
436.062	137.81
436.284	127.81
436.505	148.81
436.727	133.81
436.949	137.81
437.17	127.81
437.392	140.81
437.614	122.81
437.835	117.81
438.057	137.81
438.278	131.81
438.5	129.81
438.721	133.81
438.943	152.81
439.165	129.81
439.386	131.81
439.608	138.81
439.829	137.81
440.05	129.81
440.272	135.81
440.493	127.81
440.715	135.81
440.936	135.81
441.158	148.81
441.379	141.81
441.6	149.81
441.822	149.81
442.043	156.81
442.264	142.81
442.486	145.81
442.707	136.81
442.928	132.81
443.149	138.81
443.371	163.81
443.592	134.81
443.813	141.81
444.034	141.81
444.255	147.81
444.476	150.81
444.698	136.81
444.919	160.81
445.14	347.81
445.361	235.81
445.582	142.81
445.803	143.81
446.024	135.81
446.245	146.81
446.466	135.81
446.687	152.81
446.908	138.81
447.129	149.81
447.35	141.81
447.571	135.81
447.792	137.81
448.013	134.81
448.234	131.81
448.455	132.81
448.675	126.81
448.896	126.81
449.117	129.81
449.338	134.81
449.559	127.81
449.779	139.81
450	127.81
450.221	141.81
450.442	135.81
450.662	139.81
450.883	133.81
451.104	142.81
451.324	132.81
451.545	133.81
451.766	133.81
451.986	120.81
452.207	132.81
452.428	138.81
452.648	150.81
452.869	130.81
453.089	127.81
453.31	121.81
453.53	123.81
453.751	127.81
453.971	130.81
454.192	119.81
454.412	124.81
454.633	116.81
454.853	114.81
455.073	136.81
455.294	130.81
455.514	142.81
455.734	127.81
455.955	133.81
456.175	120.81
456.395	119.81
456.616	124.81
456.836	124.81
457.056	113.81
457.276	126.81
457.497	125.81
457.717	119.81
457.937	136.81
458.157	114.81
458.377	117.81
458.598	119.81
458.818	114.81
459.038	126.81
459.258	125.81
459.478	134.81
459.698	123.81
459.918	132.81
460.138	133.81
460.358	166.81
460.578	147.81
460.798	143.81
461.018	131.81
461.238	139.81
461.458	139.81
461.678	130.81
461.898	140.81
462.118	156.81
462.338	164.81
462.558	164.81
462.777	147.81
462.997	156.81
463.217	150.81
463.437	150.81
463.657	129.81
463.876	149.81
464.096	147.81
464.316	135.81
464.536	154.81
464.755	146.81
464.975	155.81
465.195	149.81
465.414	138.81
465.634	136.81
465.854	140.81
466.073	130.81
466.293	147.81
466.512	136.81
466.732	134.81
466.951	137.81
467.171	139.81
467.391	138.81
467.61	144.81
467.829	148.81
468.049	129.81
468.268	128.81
468.488	124.81
468.707	130.81
468.927	129.81
469.146	132.81
469.365	148.81
469.585	127.81
469.804	149.81
470.023	142.81
470.243	134.81
470.462	145.81
470.681	154.81
470.901	124.81
471.12	128.81
471.339	138.81
471.558	144.81
471.777	142.81
471.997	140.81
472.216	131.81
472.435	129.81
472.654	118.81
472.873	117.81
473.092	106.81
473.311	123.81
473.53	135.81
473.749	136.81
473.968	143.81
474.187	128.81
474.406	126.81
474.625	143.81
474.844	138.81
475.063	129.81
475.282	124.81
475.501	128.81
475.72	147.81
475.939	129.81
476.158	123.81
476.377	132.81
476.596	137.81
476.814	126.81
477.033	139.81
477.252	124.81
477.471	127.81
477.69	145.81
477.908	133.81
478.127	141.81
478.346	140.81
478.564	141.81
478.783	166.81
479.002	147.81
479.22	138.81
479.439	154.81
479.658	147.81
479.876	139.81
480.095	151.81
480.313	156.81
480.532	142.81
480.751	152.81
480.969	132.81
481.188	132.81
481.406	138.81
481.624	119.81
481.843	121.81
482.061	121.81
482.28	135.81
482.498	137.81
482.717	124.81
482.935	130.81
483.153	137.81
483.372	143.81
483.59	134.81
483.808	136.81
484.027	132.81
484.245	141.81
484.463	138.81
484.681	144.81
484.9	140.81
485.118	145.81
485.336	136.81
485.554	135.81
485.772	137.81
485.99	128.81
486.209	129.81
486.427	136.81
486.645	131.81
486.863	142.81
487.081	136.81
487.299	155.81
487.517	157.81
487.735	164.81
487.953	164.81
488.171	156.81
488.389	164.81
488.607	143.81
488.825	149.81
489.043	144.81
489.261	149.81
489.479	146.81
489.696	143.81
489.914	129.81
490.132	161.81
490.35	144.81
490.568	152.81
490.786	163.81
491.003	151.81
491.221	153.81
491.439	164.81
491.657	140.81
491.874	145.81
492.092	155.81
492.31	153.81
492.527	169.81
492.745	165.81
492.963	173.81
493.18	159.81
493.398	151.81
493.615	154.81
493.833	136.81
494.05	143.81
494.268	145.81
494.485	160.81
494.703	157.81
494.92	170.81
495.138	165.81
495.355	155.81
495.573	166.81
495.79	154.81
496.008	164.81
496.225	144.81
496.442	154.81
496.66	164.81
496.877	160.81
497.094	170.81
497.312	153.81
497.529	157.81
497.746	151.81
497.963	168.81
498.181	155.81
498.398	175.81
498.615	170.81
498.832	164.81
499.049	153.81
499.267	194.81
499.484	200.81
499.701	219.81
499.918	206.81
500.135	251.81
500.352	263.81
500.569	262.81
500.786	254.81
501.003	248.81
501.22	227.81
501.437	208.81
501.654	194.81
501.871	195.81
502.088	168.81
502.305	171.81
502.522	171.81
502.739	174.81
502.956	159.81
503.172	167.81
503.389	146.81
503.606	143.81
503.823	151.81
504.04	162.81
504.256	159.81
504.473	155.81
504.69	164.81
504.907	152.81
505.123	142.81
505.34	159.81
505.557	145.81
505.773	149.81
505.99	137.81
