Data from SampD_HRD10591_00028.txt Node
Date: Mon Jan 19 11:50:25 EST 2026
User: Yrep
Spectrometer: HR+D1059
Trigger mode: 0
Integration Time (sec): 3.443000E-1
Scans to average: 1
Electric dark correction enabled: true
Nonlinearity correction enabled: false
Boxcar width: 0
XAxis mode: Wavelengths
Number of Pixels in Spectrum: 2048
>>>>>Begin Spectral Data<<<<<
223.165	-7.94
223.4	-7.94
223.635	-7.94
223.869	-13.94
224.104	-20.94
224.338	-2.94
224.573	-28.94
224.808	-4.94
225.042	11.06
225.277	-16.94
225.511	-25.94
225.746	8.06
225.98	2.06
226.215	11.06
226.449	3.06
226.683	15.06
226.918	35.06
227.152	37.06
227.387	23.06
227.621	41.06
227.856	38.06
228.09	50.06
228.324	68.06
228.559	58.06
228.793	50.06
229.027	75.06
229.262	69.06
229.496	80.06
229.73	71.06
229.964	77.06
230.199	78.06
230.433	94.06
230.667	87.06
230.901	78.06
231.136	63.06
231.37	80.06
231.604	71.06
231.838	61.06
232.072	73.06
232.306	78.06
232.541	103.06
232.775	85.06
233.009	94.06
233.243	76.06
233.477	77.06
233.711	70.06
233.945	82.06
234.179	92.06
234.413	90.06
234.647	81.06
234.881	81.06
235.115	81.06
235.349	78.06
235.583	83.06
235.817	75.06
236.051	88.06
236.285	82.06
236.519	90.06
236.753	98.06
236.987	92.06
237.221	77.06
237.455	87.06
237.689	87.06
237.922	76.06
238.156	78.06
238.39	83.06
238.624	81.06
238.858	88.06
239.091	89.06
239.325	86.06
239.559	97.06
239.793	95.06
240.027	103.06
240.26	75.06
240.494	87.06
240.728	60.06
240.961	87.06
241.195	83.06
241.429	89.06
241.662	77.06
241.896	77.06
242.13	74.06
242.363	87.06
242.597	81.06
242.83	91.06
243.064	78.06
243.298	97.06
243.531	83.06
243.765	78.06
243.998	81.06
244.232	95.06
244.465	93.06
244.699	96.06
244.932	83.06
245.166	92.06
245.399	84.06
245.633	89.06
245.866	85.06
246.099	75.06
246.333	85.06
246.566	81.06
246.8	79.06
247.033	86.06
247.266	86.06
247.5	71.06
247.733	99.06
247.966	90.06
248.2	77.06
248.433	89.06
248.666	66.06
248.899	91.06
249.133	109.06
249.366	97.06
249.599	100.06
249.832	87.06
250.066	77.06
250.299	85.06
250.532	82.06
250.765	78.06
250.998	81.06
251.231	94.06
251.465	92.06
251.698	97.06
251.931	96.06
252.164	90.06
252.397	94.06
252.63	92.06
252.863	87.06
253.096	87.06
253.329	93.06
253.562	89.06
253.795	107.06
254.028	96.06
254.261	88.06
254.494	87.06
254.727	100.06
254.96	110.06
255.193	91.06
255.426	91.06
255.659	89.06
255.892	105.06
256.124	96.06
256.357	90.06
256.59	94.06
256.823	107.06
257.056	89.06
257.289	92.06
257.521	101.06
257.754	93.06
257.987	94.06
258.22	104.06
258.452	83.06
258.685	91.06
258.918	99.06
259.151	86.06
259.383	109.06
259.616	103.06
259.849	87.06
260.081	105.06
260.314	98.06
260.547	99.06
260.779	119.06
261.012	91.06
261.244	105.06
261.477	123.06
261.71	103.06
261.942	94.06
262.175	102.06
262.407	82.06
262.64	102.06
262.872	103.06
263.105	84.06
263.337	110.06
263.57	97.06
263.802	109.06
264.035	115.06
264.267	90.06
264.499	110.06
264.732	105.06
264.964	103.06
265.197	114.06
265.429	95.06
265.661	102.06
265.894	111.06
266.126	113.06
266.358	98.06
266.591	113.06
266.823	111.06
267.055	104.06
267.287	120.06
267.52	117.06
267.752	122.06
267.984	110.06
268.216	110.06
268.448	107.06
268.681	115.06
268.913	103.06
269.145	105.06
269.377	99.06
269.609	102.06
269.841	107.06
270.073	109.06
270.306	111.06
270.538	95.06
270.77	114.06
271.002	101.06
271.234	97.06
271.466	113.06
271.698	112.06
271.93	104.06
272.162	99.06
272.394	114.06
272.626	103.06
272.858	106.06
273.09	105.06
273.322	122.06
273.553	106.06
273.785	102.06
274.017	116.06
274.249	116.06
274.481	115.06
274.713	102.06
274.945	116.06
275.176	103.06
275.408	115.06
275.64	103.06
275.872	86.06
276.104	115.06
276.335	115.06
276.567	102.06
276.799	99.06
277.031	103.06
277.262	111.06
277.494	116.06
277.726	107.06
277.957	106.06
278.189	110.06
278.421	108.06
278.652	100.06
278.884	114.06
279.115	115.06
279.347	118.06
279.579	106.06
279.81	123.06
280.042	110.06
280.273	115.06
280.505	122.06
280.736	117.06
280.968	106.06
281.199	112.06
281.431	126.06
281.662	118.06
281.894	126.06
282.125	114.06
282.356	117.06
282.588	110.06
282.819	110.06
283.051	124.06
283.282	95.06
283.513	131.06
283.745	115.06
283.976	117.06
284.207	103.06
284.439	118.06
284.67	109.06
284.901	109.06
285.132	104.06
285.364	121.06
285.595	102.06
285.826	117.06
286.057	115.06
286.288	115.06
286.52	111.06
286.751	128.06
286.982	130.06
287.213	105.06
287.444	113.06
287.675	113.06
287.906	111.06
288.138	126.06
288.369	126.06
288.6	122.06
288.831	128.06
289.062	106.06
289.293	117.06
289.524	130.06
289.755	120.06
289.986	118.06
290.217	117.06
290.448	105.06
290.679	109.06
290.91	122.06
291.141	124.06
291.371	119.06
291.602	116.06
291.833	122.06
292.064	117.06
292.295	118.06
292.526	129.06
292.757	117.06
292.987	108.06
293.218	132.06
293.449	109.06
293.68	118.06
293.91	122.06
294.141	114.06
294.372	131.06
294.603	116.06
294.833	131.06
295.064	118.06
295.295	131.06
295.525	119.06
295.756	125.06
295.987	121.06
296.217	99.06
296.448	127.06
296.679	127.06
296.909	114.06
297.14	123.06
297.37	132.06
297.601	119.06
297.831	129.06
298.062	125.06
298.292	114.06
298.523	138.06
298.753	123.06
298.984	132.06
299.214	134.06
299.445	117.06
299.675	122.06
299.905	115.06
300.136	113.06
300.366	121.06
300.597	132.06
300.827	126.06
301.057	129.06
301.288	128.06
301.518	134.06
301.748	119.06
301.979	154.06
302.209	131.06
302.439	106.06
302.669	129.06
302.9	144.06
303.13	125.06
303.36	133.06
303.59	131.06
303.82	135.06
304.051	128.06
304.281	147.06
304.511	152.06
304.741	125.06
304.971	124.06
305.201	150.06
305.431	137.06
305.661	115.06
305.891	116.06
306.121	136.06
306.352	126.06
306.582	126.06
306.812	121.06
307.042	115.06
307.272	128.06
307.502	114.06
307.731	127.06
307.961	137.06
308.191	130.06
308.421	123.06
308.651	121.06
308.881	140.06
309.111	133.06
309.341	120.06
309.571	122.06
309.8	140.06
310.03	127.06
310.26	112.06
310.49	133.06
310.72	124.06
310.949	124.06
311.179	126.06
311.409	120.06
311.639	132.06
311.868	138.06
312.098	139.06
312.328	153.06
312.557	127.06
312.787	117.06
313.017	133.06
313.246	138.06
313.476	149.06
313.706	133.06
313.935	138.06
314.165	126.06
314.394	127.06
314.624	122.06
314.853	133.06
315.083	124.06
315.312	151.06
315.542	117.06
315.771	134.06
316.001	138.06
316.23	133.06
316.46	131.06
316.689	134.06
316.919	114.06
317.148	130.06
317.377	133.06
317.607	120.06
317.836	110.06
318.065	125.06
318.295	119.06
318.524	126.06
318.753	128.06
318.983	139.06
319.212	140.06
319.441	126.06
319.67	134.06
319.9	121.06
320.129	122.06
320.358	117.06
320.587	132.06
320.816	124.06
321.046	138.06
321.275	133.06
321.504	126.06
321.733	132.06
321.962	126.06
322.191	130.06
322.42	143.06
322.649	110.06
322.878	134.06
323.108	154.06
323.337	132.06
323.566	117.06
323.795	126.06
324.024	130.06
324.253	129.06
324.482	113.06
324.71	117.06
324.939	137.06
325.168	141.06
325.397	142.06
325.626	121.06
325.855	126.06
326.084	141.06
326.313	136.06
326.542	123.06
326.77	118.06
326.999	134.06
327.228	122.06
327.457	126.06
327.686	131.06
327.914	117.06
328.143	140.06
328.372	126.06
328.6	113.06
328.829	126.06
329.058	135.06
329.287	117.06
329.515	122.06
329.744	136.06
329.972	131.06
330.201	122.06
330.43	118.06
330.658	136.06
330.887	129.06
331.115	135.06
331.344	132.06
331.572	155.06
331.801	149.06
332.03	132.06
332.258	125.06
332.486	155.06
332.715	155.06
332.943	160.06
333.172	167.06
333.4	158.06
333.629	156.06
333.857	145.06
334.085	166.06
334.314	149.06
334.542	142.06
334.771	157.06
334.999	143.06
335.227	163.06
335.455	156.06
335.684	161.06
335.912	140.06
336.14	132.06
336.369	140.06
336.597	145.06
336.825	142.06
337.053	151.06
337.281	157.06
337.51	138.06
337.738	148.06
337.966	136.06
338.194	139.06
338.422	132.06
338.65	164.06
338.878	133.06
339.106	129.06
339.334	157.06
339.562	133.06
339.79	135.06
340.018	133.06
340.246	127.06
340.474	132.06
340.702	133.06
340.93	147.06
341.158	140.06
341.386	138.06
341.614	135.06
341.842	147.06
342.07	135.06
342.298	140.06
342.526	122.06
342.754	138.06
342.981	150.06
343.209	125.06
343.437	167.06
343.665	169.06
343.893	171.06
344.12	156.06
344.348	149.06
344.576	155.06
344.804	139.06
345.031	142.06
345.259	161.06
345.487	148.06
345.714	130.06
345.942	123.06
346.17	133.06
346.397	127.06
346.625	147.06
346.853	125.06
347.08	146.06
347.308	130.06
347.535	148.06
347.763	147.06
347.99	135.06
348.218	131.06
348.445	133.06
348.673	128.06
348.9	147.06
349.128	152.06
349.355	135.06
349.583	143.06
349.81	125.06
350.037	140.06
350.265	126.06
350.492	130.06
350.72	143.06
350.947	129.06
351.174	132.06
351.402	124.06
351.629	104.06
351.856	134.06
352.083	126.06
352.311	139.06
352.538	126.06
352.765	133.06
352.992	145.06
353.22	136.06
353.447	125.06
353.674	137.06
353.901	146.06
354.128	154.06
354.355	127.06
354.583	132.06
354.81	134.06
355.037	148.06
355.264	147.06
355.491	137.06
355.718	136.06
355.945	136.06
356.172	136.06
356.399	137.06
356.626	150.06
356.853	134.06
357.08	150.06
357.307	135.06
357.534	140.06
357.761	155.06
357.988	128.06
358.215	131.06
358.441	115.06
358.668	130.06
358.895	136.06
359.122	133.06
359.349	125.06
359.576	138.06
359.802	133.06
360.029	149.06
360.256	125.06
360.483	138.06
360.709	134.06
360.936	155.06
361.163	133.06
361.39	138.06
361.616	140.06
361.843	135.06
362.07	143.06
362.296	144.06
362.523	125.06
362.749	133.06
362.976	119.06
363.203	134.06
363.429	119.06
363.656	119.06
363.882	128.06
364.109	138.06
364.335	132.06
364.562	139.06
364.788	124.06
365.015	138.06
365.241	126.06
365.468	137.06
365.694	135.06
365.92	141.06
366.147	137.06
366.373	146.06
366.599	142.06
366.826	134.06
367.052	130.06
367.278	129.06
367.505	145.06
367.731	155.06
367.957	140.06
368.184	127.06
368.41	146.06
368.636	137.06
368.862	137.06
369.089	137.06
369.315	132.06
369.541	150.06
369.767	132.06
369.993	132.06
370.219	137.06
370.445	158.06
370.672	145.06
370.898	134.06
371.124	143.06
371.35	152.06
371.576	147.06
371.802	142.06
372.028	145.06
372.254	133.06
372.48	155.06
372.706	135.06
372.932	172.06
373.158	152.06
373.384	148.06
373.61	159.06
373.835	135.06
374.061	147.06
374.287	143.06
374.513	131.06
374.739	144.06
374.965	157.06
375.191	175.06
375.416	152.06
375.642	165.06
375.868	172.06
376.094	159.06
376.319	128.06
376.545	130.06
376.771	126.06
376.997	146.06
377.222	146.06
377.448	150.06
377.674	138.06
377.899	141.06
378.125	145.06
378.35	151.06
378.576	139.06
378.802	153.06
379.027	139.06
379.253	149.06
379.478	148.06
379.704	140.06
379.929	159.06
380.155	153.06
380.38	135.06
380.606	148.06
380.831	147.06
381.057	162.06
381.282	150.06
381.507	142.06
381.733	141.06
381.958	152.06
382.184	145.06
382.409	150.06
382.634	139.06
382.86	147.06
383.085	168.06
383.31	154.06
383.535	173.06
383.761	165.06
383.986	165.06
384.211	153.06
384.436	168.06
384.662	159.06
384.887	173.06
385.112	143.06
385.337	165.06
385.562	165.06
385.787	158.06
386.013	148.06
386.238	151.06
386.463	155.06
386.688	205.06
386.913	169.06
387.138	158.06
387.363	167.06
387.588	170.06
387.813	169.06
388.038	167.06
388.263	165.06
388.488	159.06
388.713	157.06
388.938	159.06
389.163	176.06
389.387	165.06
389.612	183.06
389.837	160.06
390.062	167.06
390.287	149.06
390.512	171.06
390.736	174.06
390.961	161.06
391.186	179.06
391.411	184.06
391.636	175.06
391.86	177.06
392.085	164.06
392.31	164.06
392.534	179.06
392.759	184.06
392.984	176.06
393.208	177.06
393.433	168.06
393.658	175.06
393.882	166.06
394.107	181.06
394.331	181.06
394.556	170.06
394.78	174.06
395.005	160.06
395.229	172.06
395.454	165.06
395.678	181.06
395.903	173.06
396.127	171.06
396.352	178.06
396.576	173.06
396.801	165.06
397.025	174.06
397.249	166.06
397.474	183.06
397.698	187.06
397.922	187.06
398.147	173.06
398.371	189.06
398.595	171.06
398.82	195.06
399.044	206.06
399.268	211.06
399.492	230.06
399.717	255.06
399.941	238.06
400.165	203.06
400.389	191.06
400.613	198.06
400.837	192.06
401.062	194.06
401.286	188.06
401.51	179.06
401.734	189.06
401.958	188.06
402.182	176.06
402.406	195.06
402.63	203.06
402.854	189.06
403.078	198.06
403.302	188.06
403.526	185.06
403.75	199.06
403.974	205.06
404.198	220.06
404.422	226.06
404.645	207.06
404.869	214.06
405.093	195.06
405.317	186.06
405.541	219.06
405.765	208.06
405.988	179.06
406.212	214.06
406.436	188.06
406.66	199.06
406.883	217.06
407.107	224.06
407.331	232.06
407.555	234.06
407.778	221.06
408.002	230.06
408.226	228.06
408.449	210.06
408.673	188.06
408.896	211.06
409.12	198.06
409.344	197.06
409.567	214.06
409.791	223.06
410.014	218.06
410.238	199.06
410.461	220.06
410.685	210.06
410.908	201.06
411.132	222.06
411.355	190.06
411.578	213.06
411.802	211.06
412.025	206.06
412.249	190.06
412.472	203.06
412.695	203.06
412.919	189.06
413.142	202.06
413.365	206.06
413.589	218.06
413.812	196.06
414.035	207.06
414.258	191.06
414.482	194.06
414.705	198.06
414.928	210.06
415.151	183.06
415.374	210.06
415.597	185.06
415.821	193.06
416.044	194.06
416.267	182.06
416.49	186.06
416.713	198.06
416.936	183.06
417.159	191.06
417.382	207.06
417.605	200.06
417.828	218.06
418.051	198.06
418.274	208.06
418.497	197.06
418.72	207.06
418.943	193.06
419.166	194.06
419.389	219.06
419.611	210.06
419.834	207.06
420.057	200.06
420.28	199.06
420.503	199.06
420.726	208.06
420.948	195.06
421.171	203.06
421.394	200.06
421.617	206.06
421.839	193.06
422.062	216.06
422.285	203.06
422.507	204.06
422.73	179.06
422.953	206.06
423.175	207.06
423.398	184.06
423.621	195.06
423.843	206.06
424.066	205.06
424.288	226.06
424.511	225.06
424.733	212.06
424.956	203.06
425.178	200.06
425.401	200.06
425.623	207.06
425.846	182.06
426.068	191.06
426.291	193.06
426.513	190.06
426.735	191.06
426.958	197.06
427.18	187.06
427.402	194.06
427.625	198.06
427.847	174.06
428.069	185.06
428.292	185.06
428.514	207.06
428.736	205.06
428.958	189.06
429.181	174.06
429.403	172.06
429.625	176.06
429.847	188.06
430.069	201.06
430.292	197.06
430.514	188.06
430.736	190.06
430.958	192.06
431.18	183.06
431.402	193.06
431.624	177.06
431.846	175.06
432.068	172.06
432.29	151.06
432.512	184.06
432.734	184.06
432.956	204.06
433.178	190.06
433.4	195.06
433.622	199.06
433.844	184.06
434.066	193.06
434.287	180.06
434.509	194.06
434.731	190.06
434.953	189.06
435.175	190.06
435.397	181.06
435.618	183.06
435.84	186.06
436.062	187.06
436.284	182.06
436.505	193.06
436.727	188.06
436.949	176.06
437.17	186.06
437.392	180.06
437.614	183.06
437.835	153.06
438.057	179.06
438.278	177.06
438.5	181.06
438.721	179.06
438.943	185.06
439.165	193.06
439.386	192.06
439.608	195.06
439.829	192.06
440.05	206.06
440.272	204.06
440.493	178.06
440.715	196.06
440.936	237.06
441.158	206.06
441.379	206.06
441.6	202.06
441.822	210.06
442.043	204.06
442.264	195.06
442.486	203.06
442.707	218.06
442.928	194.06
443.149	195.06
443.371	192.06
443.592	200.06
443.813	199.06
444.034	177.06
444.255	219.06
444.476	200.06
444.698	222.06
444.919	234.06
445.14	415.06
445.361	291.06
445.582	223.06
445.803	205.06
446.024	198.06
446.245	221.06
446.466	213.06
446.687	200.06
446.908	211.06
447.129	215.06
447.35	196.06
447.571	194.06
447.792	190.06
448.013	180.06
448.234	199.06
448.455	194.06
448.675	204.06
448.896	202.06
449.117	195.06
449.338	190.06
449.559	163.06
449.779	181.06
450	176.06
450.221	172.06
450.442	178.06
450.662	183.06
450.883	179.06
451.104	198.06
451.324	183.06
451.545	201.06
451.766	191.06
451.986	194.06
452.207	181.06
452.428	174.06
452.648	184.06
452.869	175.06
453.089	169.06
453.31	178.06
453.53	172.06
453.751	159.06
453.971	168.06
454.192	163.06
454.412	156.06
454.633	182.06
454.853	164.06
455.073	170.06
455.294	183.06
455.514	179.06
455.734	174.06
455.955	167.06
456.175	173.06
456.395	164.06
456.616	176.06
456.836	174.06
457.056	153.06
457.276	166.06
457.497	163.06
457.717	150.06
457.937	173.06
458.157	161.06
458.377	178.06
458.598	158.06
458.818	164.06
459.038	167.06
459.258	157.06
459.478	162.06
459.698	172.06
459.918	193.06
460.138	186.06
460.358	205.06
460.578	194.06
460.798	201.06
461.018	211.06
461.238	189.06
461.458	201.06
461.678	196.06
461.898	201.06
462.118	212.06
462.338	211.06
462.558	213.06
462.777	214.06
462.997	226.06
463.217	221.06
463.437	228.06
463.657	195.06
463.876	215.06
464.096	216.06
464.316	222.06
464.536	216.06
464.755	228.06
464.975	211.06
465.195	201.06
465.414	217.06
465.634	194.06
465.854	187.06
466.073	188.06
466.293	191.06
466.512	174.06
466.732	191.06
466.951	187.06
467.171	194.06
467.391	201.06
467.61	178.06
467.829	198.06
468.049	181.06
468.268	191.06
468.488	181.06
468.707	185.06
468.927	171.06
469.146	166.06
469.365	193.06
469.585	161.06
469.804	196.06
470.023	195.06
470.243	205.06
470.462	190.06
470.681	202.06
470.901	198.06
471.12	195.06
471.339	205.06
471.558	199.06
471.777	186.06
471.997	188.06
472.216	174.06
472.435	180.06
472.654	181.06
472.873	174.06
473.092	177.06
473.311	186.06
473.53	197.06
473.749	180.06
473.968	188.06
474.187	169.06
474.406	163.06
474.625	188.06
474.844	187.06
475.063	165.06
475.282	181.06
475.501	181.06
475.72	193.06
475.939	173.06
476.158	175.06
476.377	197.06
476.596	187.06
476.814	197.06
477.033	188.06
477.252	178.06
477.471	193.06
477.69	188.06
477.908	186.06
478.127	193.06
478.346	190.06
478.564	191.06
478.783	190.06
479.002	200.06
479.22	222.06
479.439	205.06
479.658	190.06
479.876	173.06
480.095	191.06
480.313	195.06
480.532	197.06
480.751	196.06
480.969	194.06
481.188	195.06
481.406	182.06
481.624	172.06
481.843	165.06
482.061	187.06
482.28	194.06
482.498	174.06
482.717	168.06
482.935	203.06
483.153	212.06
483.372	217.06
483.59	202.06
483.808	196.06
484.027	202.06
484.245	217.06
484.463	220.06
484.681	222.06
484.9	214.06
485.118	223.06
485.336	195.06
485.554	184.06
485.772	187.06
485.99	208.06
486.209	197.06
486.427	197.06
486.645	192.06
486.863	180.06
487.081	188.06
487.299	191.06
487.517	228.06
487.735	231.06
487.953	225.06
488.171	235.06
488.389	207.06
488.607	217.06
488.825	193.06
489.043	194.06
489.261	209.06
489.479	201.06
489.696	215.06
489.914	212.06
490.132	219.06
490.35	215.06
490.568	215.06
490.786	229.06
491.003	217.06
491.221	231.06
491.439	244.06
491.657	252.06
491.874	266.06
492.092	242.06
492.31	270.06
492.527	270.06
492.745	246.06
492.963	227.06
493.18	236.06
493.398	228.06
493.615	246.06
493.833	228.06
494.05	234.06
494.268	214.06
494.485	231.06
494.703	236.06
494.92	222.06
495.138	225.06
495.355	247.06
495.573	242.06
495.79	238.06
496.008	250.06
496.225	229.06
496.442	220.06
496.66	247.06
496.877	233.06
497.094	239.06
497.312	245.06
497.529	235.06
497.746	237.06
497.963	219.06
498.181	213.06
498.398	227.06
498.615	246.06
498.832	243.06
499.049	265.06
499.267	283.06
499.484	299.06
499.701	333.06
499.918	368.06
500.135	367.06
500.352	424.06
500.569	425.06
500.786	427.06
501.003	389.06
501.22	353.06
501.437	334.06
501.654	297.06
501.871	282.06
502.088	269.06
502.305	266.06
502.522	249.06
502.739	231.06
502.956	243.06
503.172	223.06
503.389	218.06
503.606	216.06
503.823	206.06
504.04	215.06
504.256	229.06
504.473	233.06
504.69	239.06
