Data from SampD_HRD10591_00099.txt Node
Date: Mon Jan 19 11:50:49 EST 2026
User: Yrep
Spectrometer: HR+D1059
Trigger mode: 0
Integration Time (sec): 3.443000E-1
Scans to average: 1
Electric dark correction enabled: true
Nonlinearity correction enabled: false
Boxcar width: 0
XAxis mode: Wavelengths
Number of Pixels in Spectrum: 2048
>>>>>Begin Spectral Data<<<<<
223.165	-30.81
223.4	-30.81
223.635	-30.81
223.869	-21.81
224.104	-16.81
224.338	-11.81
224.573	-10.81
224.808	-11.81
225.042	1.19
225.277	-2.81
225.511	-6.81
225.746	6.19
225.98	0.19
226.215	4.19
226.449	21.19
226.683	28.19
226.918	16.19
227.152	36.19
227.387	35.19
227.621	47.19
227.856	48.19
228.09	45.19
228.324	54.19
228.559	54.19
228.793	68.19
229.027	73.19
229.262	71.19
229.496	69.19
229.73	68.19
229.964	68.19
230.199	89.19
230.433	71.19
230.667	100.19
230.901	92.19
231.136	82.19
231.37	81.19
231.604	91.19
231.838	88.19
232.072	96.19
232.306	67.19
232.541	92.19
232.775	77.19
233.009	75.19
233.243	77.19
233.477	78.19
233.711	74.19
233.945	80.19
234.179	96.19
234.413	83.19
234.647	83.19
234.881	95.19
235.115	74.19
235.349	82.19
235.583	88.19
235.817	90.19
236.051	77.19
236.285	74.19
236.519	78.19
236.753	68.19
236.987	89.19
237.221	84.19
237.455	87.19
237.689	93.19
237.922	90.19
238.156	80.19
238.39	85.19
238.624	83.19
238.858	70.19
239.091	93.19
239.325	94.19
239.559	71.19
239.793	86.19
240.027	88.19
240.26	74.19
240.494	79.19
240.728	86.19
240.961	74.19
241.195	94.19
241.429	99.19
241.662	84.19
241.896	86.19
242.13	88.19
242.363	76.19
242.597	94.19
242.83	90.19
243.064	80.19
243.298	86.19
243.531	78.19
243.765	79.19
243.998	82.19
244.232	81.19
244.465	86.19
244.699	104.19
244.932	98.19
245.166	86.19
245.399	79.19
245.633	95.19
245.866	88.19
246.099	88.19
246.333	76.19
246.566	74.19
246.8	86.19
247.033	78.19
247.266	82.19
247.5	79.19
247.733	71.19
247.966	89.19
248.2	106.19
248.433	91.19
248.666	86.19
248.899	96.19
249.133	94.19
249.366	108.19
249.599	96.19
249.832	81.19
250.066	98.19
250.299	96.19
250.532	81.19
250.765	89.19
250.998	89.19
251.231	99.19
251.465	84.19
251.698	89.19
251.931	100.19
252.164	80.19
252.397	89.19
252.63	97.19
252.863	92.19
253.096	92.19
253.329	102.19
253.562	97.19
253.795	90.19
254.028	106.19
254.261	94.19
254.494	74.19
254.727	104.19
254.96	90.19
255.193	82.19
255.426	89.19
255.659	93.19
255.892	100.19
256.124	100.19
256.357	87.19
256.59	89.19
256.823	94.19
257.056	103.19
257.289	98.19
257.521	99.19
257.754	87.19
257.987	99.19
258.22	92.19
258.452	89.19
258.685	90.19
258.918	103.19
259.151	86.19
259.383	103.19
259.616	89.19
259.849	97.19
260.081	99.19
260.314	94.19
260.547	100.19
260.779	97.19
261.012	113.19
261.244	108.19
261.477	100.19
261.71	98.19
261.942	94.19
262.175	98.19
262.407	112.19
262.64	81.19
262.872	104.19
263.105	104.19
263.337	105.19
263.57	97.19
263.802	100.19
264.035	87.19
264.267	88.19
264.499	80.19
264.732	110.19
264.964	108.19
265.197	106.19
265.429	108.19
265.661	106.19
265.894	92.19
266.126	105.19
266.358	88.19
266.591	108.19
266.823	102.19
267.055	95.19
267.287	98.19
267.52	95.19
267.752	86.19
267.984	105.19
268.216	95.19
268.448	92.19
268.681	106.19
268.913	91.19
269.145	93.19
269.377	111.19
269.609	100.19
269.841	95.19
270.073	103.19
270.306	92.19
270.538	115.19
270.77	104.19
271.002	106.19
271.234	98.19
271.466	119.19
271.698	107.19
271.93	105.19
272.162	95.19
272.394	118.19
272.626	90.19
272.858	91.19
273.09	103.19
273.322	103.19
273.553	115.19
273.785	105.19
274.017	98.19
274.249	98.19
274.481	95.19
274.713	96.19
274.945	100.19
275.176	101.19
275.408	108.19
275.64	92.19
275.872	106.19
276.104	88.19
276.335	106.19
276.567	108.19
276.799	91.19
277.031	87.19
277.262	112.19
277.494	102.19
277.726	100.19
277.957	103.19
278.189	116.19
278.421	112.19
278.652	101.19
278.884	108.19
279.115	115.19
279.347	106.19
279.579	104.19
279.81	111.19
280.042	116.19
280.273	119.19
280.505	88.19
280.736	110.19
280.968	110.19
281.199	107.19
281.431	110.19
281.662	111.19
281.894	105.19
282.125	118.19
282.356	111.19
282.588	102.19
282.819	118.19
283.051	118.19
283.282	94.19
283.513	120.19
283.745	106.19
283.976	119.19
284.207	115.19
284.439	119.19
284.67	123.19
284.901	122.19
285.132	116.19
285.364	108.19
285.595	118.19
285.826	111.19
286.057	118.19
286.288	122.19
286.52	120.19
286.751	118.19
286.982	124.19
287.213	113.19
287.444	117.19
287.675	108.19
287.906	124.19
288.138	112.19
288.369	131.19
288.6	119.19
288.831	106.19
289.062	120.19
289.293	113.19
289.524	114.19
289.755	121.19
289.986	116.19
290.217	121.19
290.448	121.19
290.679	116.19
290.91	130.19
291.141	114.19
291.371	114.19
291.602	114.19
291.833	121.19
292.064	110.19
292.295	116.19
292.526	121.19
292.757	108.19
292.987	121.19
293.218	129.19
293.449	111.19
293.68	121.19
293.91	103.19
294.141	125.19
294.372	102.19
294.603	112.19
294.833	121.19
295.064	119.19
295.295	120.19
295.525	120.19
295.756	123.19
295.987	123.19
296.217	111.19
296.448	111.19
296.679	118.19
296.909	126.19
297.14	109.19
297.37	121.19
297.601	130.19
297.831	119.19
298.062	130.19
298.292	135.19
298.523	147.19
298.753	131.19
298.984	111.19
299.214	112.19
299.445	113.19
299.675	115.19
299.905	129.19
300.136	119.19
300.366	115.19
300.597	124.19
300.827	126.19
301.057	125.19
301.288	122.19
301.518	114.19
301.748	131.19
301.979	152.19
302.209	128.19
302.439	130.19
302.669	117.19
302.9	129.19
303.13	124.19
303.36	125.19
303.59	123.19
303.82	134.19
304.051	107.19
304.281	121.19
304.511	114.19
304.741	131.19
304.971	123.19
305.201	130.19
305.431	114.19
305.661	118.19
305.891	125.19
306.121	124.19
306.352	128.19
306.582	133.19
306.812	127.19
307.042	130.19
307.272	126.19
307.502	124.19
307.731	103.19
307.961	122.19
308.191	119.19
308.421	131.19
308.651	127.19
308.881	116.19
309.111	122.19
309.341	123.19
309.571	119.19
309.8	106.19
310.03	123.19
310.26	115.19
310.49	124.19
310.72	104.19
310.949	125.19
311.179	122.19
311.409	119.19
311.639	124.19
311.868	121.19
312.098	116.19
312.328	131.19
312.557	123.19
312.787	113.19
313.017	140.19
313.246	131.19
313.476	131.19
313.706	111.19
313.935	116.19
314.165	133.19
314.394	136.19
314.624	134.19
314.853	128.19
315.083	123.19
315.312	135.19
315.542	122.19
315.771	107.19
316.001	122.19
316.23	119.19
316.46	126.19
316.689	134.19
316.919	130.19
317.148	123.19
317.377	145.19
317.607	126.19
317.836	128.19
318.065	119.19
318.295	123.19
318.524	113.19
318.753	116.19
318.983	135.19
319.212	127.19
319.441	130.19
319.67	126.19
319.9	129.19
320.129	118.19
320.358	111.19
320.587	114.19
320.816	133.19
321.046	128.19
321.275	142.19
321.504	120.19
321.733	122.19
321.962	133.19
322.191	137.19
322.42	124.19
322.649	136.19
322.878	137.19
323.108	134.19
323.337	134.19
323.566	134.19
323.795	135.19
324.024	134.19
324.253	126.19
324.482	127.19
324.71	125.19
324.939	131.19
325.168	135.19
325.397	129.19
325.626	115.19
325.855	129.19
326.084	127.19
326.313	112.19
326.542	146.19
326.77	142.19
326.999	126.19
327.228	123.19
327.457	129.19
327.686	148.19
327.914	130.19
328.143	144.19
328.372	129.19
328.6	144.19
328.829	136.19
329.058	125.19
329.287	135.19
329.515	144.19
329.744	134.19
329.972	137.19
330.201	133.19
330.43	122.19
330.658	130.19
330.887	137.19
331.115	129.19
331.344	135.19
331.572	154.19
331.801	136.19
332.03	145.19
332.258	140.19
332.486	132.19
332.715	144.19
332.943	144.19
333.172	144.19
333.4	142.19
333.629	152.19
333.857	146.19
334.085	164.19
334.314	155.19
334.542	136.19
334.771	151.19
334.999	162.19
335.227	139.19
335.455	148.19
335.684	144.19
335.912	139.19
336.14	138.19
336.369	143.19
336.597	152.19
336.825	154.19
337.053	128.19
337.281	142.19
337.51	136.19
337.738	152.19
337.966	128.19
338.194	142.19
338.422	131.19
338.65	146.19
338.878	140.19
339.106	129.19
339.334	162.19
339.562	131.19
339.79	141.19
340.018	142.19
340.246	120.19
340.474	140.19
340.702	138.19
340.93	136.19
341.158	152.19
341.386	124.19
341.614	143.19
341.842	142.19
342.07	149.19
342.298	127.19
342.526	129.19
342.754	133.19
342.981	126.19
343.209	144.19
343.437	176.19
343.665	144.19
343.893	156.19
344.12	155.19
344.348	131.19
344.576	135.19
344.804	136.19
345.031	129.19
345.259	153.19
345.487	120.19
345.714	121.19
345.942	112.19
346.17	118.19
346.397	136.19
346.625	128.19
346.853	124.19
347.08	130.19
347.308	129.19
347.535	145.19
347.763	139.19
347.99	138.19
348.218	148.19
348.445	121.19
348.673	125.19
348.9	140.19
349.128	136.19
349.355	123.19
349.583	139.19
349.81	137.19
350.037	126.19
350.265	121.19
350.492	134.19
350.72	138.19
350.947	139.19
351.174	137.19
351.402	140.19
351.629	117.19
351.856	121.19
352.083	116.19
352.311	129.19
352.538	134.19
352.765	135.19
352.992	140.19
353.22	129.19
353.447	121.19
353.674	143.19
353.901	131.19
354.128	147.19
354.355	113.19
354.583	127.19
354.81	131.19
355.037	128.19
355.264	139.19
355.491	129.19
355.718	137.19
355.945	115.19
356.172	127.19
356.399	136.19
356.626	150.19
356.853	131.19
357.08	146.19
357.307	135.19
357.534	133.19
357.761	122.19
357.988	154.19
358.215	139.19
358.441	132.19
358.668	131.19
358.895	119.19
359.122	125.19
359.349	135.19
359.576	141.19
359.802	106.19
360.029	127.19
360.256	136.19
360.483	123.19
360.709	116.19
360.936	151.19
361.163	138.19
361.39	131.19
361.616	128.19
361.843	134.19
362.07	134.19
362.296	131.19
362.523	119.19
362.749	130.19
362.976	130.19
363.203	133.19
363.429	134.19
363.656	134.19
363.882	124.19
364.109	147.19
364.335	158.19
364.562	134.19
364.788	131.19
365.015	140.19
365.241	143.19
365.468	130.19
365.694	124.19
365.92	132.19
366.147	130.19
366.373	127.19
366.599	131.19
366.826	125.19
367.052	130.19
367.278	136.19
367.505	135.19
367.731	135.19
367.957	122.19
368.184	122.19
368.41	147.19
368.636	132.19
368.862	144.19
369.089	135.19
369.315	134.19
369.541	127.19
369.767	144.19
369.993	132.19
370.219	131.19
370.445	134.19
370.672	139.19
370.898	147.19
371.124	139.19
371.35	144.19
371.576	148.19
371.802	145.19
372.028	128.19
372.254	140.19
372.48	153.19
372.706	154.19
372.932	145.19
373.158	133.19
373.384	142.19
373.61	137.19
373.835	132.19
374.061	139.19
374.287	143.19
374.513	139.19
374.739	142.19
374.965	145.19
375.191	154.19
375.416	146.19
375.642	138.19
375.868	149.19
376.094	147.19
376.319	138.19
376.545	147.19
376.771	139.19
376.997	138.19
377.222	168.19
377.448	147.19
377.674	147.19
377.899	128.19
378.125	141.19
378.35	151.19
378.576	131.19
378.802	145.19
379.027	146.19
379.253	147.19
379.478	136.19
379.704	137.19
379.929	143.19
380.155	140.19
380.38	148.19
380.606	123.19
380.831	148.19
381.057	158.19
381.282	143.19
381.507	148.19
381.733	155.19
381.958	137.19
382.184	136.19
382.409	136.19
382.634	160.19
382.86	139.19
383.085	153.19
383.31	143.19
383.535	141.19
383.761	159.19
383.986	153.19
384.211	151.19
384.436	158.19
384.662	147.19
384.887	155.19
385.112	163.19
385.337	161.19
385.562	136.19
385.787	158.19
386.013	171.19
386.238	156.19
386.463	146.19
386.688	180.19
386.913	167.19
387.138	150.19
387.363	160.19
387.588	175.19
387.813	161.19
388.038	167.19
388.263	163.19
388.488	162.19
388.713	149.19
388.938	168.19
389.163	160.19
389.387	137.19
389.612	158.19
389.837	166.19
390.062	155.19
390.287	158.19
390.512	146.19
390.736	159.19
390.961	144.19
391.186	152.19
391.411	164.19
391.636	174.19
391.86	174.19
392.085	155.19
392.31	172.19
392.534	160.19
392.759	153.19
392.984	158.19
393.208	171.19
393.433	160.19
393.658	169.19
393.882	156.19
394.107	168.19
394.331	171.19
394.556	180.19
394.78	166.19
395.005	170.19
395.229	168.19
395.454	173.19
395.678	175.19
395.903	172.19
396.127	191.19
396.352	190.19
396.576	155.19
396.801	161.19
397.025	176.19
397.249	177.19
397.474	184.19
397.698	178.19
397.922	189.19
398.147	166.19
398.371	180.19
398.595	185.19
398.82	186.19
399.044	198.19
399.268	231.19
399.492	243.19
399.717	254.19
399.941	239.19
400.165	212.19
400.389	201.19
400.613	190.19
400.837	181.19
401.062	179.19
401.286	172.19
401.51	191.19
401.734	190.19
401.958	184.19
402.182	176.19
402.406	170.19
402.63	179.19
402.854	202.19
403.078	215.19
403.302	182.19
403.526	200.19
403.75	209.19
403.974	201.19
404.198	208.19
404.422	211.19
404.645	207.19
404.869	202.19
405.093	201.19
405.317	190.19
405.541	211.19
405.765	201.19
405.988	197.19
406.212	196.19
406.436	190.19
406.66	210.19
406.883	216.19
407.107	224.19
407.331	229.19
407.555	212.19
407.778	216.19
408.002	205.19
408.226	220.19
408.449	192.19
408.673	202.19
408.896	203.19
409.12	196.19
409.344	197.19
409.567	205.19
409.791	196.19
410.014	204.19
410.238	207.19
410.461	207.19
410.685	194.19
410.908	199.19
411.132	221.19
411.355	203.19
411.578	199.19
411.802	184.19
412.025	187.19
412.249	192.19
412.472	197.19
412.695	196.19
412.919	185.19
413.142	198.19
413.365	178.19
413.589	191.19
413.812	191.19
414.035	207.19
414.258	196.19
414.482	180.19
414.705	196.19
414.928	204.19
415.151	208.19
415.374	190.19
415.597	194.19
415.821	205.19
416.044	176.19
416.267	182.19
416.49	183.19
416.713	193.19
416.936	194.19
417.159	188.19
417.382	190.19
417.605	190.19
417.828	193.19
418.051	198.19
418.274	205.19
418.497	208.19
418.72	198.19
418.943	193.19
419.166	214.19
419.389	234.19
419.611	206.19
419.834	191.19
420.057	195.19
420.28	198.19
420.503	198.19
420.726	187.19
420.948	194.19
421.171	185.19
421.394	195.19
421.617	194.19
421.839	206.19
422.062	215.19
422.285	182.19
422.507	206.19
422.73	215.19
422.953	192.19
423.175	195.19
423.398	203.19
423.621	192.19
423.843	196.19
424.066	197.19
424.288	196.19
424.511	204.19
424.733	225.19
424.956	191.19
425.178	190.19
425.401	207.19
425.623	190.19
425.846	187.19
426.068	183.19
426.291	204.19
426.513	190.19
426.735	195.19
426.958	192.19
427.18	194.19
427.402	201.19
427.625	178.19
427.847	176.19
428.069	184.19
428.292	190.19
428.514	178.19
428.736	182.19
428.958	165.19
429.181	184.19
429.403	177.19
429.625	168.19
429.847	172.19
430.069	188.19
430.292	191.19
430.514	179.19
430.736	196.19
430.958	187.19
431.18	172.19
431.402	181.19
431.624	186.19
431.846	172.19
432.068	167.19
432.29	174.19
432.512	196.19
432.734	175.19
432.956	198.19
433.178	190.19
433.4	193.19
433.622	191.19
433.844	192.19
434.066	208.19
434.287	189.19
434.509	172.19
434.731	182.19
434.953	194.19
435.175	185.19
435.397	187.19
435.618	183.19
435.84	178.19
436.062	175.19
436.284	166.19
436.505	183.19
436.727	195.19
436.949	203.19
437.17	191.19
437.392	159.19
437.614	183.19
437.835	169.19
438.057	158.19
438.278	171.19
438.5	172.19
438.721	173.19
438.943	185.19
439.165	182.19
439.386	196.19
439.608	194.19
439.829	200.19
440.05	193.19
440.272	201.19
440.493	195.19
440.715	196.19
440.936	207.19
441.158	205.19
441.379	199.19
441.6	194.19
441.822	210.19
442.043	197.19
442.264	190.19
442.486	201.19
442.707	190.19
442.928	186.19
443.149	192.19
443.371	196.19
443.592	191.19
443.813	199.19
444.034	195.19
444.255	224.19
444.476	214.19
444.698	212.19
444.919	228.19
445.14	471.19
445.361	331.19
445.582	227.19
445.803	188.19
446.024	205.19
446.245	198.19
446.466	224.19
446.687	195.19
446.908	207.19
447.129	196.19
447.35	172.19
447.571	190.19
447.792	185.19
448.013	171.19
448.234	178.19
448.455	178.19
448.675	183.19
448.896	156.19
449.117	195.19
449.338	181.19
449.559	192.19
449.779	181.19
450	168.19
450.221	188.19
450.442	179.19
450.662	180.19
450.883	175.19
451.104	200.19
451.324	182.19
451.545	184.19
451.766	182.19
451.986	177.19
452.207	194.19
452.428	178.19
452.648	191.19
452.869	182.19
453.089	180.19
453.31	158.19
453.53	154.19
453.751	170.19
453.971	155.19
454.192	155.19
454.412	165.19
454.633	168.19
454.853	170.19
455.073	162.19
455.294	160.19
455.514	180.19
455.734	159.19
455.955	166.19
456.175	166.19
456.395	153.19
456.616	161.19
456.836	175.19
457.056	154.19
457.276	133.19
457.497	154.19
457.717	154.19
457.937	163.19
458.157	155.19
458.377	161.19
458.598	150.19
458.818	147.19
459.038	166.19
459.258	155.19
459.478	161.19
459.698	176.19
459.918	191.19
460.138	184.19
460.358	186.19
460.578	181.19
460.798	182.19
461.018	206.19
461.238	185.19
461.458	201.19
461.678	190.19
461.898	201.19
462.118	215.19
462.338	195.19
462.558	202.19
462.777	203.19
462.997	207.19
463.217	225.19
463.437	248.19
463.657	218.19
463.876	197.19
464.096	215.19
464.316	212.19
464.536	214.19
464.755	217.19
464.975	201.19
465.195	183.19
465.414	200.19
465.634	190.19
465.854	183.19
466.073	190.19
466.293	185.19
466.512	182.19
466.732	182.19
466.951	177.19
467.171	186.19
467.391	178.19
467.61	188.19
467.829	179.19
468.049	175.19
468.268	180.19
468.488	185.19
468.707	180.19
468.927	172.19
469.146	181.19
469.365	179.19
469.585	190.19
469.804	179.19
470.023	179.19
470.243	177.19
470.462	187.19
470.681	211.19
470.901	182.19
471.12	184.19
471.339	198.19
471.558	184.19
471.777	189.19
471.997	175.19
472.216	178.19
472.435	171.19
472.654	167.19
472.873	178.19
473.092	178.19
473.311	181.19
473.53	168.19
473.749	172.19
473.968	175.19
474.187	164.19
474.406	164.19
474.625	184.19
474.844	187.19
475.063	158.19
475.282	179.19
475.501	177.19
475.72	188.19
475.939	176.19
476.158	180.19
476.377	182.19
476.596	159.19
476.814	178.19
477.033	179.19
477.252	179.19
477.471	190.19
477.69	179.19
477.908	197.19
478.127	200.19
478.346	195.19
478.564	193.19
478.783	202.19
479.002	210.19
479.22	195.19
479.439	197.19
479.658	189.19
479.876	187.19
480.095	187.19
480.313	197.19
480.532	199.19
480.751	203.19
480.969	184.19
481.188	184.19
481.406	185.19
481.624	184.19
481.843	178.19
482.061	184.19
482.28	183.19
482.498	167.19
482.717	174.19
482.935	189.19
483.153	204.19
483.372	207.19
483.59	206.19
483.808	181.19
484.027	193.19
484.245	203.19
484.463	207.19
484.681	223.19
484.9	209.19
485.118	200.19
485.336	185.19
485.554	190.19
485.772	172.19
485.99	189.19
486.209	192.19
486.427	169.19
486.645	202.19
486.863	202.19
487.081	203.19
487.299	203.19
487.517	199.19
487.735	214.19
487.953	216.19
488.171	236.19
488.389	211.19
488.607	204.19
488.825	185.19
489.043	199.19
489.261	198.19
489.479	203.19
489.696	204.19
489.914	186.19
490.132	200.19
490.35	203.19
490.568	211.19
490.786	199.19
491.003	206.19
491.221	214.19
491.439	213.19
491.657	218.19
491.874	229.19
492.092	240.19
492.31	268.19
492.527	250.19
492.745	223.19
492.963	233.19
493.18	236.19
493.398	227.19
493.615	237.19
493.833	231.19
494.05	208.19
494.268	208.19
494.485	227.19
494.703	221.19
494.92	227.19
495.138	222.19
495.355	224.19
495.573	217.19
495.79	222.19
496.008	230.19
496.225	229.19
496.442	232.19
496.66	255.19
496.877	227.19
497.094	229.19
497.312	227.19
497.529	233.19
497.746	226.19
497.963	212.19
498.181	218.19
498.398	232.19
498.615	235.19
498.832	245.19
499.049	281.19
499.267	292.19
499.484	308.19
499.701	338.19
499.918	344.19
500.135	364.19
500.352	419.19
500.569	432.19
500.786	414.19
501.003	388.19
501.22	357.19
501.437	335.19
501.654	301.19
501.871	268.19
502.088	263.19
502.305	252.19
502.522	230.19
502.739	252.19
502.956	234.19
503.172	234.19
503.389	199.19
503.606	199.19
503.823	219.19
504.04	213.19
504.256	217.19
504.473	216.19
504.69	223.19
504.907	210.19
