Data from SampD_HRD10591_00053.txt Node
Date: Mon Jan 19 11:50:33 EST 2026
User: Yrep
Spectrometer: HR+D1059
Trigger mode: 0
Integration Time (sec): 3.443000E-1
Scans to average: 1
Electric dark correction enabled: true
Nonlinearity correction enabled: false
Boxcar width: 0
XAxis mode: Wavelengths
Number of Pixels in Spectrum: 2048
>>>>>Begin Spectral Data<<<<<
223.165	-10.81
223.4	-10.81
223.635	-10.81
223.869	-24.81
224.104	-33.81
224.338	-4.81
224.573	-4.81
224.808	-4.81
225.042	-8.81
225.277	-6.81
225.511	2.19
225.746	8.19
225.98	-1.81
226.215	10.19
226.449	2.19
226.683	20.19
226.918	22.19
227.152	36.19
227.387	44.19
227.621	58.19
227.856	58.19
228.09	61.19
228.324	56.19
228.559	61.19
228.793	69.19
229.027	74.19
229.262	71.19
229.496	68.19
229.73	85.19
229.964	92.19
230.199	85.19
230.433	52.19
230.667	82.19
230.901	103.19
231.136	96.19
231.37	85.19
231.604	91.19
231.838	76.19
232.072	85.19
232.306	89.19
232.541	87.19
232.775	97.19
233.009	77.19
233.243	87.19
233.477	78.19
233.711	82.19
233.945	93.19
234.179	93.19
234.413	86.19
234.647	86.19
234.881	89.19
235.115	102.19
235.349	93.19
235.583	91.19
235.817	73.19
236.051	81.19
236.285	89.19
236.519	89.19
236.753	100.19
236.987	95.19
237.221	81.19
237.455	89.19
237.689	86.19
237.922	89.19
238.156	104.19
238.39	83.19
238.624	85.19
238.858	92.19
239.091	90.19
239.325	83.19
239.559	77.19
239.793	89.19
240.027	102.19
240.26	101.19
240.494	97.19
240.728	95.19
240.961	84.19
241.195	94.19
241.429	85.19
241.662	87.19
241.896	85.19
242.13	93.19
242.363	92.19
242.597	90.19
242.83	93.19
243.064	83.19
243.298	85.19
243.531	89.19
243.765	98.19
243.998	86.19
244.232	91.19
244.465	75.19
244.699	99.19
244.932	81.19
245.166	89.19
245.399	85.19
245.633	85.19
245.866	86.19
246.099	87.19
246.333	103.19
246.566	98.19
246.8	92.19
247.033	85.19
247.266	86.19
247.5	86.19
247.733	91.19
247.966	102.19
248.2	84.19
248.433	83.19
248.666	99.19
248.899	89.19
249.133	90.19
249.366	95.19
249.599	93.19
249.832	92.19
250.066	97.19
250.299	99.19
250.532	108.19
250.765	92.19
250.998	97.19
251.231	90.19
251.465	108.19
251.698	98.19
251.931	85.19
252.164	93.19
252.397	102.19
252.63	89.19
252.863	103.19
253.096	88.19
253.329	106.19
253.562	107.19
253.795	89.19
254.028	103.19
254.261	97.19
254.494	98.19
254.727	105.19
254.96	93.19
255.193	81.19
255.426	97.19
255.659	103.19
255.892	99.19
256.124	87.19
256.357	90.19
256.59	93.19
256.823	84.19
257.056	103.19
257.289	119.19
257.521	98.19
257.754	112.19
257.987	94.19
258.22	104.19
258.452	87.19
258.685	98.19
258.918	114.19
259.151	104.19
259.383	94.19
259.616	95.19
259.849	103.19
260.081	104.19
260.314	107.19
260.547	99.19
260.779	109.19
261.012	112.19
261.244	109.19
261.477	110.19
261.71	97.19
261.942	83.19
262.175	99.19
262.407	112.19
262.64	97.19
262.872	98.19
263.105	106.19
263.337	113.19
263.57	93.19
263.802	100.19
264.035	105.19
264.267	83.19
264.499	101.19
264.732	111.19
264.964	112.19
265.197	103.19
265.429	106.19
265.661	103.19
265.894	93.19
266.126	110.19
266.358	103.19
266.591	108.19
266.823	82.19
267.055	111.19
267.287	99.19
267.52	112.19
267.752	105.19
267.984	118.19
268.216	105.19
268.448	103.19
268.681	99.19
268.913	101.19
269.145	101.19
269.377	118.19
269.609	105.19
269.841	97.19
270.073	114.19
270.306	101.19
270.538	97.19
270.77	114.19
271.002	103.19
271.234	124.19
271.466	95.19
271.698	104.19
271.93	98.19
272.162	120.19
272.394	116.19
272.626	102.19
272.858	104.19
273.09	108.19
273.322	113.19
273.553	119.19
273.785	117.19
274.017	109.19
274.249	94.19
274.481	110.19
274.713	99.19
274.945	115.19
275.176	101.19
275.408	111.19
275.64	102.19
275.872	110.19
276.104	106.19
276.335	98.19
276.567	102.19
276.799	99.19
277.031	102.19
277.262	110.19
277.494	107.19
277.726	109.19
277.957	112.19
278.189	111.19
278.421	113.19
278.652	99.19
278.884	105.19
279.115	111.19
279.347	126.19
279.579	110.19
279.81	100.19
280.042	115.19
280.273	105.19
280.505	107.19
280.736	109.19
280.968	105.19
281.199	119.19
281.431	109.19
281.662	108.19
281.894	110.19
282.125	114.19
282.356	111.19
282.588	114.19
282.819	109.19
283.051	116.19
283.282	119.19
283.513	125.19
283.745	109.19
283.976	111.19
284.207	109.19
284.439	115.19
284.67	115.19
284.901	119.19
285.132	113.19
285.364	104.19
285.595	123.19
285.826	104.19
286.057	116.19
286.288	98.19
286.52	114.19
286.751	115.19
286.982	126.19
287.213	127.19
287.444	132.19
287.675	124.19
287.906	124.19
288.138	125.19
288.369	123.19
288.6	111.19
288.831	111.19
289.062	123.19
289.293	109.19
289.524	124.19
289.755	115.19
289.986	119.19
290.217	119.19
290.448	111.19
290.679	113.19
290.91	136.19
291.141	131.19
291.371	127.19
291.602	129.19
291.833	124.19
292.064	122.19
292.295	129.19
292.526	130.19
292.757	130.19
292.987	133.19
293.218	102.19
293.449	111.19
293.68	125.19
293.91	129.19
294.141	131.19
294.372	116.19
294.603	122.19
294.833	97.19
295.064	134.19
295.295	109.19
295.525	103.19
295.756	150.19
295.987	125.19
296.217	118.19
296.448	120.19
296.679	125.19
296.909	132.19
297.14	115.19
297.37	126.19
297.601	114.19
297.831	119.19
298.062	128.19
298.292	134.19
298.523	134.19
298.753	137.19
298.984	111.19
299.214	112.19
299.445	117.19
299.675	129.19
299.905	107.19
300.136	117.19
300.366	127.19
300.597	129.19
300.827	120.19
301.057	138.19
301.288	122.19
301.518	131.19
301.748	129.19
301.979	164.19
302.209	133.19
302.439	109.19
302.669	127.19
302.9	132.19
303.13	120.19
303.36	117.19
303.59	123.19
303.82	121.19
304.051	130.19
304.281	139.19
304.511	144.19
304.741	130.19
304.971	126.19
305.201	130.19
305.431	139.19
305.661	123.19
305.891	115.19
306.121	118.19
306.352	126.19
306.582	123.19
306.812	116.19
307.042	132.19
307.272	125.19
307.502	120.19
307.731	134.19
307.961	131.19
308.191	127.19
308.421	126.19
308.651	114.19
308.881	141.19
309.111	124.19
309.341	121.19
309.571	123.19
309.8	119.19
310.03	117.19
310.26	128.19
310.49	135.19
310.72	111.19
310.949	124.19
311.179	136.19
311.409	123.19
311.639	127.19
311.868	118.19
312.098	132.19
312.328	131.19
312.557	133.19
312.787	131.19
313.017	123.19
313.246	122.19
313.476	121.19
313.706	118.19
313.935	126.19
314.165	131.19
314.394	126.19
314.624	132.19
314.853	147.19
315.083	125.19
315.312	116.19
315.542	125.19
315.771	138.19
316.001	133.19
316.23	125.19
316.46	121.19
316.689	120.19
316.919	127.19
317.148	110.19
317.377	140.19
317.607	117.19
317.836	132.19
318.065	128.19
318.295	128.19
318.524	135.19
318.753	141.19
318.983	127.19
319.212	126.19
319.441	124.19
319.67	126.19
319.9	114.19
320.129	149.19
320.358	126.19
320.587	127.19
320.816	131.19
321.046	130.19
321.275	123.19
321.504	129.19
321.733	125.19
321.962	128.19
322.191	125.19
322.42	119.19
322.649	129.19
322.878	124.19
323.108	128.19
323.337	130.19
323.566	132.19
323.795	125.19
324.024	127.19
324.253	125.19
324.482	123.19
324.71	129.19
324.939	126.19
325.168	130.19
325.397	127.19
325.626	140.19
325.855	134.19
326.084	140.19
326.313	131.19
326.542	132.19
326.77	131.19
326.999	138.19
327.228	136.19
327.457	135.19
327.686	122.19
327.914	127.19
328.143	135.19
328.372	134.19
328.6	135.19
328.829	130.19
329.058	134.19
329.287	132.19
329.515	121.19
329.744	135.19
329.972	139.19
330.201	121.19
330.43	145.19
330.658	135.19
330.887	137.19
331.115	130.19
331.344	132.19
331.572	135.19
331.801	123.19
332.03	134.19
332.258	125.19
332.486	143.19
332.715	133.19
332.943	143.19
333.172	170.19
333.4	136.19
333.629	137.19
333.857	171.19
334.085	164.19
334.314	149.19
334.542	143.19
334.771	165.19
334.999	144.19
335.227	139.19
335.455	148.19
335.684	161.19
335.912	156.19
336.14	141.19
336.369	138.19
336.597	145.19
336.825	141.19
337.053	150.19
337.281	144.19
337.51	130.19
337.738	144.19
337.966	137.19
338.194	134.19
338.422	147.19
338.65	133.19
338.878	148.19
339.106	133.19
339.334	143.19
339.562	141.19
339.79	128.19
340.018	133.19
340.246	135.19
340.474	125.19
340.702	137.19
340.93	141.19
341.158	146.19
341.386	155.19
341.614	142.19
341.842	134.19
342.07	128.19
342.298	153.19
342.526	143.19
342.754	129.19
342.981	139.19
343.209	136.19
343.437	160.19
343.665	140.19
343.893	167.19
344.12	160.19
344.348	149.19
344.576	148.19
344.804	147.19
345.031	146.19
345.259	136.19
345.487	151.19
345.714	135.19
345.942	138.19
346.17	135.19
346.397	137.19
346.625	138.19
346.853	142.19
347.08	147.19
347.308	164.19
347.535	150.19
347.763	138.19
347.99	130.19
348.218	137.19
348.445	132.19
348.673	126.19
348.9	143.19
349.128	139.19
349.355	133.19
349.583	136.19
349.81	141.19
350.037	135.19
350.265	130.19
350.492	149.19
350.72	117.19
350.947	126.19
351.174	129.19
351.402	135.19
351.629	141.19
351.856	136.19
352.083	126.19
352.311	130.19
352.538	120.19
352.765	133.19
352.992	156.19
353.22	127.19
353.447	141.19
353.674	145.19
353.901	131.19
354.128	144.19
354.355	133.19
354.583	124.19
354.81	145.19
355.037	130.19
355.264	135.19
355.491	131.19
355.718	133.19
355.945	135.19
356.172	135.19
356.399	136.19
356.626	119.19
356.853	141.19
357.08	123.19
357.307	133.19
357.534	133.19
357.761	142.19
357.988	151.19
358.215	130.19
358.441	136.19
358.668	141.19
358.895	124.19
359.122	132.19
359.349	125.19
359.576	135.19
359.802	121.19
360.029	138.19
360.256	147.19
360.483	131.19
360.709	145.19
360.936	161.19
361.163	135.19
361.39	135.19
361.616	139.19
361.843	130.19
362.07	126.19
362.296	154.19
362.523	125.19
362.749	147.19
362.976	130.19
363.203	139.19
363.429	129.19
363.656	146.19
363.882	127.19
364.109	143.19
364.335	147.19
364.562	138.19
364.788	146.19
365.015	145.19
365.241	117.19
365.468	131.19
365.694	130.19
365.92	147.19
366.147	133.19
366.373	117.19
366.599	124.19
366.826	119.19
367.052	132.19
367.278	140.19
367.505	133.19
367.731	151.19
367.957	147.19
368.184	129.19
368.41	143.19
368.636	136.19
368.862	140.19
369.089	139.19
369.315	125.19
369.541	130.19
369.767	137.19
369.993	135.19
370.219	135.19
370.445	132.19
370.672	130.19
370.898	152.19
371.124	139.19
371.35	121.19
371.576	147.19
371.802	142.19
372.028	128.19
372.254	148.19
372.48	131.19
372.706	141.19
372.932	146.19
373.158	131.19
373.384	140.19
373.61	142.19
373.835	149.19
374.061	134.19
374.287	133.19
374.513	149.19
374.739	161.19
374.965	145.19
375.191	150.19
375.416	147.19
375.642	156.19
375.868	153.19
376.094	155.19
376.319	144.19
376.545	142.19
376.771	169.19
376.997	169.19
377.222	149.19
377.448	143.19
377.674	131.19
377.899	145.19
378.125	144.19
378.35	151.19
378.576	150.19
378.802	141.19
379.027	131.19
379.253	162.19
379.478	149.19
379.704	157.19
379.929	131.19
380.155	150.19
380.38	150.19
380.606	158.19
380.831	147.19
381.057	170.19
381.282	148.19
381.507	135.19
381.733	135.19
381.958	141.19
382.184	136.19
382.409	140.19
382.634	157.19
382.86	141.19
383.085	147.19
383.31	153.19
383.535	161.19
383.761	146.19
383.986	153.19
384.211	170.19
384.436	161.19
384.662	164.19
384.887	168.19
385.112	165.19
385.337	157.19
385.562	160.19
385.787	169.19
386.013	150.19
386.238	168.19
386.463	167.19
386.688	176.19
386.913	143.19
387.138	156.19
387.363	166.19
387.588	163.19
387.813	173.19
388.038	167.19
388.263	169.19
388.488	166.19
388.713	164.19
388.938	162.19
389.163	168.19
389.387	166.19
389.612	151.19
389.837	161.19
390.062	140.19
390.287	156.19
390.512	157.19
390.736	151.19
390.961	179.19
391.186	153.19
391.411	167.19
391.636	182.19
391.86	159.19
392.085	170.19
392.31	181.19
392.534	171.19
392.759	189.19
392.984	175.19
393.208	170.19
393.433	170.19
393.658	165.19
393.882	161.19
394.107	164.19
394.331	172.19
394.556	165.19
394.78	170.19
395.005	173.19
395.229	164.19
395.454	184.19
395.678	175.19
395.903	180.19
396.127	182.19
396.352	181.19
396.576	169.19
396.801	159.19
397.025	166.19
397.249	170.19
397.474	182.19
397.698	172.19
397.922	184.19
398.147	178.19
398.371	193.19
398.595	182.19
398.82	187.19
399.044	203.19
399.268	203.19
399.492	240.19
399.717	239.19
399.941	212.19
400.165	224.19
400.389	198.19
400.613	195.19
400.837	179.19
401.062	195.19
401.286	191.19
401.51	188.19
401.734	196.19
401.958	192.19
402.182	202.19
402.406	176.19
402.63	198.19
402.854	201.19
403.078	189.19
403.302	204.19
403.526	229.19
403.75	215.19
403.974	194.19
404.198	197.19
404.422	201.19
404.645	185.19
404.869	197.19
405.093	211.19
405.317	219.19
405.541	199.19
405.765	189.19
405.988	209.19
406.212	206.19
406.436	187.19
406.66	226.19
406.883	225.19
407.107	218.19
407.331	209.19
407.555	222.19
407.778	215.19
408.002	209.19
408.226	217.19
408.449	224.19
408.673	195.19
408.896	216.19
409.12	229.19
409.344	215.19
409.567	210.19
409.791	220.19
410.014	209.19
410.238	211.19
410.461	232.19
410.685	219.19
410.908	202.19
411.132	194.19
411.355	208.19
411.578	199.19
411.802	195.19
412.025	188.19
412.249	186.19
412.472	187.19
412.695	181.19
412.919	196.19
413.142	203.19
413.365	194.19
413.589	179.19
413.812	186.19
414.035	200.19
414.258	221.19
414.482	197.19
414.705	199.19
414.928	220.19
415.151	198.19
415.374	196.19
415.597	201.19
415.821	182.19
416.044	184.19
416.267	186.19
416.49	217.19
416.713	210.19
416.936	190.19
417.159	192.19
417.382	196.19
417.605	195.19
417.828	200.19
418.051	193.19
418.274	209.19
418.497	207.19
418.72	212.19
418.943	204.19
419.166	209.19
419.389	209.19
419.611	211.19
419.834	196.19
420.057	209.19
420.28	197.19
420.503	182.19
420.726	205.19
420.948	210.19
421.171	195.19
421.394	201.19
421.617	200.19
421.839	204.19
422.062	215.19
422.285	198.19
422.507	198.19
422.73	196.19
422.953	195.19
423.175	210.19
423.398	196.19
423.621	207.19
423.843	199.19
424.066	205.19
424.288	211.19
424.511	221.19
424.733	207.19
424.956	199.19
425.178	202.19
425.401	186.19
425.623	198.19
425.846	197.19
426.068	193.19
426.291	189.19
426.513	185.19
426.735	203.19
426.958	203.19
427.18	191.19
427.402	192.19
427.625	189.19
427.847	199.19
428.069	187.19
428.292	186.19
428.514	183.19
428.736	180.19
428.958	172.19
429.181	198.19
429.403	194.19
429.625	178.19
429.847	182.19
430.069	184.19
430.292	207.19
430.514	171.19
430.736	181.19
430.958	179.19
431.18	168.19
431.402	175.19
431.624	182.19
431.846	193.19
432.068	170.19
432.29	170.19
432.512	179.19
432.734	179.19
432.956	196.19
433.178	202.19
433.4	190.19
433.622	191.19
433.844	199.19
434.066	201.19
434.287	186.19
434.509	178.19
434.731	209.19
434.953	205.19
435.175	204.19
435.397	206.19
435.618	194.19
435.84	201.19
436.062	183.19
436.284	174.19
436.505	174.19
436.727	188.19
436.949	191.19
437.17	178.19
437.392	187.19
437.614	171.19
437.835	174.19
438.057	166.19
438.278	162.19
438.5	181.19
438.721	190.19
438.943	183.19
439.165	205.19
439.386	190.19
439.608	193.19
439.829	189.19
440.05	204.19
440.272	202.19
440.493	195.19
440.715	198.19
440.936	194.19
441.158	198.19
441.379	204.19
441.6	211.19
441.822	207.19
442.043	219.19
442.264	197.19
442.486	200.19
442.707	202.19
442.928	210.19
443.149	198.19
443.371	209.19
443.592	205.19
443.813	205.19
444.034	200.19
444.255	214.19
444.476	220.19
444.698	223.19
444.919	235.19
445.14	477.19
445.361	321.19
445.582	225.19
445.803	205.19
446.024	210.19
446.245	212.19
446.466	188.19
446.687	182.19
446.908	199.19
447.129	197.19
447.35	195.19
447.571	201.19
447.792	189.19
448.013	188.19
448.234	173.19
448.455	188.19
448.675	201.19
448.896	178.19
449.117	193.19
449.338	189.19
449.559	182.19
449.779	174.19
450	181.19
450.221	175.19
450.442	194.19
450.662	175.19
450.883	184.19
451.104	189.19
451.324	179.19
451.545	189.19
451.766	181.19
451.986	190.19
452.207	173.19
452.428	176.19
452.648	190.19
452.869	179.19
453.089	174.19
453.31	183.19
453.53	171.19
453.751	177.19
453.971	180.19
454.192	158.19
454.412	178.19
454.633	160.19
454.853	156.19
455.073	178.19
455.294	180.19
455.514	164.19
455.734	185.19
455.955	154.19
456.175	170.19
456.395	172.19
456.616	169.19
456.836	177.19
457.056	168.19
457.276	165.19
457.497	163.19
457.717	167.19
457.937	170.19
458.157	158.19
458.377	151.19
458.598	149.19
458.818	156.19
459.038	158.19
459.258	162.19
459.478	160.19
459.698	169.19
459.918	171.19
460.138	170.19
460.358	190.19
460.578	203.19
460.798	205.19
461.018	193.19
461.238	194.19
461.458	194.19
461.678	197.19
461.898	210.19
462.118	192.19
462.338	215.19
462.558	192.19
462.777	227.19
462.997	222.19
463.217	231.19
463.437	233.19
463.657	217.19
463.876	213.19
464.096	223.19
464.316	202.19
464.536	219.19
464.755	212.19
464.975	193.19
465.195	211.19
465.414	180.19
465.634	193.19
465.854	180.19
466.073	181.19
466.293	199.19
466.512	178.19
466.732	183.19
466.951	183.19
467.171	199.19
467.391	199.19
467.61	198.19
467.829	184.19
468.049	177.19
468.268	183.19
468.488	173.19
468.707	177.19
468.927	203.19
469.146	171.19
469.365	195.19
469.585	186.19
469.804	198.19
470.023	187.19
470.243	197.19
470.462	187.19
470.681	200.19
470.901	186.19
471.12	190.19
471.339	191.19
471.558	176.19
471.777	190.19
471.997	175.19
472.216	191.19
472.435	186.19
472.654	169.19
472.873	163.19
473.092	169.19
473.311	181.19
473.53	189.19
473.749	186.19
473.968	194.19
474.187	198.19
474.406	162.19
474.625	182.19
474.844	182.19
475.063	178.19
475.282	179.19
475.501	162.19
475.72	195.19
475.939	178.19
476.158	187.19
476.377	183.19
476.596	169.19
476.814	181.19
477.033	174.19
477.252	176.19
477.471	186.19
477.69	213.19
477.908	205.19
478.127	207.19
478.346	197.19
478.564	183.19
478.783	218.19
479.002	223.19
479.22	214.19
479.439	197.19
479.658	198.19
479.876	192.19
480.095	198.19
480.313	207.19
480.532	213.19
480.751	195.19
480.969	198.19
481.188	185.19
481.406	181.19
481.624	168.19
481.843	165.19
482.061	179.19
482.28	181.19
482.498	179.19
482.717	176.19
482.935	198.19
483.153	201.19
483.372	205.19
483.59	198.19
483.808	210.19
484.027	197.19
484.245	194.19
484.463	189.19
484.681	225.19
484.9	199.19
485.118	208.19
485.336	198.19
485.554	190.19
485.772	175.19
485.99	196.19
486.209	183.19
486.427	194.19
486.645	195.19
486.863	215.19
487.081	194.19
487.299	217.19
487.517	204.19
487.735	228.19
487.953	235.19
488.171	222.19
488.389	227.19
488.607	219.19
488.825	202.19
489.043	200.19
489.261	208.19
489.479	210.19
489.696	222.19
489.914	216.19
490.132	202.19
490.35	213.19
490.568	227.19
490.786	214.19
491.003	205.19
491.221	207.19
491.439	230.19
491.657	235.19
491.874	245.19
492.092	252.19
492.31	250.19
492.527	251.19
492.745	252.19
492.963	224.19
493.18	256.19
493.398	245.19
493.615	233.19
493.833	221.19
494.05	226.19
494.268	229.19
494.485	218.19
494.703	233.19
494.92	219.19
495.138	232.19
495.355	226.19
495.573	213.19
495.79	213.19
496.008	253.19
496.225	251.19
496.442	230.19
496.66	236.19
496.877	227.19
497.094	250.19
497.312	243.19
497.529	229.19
497.746	234.19
497.963	229.19
498.181	229.19
498.398	243.19
498.615	251.19
498.832	262.19
499.049	275.19
499.267	289.19
499.484	297.19
499.701	312.19
499.918	351.19
500.135	391.19
500.352	417.19
500.569	436.19
500.786	433.19
501.003	396.19
501.22	346.19
501.437	314.19
501.654	284.19
501.871	283.19
502.088	265.19
502.305	258.19
502.522	265.19
502.739	250.19
502.956	235.19
503.172	230.19
503.389	202.19
503.606	221.19
503.823	211.19
504.04	219.19
504.256	247.19
504.473	213.19
504.69	235.19
