Data from SampD_HRD10591_00036.txt Node
Date: Mon Jan 19 11:50:27 EST 2026
User: Yrep
Spectrometer: HR+D1059
Trigger mode: 0
Integration Time (sec): 3.443000E-1
Scans to average: 1
Electric dark correction enabled: true
Nonlinearity correction enabled: false
Boxcar width: 0
XAxis mode: Wavelengths
Number of Pixels in Spectrum: 2048
>>>>>Begin Spectral Data<<<<<
223.165	-9.5
223.4	-9.5
223.635	-9.5
223.869	-19.5
224.104	-11.5
224.338	-13.5
224.573	-28.5
224.808	-11.5
225.042	2.5
225.277	-3.5
225.511	-9.5
225.746	16.5
225.98	12.5
226.215	14.5
226.449	4.5
226.683	10.5
226.918	29.5
227.152	16.5
227.387	41.5
227.621	30.5
227.856	31.5
228.09	40.5
228.324	58.5
228.559	69.5
228.793	64.5
229.027	65.5
229.262	65.5
229.496	60.5
229.73	58.5
229.964	83.5
230.199	85.5
230.433	84.5
230.667	68.5
230.901	66.5
231.136	64.5
231.37	86.5
231.604	74.5
231.838	85.5
232.072	84.5
232.306	96.5
232.541	82.5
232.775	91.5
233.009	84.5
233.243	99.5
233.477	83.5
233.711	86.5
233.945	69.5
234.179	69.5
234.413	80.5
234.647	93.5
234.881	80.5
235.115	91.5
235.349	78.5
235.583	83.5
235.817	88.5
236.051	87.5
236.285	72.5
236.519	89.5
236.753	83.5
236.987	81.5
237.221	71.5
237.455	89.5
237.689	91.5
237.922	91.5
238.156	76.5
238.39	82.5
238.624	68.5
238.858	83.5
239.091	91.5
239.325	73.5
239.559	66.5
239.793	74.5
240.027	100.5
240.26	81.5
240.494	101.5
240.728	92.5
240.961	87.5
241.195	83.5
241.429	74.5
241.662	89.5
241.896	79.5
242.13	75.5
242.363	76.5
242.597	92.5
242.83	72.5
243.064	83.5
243.298	90.5
243.531	76.5
243.765	73.5
243.998	79.5
244.232	92.5
244.465	87.5
244.699	83.5
244.932	81.5
245.166	75.5
245.399	88.5
245.633	89.5
245.866	91.5
246.099	67.5
246.333	85.5
246.566	70.5
246.8	83.5
247.033	89.5
247.266	80.5
247.5	71.5
247.733	65.5
247.966	77.5
248.2	68.5
248.433	84.5
248.666	95.5
248.899	95.5
249.133	95.5
249.366	97.5
249.599	83.5
249.832	88.5
250.066	83.5
250.299	80.5
250.532	96.5
250.765	74.5
250.998	95.5
251.231	74.5
251.465	74.5
251.698	77.5
251.931	89.5
252.164	90.5
252.397	95.5
252.63	76.5
252.863	87.5
253.096	89.5
253.329	75.5
253.562	95.5
253.795	93.5
254.028	95.5
254.261	85.5
254.494	76.5
254.727	87.5
254.96	91.5
255.193	83.5
255.426	79.5
255.659	79.5
255.892	110.5
256.124	91.5
256.357	76.5
256.59	104.5
256.823	84.5
257.056	98.5
257.289	94.5
257.521	106.5
257.754	99.5
257.987	79.5
258.22	85.5
258.452	82.5
258.685	95.5
258.918	87.5
259.151	84.5
259.383	116.5
259.616	95.5
259.849	83.5
260.081	87.5
260.314	88.5
260.547	83.5
260.779	79.5
261.012	99.5
261.244	98.5
261.477	105.5
261.71	87.5
261.942	82.5
262.175	91.5
262.407	84.5
262.64	86.5
262.872	95.5
263.105	92.5
263.337	101.5
263.57	95.5
263.802	95.5
264.035	93.5
264.267	79.5
264.499	99.5
264.732	99.5
264.964	91.5
265.197	85.5
265.429	75.5
265.661	75.5
265.894	97.5
266.126	90.5
266.358	88.5
266.591	93.5
266.823	87.5
267.055	87.5
267.287	73.5
267.52	86.5
267.752	96.5
267.984	88.5
268.216	91.5
268.448	102.5
268.681	103.5
268.913	90.5
269.145	94.5
269.377	101.5
269.609	76.5
269.841	87.5
270.073	104.5
270.306	96.5
270.538	105.5
270.77	101.5
271.002	105.5
271.234	107.5
271.466	100.5
271.698	99.5
271.93	89.5
272.162	98.5
272.394	90.5
272.626	79.5
272.858	94.5
273.09	97.5
273.322	89.5
273.553	96.5
273.785	98.5
274.017	88.5
274.249	104.5
274.481	82.5
274.713	88.5
274.945	95.5
275.176	92.5
275.408	91.5
275.64	79.5
275.872	109.5
276.104	111.5
276.335	91.5
276.567	96.5
276.799	96.5
277.031	92.5
277.262	100.5
277.494	93.5
277.726	98.5
277.957	98.5
278.189	99.5
278.421	92.5
278.652	98.5
278.884	93.5
279.115	90.5
279.347	98.5
279.579	101.5
279.81	98.5
280.042	89.5
280.273	93.5
280.505	85.5
280.736	101.5
280.968	80.5
281.199	105.5
281.431	103.5
281.662	100.5
281.894	90.5
282.125	103.5
282.356	100.5
282.588	110.5
282.819	105.5
283.051	94.5
283.282	89.5
283.513	111.5
283.745	86.5
283.976	101.5
284.207	107.5
284.439	90.5
284.67	106.5
284.901	99.5
285.132	98.5
285.364	98.5
285.595	107.5
285.826	95.5
286.057	99.5
286.288	95.5
286.52	85.5
286.751	99.5
286.982	91.5
287.213	98.5
287.444	101.5
287.675	100.5
287.906	100.5
288.138	99.5
288.369	101.5
288.6	106.5
288.831	104.5
289.062	112.5
289.293	93.5
289.524	84.5
289.755	116.5
289.986	92.5
290.217	114.5
290.448	92.5
290.679	95.5
290.91	103.5
291.141	112.5
291.371	95.5
291.602	109.5
291.833	91.5
292.064	106.5
292.295	101.5
292.526	94.5
292.757	98.5
292.987	103.5
293.218	104.5
293.449	90.5
293.68	95.5
293.91	103.5
294.141	106.5
294.372	94.5
294.603	97.5
294.833	103.5
295.064	104.5
295.295	100.5
295.525	106.5
295.756	117.5
295.987	95.5
296.217	103.5
296.448	99.5
296.679	94.5
296.909	98.5
297.14	108.5
297.37	109.5
297.601	114.5
297.831	102.5
298.062	96.5
298.292	108.5
298.523	109.5
298.753	96.5
298.984	99.5
299.214	103.5
299.445	98.5
299.675	105.5
299.905	99.5
300.136	98.5
300.366	90.5
300.597	105.5
300.827	121.5
301.057	112.5
301.288	112.5
301.518	100.5
301.748	85.5
301.979	143.5
302.209	121.5
302.439	109.5
302.669	108.5
302.9	116.5
303.13	108.5
303.36	102.5
303.59	100.5
303.82	98.5
304.051	103.5
304.281	111.5
304.511	110.5
304.741	108.5
304.971	93.5
305.201	114.5
305.431	91.5
305.661	106.5
305.891	112.5
306.121	97.5
306.352	108.5
306.582	100.5
306.812	115.5
307.042	107.5
307.272	111.5
307.502	119.5
307.731	105.5
307.961	107.5
308.191	87.5
308.421	114.5
308.651	116.5
308.881	104.5
309.111	101.5
309.341	102.5
309.571	100.5
309.8	105.5
310.03	95.5
310.26	84.5
310.49	90.5
310.72	111.5
310.949	91.5
311.179	94.5
311.409	88.5
311.639	93.5
311.868	99.5
312.098	92.5
312.328	113.5
312.557	116.5
312.787	106.5
313.017	100.5
313.246	109.5
313.476	96.5
313.706	119.5
313.935	114.5
314.165	108.5
314.394	105.5
314.624	137.5
314.853	113.5
315.083	101.5
315.312	117.5
315.542	107.5
315.771	81.5
316.001	99.5
316.23	106.5
316.46	103.5
316.689	108.5
316.919	115.5
317.148	112.5
317.377	117.5
317.607	114.5
317.836	118.5
318.065	104.5
318.295	98.5
318.524	101.5
318.753	98.5
318.983	107.5
319.212	106.5
319.441	106.5
319.67	102.5
319.9	88.5
320.129	117.5
320.358	114.5
320.587	118.5
320.816	112.5
321.046	104.5
321.275	98.5
321.504	107.5
321.733	108.5
321.962	110.5
322.191	109.5
322.42	105.5
322.649	113.5
322.878	119.5
323.108	118.5
323.337	105.5
323.566	103.5
323.795	112.5
324.024	96.5
324.253	100.5
324.482	95.5
324.71	107.5
324.939	118.5
325.168	114.5
325.397	112.5
325.626	104.5
325.855	105.5
326.084	112.5
326.313	115.5
326.542	111.5
326.77	122.5
326.999	99.5
327.228	101.5
327.457	100.5
327.686	90.5
327.914	105.5
328.143	118.5
328.372	104.5
328.6	114.5
328.829	124.5
329.058	101.5
329.287	95.5
329.515	101.5
329.744	104.5
329.972	92.5
330.201	104.5
330.43	101.5
330.658	114.5
330.887	109.5
331.115	111.5
331.344	121.5
331.572	118.5
331.801	108.5
332.03	114.5
332.258	109.5
332.486	105.5
332.715	119.5
332.943	128.5
333.172	127.5
333.4	126.5
333.629	127.5
333.857	132.5
334.085	137.5
334.314	121.5
334.542	132.5
334.771	106.5
334.999	117.5
335.227	100.5
335.455	107.5
335.684	126.5
335.912	103.5
336.14	117.5
336.369	113.5
336.597	115.5
336.825	104.5
337.053	89.5
337.281	109.5
337.51	113.5
337.738	114.5
337.966	108.5
338.194	111.5
338.422	107.5
338.65	113.5
338.878	115.5
339.106	103.5
339.334	117.5
339.562	110.5
339.79	115.5
340.018	102.5
340.246	104.5
340.474	108.5
340.702	99.5
340.93	123.5
341.158	120.5
341.386	99.5
341.614	104.5
341.842	104.5
342.07	108.5
342.298	104.5
342.526	106.5
342.754	108.5
342.981	113.5
343.209	120.5
343.437	138.5
343.665	110.5
343.893	118.5
344.12	125.5
344.348	108.5
344.576	100.5
344.804	125.5
345.031	104.5
345.259	117.5
345.487	105.5
345.714	109.5
345.942	117.5
346.17	99.5
346.397	100.5
346.625	104.5
346.853	103.5
347.08	111.5
347.308	115.5
347.535	111.5
347.763	108.5
347.99	114.5
348.218	96.5
348.445	103.5
348.673	109.5
348.9	104.5
349.128	120.5
349.355	105.5
349.583	110.5
349.81	98.5
350.037	107.5
350.265	97.5
350.492	99.5
350.72	112.5
350.947	102.5
351.174	111.5
351.402	119.5
351.629	105.5
351.856	91.5
352.083	100.5
352.311	101.5
352.538	109.5
352.765	109.5
352.992	124.5
353.22	102.5
353.447	107.5
353.674	113.5
353.901	112.5
354.128	116.5
354.355	104.5
354.583	100.5
354.81	102.5
355.037	112.5
355.264	111.5
355.491	103.5
355.718	102.5
355.945	119.5
356.172	120.5
356.399	102.5
356.626	104.5
356.853	102.5
357.08	127.5
357.307	107.5
357.534	106.5
357.761	99.5
357.988	113.5
358.215	91.5
358.441	108.5
358.668	91.5
358.895	114.5
359.122	106.5
359.349	112.5
359.576	117.5
359.802	97.5
360.029	111.5
360.256	109.5
360.483	107.5
360.709	109.5
360.936	123.5
361.163	105.5
361.39	108.5
361.616	106.5
361.843	112.5
362.07	103.5
362.296	99.5
362.523	109.5
362.749	105.5
362.976	116.5
363.203	124.5
363.429	104.5
363.656	115.5
363.882	120.5
364.109	125.5
364.335	114.5
364.562	105.5
364.788	104.5
365.015	108.5
365.241	110.5
365.468	111.5
365.694	103.5
365.92	99.5
366.147	90.5
366.373	115.5
366.599	95.5
366.826	106.5
367.052	92.5
367.278	116.5
367.505	112.5
367.731	125.5
367.957	112.5
368.184	105.5
368.41	119.5
368.636	108.5
368.862	122.5
369.089	108.5
369.315	109.5
369.541	109.5
369.767	120.5
369.993	115.5
370.219	101.5
370.445	105.5
370.672	100.5
370.898	105.5
371.124	116.5
371.35	108.5
371.576	111.5
371.802	109.5
372.028	112.5
372.254	116.5
372.48	104.5
372.706	104.5
372.932	109.5
373.158	119.5
373.384	112.5
373.61	113.5
373.835	103.5
374.061	117.5
374.287	111.5
374.513	118.5
374.739	109.5
374.965	106.5
375.191	116.5
375.416	110.5
375.642	97.5
375.868	127.5
376.094	119.5
376.319	84.5
376.545	111.5
376.771	108.5
376.997	115.5
377.222	101.5
377.448	113.5
377.674	112.5
377.899	113.5
378.125	107.5
378.35	101.5
378.576	112.5
378.802	113.5
379.027	103.5
379.253	119.5
379.478	107.5
379.704	128.5
379.929	104.5
380.155	103.5
380.38	108.5
380.606	112.5
380.831	119.5
381.057	115.5
381.282	116.5
381.507	109.5
381.733	121.5
381.958	114.5
382.184	125.5
382.409	123.5
382.634	120.5
382.86	111.5
383.085	129.5
383.31	102.5
383.535	124.5
383.761	117.5
383.986	120.5
384.211	120.5
384.436	103.5
384.662	110.5
384.887	122.5
385.112	111.5
385.337	123.5
385.562	106.5
385.787	128.5
386.013	118.5
386.238	129.5
386.463	127.5
386.688	160.5
386.913	120.5
387.138	122.5
387.363	122.5
387.588	131.5
387.813	115.5
388.038	116.5
388.263	120.5
388.488	122.5
388.713	132.5
388.938	122.5
389.163	117.5
389.387	117.5
389.612	130.5
389.837	125.5
390.062	131.5
390.287	104.5
390.512	99.5
390.736	105.5
390.961	120.5
391.186	130.5
391.411	124.5
391.636	137.5
391.86	133.5
392.085	134.5
392.31	132.5
392.534	120.5
392.759	119.5
392.984	121.5
393.208	131.5
393.433	122.5
393.658	111.5
393.882	121.5
394.107	125.5
394.331	140.5
394.556	124.5
394.78	124.5
395.005	121.5
395.229	134.5
395.454	138.5
395.678	132.5
395.903	132.5
396.127	127.5
396.352	108.5
396.576	108.5
396.801	121.5
397.025	123.5
397.249	130.5
397.474	143.5
397.698	133.5
397.922	122.5
398.147	121.5
398.371	120.5
398.595	138.5
398.82	127.5
399.044	150.5
399.268	143.5
399.492	136.5
399.717	180.5
399.941	159.5
400.165	160.5
400.389	140.5
400.613	119.5
400.837	127.5
401.062	148.5
401.286	145.5
401.51	145.5
401.734	125.5
401.958	133.5
402.182	134.5
402.406	135.5
402.63	133.5
402.854	136.5
403.078	130.5
403.302	138.5
403.526	136.5
403.75	136.5
403.974	158.5
404.198	135.5
404.422	152.5
404.645	132.5
404.869	134.5
405.093	153.5
405.317	138.5
405.541	145.5
405.765	142.5
405.988	144.5
406.212	148.5
406.436	157.5
406.66	146.5
406.883	149.5
407.107	146.5
407.331	147.5
407.555	162.5
407.778	153.5
408.002	149.5
408.226	138.5
408.449	144.5
408.673	127.5
408.896	160.5
409.12	143.5
409.344	140.5
409.567	153.5
409.791	126.5
410.014	144.5
410.238	122.5
410.461	143.5
410.685	135.5
410.908	129.5
411.132	158.5
411.355	135.5
411.578	137.5
411.802	136.5
412.025	139.5
412.249	149.5
412.472	137.5
412.695	137.5
412.919	137.5
413.142	133.5
413.365	123.5
413.589	153.5
413.812	123.5
414.035	148.5
414.258	124.5
414.482	127.5
414.705	140.5
414.928	139.5
415.151	148.5
415.374	140.5
415.597	121.5
415.821	140.5
416.044	118.5
416.267	134.5
416.49	134.5
416.713	154.5
416.936	132.5
417.159	136.5
417.382	144.5
417.605	146.5
417.828	130.5
418.051	146.5
418.274	147.5
418.497	159.5
418.72	136.5
418.943	141.5
419.166	140.5
419.389	141.5
419.611	135.5
419.834	147.5
420.057	157.5
420.28	147.5
420.503	139.5
420.726	122.5
420.948	130.5
421.171	163.5
421.394	124.5
421.617	148.5
421.839	152.5
422.062	135.5
422.285	126.5
422.507	160.5
422.73	134.5
422.953	126.5
423.175	142.5
423.398	143.5
423.621	134.5
423.843	137.5
424.066	141.5
424.288	147.5
424.511	148.5
424.733	160.5
424.956	136.5
425.178	151.5
425.401	139.5
425.623	163.5
425.846	146.5
426.068	128.5
426.291	143.5
426.513	129.5
426.735	138.5
426.958	138.5
427.18	138.5
427.402	143.5
427.625	132.5
427.847	123.5
428.069	135.5
428.292	140.5
428.514	137.5
428.736	122.5
428.958	138.5
429.181	129.5
429.403	143.5
429.625	122.5
429.847	137.5
430.069	143.5
430.292	134.5
430.514	135.5
430.736	147.5
430.958	137.5
431.18	138.5
431.402	141.5
431.624	119.5
431.846	124.5
432.068	128.5
432.29	127.5
432.512	136.5
432.734	135.5
432.956	119.5
433.178	148.5
433.4	137.5
433.622	153.5
433.844	132.5
434.066	144.5
434.287	123.5
434.509	116.5
434.731	132.5
434.953	141.5
435.175	130.5
435.397	154.5
435.618	138.5
435.84	130.5
436.062	135.5
436.284	130.5
436.505	133.5
436.727	134.5
436.949	135.5
437.17	137.5
437.392	124.5
437.614	123.5
437.835	128.5
438.057	126.5
438.278	127.5
438.5	112.5
438.721	131.5
438.943	130.5
439.165	137.5
439.386	137.5
439.608	147.5
439.829	132.5
440.05	135.5
440.272	134.5
440.493	122.5
440.715	145.5
440.936	122.5
441.158	137.5
441.379	133.5
441.6	141.5
441.822	131.5
442.043	138.5
442.264	156.5
442.486	144.5
442.707	143.5
442.928	155.5
443.149	140.5
443.371	165.5
443.592	143.5
443.813	136.5
444.034	147.5
444.255	159.5
444.476	139.5
444.698	151.5
444.919	160.5
445.14	340.5
445.361	236.5
445.582	148.5
445.803	155.5
446.024	165.5
446.245	154.5
446.466	140.5
446.687	138.5
446.908	147.5
447.129	141.5
447.35	143.5
447.571	149.5
447.792	127.5
448.013	140.5
448.234	133.5
448.455	129.5
448.675	136.5
448.896	136.5
449.117	130.5
449.338	111.5
449.559	127.5
449.779	133.5
450	136.5
450.221	142.5
450.442	132.5
450.662	145.5
450.883	132.5
451.104	131.5
451.324	127.5
451.545	135.5
451.766	127.5
451.986	112.5
452.207	130.5
452.428	146.5
452.648	136.5
452.869	121.5
453.089	128.5
453.31	127.5
453.53	129.5
453.751	129.5
453.971	136.5
454.192	123.5
454.412	121.5
454.633	128.5
454.853	127.5
455.073	126.5
455.294	138.5
455.514	126.5
455.734	121.5
455.955	134.5
456.175	127.5
456.395	120.5
456.616	131.5
456.836	123.5
457.056	126.5
457.276	119.5
457.497	127.5
457.717	115.5
457.937	123.5
458.157	123.5
458.377	127.5
458.598	112.5
458.818	117.5
459.038	114.5
459.258	120.5
459.478	116.5
459.698	119.5
459.918	127.5
460.138	124.5
460.358	131.5
460.578	156.5
460.798	147.5
461.018	150.5
461.238	143.5
461.458	149.5
461.678	139.5
461.898	138.5
462.118	136.5
462.338	166.5
462.558	134.5
462.777	137.5
462.997	152.5
463.217	151.5
463.437	147.5
463.657	163.5
463.876	161.5
464.096	140.5
464.316	155.5
464.536	138.5
464.755	162.5
464.975	136.5
465.195	151.5
465.414	148.5
465.634	124.5
465.854	132.5
466.073	132.5
466.293	108.5
466.512	125.5
466.732	147.5
466.951	128.5
467.171	119.5
467.391	117.5
467.61	133.5
467.829	127.5
468.049	133.5
468.268	143.5
468.488	140.5
468.707	114.5
468.927	132.5
469.146	115.5
469.365	124.5
469.585	123.5
469.804	140.5
470.023	146.5
470.243	147.5
470.462	143.5
470.681	160.5
470.901	138.5
471.12	130.5
471.339	132.5
471.558	132.5
471.777	132.5
471.997	141.5
472.216	138.5
472.435	122.5
472.654	115.5
472.873	144.5
473.092	119.5
473.311	128.5
473.53	133.5
473.749	138.5
473.968	142.5
474.187	128.5
474.406	124.5
474.625	118.5
474.844	124.5
475.063	109.5
475.282	123.5
475.501	129.5
475.72	111.5
475.939	126.5
476.158	138.5
476.377	137.5
476.596	141.5
476.814	121.5
477.033	125.5
477.252	130.5
477.471	138.5
477.69	132.5
477.908	159.5
478.127	139.5
478.346	139.5
478.564	135.5
478.783	149.5
479.002	149.5
479.22	152.5
479.439	149.5
479.658	133.5
479.876	128.5
480.095	148.5
480.313	132.5
480.532	136.5
480.751	143.5
480.969	126.5
481.188	125.5
481.406	140.5
481.624	131.5
481.843	127.5
482.061	127.5
482.28	144.5
482.498	135.5
482.717	133.5
482.935	134.5
483.153	139.5
483.372	149.5
483.59	152.5
483.808	145.5
484.027	156.5
484.245	141.5
484.463	144.5
484.681	150.5
484.9	144.5
485.118	148.5
485.336	151.5
485.554	141.5
485.772	137.5
485.99	145.5
486.209	140.5
486.427	134.5
486.645	128.5
486.863	158.5
487.081	149.5
487.299	160.5
487.517	144.5
487.735	167.5
487.953	161.5
488.171	165.5
488.389	156.5
488.607	144.5
488.825	137.5
489.043	139.5
489.261	160.5
489.479	146.5
489.696	144.5
489.914	128.5
490.132	146.5
490.35	151.5
490.568	161.5
490.786	158.5
491.003	160.5
491.221	151.5
491.439	159.5
491.657	158.5
491.874	174.5
492.092	163.5
492.31	176.5
492.527	172.5
492.745	167.5
492.963	163.5
493.18	147.5
493.398	170.5
493.615	155.5
493.833	162.5
494.05	153.5
494.268	144.5
494.485	161.5
494.703	154.5
494.92	156.5
495.138	149.5
495.355	154.5
495.573	163.5
495.79	157.5
496.008	156.5
496.225	149.5
496.442	152.5
496.66	171.5
496.877	154.5
497.094	183.5
497.312	169.5
497.529	150.5
497.746	167.5
497.963	150.5
498.181	156.5
498.398	177.5
498.615	169.5
498.832	173.5
499.049	186.5
499.267	197.5
499.484	196.5
499.701	198.5
499.918	221.5
500.135	250.5
500.352	257.5
500.569	274.5
500.786	245.5
501.003	231.5
501.22	215.5
501.437	210.5
501.654	173.5
501.871	184.5
502.088	165.5
502.305	188.5
502.522	171.5
502.739	178.5
502.956	174.5
503.172	161.5
503.389	163.5
503.606	148.5
503.823	154.5
504.04	162.5
504.256	164.5
504.473	149.5
504.69	153.5
504.907	161.5
505.123	157.5
505.34	156.5
505.557	148.5
505.773	141.5
505.99	127.5
506.207	143.5
506.423	149.5
506.64	145.5
506.856	145.5
507.073	145.5
507.289	141.5
507.506	130.5
507.722	146.5
507.939	135.5
508.155	146.5
508.372	127.5
508.588	115.5
508.805	144.5
509.021	133.5
509.238	119.5
509.454	119.5
509.67	128.5
509.887	114.5
510.103	123.5
510.319	120.5
510.536	132.5
510.752	119.5
510.968	121.5
511.184	114.5
511.401	120.5
511.617	134.5
511.833	123.5
512.049	116.5
512.265	128.5
512.481	128.5
512.698	110.5
512.914	127.5
513.13	139.5
513.346	130.5
513.562	125.5
513.778	131.5
513.994	132.5
514.21	121.5
514.426	119.5
514.642	128.5
514.858	128.5
515.074	125.5
515.29	123.5
515.506	116.5
515.721	121.5
515.937	152.5
516.153	128.5
516.369	146.5
516.585	135.5
516.801	137.5
517.016	141.5
517.232	136.5
517.448	138.5
517.664	141.5
517.879	153.5
518.095	147.5
518.311	154.5
518.527	143.5
518.742	140.5
518.958	125.5
519.173	134.5
519.389	125.5
519.605	124.5
519.82	138.5
520.036	134.5
520.251	119.5
520.467	116.5
520.682	128.5
520.898	112.5
521.113	129.5
521.329	136.5
521.544	125.5
521.76	124.5
521.975	132.5
522.19	132.5
522.406	124.5
522.621	131.5
522.836	123.5
523.052	108.5
523.267	127.5
523.482	128.5
523.698	132.5
523.913	138.5
524.128	117.5
524.343	144.5
524.559	134.5
524.774	115.5
524.989	130.5
