Data from SampD_HRD10591_00002.txt Node
Date: Mon Jan 19 11:50:16 EST 2026
User: Yrep
Spectrometer: HR+D1059
Trigger mode: 0
Integration Time (sec): 3.443000E-1
Scans to average: 1
Electric dark correction enabled: true
Nonlinearity correction enabled: false
Boxcar width: 0
XAxis mode: Wavelengths
Number of Pixels in Spectrum: 2048
>>>>>Begin Spectral Data<<<<<
223.165	-19.25
223.4	-19.25
223.635	-19.25
223.869	-31.25
224.104	-25.25
224.338	-12.25
224.573	-15.25
224.808	-7.25
225.042	-12.25
225.277	6.75
225.511	-4.25
225.746	9.75
225.98	9.75
226.215	10.75
226.449	20.75
226.683	16.75
226.918	24.75
227.152	27.75
227.387	52.75
227.621	47.75
227.856	51.75
228.09	38.75
228.324	59.75
228.559	76.75
228.793	57.75
229.027	67.75
229.262	71.75
229.496	60.75
229.73	67.75
229.964	79.75
230.199	81.75
230.433	80.75
230.667	56.75
230.901	84.75
231.136	67.75
231.37	66.75
231.604	89.75
231.838	87.75
232.072	86.75
232.306	79.75
232.541	88.75
232.775	85.75
233.009	85.75
233.243	89.75
233.477	86.75
233.711	81.75
233.945	77.75
234.179	85.75
234.413	80.75
234.647	86.75
234.881	89.75
235.115	83.75
235.349	79.75
235.583	72.75
235.817	74.75
236.051	79.75
236.285	87.75
236.519	69.75
236.753	81.75
236.987	85.75
237.221	73.75
237.455	77.75
237.689	87.75
237.922	85.75
238.156	88.75
238.39	80.75
238.624	76.75
238.858	69.75
239.091	82.75
239.325	76.75
239.559	79.75
239.793	67.75
240.027	89.75
240.26	79.75
240.494	74.75
240.728	76.75
240.961	90.75
241.195	91.75
241.429	92.75
241.662	72.75
241.896	89.75
242.13	94.75
242.363	82.75
242.597	82.75
242.83	94.75
243.064	90.75
243.298	95.75
243.531	68.75
243.765	72.75
243.998	89.75
244.232	86.75
244.465	88.75
244.699	82.75
244.932	97.75
245.166	74.75
245.399	81.75
245.633	80.75
245.866	83.75
246.099	91.75
246.333	82.75
246.566	79.75
246.8	79.75
247.033	81.75
247.266	76.75
247.5	85.75
247.733	96.75
247.966	95.75
248.2	87.75
248.433	92.75
248.666	83.75
248.899	98.75
249.133	83.75
249.366	90.75
249.599	108.75
249.832	91.75
250.066	96.75
250.299	87.75
250.532	83.75
250.765	88.75
250.998	87.75
251.231	95.75
251.465	88.75
251.698	76.75
251.931	73.75
252.164	91.75
252.397	93.75
252.63	85.75
252.863	93.75
253.096	98.75
253.329	101.75
253.562	85.75
253.795	100.75
254.028	83.75
254.261	88.75
254.494	77.75
254.727	85.75
254.96	88.75
255.193	86.75
255.426	89.75
255.659	96.75
255.892	115.75
256.124	89.75
256.357	92.75
256.59	102.75
256.823	104.75
257.056	86.75
257.289	86.75
257.521	84.75
257.754	88.75
257.987	91.75
258.22	92.75
258.452	96.75
258.685	91.75
258.918	83.75
259.151	94.75
259.383	107.75
259.616	82.75
259.849	102.75
260.081	98.75
260.314	89.75
260.547	98.75
260.779	92.75
261.012	97.75
261.244	99.75
261.477	112.75
261.71	97.75
261.942	104.75
262.175	102.75
262.407	92.75
262.64	103.75
262.872	96.75
263.105	113.75
263.337	97.75
263.57	109.75
263.802	97.75
264.035	93.75
264.267	95.75
264.499	91.75
264.732	101.75
264.964	92.75
265.197	124.75
265.429	97.75
265.661	102.75
265.894	81.75
266.126	111.75
266.358	100.75
266.591	101.75
266.823	106.75
267.055	92.75
267.287	94.75
267.52	93.75
267.752	107.75
267.984	94.75
268.216	107.75
268.448	116.75
268.681	106.75
268.913	107.75
269.145	106.75
269.377	95.75
269.609	102.75
269.841	115.75
270.073	100.75
270.306	101.75
270.538	112.75
270.77	98.75
271.002	82.75
271.234	96.75
271.466	109.75
271.698	100.75
271.93	96.75
272.162	96.75
272.394	102.75
272.626	103.75
272.858	95.75
273.09	107.75
273.322	109.75
273.553	114.75
273.785	109.75
274.017	96.75
274.249	108.75
274.481	119.75
274.713	89.75
274.945	119.75
275.176	114.75
275.408	112.75
275.64	120.75
275.872	118.75
276.104	107.75
276.335	98.75
276.567	104.75
276.799	109.75
277.031	94.75
277.262	93.75
277.494	111.75
277.726	105.75
277.957	119.75
278.189	101.75
278.421	118.75
278.652	103.75
278.884	105.75
279.115	99.75
279.347	108.75
279.579	109.75
279.81	108.75
280.042	117.75
280.273	109.75
280.505	127.75
280.736	121.75
280.968	106.75
281.199	109.75
281.431	118.75
281.662	113.75
281.894	111.75
282.125	112.75
282.356	107.75
282.588	92.75
282.819	112.75
283.051	108.75
283.282	114.75
283.513	128.75
283.745	116.75
283.976	123.75
284.207	108.75
284.439	114.75
284.67	129.75
284.901	110.75
285.132	105.75
285.364	125.75
285.595	119.75
285.826	123.75
286.057	124.75
286.288	119.75
286.52	115.75
286.751	120.75
286.982	104.75
287.213	108.75
287.444	126.75
287.675	122.75
287.906	122.75
288.138	126.75
288.369	120.75
288.6	109.75
288.831	101.75
289.062	107.75
289.293	115.75
289.524	114.75
289.755	109.75
289.986	121.75
290.217	122.75
290.448	117.75
290.679	104.75
290.91	124.75
291.141	119.75
291.371	119.75
291.602	116.75
291.833	122.75
292.064	122.75
292.295	121.75
292.526	129.75
292.757	118.75
292.987	127.75
293.218	114.75
293.449	120.75
293.68	102.75
293.91	122.75
294.141	118.75
294.372	108.75
294.603	115.75
294.833	121.75
295.064	108.75
295.295	117.75
295.525	130.75
295.756	118.75
295.987	121.75
296.217	114.75
296.448	129.75
296.679	120.75
296.909	130.75
297.14	124.75
297.37	125.75
297.601	124.75
297.831	131.75
298.062	122.75
298.292	127.75
298.523	139.75
298.753	129.75
298.984	121.75
299.214	122.75
299.445	117.75
299.675	117.75
299.905	127.75
300.136	124.75
300.366	111.75
300.597	135.75
300.827	118.75
301.057	123.75
301.288	113.75
301.518	121.75
301.748	124.75
301.979	163.75
302.209	129.75
302.439	118.75
302.669	113.75
302.9	136.75
303.13	124.75
303.36	137.75
303.59	133.75
303.82	127.75
304.051	143.75
304.281	136.75
304.511	134.75
304.741	126.75
304.971	115.75
305.201	112.75
305.431	116.75
305.661	125.75
305.891	114.75
306.121	126.75
306.352	133.75
306.582	129.75
306.812	117.75
307.042	123.75
307.272	129.75
307.502	121.75
307.731	115.75
307.961	122.75
308.191	94.75
308.421	111.75
308.651	124.75
308.881	132.75
309.111	126.75
309.341	112.75
309.571	131.75
309.8	121.75
310.03	116.75
310.26	122.75
310.49	117.75
310.72	120.75
310.949	123.75
311.179	120.75
311.409	113.75
311.639	102.75
311.868	128.75
312.098	127.75
312.328	130.75
312.557	123.75
312.787	129.75
313.017	139.75
313.246	115.75
313.476	122.75
313.706	140.75
313.935	137.75
314.165	136.75
314.394	123.75
314.624	146.75
314.853	128.75
315.083	143.75
315.312	135.75
315.542	137.75
315.771	132.75
316.001	132.75
316.23	141.75
316.46	135.75
316.689	128.75
316.919	125.75
317.148	132.75
317.377	140.75
317.607	133.75
317.836	105.75
318.065	123.75
318.295	123.75
318.524	122.75
318.753	138.75
318.983	117.75
319.212	124.75
319.441	128.75
319.67	146.75
319.9	138.75
320.129	132.75
320.358	129.75
320.587	129.75
320.816	128.75
321.046	125.75
321.275	131.75
321.504	130.75
321.733	133.75
321.962	139.75
322.191	132.75
322.42	140.75
322.649	137.75
322.878	116.75
323.108	147.75
323.337	123.75
323.566	129.75
323.795	126.75
324.024	135.75
324.253	132.75
324.482	127.75
324.71	139.75
324.939	134.75
325.168	115.75
325.397	117.75
325.626	143.75
325.855	118.75
326.084	130.75
326.313	134.75
326.542	130.75
326.77	130.75
326.999	140.75
327.228	139.75
327.457	135.75
327.686	136.75
327.914	135.75
328.143	131.75
328.372	129.75
328.6	146.75
328.829	126.75
329.058	134.75
329.287	150.75
329.515	138.75
329.744	145.75
329.972	134.75
330.201	130.75
330.43	127.75
330.658	147.75
330.887	147.75
331.115	121.75
331.344	146.75
331.572	138.75
331.801	141.75
332.03	139.75
332.258	139.75
332.486	155.75
332.715	141.75
332.943	137.75
333.172	164.75
333.4	130.75
333.629	151.75
333.857	155.75
334.085	145.75
334.314	140.75
334.542	149.75
334.771	158.75
334.999	150.75
335.227	153.75
335.455	170.75
335.684	151.75
335.912	146.75
336.14	143.75
336.369	152.75
336.597	162.75
336.825	146.75
337.053	145.75
337.281	129.75
337.51	136.75
337.738	143.75
337.966	144.75
338.194	133.75
338.422	141.75
338.65	143.75
338.878	132.75
339.106	143.75
339.334	153.75
339.562	145.75
339.79	120.75
340.018	128.75
340.246	136.75
340.474	135.75
340.702	140.75
340.93	137.75
341.158	131.75
341.386	143.75
341.614	125.75
341.842	133.75
342.07	138.75
342.298	151.75
342.526	130.75
342.754	137.75
342.981	154.75
343.209	135.75
343.437	177.75
343.665	159.75
343.893	141.75
344.12	163.75
344.348	142.75
344.576	141.75
344.804	143.75
345.031	148.75
345.259	140.75
345.487	126.75
345.714	143.75
345.942	136.75
346.17	140.75
346.397	143.75
346.625	145.75
346.853	130.75
347.08	152.75
347.308	145.75
347.535	147.75
347.763	127.75
347.99	129.75
348.218	141.75
348.445	155.75
348.673	142.75
348.9	131.75
349.128	134.75
349.355	128.75
349.583	139.75
349.81	136.75
350.037	122.75
350.265	143.75
350.492	143.75
350.72	136.75
350.947	147.75
351.174	137.75
351.402	123.75
351.629	138.75
351.856	140.75
352.083	134.75
352.311	134.75
352.538	137.75
352.765	122.75
352.992	165.75
353.22	127.75
353.447	128.75
353.674	121.75
353.901	140.75
354.128	133.75
354.355	137.75
354.583	118.75
354.81	131.75
355.037	145.75
355.264	146.75
355.491	146.75
355.718	135.75
355.945	130.75
356.172	128.75
356.399	122.75
356.626	130.75
356.853	138.75
357.08	145.75
357.307	140.75
357.534	132.75
357.761	123.75
357.988	148.75
358.215	151.75
358.441	147.75
358.668	128.75
358.895	146.75
359.122	124.75
359.349	133.75
359.576	136.75
359.802	132.75
360.029	139.75
360.256	138.75
360.483	118.75
360.709	132.75
360.936	141.75
361.163	147.75
361.39	120.75
361.616	134.75
361.843	123.75
362.07	148.75
362.296	141.75
362.523	131.75
362.749	138.75
362.976	125.75
363.203	158.75
363.429	134.75
363.656	136.75
363.882	132.75
364.109	133.75
364.335	128.75
364.562	148.75
364.788	130.75
365.015	147.75
365.241	131.75
365.468	155.75
365.694	127.75
365.92	132.75
366.147	147.75
366.373	134.75
366.599	142.75
366.826	132.75
367.052	123.75
367.278	155.75
367.505	145.75
367.731	144.75
367.957	135.75
368.184	124.75
368.41	137.75
368.636	133.75
368.862	157.75
369.089	143.75
369.315	133.75
369.541	139.75
369.767	138.75
369.993	138.75
370.219	149.75
370.445	125.75
370.672	143.75
370.898	139.75
371.124	141.75
371.35	143.75
371.576	151.75
371.802	163.75
372.028	159.75
372.254	138.75
372.48	144.75
372.706	145.75
372.932	139.75
373.158	150.75
373.384	163.75
373.61	136.75
373.835	133.75
374.061	140.75
374.287	135.75
374.513	144.75
374.739	153.75
374.965	163.75
375.191	157.75
375.416	158.75
375.642	151.75
375.868	163.75
376.094	146.75
376.319	149.75
376.545	144.75
376.771	129.75
376.997	153.75
377.222	147.75
377.448	161.75
377.674	137.75
377.899	152.75
378.125	140.75
378.35	147.75
378.576	140.75
378.802	137.75
379.027	143.75
379.253	148.75
379.478	149.75
379.704	139.75
379.929	147.75
380.155	138.75
380.38	152.75
380.606	159.75
380.831	151.75
381.057	144.75
381.282	145.75
381.507	152.75
381.733	154.75
381.958	161.75
382.184	138.75
382.409	163.75
382.634	151.75
382.86	170.75
383.085	154.75
383.31	169.75
383.535	155.75
383.761	149.75
383.986	157.75
384.211	151.75
384.436	152.75
384.662	151.75
384.887	163.75
385.112	160.75
385.337	179.75
385.562	163.75
385.787	153.75
386.013	176.75
386.238	156.75
386.463	166.75
386.688	184.75
386.913	164.75
387.138	156.75
387.363	155.75
387.588	163.75
387.813	139.75
388.038	162.75
388.263	153.75
388.488	170.75
388.713	164.75
388.938	168.75
389.163	160.75
389.387	178.75
389.612	153.75
389.837	160.75
390.062	161.75
390.287	176.75
390.512	167.75
390.736	145.75
390.961	178.75
391.186	168.75
391.411	182.75
391.636	179.75
391.86	176.75
392.085	186.75
392.31	178.75
392.534	183.75
392.759	178.75
392.984	165.75
393.208	181.75
393.433	171.75
393.658	171.75
393.882	171.75
394.107	177.75
394.331	174.75
394.556	173.75
394.78	185.75
395.005	177.75
395.229	178.75
395.454	168.75
395.678	172.75
395.903	188.75
396.127	186.75
396.352	165.75
396.576	156.75
396.801	186.75
397.025	176.75
397.249	173.75
397.474	173.75
397.698	183.75
397.922	173.75
398.147	174.75
398.371	191.75
398.595	188.75
398.82	192.75
399.044	196.75
399.268	218.75
399.492	230.75
399.717	244.75
399.941	237.75
400.165	210.75
400.389	205.75
400.613	203.75
400.837	212.75
401.062	204.75
401.286	200.75
401.51	172.75
401.734	184.75
401.958	191.75
402.182	196.75
402.406	198.75
402.63	215.75
402.854	190.75
403.078	201.75
403.302	204.75
403.526	221.75
403.75	227.75
403.974	211.75
404.198	215.75
404.422	215.75
404.645	215.75
404.869	229.75
405.093	214.75
405.317	211.75
405.541	196.75
405.765	194.75
405.988	199.75
406.212	211.75
406.436	192.75
406.66	228.75
406.883	222.75
407.107	227.75
407.331	221.75
407.555	238.75
407.778	214.75
408.002	216.75
408.226	202.75
408.449	208.75
408.673	215.75
408.896	213.75
409.12	213.75
409.344	210.75
409.567	203.75
409.791	219.75
410.014	215.75
410.238	205.75
410.461	195.75
410.685	208.75
410.908	207.75
411.132	204.75
411.355	215.75
411.578	200.75
411.802	200.75
412.025	191.75
412.249	203.75
412.472	199.75
412.695	201.75
412.919	201.75
413.142	200.75
413.365	204.75
413.589	186.75
413.812	201.75
414.035	195.75
414.258	182.75
414.482	196.75
414.705	207.75
414.928	211.75
415.151	196.75
415.374	210.75
415.597	177.75
415.821	170.75
416.044	197.75
416.267	193.75
416.49	210.75
416.713	208.75
416.936	189.75
417.159	198.75
417.382	197.75
417.605	183.75
417.828	207.75
418.051	204.75
418.274	209.75
418.497	211.75
418.72	193.75
418.943	202.75
419.166	209.75
419.389	217.75
419.611	201.75
419.834	217.75
420.057	202.75
420.28	205.75
420.503	211.75
420.726	210.75
420.948	209.75
421.171	196.75
421.394	205.75
421.617	207.75
421.839	186.75
422.062	207.75
422.285	188.75
422.507	199.75
422.73	216.75
422.953	198.75
423.175	209.75
423.398	211.75
423.621	210.75
423.843	196.75
424.066	226.75
424.288	204.75
424.511	211.75
424.733	215.75
424.956	218.75
425.178	201.75
425.401	207.75
425.623	207.75
425.846	205.75
426.068	200.75
426.291	188.75
426.513	195.75
426.735	218.75
426.958	191.75
427.18	183.75
427.402	211.75
427.625	195.75
427.847	188.75
428.069	195.75
428.292	185.75
428.514	181.75
428.736	194.75
428.958	192.75
429.181	195.75
429.403	200.75
429.625	177.75
429.847	184.75
430.069	197.75
430.292	196.75
430.514	199.75
430.736	197.75
430.958	181.75
431.18	193.75
431.402	178.75
431.624	171.75
431.846	182.75
432.068	149.75
432.29	179.75
432.512	203.75
432.734	193.75
432.956	189.75
433.178	192.75
433.4	201.75
433.622	195.75
433.844	199.75
434.066	192.75
434.287	189.75
434.509	179.75
434.731	188.75
434.953	192.75
435.175	210.75
435.397	200.75
435.618	189.75
435.84	184.75
436.062	202.75
436.284	201.75
436.505	192.75
436.727	202.75
436.949	201.75
437.17	179.75
437.392	184.75
437.614	196.75
437.835	173.75
438.057	183.75
438.278	168.75
438.5	183.75
438.721	198.75
438.943	195.75
439.165	186.75
439.386	194.75
439.608	213.75
439.829	193.75
440.05	201.75
440.272	202.75
440.493	197.75
440.715	195.75
440.936	205.75
441.158	203.75
441.379	214.75
441.6	209.75
441.822	192.75
442.043	228.75
442.264	193.75
442.486	214.75
442.707	197.75
442.928	197.75
443.149	207.75
443.371	195.75
443.592	197.75
443.813	205.75
444.034	209.75
444.255	218.75
444.476	211.75
444.698	230.75
444.919	229.75
445.14	480.75
445.361	340.75
445.582	226.75
445.803	204.75
446.024	206.75
446.245	207.75
446.466	208.75
446.687	189.75
446.908	204.75
447.129	189.75
447.35	186.75
447.571	202.75
447.792	184.75
448.013	197.75
448.234	196.75
448.455	188.75
448.675	204.75
448.896	171.75
449.117	183.75
449.338	185.75
449.559	197.75
449.779	192.75
450	192.75
450.221	208.75
450.442	186.75
450.662	185.75
450.883	178.75
451.104	188.75
451.324	172.75
451.545	185.75
451.766	192.75
451.986	185.75
452.207	185.75
452.428	178.75
452.648	185.75
452.869	181.75
453.089	180.75
453.31	183.75
453.53	168.75
453.751	172.75
453.971	183.75
454.192	162.75
454.412	156.75
454.633	169.75
454.853	183.75
455.073	164.75
455.294	179.75
455.514	167.75
455.734	163.75
455.955	183.75
456.175	172.75
456.395	174.75
456.616	173.75
456.836	165.75
457.056	180.75
457.276	146.75
457.497	179.75
457.717	176.75
457.937	160.75
458.157	166.75
458.377	164.75
458.598	161.75
458.818	151.75
459.038	167.75
459.258	161.75
459.478	168.75
459.698	176.75
459.918	193.75
460.138	206.75
460.358	185.75
460.578	211.75
460.798	213.75
461.018	191.75
461.238	208.75
461.458	199.75
461.678	194.75
461.898	196.75
462.118	218.75
462.338	208.75
462.558	209.75
462.777	218.75
462.997	223.75
463.217	233.75
463.437	224.75
463.657	204.75
463.876	212.75
464.096	221.75
464.316	215.75
464.536	212.75
464.755	229.75
464.975	204.75
465.195	200.75
465.414	196.75
465.634	181.75
465.854	183.75
466.073	197.75
466.293	176.75
466.512	191.75
466.732	192.75
466.951	181.75
467.171	191.75
467.391	198.75
467.61	164.75
467.829	195.75
468.049	191.75
468.268	183.75
468.488	182.75
468.707	189.75
468.927	193.75
469.146	179.75
469.365	194.75
469.585	203.75
469.804	185.75
470.023	201.75
470.243	215.75
470.462	202.75
470.681	191.75
470.901	185.75
471.12	187.75
471.339	203.75
471.558	191.75
471.777	194.75
471.997	191.75
472.216	177.75
472.435	159.75
472.654	181.75
472.873	166.75
473.092	193.75
473.311	190.75
473.53	178.75
473.749	173.75
473.968	197.75
474.187	183.75
474.406	184.75
474.625	170.75
474.844	177.75
475.063	174.75
475.282	177.75
475.501	180.75
475.72	181.75
475.939	179.75
476.158	179.75
476.377	173.75
476.596	177.75
476.814	190.75
477.033	166.75
477.252	175.75
477.471	169.75
477.69	199.75
477.908	205.75
478.127	217.75
478.346	202.75
478.564	213.75
478.783	201.75
479.002	212.75
479.22	209.75
479.439	224.75
479.658	195.75
479.876	188.75
480.095	190.75
480.313	195.75
480.532	207.75
480.751	208.75
480.969	187.75
481.188	187.75
481.406	162.75
481.624	187.75
481.843	170.75
482.061	168.75
482.28	168.75
482.498	173.75
482.717	186.75
482.935	193.75
483.153	198.75
483.372	199.75
483.59	208.75
483.808	199.75
484.027	216.75
484.245	211.75
484.463	211.75
484.681	229.75
484.9	214.75
485.118	217.75
485.336	204.75
485.554	191.75
485.772	183.75
485.99	183.75
486.209	193.75
486.427	196.75
486.645	204.75
486.863	213.75
487.081	211.75
487.299	214.75
487.517	216.75
487.735	219.75
487.953	239.75
488.171	263.75
488.389	219.75
488.607	200.75
488.825	213.75
489.043	204.75
489.261	232.75
489.479	202.75
489.696	211.75
489.914	209.75
490.132	216.75
490.35	235.75
490.568	199.75
490.786	239.75
491.003	224.75
491.221	215.75
491.439	236.75
491.657	235.75
491.874	255.75
492.092	249.75
492.31	264.75
492.527	253.75
492.745	252.75
492.963	241.75
493.18	248.75
493.398	251.75
493.615	231.75
493.833	240.75
494.05	229.75
494.268	240.75
494.485	225.75
494.703	225.75
494.92	235.75
495.138	236.75
495.355	234.75
495.573	233.75
495.79	237.75
496.008	244.75
496.225	243.75
496.442	246.75
496.66	237.75
496.877	240.75
497.094	232.75
497.312	242.75
497.529	223.75
497.746	227.75
497.963	219.75
498.181	223.75
498.398	233.75
498.615	237.75
498.832	237.75
499.049	272.75
499.267	292.75
499.484	309.75
499.701	331.75
499.918	354.75
500.135	382.75
500.352	438.75
500.569	446.75
500.786	412.75
501.003	395.75
501.22	344.75
501.437	339.75
501.654	312.75
501.871	289.75
502.088	265.75
502.305	268.75
502.522	260.75
502.739	241.75
502.956	232.75
503.172	230.75
503.389	224.75
503.606	214.75
503.823	234.75
504.04	220.75
504.256	225.75
504.473	227.75
504.69	225.75
504.907	227.75
