Data from SampD_HRD10591_00010.txt Node
Date: Mon Jan 19 11:50:18 EST 2026
User: Yrep
Spectrometer: HR+D1059
Trigger mode: 0
Integration Time (sec): 3.443000E-1
Scans to average: 1
Electric dark correction enabled: true
Nonlinearity correction enabled: false
Boxcar width: 0
XAxis mode: Wavelengths
Number of Pixels in Spectrum: 2048
>>>>>Begin Spectral Data<<<<<
223.165	-11.12
223.4	-11.12
223.635	-11.12
223.869	-34.12
224.104	-30.12
224.338	-12.12
224.573	-19.12
224.808	-11.12
225.042	0.88
225.277	-15.12
225.511	-6.12
225.746	11.88
225.98	13.88
226.215	6.88
226.449	28.88
226.683	15.88
226.918	24.88
227.152	35.88
227.387	48.88
227.621	46.88
227.856	57.88
228.09	42.88
228.324	44.88
228.559	61.88
228.793	64.88
229.027	75.88
229.262	59.88
229.496	75.88
229.73	72.88
229.964	90.88
230.199	77.88
230.433	78.88
230.667	86.88
230.901	92.88
231.136	73.88
231.37	91.88
231.604	82.88
231.838	85.88
232.072	91.88
232.306	85.88
232.541	99.88
232.775	93.88
233.009	92.88
233.243	96.88
233.477	91.88
233.711	106.88
233.945	98.88
234.179	70.88
234.413	82.88
234.647	81.88
234.881	83.88
235.115	91.88
235.349	79.88
235.583	79.88
235.817	86.88
236.051	88.88
236.285	77.88
236.519	92.88
236.753	86.88
236.987	94.88
237.221	82.88
237.455	81.88
237.689	91.88
237.922	86.88
238.156	70.88
238.39	86.88
238.624	78.88
238.858	86.88
239.091	83.88
239.325	88.88
239.559	78.88
239.793	74.88
240.027	79.88
240.26	77.88
240.494	94.88
240.728	82.88
240.961	80.88
241.195	84.88
241.429	99.88
241.662	80.88
241.896	68.88
242.13	77.88
242.363	90.88
242.597	78.88
242.83	71.88
243.064	76.88
243.298	72.88
243.531	94.88
243.765	76.88
243.998	77.88
244.232	87.88
244.465	92.88
244.699	89.88
244.932	108.88
245.166	88.88
245.399	83.88
245.633	100.88
245.866	87.88
246.099	91.88
246.333	101.88
246.566	96.88
246.8	76.88
247.033	106.88
247.266	94.88
247.5	99.88
247.733	90.88
247.966	87.88
248.2	79.88
248.433	100.88
248.666	92.88
248.899	93.88
249.133	98.88
249.366	103.88
249.599	100.88
249.832	80.88
250.066	92.88
250.299	92.88
250.532	104.88
250.765	97.88
250.998	83.88
251.231	86.88
251.465	84.88
251.698	92.88
251.931	94.88
252.164	86.88
252.397	96.88
252.63	93.88
252.863	85.88
253.096	84.88
253.329	102.88
253.562	83.88
253.795	98.88
254.028	90.88
254.261	98.88
254.494	93.88
254.727	92.88
254.96	99.88
255.193	85.88
255.426	86.88
255.659	108.88
255.892	111.88
256.124	109.88
256.357	93.88
256.59	77.88
256.823	93.88
257.056	96.88
257.289	103.88
257.521	103.88
257.754	93.88
257.987	95.88
258.22	111.88
258.452	101.88
258.685	108.88
258.918	98.88
259.151	87.88
259.383	96.88
259.616	86.88
259.849	99.88
260.081	101.88
260.314	97.88
260.547	91.88
260.779	99.88
261.012	91.88
261.244	96.88
261.477	111.88
261.71	102.88
261.942	98.88
262.175	93.88
262.407	97.88
262.64	104.88
262.872	98.88
263.105	98.88
263.337	93.88
263.57	98.88
263.802	98.88
264.035	103.88
264.267	102.88
264.499	108.88
264.732	101.88
264.964	90.88
265.197	103.88
265.429	121.88
265.661	110.88
265.894	90.88
266.126	111.88
266.358	94.88
266.591	94.88
266.823	110.88
267.055	92.88
267.287	119.88
267.52	93.88
267.752	104.88
267.984	105.88
268.216	102.88
268.448	100.88
268.681	112.88
268.913	99.88
269.145	106.88
269.377	84.88
269.609	92.88
269.841	109.88
270.073	120.88
270.306	108.88
270.538	94.88
270.77	112.88
271.002	111.88
271.234	115.88
271.466	105.88
271.698	122.88
271.93	103.88
272.162	113.88
272.394	119.88
272.626	106.88
272.858	108.88
273.09	117.88
273.322	93.88
273.553	102.88
273.785	107.88
274.017	99.88
274.249	115.88
274.481	102.88
274.713	108.88
274.945	108.88
275.176	100.88
275.408	113.88
275.64	110.88
275.872	114.88
276.104	109.88
276.335	129.88
276.567	108.88
276.799	114.88
277.031	110.88
277.262	127.88
277.494	116.88
277.726	118.88
277.957	103.88
278.189	109.88
278.421	101.88
278.652	107.88
278.884	103.88
279.115	103.88
279.347	127.88
279.579	124.88
279.81	108.88
280.042	121.88
280.273	113.88
280.505	96.88
280.736	107.88
280.968	113.88
281.199	103.88
281.431	111.88
281.662	113.88
281.894	114.88
282.125	102.88
282.356	102.88
282.588	129.88
282.819	100.88
283.051	119.88
283.282	115.88
283.513	112.88
283.745	116.88
283.976	121.88
284.207	123.88
284.439	111.88
284.67	111.88
284.901	117.88
285.132	120.88
285.364	115.88
285.595	112.88
285.826	110.88
286.057	110.88
286.288	107.88
286.52	119.88
286.751	126.88
286.982	122.88
287.213	116.88
287.444	111.88
287.675	120.88
287.906	127.88
288.138	99.88
288.369	119.88
288.6	122.88
288.831	108.88
289.062	113.88
289.293	126.88
289.524	121.88
289.755	123.88
289.986	125.88
290.217	115.88
290.448	111.88
290.679	130.88
290.91	136.88
291.141	139.88
291.371	129.88
291.602	111.88
291.833	118.88
292.064	127.88
292.295	128.88
292.526	131.88
292.757	125.88
292.987	110.88
293.218	108.88
293.449	118.88
293.68	114.88
293.91	115.88
294.141	130.88
294.372	129.88
294.603	128.88
294.833	114.88
295.064	118.88
295.295	131.88
295.525	122.88
295.756	135.88
295.987	126.88
296.217	115.88
296.448	111.88
296.679	119.88
296.909	133.88
297.14	117.88
297.37	120.88
297.601	116.88
297.831	121.88
298.062	126.88
298.292	129.88
298.523	115.88
298.753	121.88
298.984	128.88
299.214	121.88
299.445	107.88
299.675	136.88
299.905	126.88
300.136	111.88
300.366	126.88
300.597	123.88
300.827	130.88
301.057	130.88
301.288	131.88
301.518	135.88
301.748	117.88
301.979	157.88
302.209	127.88
302.439	121.88
302.669	119.88
302.9	129.88
303.13	139.88
303.36	132.88
303.59	113.88
303.82	113.88
304.051	130.88
304.281	130.88
304.511	144.88
304.741	119.88
304.971	135.88
305.201	123.88
305.431	115.88
305.661	126.88
305.891	105.88
306.121	130.88
306.352	133.88
306.582	137.88
306.812	126.88
307.042	119.88
307.272	144.88
307.502	122.88
307.731	128.88
307.961	125.88
308.191	119.88
308.421	121.88
308.651	130.88
308.881	136.88
309.111	127.88
309.341	138.88
309.571	123.88
309.8	123.88
310.03	115.88
310.26	148.88
310.49	130.88
310.72	130.88
310.949	126.88
311.179	115.88
311.409	124.88
311.639	122.88
311.868	134.88
312.098	142.88
312.328	137.88
312.557	147.88
312.787	141.88
313.017	136.88
313.246	139.88
313.476	139.88
313.706	127.88
313.935	136.88
314.165	143.88
314.394	133.88
314.624	137.88
314.853	127.88
315.083	123.88
315.312	119.88
315.542	140.88
315.771	123.88
316.001	132.88
316.23	138.88
316.46	122.88
316.689	126.88
316.919	130.88
317.148	127.88
317.377	147.88
317.607	133.88
317.836	127.88
318.065	130.88
318.295	136.88
318.524	139.88
318.753	131.88
318.983	134.88
319.212	135.88
319.441	128.88
319.67	122.88
319.9	131.88
320.129	131.88
320.358	135.88
320.587	132.88
320.816	123.88
321.046	123.88
321.275	139.88
321.504	137.88
321.733	120.88
321.962	120.88
322.191	141.88
322.42	135.88
322.649	127.88
322.878	123.88
323.108	141.88
323.337	131.88
323.566	114.88
323.795	139.88
324.024	126.88
324.253	125.88
324.482	138.88
324.71	139.88
324.939	143.88
325.168	140.88
325.397	141.88
325.626	121.88
325.855	135.88
326.084	128.88
326.313	131.88
326.542	147.88
326.77	140.88
326.999	138.88
327.228	147.88
327.457	131.88
327.686	127.88
327.914	148.88
328.143	143.88
328.372	135.88
328.6	124.88
328.829	140.88
329.058	124.88
329.287	131.88
329.515	124.88
329.744	143.88
329.972	120.88
330.201	149.88
330.43	125.88
330.658	138.88
330.887	144.88
331.115	135.88
331.344	129.88
331.572	143.88
331.801	133.88
332.03	136.88
332.258	134.88
332.486	118.88
332.715	160.88
332.943	168.88
333.172	153.88
333.4	154.88
333.629	161.88
333.857	169.88
334.085	170.88
334.314	157.88
334.542	144.88
334.771	144.88
334.999	149.88
335.227	148.88
335.455	133.88
335.684	162.88
335.912	142.88
336.14	140.88
336.369	152.88
336.597	144.88
336.825	145.88
337.053	155.88
337.281	144.88
337.51	143.88
337.738	157.88
337.966	144.88
338.194	133.88
338.422	137.88
338.65	137.88
338.878	136.88
339.106	139.88
339.334	135.88
339.562	136.88
339.79	146.88
340.018	130.88
340.246	137.88
340.474	132.88
340.702	142.88
340.93	139.88
341.158	148.88
341.386	130.88
341.614	147.88
341.842	138.88
342.07	124.88
342.298	135.88
342.526	138.88
342.754	146.88
342.981	142.88
343.209	143.88
343.437	173.88
343.665	149.88
343.893	158.88
344.12	152.88
344.348	164.88
344.576	150.88
344.804	149.88
345.031	160.88
345.259	136.88
345.487	140.88
345.714	126.88
345.942	140.88
346.17	146.88
346.397	132.88
346.625	146.88
346.853	147.88
347.08	123.88
347.308	140.88
347.535	132.88
347.763	131.88
347.99	124.88
348.218	147.88
348.445	147.88
348.673	148.88
348.9	141.88
349.128	147.88
349.355	130.88
349.583	136.88
349.81	147.88
350.037	141.88
350.265	125.88
350.492	130.88
350.72	161.88
350.947	140.88
351.174	130.88
351.402	132.88
351.629	150.88
351.856	140.88
352.083	131.88
352.311	137.88
352.538	124.88
352.765	136.88
352.992	170.88
353.22	131.88
353.447	121.88
353.674	133.88
353.901	142.88
354.128	133.88
354.355	126.88
354.583	142.88
354.81	135.88
355.037	144.88
355.264	130.88
355.491	126.88
355.718	131.88
355.945	147.88
356.172	138.88
356.399	135.88
356.626	137.88
356.853	139.88
357.08	143.88
357.307	151.88
357.534	128.88
357.761	138.88
357.988	152.88
358.215	150.88
358.441	126.88
358.668	144.88
358.895	138.88
359.122	133.88
359.349	131.88
359.576	130.88
359.802	146.88
360.029	134.88
360.256	153.88
360.483	126.88
360.709	131.88
360.936	148.88
361.163	139.88
361.39	140.88
361.616	127.88
361.843	122.88
362.07	140.88
362.296	153.88
362.523	133.88
362.749	130.88
362.976	132.88
363.203	140.88
363.429	134.88
363.656	124.88
363.882	131.88
364.109	149.88
364.335	130.88
364.562	144.88
364.788	136.88
365.015	158.88
365.241	139.88
365.468	152.88
365.694	126.88
365.92	135.88
366.147	139.88
366.373	128.88
366.599	166.88
366.826	135.88
367.052	153.88
367.278	143.88
367.505	133.88
367.731	150.88
367.957	126.88
368.184	135.88
368.41	132.88
368.636	131.88
368.862	136.88
369.089	148.88
369.315	132.88
369.541	133.88
369.767	126.88
369.993	154.88
370.219	142.88
370.445	130.88
370.672	151.88
370.898	144.88
371.124	145.88
371.35	148.88
371.576	137.88
371.802	131.88
372.028	148.88
372.254	142.88
372.48	141.88
372.706	158.88
372.932	148.88
373.158	154.88
373.384	165.88
373.61	149.88
373.835	164.88
374.061	133.88
374.287	145.88
374.513	139.88
374.739	165.88
374.965	158.88
375.191	162.88
375.416	158.88
375.642	137.88
375.868	162.88
376.094	138.88
376.319	150.88
376.545	138.88
376.771	148.88
376.997	150.88
377.222	164.88
377.448	143.88
377.674	140.88
377.899	151.88
378.125	143.88
378.35	146.88
378.576	151.88
378.802	133.88
379.027	140.88
379.253	156.88
379.478	141.88
379.704	143.88
379.929	162.88
380.155	139.88
380.38	153.88
380.606	163.88
380.831	142.88
381.057	160.88
381.282	146.88
381.507	146.88
381.733	148.88
381.958	149.88
382.184	146.88
382.409	142.88
382.634	156.88
382.86	130.88
383.085	155.88
383.31	158.88
383.535	169.88
383.761	154.88
383.986	148.88
384.211	152.88
384.436	160.88
384.662	171.88
384.887	162.88
385.112	162.88
385.337	158.88
385.562	158.88
385.787	171.88
386.013	156.88
386.238	167.88
386.463	167.88
386.688	204.88
386.913	171.88
387.138	165.88
387.363	166.88
387.588	176.88
387.813	172.88
388.038	143.88
388.263	170.88
388.488	165.88
388.713	158.88
388.938	153.88
389.163	155.88
389.387	165.88
389.612	171.88
389.837	158.88
390.062	163.88
390.287	172.88
390.512	175.88
390.736	167.88
390.961	168.88
391.186	170.88
391.411	193.88
391.636	163.88
391.86	174.88
392.085	175.88
392.31	180.88
392.534	164.88
392.759	176.88
392.984	189.88
393.208	182.88
393.433	180.88
393.658	169.88
393.882	184.88
394.107	174.88
394.331	176.88
394.556	158.88
394.78	170.88
395.005	167.88
395.229	177.88
395.454	189.88
395.678	171.88
395.903	161.88
396.127	182.88
396.352	175.88
396.576	168.88
396.801	180.88
397.025	177.88
397.249	167.88
397.474	185.88
397.698	162.88
397.922	179.88
398.147	182.88
398.371	185.88
398.595	194.88
398.82	186.88
399.044	199.88
399.268	216.88
399.492	251.88
399.717	257.88
399.941	242.88
400.165	234.88
400.389	212.88
400.613	190.88
400.837	182.88
401.062	181.88
401.286	188.88
401.51	189.88
401.734	187.88
401.958	186.88
402.182	191.88
402.406	174.88
402.63	193.88
402.854	199.88
403.078	196.88
403.302	187.88
403.526	219.88
403.75	214.88
403.974	212.88
404.198	210.88
404.422	217.88
404.645	208.88
404.869	225.88
405.093	214.88
405.317	205.88
405.541	214.88
405.765	205.88
405.988	202.88
406.212	195.88
406.436	201.88
406.66	223.88
406.883	221.88
407.107	210.88
407.331	212.88
407.555	224.88
407.778	204.88
408.002	221.88
408.226	224.88
408.449	221.88
408.673	232.88
408.896	208.88
409.12	206.88
409.344	214.88
409.567	196.88
409.791	207.88
410.014	222.88
410.238	206.88
410.461	202.88
410.685	201.88
410.908	210.88
411.132	204.88
411.355	176.88
411.578	214.88
411.802	199.88
412.025	207.88
412.249	201.88
412.472	196.88
412.695	199.88
412.919	189.88
413.142	200.88
413.365	222.88
413.589	194.88
413.812	188.88
414.035	192.88
414.258	195.88
414.482	199.88
414.705	206.88
414.928	212.88
415.151	212.88
415.374	204.88
415.597	192.88
415.821	205.88
416.044	189.88
416.267	194.88
416.49	190.88
416.713	195.88
416.936	201.88
417.159	196.88
417.382	189.88
417.605	213.88
417.828	192.88
418.051	210.88
418.274	203.88
418.497	205.88
418.72	210.88
418.943	194.88
419.166	214.88
419.389	219.88
419.611	206.88
419.834	202.88
420.057	217.88
420.28	195.88
420.503	204.88
420.726	209.88
420.948	195.88
421.171	193.88
421.394	202.88
421.617	208.88
421.839	196.88
422.062	205.88
422.285	210.88
422.507	204.88
422.73	196.88
422.953	210.88
423.175	184.88
423.398	210.88
423.621	220.88
423.843	208.88
424.066	219.88
424.288	216.88
424.511	221.88
424.733	222.88
424.956	197.88
425.178	210.88
425.401	199.88
425.623	197.88
425.846	199.88
426.068	200.88
426.291	194.88
426.513	180.88
426.735	201.88
426.958	217.88
427.18	206.88
427.402	190.88
427.625	205.88
427.847	179.88
428.069	184.88
428.292	167.88
428.514	186.88
428.736	178.88
428.958	180.88
429.181	191.88
429.403	184.88
429.625	180.88
429.847	166.88
430.069	178.88
430.292	188.88
430.514	199.88
430.736	186.88
430.958	183.88
431.18	179.88
431.402	200.88
431.624	173.88
431.846	171.88
432.068	163.88
432.29	178.88
432.512	182.88
432.734	187.88
432.956	184.88
433.178	205.88
433.4	188.88
433.622	191.88
433.844	199.88
434.066	196.88
434.287	184.88
434.509	187.88
434.731	184.88
434.953	201.88
435.175	200.88
435.397	199.88
435.618	192.88
435.84	189.88
436.062	186.88
436.284	186.88
436.505	189.88
436.727	170.88
436.949	180.88
437.17	191.88
437.392	173.88
437.614	184.88
437.835	170.88
438.057	154.88
438.278	168.88
438.5	181.88
438.721	200.88
438.943	200.88
439.165	175.88
439.386	194.88
439.608	200.88
439.829	204.88
440.05	196.88
440.272	197.88
440.493	200.88
440.715	201.88
440.936	201.88
441.158	211.88
441.379	215.88
441.6	224.88
441.822	202.88
442.043	206.88
442.264	200.88
442.486	195.88
442.707	202.88
442.928	198.88
443.149	196.88
443.371	187.88
443.592	204.88
443.813	198.88
444.034	211.88
444.255	220.88
444.476	223.88
444.698	231.88
444.919	235.88
445.14	486.88
445.361	347.88
445.582	222.88
445.803	200.88
446.024	187.88
446.245	216.88
446.466	216.88
446.687	204.88
446.908	211.88
447.129	204.88
447.35	187.88
447.571	188.88
447.792	190.88
448.013	192.88
448.234	195.88
448.455	184.88
448.675	188.88
448.896	199.88
449.117	202.88
449.338	192.88
449.559	193.88
449.779	196.88
450	207.88
450.221	184.88
450.442	182.88
450.662	180.88
450.883	189.88
451.104	192.88
451.324	194.88
451.545	196.88
451.766	197.88
451.986	192.88
452.207	186.88
452.428	194.88
452.648	192.88
452.869	187.88
453.089	179.88
453.31	186.88
453.53	160.88
453.751	177.88
453.971	184.88
454.192	175.88
454.412	161.88
454.633	175.88
454.853	173.88
455.073	167.88
455.294	184.88
455.514	177.88
455.734	156.88
455.955	166.88
456.175	166.88
456.395	174.88
456.616	173.88
456.836	163.88
457.056	152.88
457.276	148.88
457.497	174.88
457.717	173.88
457.937	166.88
458.157	164.88
458.377	163.88
458.598	160.88
458.818	176.88
459.038	146.88
459.258	164.88
459.478	166.88
459.698	162.88
459.918	168.88
460.138	188.88
460.358	210.88
460.578	205.88
460.798	201.88
461.018	225.88
461.238	227.88
461.458	195.88
461.678	195.88
461.898	199.88
462.118	218.88
462.338	210.88
462.558	192.88
462.777	206.88
462.997	226.88
463.217	231.88
463.437	252.88
463.657	230.88
463.876	226.88
464.096	230.88
464.316	206.88
464.536	210.88
464.755	205.88
464.975	214.88
465.195	198.88
465.414	204.88
465.634	198.88
465.854	196.88
466.073	188.88
466.293	189.88
466.512	186.88
466.732	184.88
466.951	186.88
467.171	206.88
467.391	202.88
467.61	196.88
467.829	187.88
468.049	196.88
468.268	188.88
468.488	158.88
468.707	181.88
468.927	189.88
469.146	185.88
469.365	193.88
469.585	185.88
469.804	202.88
470.023	207.88
470.243	206.88
470.462	208.88
470.681	206.88
470.901	206.88
471.12	203.88
471.339	179.88
471.558	186.88
471.777	206.88
471.997	183.88
472.216	183.88
472.435	168.88
472.654	185.88
472.873	186.88
473.092	176.88
473.311	198.88
473.53	174.88
473.749	181.88
473.968	171.88
474.187	182.88
474.406	190.88
474.625	183.88
474.844	207.88
475.063	182.88
475.282	183.88
475.501	174.88
475.72	193.88
475.939	182.88
476.158	177.88
476.377	188.88
476.596	176.88
476.814	170.88
477.033	187.88
477.252	186.88
477.471	198.88
477.69	215.88
477.908	201.88
478.127	199.88
478.346	203.88
478.564	198.88
478.783	218.88
479.002	219.88
479.22	204.88
479.439	206.88
479.658	185.88
479.876	190.88
480.095	194.88
480.313	202.88
480.532	201.88
480.751	211.88
480.969	188.88
481.188	175.88
481.406	179.88
481.624	185.88
481.843	171.88
482.061	186.88
482.28	189.88
482.498	186.88
482.717	191.88
482.935	206.88
483.153	211.88
483.372	207.88
483.59	199.88
483.808	202.88
484.027	199.88
484.245	206.88
484.463	203.88
484.681	226.88
484.9	223.88
485.118	200.88
485.336	214.88
485.554	199.88
485.772	188.88
485.99	202.88
486.209	191.88
486.427	203.88
486.645	212.88
486.863	204.88
487.081	207.88
487.299	211.88
487.517	223.88
487.735	231.88
487.953	229.88
488.171	235.88
488.389	209.88
488.607	228.88
488.825	202.88
489.043	209.88
489.261	208.88
489.479	221.88
489.696	203.88
489.914	219.88
490.132	199.88
490.35	218.88
490.568	217.88
490.786	227.88
491.003	223.88
491.221	229.88
491.439	236.88
491.657	232.88
491.874	259.88
492.092	259.88
492.31	255.88
492.527	238.88
492.745	236.88
492.963	247.88
493.18	250.88
493.398	256.88
493.615	232.88
493.833	233.88
494.05	217.88
494.268	233.88
494.485	229.88
494.703	232.88
494.92	229.88
495.138	221.88
495.355	222.88
495.573	223.88
495.79	232.88
496.008	241.88
496.225	229.88
496.442	238.88
496.66	251.88
496.877	238.88
497.094	236.88
497.312	234.88
497.529	238.88
497.746	244.88
497.963	239.88
498.181	243.88
498.398	230.88
498.615	251.88
498.832	255.88
499.049	269.88
499.267	286.88
499.484	288.88
499.701	311.88
499.918	358.88
500.135	404.88
500.352	429.88
500.569	426.88
500.786	435.88
501.003	408.88
501.22	372.88
501.437	335.88
501.654	303.88
501.871	279.88
502.088	251.88
502.305	265.88
502.522	240.88
502.739	243.88
502.956	235.88
503.172	231.88
503.389	216.88
503.606	204.88
503.823	203.88
504.04	217.88
504.256	236.88
504.473	228.88
504.69	224.88
