Data from SampD_HRD10591_00038.txt Node
Date: Mon Jan 19 11:50:28 EST 2026
User: Yrep
Spectrometer: HR+D1059
Trigger mode: 0
Integration Time (sec): 3.443000E-1
Scans to average: 1
Electric dark correction enabled: true
Nonlinearity correction enabled: false
Boxcar width: 0
XAxis mode: Wavelengths
Number of Pixels in Spectrum: 2048
>>>>>Begin Spectral Data<<<<<
223.165	-33.19
223.4	-33.19
223.635	-33.19
223.869	-23.19
224.104	-19.19
224.338	-14.19
224.573	-17.19
224.808	-12.19
225.042	-3.19
225.277	1.81
225.511	1.81
225.746	-2.19
225.98	-4.19
226.215	15.81
226.449	26.81
226.683	0.81
226.918	40.81
227.152	40.81
227.387	24.81
227.621	36.81
227.856	34.81
228.09	37.81
228.324	55.81
228.559	67.81
228.793	61.81
229.027	56.81
229.262	79.81
229.496	75.81
229.73	50.81
229.964	78.81
230.199	72.81
230.433	79.81
230.667	85.81
230.901	76.81
231.136	88.81
231.37	84.81
231.604	67.81
231.838	71.81
232.072	71.81
232.306	77.81
232.541	79.81
232.775	65.81
233.009	81.81
233.243	93.81
233.477	79.81
233.711	71.81
233.945	77.81
234.179	79.81
234.413	90.81
234.647	95.81
234.881	82.81
235.115	91.81
235.349	64.81
235.583	79.81
235.817	86.81
236.051	73.81
236.285	85.81
236.519	90.81
236.753	66.81
236.987	81.81
237.221	83.81
237.455	75.81
237.689	72.81
237.922	90.81
238.156	89.81
238.39	73.81
238.624	72.81
238.858	78.81
239.091	81.81
239.325	85.81
239.559	78.81
239.793	81.81
240.027	85.81
240.26	74.81
240.494	77.81
240.728	84.81
240.961	69.81
241.195	79.81
241.429	86.81
241.662	79.81
241.896	90.81
242.13	74.81
242.363	74.81
242.597	89.81
242.83	77.81
243.064	71.81
243.298	86.81
243.531	69.81
243.765	83.81
243.998	87.81
244.232	85.81
244.465	82.81
244.699	85.81
244.932	83.81
245.166	91.81
245.399	90.81
245.633	95.81
245.866	84.81
246.099	92.81
246.333	91.81
246.566	83.81
246.8	86.81
247.033	86.81
247.266	72.81
247.5	81.81
247.733	91.81
247.966	78.81
248.2	85.81
248.433	88.81
248.666	92.81
248.899	95.81
249.133	86.81
249.366	93.81
249.599	84.81
249.832	92.81
250.066	98.81
250.299	105.81
250.532	84.81
250.765	86.81
250.998	84.81
251.231	95.81
251.465	82.81
251.698	100.81
251.931	86.81
252.164	96.81
252.397	81.81
252.63	88.81
252.863	88.81
253.096	92.81
253.329	105.81
253.562	86.81
253.795	87.81
254.028	93.81
254.261	91.81
254.494	87.81
254.727	87.81
254.96	86.81
255.193	82.81
255.426	95.81
255.659	79.81
255.892	86.81
256.124	97.81
256.357	99.81
256.59	94.81
256.823	77.81
257.056	78.81
257.289	94.81
257.521	97.81
257.754	96.81
257.987	96.81
258.22	86.81
258.452	85.81
258.685	93.81
258.918	96.81
259.151	106.81
259.383	98.81
259.616	91.81
259.849	100.81
260.081	73.81
260.314	99.81
260.547	99.81
260.779	105.81
261.012	98.81
261.244	94.81
261.477	104.81
261.71	99.81
261.942	99.81
262.175	92.81
262.407	85.81
262.64	87.81
262.872	99.81
263.105	83.81
263.337	99.81
263.57	95.81
263.802	94.81
264.035	98.81
264.267	79.81
264.499	101.81
264.732	94.81
264.964	99.81
265.197	91.81
265.429	102.81
265.661	101.81
265.894	97.81
266.126	104.81
266.358	97.81
266.591	103.81
266.823	99.81
267.055	96.81
267.287	114.81
267.52	114.81
267.752	102.81
267.984	95.81
268.216	81.81
268.448	97.81
268.681	101.81
268.913	87.81
269.145	102.81
269.377	114.81
269.609	93.81
269.841	103.81
270.073	97.81
270.306	101.81
270.538	83.81
270.77	89.81
271.002	111.81
271.234	104.81
271.466	95.81
271.698	102.81
271.93	97.81
272.162	93.81
272.394	113.81
272.626	91.81
272.858	87.81
273.09	112.81
273.322	102.81
273.553	99.81
273.785	101.81
274.017	99.81
274.249	117.81
274.481	111.81
274.713	93.81
274.945	106.81
275.176	99.81
275.408	118.81
275.64	116.81
275.872	107.81
276.104	98.81
276.335	99.81
276.567	87.81
276.799	106.81
277.031	93.81
277.262	121.81
277.494	107.81
277.726	97.81
277.957	102.81
278.189	124.81
278.421	106.81
278.652	105.81
278.884	110.81
279.115	108.81
279.347	105.81
279.579	115.81
279.81	110.81
280.042	122.81
280.273	115.81
280.505	103.81
280.736	99.81
280.968	101.81
281.199	102.81
281.431	104.81
281.662	113.81
281.894	117.81
282.125	122.81
282.356	104.81
282.588	102.81
282.819	112.81
283.051	101.81
283.282	97.81
283.513	128.81
283.745	91.81
283.976	121.81
284.207	95.81
284.439	104.81
284.67	116.81
284.901	119.81
285.132	107.81
285.364	112.81
285.595	119.81
285.826	117.81
286.057	115.81
286.288	108.81
286.52	121.81
286.751	104.81
286.982	105.81
287.213	105.81
287.444	126.81
287.675	120.81
287.906	118.81
288.138	117.81
288.369	127.81
288.6	125.81
288.831	113.81
289.062	122.81
289.293	118.81
289.524	110.81
289.755	107.81
289.986	117.81
290.217	111.81
290.448	106.81
290.679	116.81
290.91	123.81
291.141	113.81
291.371	114.81
291.602	107.81
291.833	129.81
292.064	102.81
292.295	117.81
292.526	111.81
292.757	110.81
292.987	121.81
293.218	121.81
293.449	135.81
293.68	125.81
293.91	111.81
294.141	121.81
294.372	114.81
294.603	129.81
294.833	112.81
295.064	127.81
295.295	123.81
295.525	118.81
295.756	118.81
295.987	120.81
296.217	116.81
296.448	115.81
296.679	122.81
296.909	117.81
297.14	125.81
297.37	120.81
297.601	119.81
297.831	101.81
298.062	113.81
298.292	117.81
298.523	123.81
298.753	116.81
298.984	110.81
299.214	110.81
299.445	123.81
299.675	119.81
299.905	119.81
300.136	128.81
300.366	124.81
300.597	127.81
300.827	131.81
301.057	107.81
301.288	114.81
301.518	134.81
301.748	125.81
301.979	170.81
302.209	132.81
302.439	101.81
302.669	118.81
302.9	110.81
303.13	126.81
303.36	126.81
303.59	126.81
303.82	110.81
304.051	114.81
304.281	132.81
304.511	146.81
304.741	113.81
304.971	122.81
305.201	129.81
305.431	120.81
305.661	131.81
305.891	125.81
306.121	126.81
306.352	114.81
306.582	115.81
306.812	123.81
307.042	107.81
307.272	111.81
307.502	109.81
307.731	115.81
307.961	119.81
308.191	113.81
308.421	112.81
308.651	123.81
308.881	134.81
309.111	122.81
309.341	117.81
309.571	128.81
309.8	119.81
310.03	121.81
310.26	122.81
310.49	123.81
310.72	118.81
310.949	108.81
311.179	130.81
311.409	119.81
311.639	102.81
311.868	132.81
312.098	112.81
312.328	130.81
312.557	127.81
312.787	131.81
313.017	116.81
313.246	134.81
313.476	134.81
313.706	132.81
313.935	114.81
314.165	119.81
314.394	118.81
314.624	134.81
314.853	134.81
315.083	109.81
315.312	113.81
315.542	130.81
315.771	113.81
316.001	125.81
316.23	120.81
316.46	127.81
316.689	114.81
316.919	125.81
317.148	99.81
317.377	135.81
317.607	121.81
317.836	112.81
318.065	132.81
318.295	129.81
318.524	116.81
318.753	119.81
318.983	112.81
319.212	131.81
319.441	141.81
319.67	126.81
319.9	128.81
320.129	123.81
320.358	150.81
320.587	123.81
320.816	135.81
321.046	125.81
321.275	125.81
321.504	119.81
321.733	113.81
321.962	116.81
322.191	125.81
322.42	123.81
322.649	121.81
322.878	124.81
323.108	134.81
323.337	122.81
323.566	118.81
323.795	125.81
324.024	117.81
324.253	132.81
324.482	121.81
324.71	139.81
324.939	118.81
325.168	128.81
325.397	122.81
325.626	131.81
325.855	120.81
326.084	119.81
326.313	130.81
326.542	124.81
326.77	128.81
326.999	142.81
327.228	129.81
327.457	131.81
327.686	115.81
327.914	122.81
328.143	141.81
328.372	136.81
328.6	118.81
328.829	123.81
329.058	138.81
329.287	121.81
329.515	119.81
329.744	128.81
329.972	138.81
330.201	154.81
330.43	120.81
330.658	123.81
330.887	136.81
331.115	133.81
331.344	123.81
331.572	139.81
331.801	128.81
332.03	141.81
332.258	141.81
332.486	135.81
332.715	132.81
332.943	135.81
333.172	143.81
333.4	154.81
333.629	146.81
333.857	142.81
334.085	142.81
334.314	134.81
334.542	144.81
334.771	142.81
334.999	141.81
335.227	141.81
335.455	122.81
335.684	155.81
335.912	138.81
336.14	142.81
336.369	141.81
336.597	150.81
336.825	144.81
337.053	128.81
337.281	139.81
337.51	130.81
337.738	136.81
337.966	117.81
338.194	134.81
338.422	150.81
338.65	139.81
338.878	139.81
339.106	139.81
339.334	128.81
339.562	137.81
339.79	132.81
340.018	141.81
340.246	134.81
340.474	128.81
340.702	132.81
340.93	137.81
341.158	102.81
341.386	133.81
341.614	128.81
341.842	130.81
342.07	130.81
342.298	131.81
342.526	126.81
342.754	136.81
342.981	123.81
343.209	125.81
343.437	174.81
343.665	151.81
343.893	136.81
344.12	157.81
344.348	141.81
344.576	124.81
344.804	126.81
345.031	129.81
345.259	120.81
345.487	136.81
345.714	123.81
345.942	136.81
346.17	119.81
346.397	121.81
346.625	122.81
346.853	119.81
347.08	134.81
347.308	136.81
347.535	138.81
347.763	120.81
347.99	123.81
348.218	146.81
348.445	130.81
348.673	127.81
348.9	126.81
349.128	130.81
349.355	119.81
349.583	113.81
349.81	122.81
350.037	119.81
350.265	125.81
350.492	119.81
350.72	123.81
350.947	111.81
351.174	116.81
351.402	126.81
351.629	130.81
351.856	123.81
352.083	124.81
352.311	129.81
352.538	121.81
352.765	132.81
352.992	151.81
353.22	133.81
353.447	123.81
353.674	132.81
353.901	125.81
354.128	127.81
354.355	126.81
354.583	118.81
354.81	122.81
355.037	123.81
355.264	136.81
355.491	126.81
355.718	125.81
355.945	118.81
356.172	122.81
356.399	111.81
356.626	135.81
356.853	139.81
357.08	127.81
357.307	126.81
357.534	114.81
357.761	125.81
357.988	122.81
358.215	137.81
358.441	130.81
358.668	123.81
358.895	141.81
359.122	144.81
359.349	134.81
359.576	116.81
359.802	118.81
360.029	129.81
360.256	132.81
360.483	142.81
360.709	116.81
360.936	130.81
361.163	134.81
361.39	132.81
361.616	127.81
361.843	137.81
362.07	122.81
362.296	119.81
362.523	137.81
362.749	132.81
362.976	145.81
363.203	139.81
363.429	115.81
363.656	142.81
363.882	128.81
364.109	142.81
364.335	137.81
364.562	135.81
364.788	136.81
365.015	135.81
365.241	125.81
365.468	110.81
365.694	113.81
365.92	126.81
366.147	128.81
366.373	121.81
366.599	139.81
366.826	121.81
367.052	133.81
367.278	123.81
367.505	134.81
367.731	151.81
367.957	131.81
368.184	131.81
368.41	126.81
368.636	123.81
368.862	151.81
369.089	133.81
369.315	125.81
369.541	120.81
369.767	132.81
369.993	151.81
370.219	138.81
370.445	132.81
370.672	138.81
370.898	142.81
371.124	131.81
371.35	149.81
371.576	128.81
371.802	120.81
372.028	126.81
372.254	137.81
372.48	150.81
372.706	137.81
372.932	147.81
373.158	137.81
373.384	139.81
373.61	145.81
373.835	134.81
374.061	127.81
374.287	155.81
374.513	146.81
374.739	134.81
374.965	149.81
375.191	125.81
375.416	130.81
375.642	126.81
375.868	124.81
376.094	160.81
376.319	130.81
376.545	115.81
376.771	131.81
376.997	130.81
377.222	131.81
377.448	122.81
377.674	121.81
377.899	129.81
378.125	125.81
378.35	132.81
378.576	126.81
378.802	136.81
379.027	141.81
379.253	144.81
379.478	131.81
379.704	122.81
379.929	122.81
380.155	125.81
380.38	135.81
380.606	153.81
380.831	134.81
381.057	146.81
381.282	133.81
381.507	132.81
381.733	143.81
381.958	131.81
382.184	120.81
382.409	146.81
382.634	162.81
382.86	154.81
383.085	151.81
383.31	155.81
383.535	152.81
383.761	152.81
383.986	143.81
384.211	166.81
384.436	146.81
384.662	149.81
384.887	158.81
385.112	169.81
385.337	139.81
385.562	145.81
385.787	144.81
386.013	150.81
386.238	160.81
386.463	160.81
386.688	190.81
386.913	150.81
387.138	154.81
387.363	154.81
387.588	159.81
387.813	153.81
388.038	145.81
388.263	138.81
388.488	169.81
388.713	154.81
388.938	159.81
389.163	162.81
389.387	161.81
389.612	155.81
389.837	141.81
390.062	176.81
390.287	165.81
390.512	164.81
390.736	149.81
390.961	141.81
391.186	183.81
391.411	165.81
391.636	165.81
391.86	166.81
392.085	161.81
392.31	174.81
392.534	138.81
392.759	175.81
392.984	164.81
393.208	161.81
393.433	167.81
393.658	170.81
393.882	173.81
394.107	169.81
394.331	172.81
394.556	157.81
394.78	170.81
395.005	155.81
395.229	182.81
395.454	163.81
395.678	167.81
395.903	161.81
396.127	169.81
396.352	166.81
396.576	166.81
396.801	149.81
397.025	165.81
397.249	178.81
397.474	173.81
397.698	171.81
397.922	171.81
398.147	161.81
398.371	154.81
398.595	164.81
398.82	173.81
399.044	191.81
399.268	188.81
399.492	216.81
399.717	224.81
399.941	218.81
400.165	211.81
400.389	187.81
400.613	190.81
400.837	183.81
401.062	193.81
401.286	191.81
401.51	181.81
401.734	171.81
401.958	184.81
402.182	181.81
402.406	207.81
402.63	176.81
402.854	179.81
403.078	195.81
403.302	206.81
403.526	199.81
403.75	195.81
403.974	190.81
404.198	205.81
404.422	203.81
404.645	194.81
404.869	198.81
405.093	198.81
405.317	195.81
405.541	203.81
405.765	194.81
405.988	204.81
406.212	180.81
406.436	199.81
406.66	198.81
406.883	193.81
407.107	205.81
407.331	218.81
407.555	204.81
407.778	203.81
408.002	203.81
408.226	215.81
408.449	208.81
408.673	189.81
408.896	193.81
409.12	201.81
409.344	184.81
409.567	194.81
409.791	208.81
410.014	201.81
410.238	199.81
410.461	198.81
410.685	182.81
410.908	194.81
411.132	208.81
411.355	176.81
411.578	178.81
411.802	198.81
412.025	189.81
412.249	196.81
412.472	194.81
412.695	190.81
412.919	190.81
413.142	190.81
413.365	190.81
413.589	198.81
413.812	178.81
414.035	178.81
414.258	186.81
414.482	169.81
414.705	186.81
414.928	194.81
415.151	174.81
415.374	186.81
415.597	181.81
415.821	168.81
416.044	169.81
416.267	186.81
416.49	181.81
416.713	193.81
416.936	186.81
417.159	197.81
417.382	190.81
417.605	185.81
417.828	205.81
418.051	180.81
418.274	193.81
418.497	191.81
418.72	195.81
418.943	207.81
419.166	215.81
419.389	211.81
419.611	202.81
419.834	197.81
420.057	192.81
420.28	193.81
420.503	191.81
420.726	185.81
420.948	191.81
421.171	190.81
421.394	206.81
421.617	190.81
421.839	178.81
422.062	190.81
422.285	203.81
422.507	185.81
422.73	194.81
422.953	175.81
423.175	201.81
423.398	221.81
423.621	193.81
423.843	188.81
424.066	198.81
424.288	198.81
424.511	198.81
424.733	190.81
424.956	185.81
425.178	215.81
425.401	193.81
425.623	192.81
425.846	197.81
426.068	186.81
426.291	179.81
426.513	189.81
426.735	185.81
426.958	169.81
427.18	166.81
427.402	190.81
427.625	176.81
427.847	180.81
428.069	175.81
428.292	177.81
428.514	185.81
428.736	191.81
428.958	174.81
429.181	183.81
429.403	173.81
429.625	181.81
429.847	183.81
430.069	176.81
430.292	192.81
430.514	183.81
430.736	182.81
430.958	193.81
431.18	187.81
431.402	166.81
431.624	163.81
431.846	166.81
432.068	169.81
432.29	184.81
432.512	190.81
432.734	157.81
432.956	189.81
433.178	189.81
433.4	184.81
433.622	207.81
433.844	183.81
434.066	177.81
434.287	170.81
434.509	159.81
434.731	186.81
434.953	189.81
435.175	185.81
435.397	175.81
435.618	155.81
435.84	177.81
436.062	172.81
436.284	186.81
436.505	176.81
436.727	175.81
436.949	188.81
437.17	170.81
437.392	193.81
437.614	170.81
437.835	154.81
438.057	178.81
438.278	169.81
438.5	161.81
438.721	204.81
438.943	189.81
439.165	186.81
439.386	205.81
439.608	196.81
439.829	177.81
440.05	185.81
440.272	191.81
440.493	183.81
440.715	208.81
440.936	191.81
441.158	185.81
441.379	211.81
441.6	198.81
441.822	212.81
442.043	209.81
442.264	194.81
442.486	197.81
442.707	195.81
442.928	184.81
443.149	217.81
443.371	198.81
443.592	194.81
443.813	197.81
444.034	199.81
444.255	212.81
444.476	209.81
444.698	227.81
444.919	208.81
445.14	399.81
445.361	280.81
445.582	211.81
445.803	205.81
446.024	210.81
446.245	213.81
446.466	207.81
446.687	205.81
446.908	191.81
447.129	189.81
447.35	194.81
447.571	199.81
447.792	192.81
448.013	180.81
448.234	169.81
448.455	177.81
448.675	168.81
448.896	160.81
449.117	177.81
449.338	180.81
449.559	191.81
449.779	181.81
450	165.81
450.221	186.81
450.442	180.81
450.662	181.81
450.883	170.81
451.104	178.81
451.324	174.81
451.545	189.81
451.766	163.81
451.986	181.81
452.207	163.81
452.428	181.81
452.648	179.81
452.869	175.81
453.089	167.81
453.31	161.81
453.53	156.81
453.751	161.81
453.971	155.81
454.192	167.81
454.412	168.81
454.633	159.81
454.853	169.81
455.073	161.81
455.294	164.81
455.514	171.81
455.734	182.81
455.955	153.81
456.175	153.81
456.395	160.81
456.616	165.81
456.836	167.81
457.056	159.81
457.276	138.81
457.497	160.81
457.717	155.81
457.937	157.81
458.157	149.81
458.377	144.81
458.598	165.81
458.818	155.81
459.038	146.81
459.258	157.81
459.478	157.81
459.698	166.81
459.918	173.81
460.138	171.81
460.358	192.81
460.578	205.81
460.798	202.81
461.018	191.81
461.238	187.81
461.458	205.81
461.678	182.81
461.898	191.81
462.118	199.81
462.338	208.81
462.558	201.81
462.777	206.81
462.997	200.81
463.217	233.81
463.437	225.81
463.657	195.81
463.876	215.81
464.096	213.81
464.316	203.81
464.536	206.81
464.755	189.81
464.975	202.81
465.195	193.81
465.414	189.81
465.634	197.81
465.854	172.81
466.073	180.81
466.293	188.81
466.512	171.81
466.732	168.81
466.951	162.81
467.171	185.81
467.391	198.81
467.61	174.81
467.829	177.81
468.049	161.81
468.268	178.81
468.488	182.81
468.707	181.81
468.927	165.81
469.146	167.81
469.365	192.81
469.585	191.81
469.804	193.81
470.023	199.81
470.243	189.81
470.462	191.81
470.681	210.81
470.901	181.81
471.12	174.81
471.339	177.81
471.558	189.81
471.777	195.81
471.997	185.81
472.216	198.81
472.435	178.81
472.654	169.81
472.873	179.81
473.092	172.81
473.311	181.81
473.53	193.81
473.749	163.81
473.968	194.81
474.187	179.81
474.406	154.81
474.625	178.81
474.844	172.81
475.063	179.81
475.282	172.81
475.501	158.81
475.72	177.81
475.939	161.81
476.158	167.81
476.377	167.81
476.596	179.81
476.814	168.81
477.033	179.81
477.252	188.81
477.471	184.81
477.69	162.81
477.908	207.81
478.127	187.81
478.346	185.81
478.564	193.81
478.783	199.81
479.002	204.81
479.22	184.81
479.439	192.81
479.658	189.81
479.876	184.81
480.095	191.81
480.313	193.81
480.532	209.81
480.751	213.81
480.969	174.81
481.188	174.81
481.406	166.81
481.624	166.81
481.843	168.81
482.061	158.81
482.28	179.81
482.498	197.81
482.717	164.81
482.935	166.81
483.153	191.81
483.372	209.81
483.59	186.81
483.808	182.81
484.027	201.81
484.245	193.81
484.463	209.81
484.681	214.81
484.9	202.81
485.118	198.81
485.336	176.81
485.554	179.81
485.772	170.81
485.99	179.81
486.209	193.81
486.427	188.81
486.645	219.81
486.863	202.81
487.081	206.81
487.299	224.81
487.517	207.81
487.735	200.81
487.953	235.81
488.171	221.81
488.389	213.81
488.607	193.81
488.825	197.81
489.043	190.81
489.261	195.81
489.479	209.81
489.696	214.81
489.914	200.81
490.132	196.81
490.35	210.81
490.568	214.81
490.786	213.81
491.003	233.81
491.221	258.81
491.439	225.81
491.657	221.81
491.874	237.81
492.092	240.81
492.31	267.81
492.527	244.81
492.745	234.81
492.963	237.81
493.18	214.81
493.398	230.81
493.615	222.81
493.833	222.81
494.05	224.81
494.268	226.81
494.485	227.81
494.703	202.81
494.92	224.81
495.138	213.81
495.355	229.81
495.573	234.81
495.79	212.81
496.008	244.81
496.225	237.81
496.442	210.81
496.66	237.81
496.877	226.81
497.094	237.81
497.312	227.81
497.529	237.81
497.746	231.81
497.963	208.81
498.181	227.81
498.398	235.81
498.615	240.81
498.832	250.81
499.049	233.81
499.267	269.81
499.484	279.81
499.701	303.81
499.918	336.81
500.135	365.81
500.352	401.81
500.569	407.81
500.786	401.81
501.003	388.81
501.22	339.81
501.437	303.81
501.654	285.81
501.871	270.81
502.088	255.81
502.305	263.81
502.522	242.81
502.739	242.81
502.956	229.81
503.172	216.81
503.389	208.81
503.606	207.81
503.823	211.81
504.04	219.81
504.256	217.81
504.473	198.81
504.69	226.81
504.907	228.81
505.123	195.81
