Data from SampD_HRD10591_00075.txt Node
Date: Mon Jan 19 11:50:41 EST 2026
User: Yrep
Spectrometer: HR+D1059
Trigger mode: 0
Integration Time (sec): 3.443000E-1
Scans to average: 1
Electric dark correction enabled: true
Nonlinearity correction enabled: false
Boxcar width: 0
XAxis mode: Wavelengths
Number of Pixels in Spectrum: 2048
>>>>>Begin Spectral Data<<<<<
223.165	-27.38
223.4	-27.38
223.635	-27.38
223.869	-31.38
224.104	-26.38
224.338	-19.38
224.573	-11.38
224.808	-12.38
225.042	-8.38
225.277	-3.38
225.511	-1.38
225.746	9.62
225.98	32.62
226.215	10.62
226.449	11.62
226.683	19.62
226.918	31.62
227.152	25.62
227.387	48.62
227.621	46.62
227.856	38.62
228.09	43.62
228.324	45.62
228.559	61.62
228.793	52.62
229.027	69.62
229.262	71.62
229.496	69.62
229.73	65.62
229.964	80.62
230.199	84.62
230.433	77.62
230.667	72.62
230.901	90.62
231.136	68.62
231.37	86.62
231.604	94.62
231.838	79.62
232.072	92.62
232.306	87.62
232.541	87.62
232.775	75.62
233.009	76.62
233.243	97.62
233.477	80.62
233.711	85.62
233.945	76.62
234.179	83.62
234.413	84.62
234.647	103.62
234.881	84.62
235.115	90.62
235.349	88.62
235.583	85.62
235.817	76.62
236.051	94.62
236.285	90.62
236.519	90.62
236.753	89.62
236.987	79.62
237.221	90.62
237.455	82.62
237.689	80.62
237.922	102.62
238.156	84.62
238.39	79.62
238.624	78.62
238.858	80.62
239.091	79.62
239.325	85.62
239.559	100.62
239.793	99.62
240.027	95.62
240.26	104.62
240.494	98.62
240.728	78.62
240.961	87.62
241.195	83.62
241.429	95.62
241.662	85.62
241.896	90.62
242.13	80.62
242.363	86.62
242.597	78.62
242.83	77.62
243.064	104.62
243.298	93.62
243.531	92.62
243.765	94.62
243.998	98.62
244.232	97.62
244.465	95.62
244.699	83.62
244.932	91.62
245.166	85.62
245.399	85.62
245.633	99.62
245.866	105.62
246.099	98.62
246.333	99.62
246.566	105.62
246.8	96.62
247.033	102.62
247.266	87.62
247.5	101.62
247.733	101.62
247.966	102.62
248.2	91.62
248.433	96.62
248.666	89.62
248.899	88.62
249.133	87.62
249.366	110.62
249.599	85.62
249.832	85.62
250.066	101.62
250.299	102.62
250.532	90.62
250.765	101.62
250.998	94.62
251.231	88.62
251.465	87.62
251.698	103.62
251.931	82.62
252.164	86.62
252.397	100.62
252.63	100.62
252.863	90.62
253.096	85.62
253.329	85.62
253.562	78.62
253.795	100.62
254.028	93.62
254.261	79.62
254.494	92.62
254.727	108.62
254.96	96.62
255.193	94.62
255.426	88.62
255.659	88.62
255.892	102.62
256.124	104.62
256.357	107.62
256.59	102.62
256.823	98.62
257.056	105.62
257.289	102.62
257.521	102.62
257.754	92.62
257.987	104.62
258.22	96.62
258.452	101.62
258.685	101.62
258.918	108.62
259.151	87.62
259.383	95.62
259.616	93.62
259.849	96.62
260.081	85.62
260.314	99.62
260.547	95.62
260.779	97.62
261.012	95.62
261.244	87.62
261.477	111.62
261.71	87.62
261.942	99.62
262.175	98.62
262.407	104.62
262.64	96.62
262.872	107.62
263.105	90.62
263.337	125.62
263.57	85.62
263.802	109.62
264.035	100.62
264.267	94.62
264.499	116.62
264.732	104.62
264.964	115.62
265.197	114.62
265.429	106.62
265.661	106.62
265.894	93.62
266.126	100.62
266.358	95.62
266.591	96.62
266.823	111.62
267.055	92.62
267.287	101.62
267.52	94.62
267.752	109.62
267.984	110.62
268.216	108.62
268.448	129.62
268.681	112.62
268.913	111.62
269.145	103.62
269.377	98.62
269.609	118.62
269.841	104.62
270.073	95.62
270.306	107.62
270.538	110.62
270.77	93.62
271.002	102.62
271.234	120.62
271.466	116.62
271.698	115.62
271.93	118.62
272.162	99.62
272.394	103.62
272.626	102.62
272.858	100.62
273.09	105.62
273.322	106.62
273.553	108.62
273.785	94.62
274.017	115.62
274.249	107.62
274.481	103.62
274.713	115.62
274.945	122.62
275.176	99.62
275.408	102.62
275.64	100.62
275.872	95.62
276.104	122.62
276.335	95.62
276.567	117.62
276.799	112.62
277.031	99.62
277.262	93.62
277.494	117.62
277.726	109.62
277.957	106.62
278.189	106.62
278.421	108.62
278.652	116.62
278.884	126.62
279.115	113.62
279.347	120.62
279.579	116.62
279.81	104.62
280.042	115.62
280.273	108.62
280.505	101.62
280.736	104.62
280.968	109.62
281.199	128.62
281.431	114.62
281.662	107.62
281.894	112.62
282.125	98.62
282.356	114.62
282.588	106.62
282.819	113.62
283.051	104.62
283.282	124.62
283.513	122.62
283.745	128.62
283.976	112.62
284.207	118.62
284.439	133.62
284.67	121.62
284.901	115.62
285.132	127.62
285.364	115.62
285.595	103.62
285.826	117.62
286.057	114.62
286.288	107.62
286.52	134.62
286.751	104.62
286.982	112.62
287.213	120.62
287.444	117.62
287.675	125.62
287.906	123.62
288.138	116.62
288.369	114.62
288.6	118.62
288.831	111.62
289.062	130.62
289.293	127.62
289.524	124.62
289.755	107.62
289.986	129.62
290.217	130.62
290.448	127.62
290.679	107.62
290.91	135.62
291.141	121.62
291.371	142.62
291.602	118.62
291.833	119.62
292.064	116.62
292.295	124.62
292.526	131.62
292.757	125.62
292.987	116.62
293.218	106.62
293.449	102.62
293.68	124.62
293.91	124.62
294.141	117.62
294.372	107.62
294.603	103.62
294.833	120.62
295.064	114.62
295.295	101.62
295.525	115.62
295.756	126.62
295.987	124.62
296.217	117.62
296.448	121.62
296.679	118.62
296.909	122.62
297.14	110.62
297.37	124.62
297.601	123.62
297.831	108.62
298.062	127.62
298.292	131.62
298.523	127.62
298.753	122.62
298.984	126.62
299.214	131.62
299.445	130.62
299.675	125.62
299.905	131.62
300.136	128.62
300.366	119.62
300.597	119.62
300.827	120.62
301.057	120.62
301.288	131.62
301.518	123.62
301.748	137.62
301.979	168.62
302.209	120.62
302.439	117.62
302.669	125.62
302.9	108.62
303.13	132.62
303.36	125.62
303.59	124.62
303.82	133.62
304.051	132.62
304.281	125.62
304.511	127.62
304.741	129.62
304.971	117.62
305.201	118.62
305.431	134.62
305.661	129.62
305.891	118.62
306.121	126.62
306.352	118.62
306.582	133.62
306.812	129.62
307.042	130.62
307.272	132.62
307.502	131.62
307.731	128.62
307.961	131.62
308.191	126.62
308.421	118.62
308.651	139.62
308.881	121.62
309.111	138.62
309.341	121.62
309.571	130.62
309.8	126.62
310.03	125.62
310.26	123.62
310.49	118.62
310.72	125.62
310.949	120.62
311.179	139.62
311.409	125.62
311.639	102.62
311.868	134.62
312.098	134.62
312.328	127.62
312.557	141.62
312.787	129.62
313.017	136.62
313.246	124.62
313.476	128.62
313.706	127.62
313.935	129.62
314.165	110.62
314.394	121.62
314.624	120.62
314.853	133.62
315.083	110.62
315.312	139.62
315.542	129.62
315.771	138.62
316.001	131.62
316.23	129.62
316.46	118.62
316.689	142.62
316.919	123.62
317.148	138.62
317.377	129.62
317.607	134.62
317.836	124.62
318.065	112.62
318.295	118.62
318.524	128.62
318.753	125.62
318.983	128.62
319.212	118.62
319.441	114.62
319.67	121.62
319.9	135.62
320.129	125.62
320.358	127.62
320.587	127.62
320.816	125.62
321.046	125.62
321.275	134.62
321.504	110.62
321.733	132.62
321.962	131.62
322.191	128.62
322.42	121.62
322.649	144.62
322.878	126.62
323.108	133.62
323.337	132.62
323.566	135.62
323.795	125.62
324.024	143.62
324.253	133.62
324.482	132.62
324.71	135.62
324.939	132.62
325.168	133.62
325.397	147.62
325.626	130.62
325.855	124.62
326.084	137.62
326.313	134.62
326.542	137.62
326.77	128.62
326.999	137.62
327.228	126.62
327.457	124.62
327.686	120.62
327.914	150.62
328.143	149.62
328.372	130.62
328.6	133.62
328.829	149.62
329.058	132.62
329.287	132.62
329.515	134.62
329.744	140.62
329.972	137.62
330.201	150.62
330.43	134.62
330.658	142.62
330.887	143.62
331.115	135.62
331.344	134.62
331.572	135.62
331.801	125.62
332.03	140.62
332.258	152.62
332.486	126.62
332.715	152.62
332.943	168.62
333.172	155.62
333.4	142.62
333.629	152.62
333.857	162.62
334.085	170.62
334.314	149.62
334.542	155.62
334.771	147.62
334.999	145.62
335.227	148.62
335.455	142.62
335.684	156.62
335.912	147.62
336.14	153.62
336.369	147.62
336.597	160.62
336.825	138.62
337.053	139.62
337.281	146.62
337.51	126.62
337.738	140.62
337.966	135.62
338.194	128.62
338.422	127.62
338.65	140.62
338.878	126.62
339.106	127.62
339.334	152.62
339.562	131.62
339.79	143.62
340.018	139.62
340.246	125.62
340.474	138.62
340.702	136.62
340.93	136.62
341.158	141.62
341.386	128.62
341.614	129.62
341.842	112.62
342.07	126.62
342.298	130.62
342.526	138.62
342.754	132.62
342.981	128.62
343.209	137.62
343.437	176.62
343.665	151.62
343.893	158.62
344.12	155.62
344.348	152.62
344.576	148.62
344.804	140.62
345.031	129.62
345.259	136.62
345.487	144.62
345.714	145.62
345.942	125.62
346.17	126.62
346.397	136.62
346.625	130.62
346.853	135.62
347.08	130.62
347.308	137.62
347.535	143.62
347.763	121.62
347.99	131.62
348.218	133.62
348.445	127.62
348.673	146.62
348.9	150.62
349.128	135.62
349.355	131.62
349.583	123.62
349.81	136.62
350.037	134.62
350.265	137.62
350.492	126.62
350.72	121.62
350.947	140.62
351.174	133.62
351.402	128.62
351.629	123.62
351.856	142.62
352.083	146.62
352.311	136.62
352.538	130.62
352.765	139.62
352.992	148.62
353.22	127.62
353.447	121.62
353.674	141.62
353.901	135.62
354.128	136.62
354.355	131.62
354.583	126.62
354.81	130.62
355.037	148.62
355.264	134.62
355.491	148.62
355.718	136.62
355.945	137.62
356.172	134.62
356.399	133.62
356.626	135.62
356.853	133.62
357.08	157.62
357.307	129.62
357.534	104.62
357.761	121.62
357.988	128.62
358.215	136.62
358.441	137.62
358.668	124.62
358.895	112.62
359.122	140.62
359.349	142.62
359.576	127.62
359.802	138.62
360.029	126.62
360.256	138.62
360.483	117.62
360.709	133.62
360.936	136.62
361.163	145.62
361.39	114.62
361.616	132.62
361.843	140.62
362.07	132.62
362.296	121.62
362.523	125.62
362.749	119.62
362.976	129.62
363.203	141.62
363.429	133.62
363.656	150.62
363.882	132.62
364.109	135.62
364.335	140.62
364.562	139.62
364.788	115.62
365.015	140.62
365.241	128.62
365.468	130.62
365.694	127.62
365.92	131.62
366.147	130.62
366.373	137.62
366.599	140.62
366.826	131.62
367.052	127.62
367.278	146.62
367.505	141.62
367.731	162.62
367.957	132.62
368.184	140.62
368.41	151.62
368.636	132.62
368.862	149.62
369.089	134.62
369.315	140.62
369.541	151.62
369.767	130.62
369.993	138.62
370.219	150.62
370.445	135.62
370.672	156.62
370.898	142.62
371.124	145.62
371.35	152.62
371.576	145.62
371.802	126.62
372.028	151.62
372.254	148.62
372.48	133.62
372.706	151.62
372.932	154.62
373.158	150.62
373.384	164.62
373.61	131.62
373.835	141.62
374.061	144.62
374.287	150.62
374.513	139.62
374.739	152.62
374.965	150.62
375.191	133.62
375.416	142.62
375.642	166.62
375.868	144.62
376.094	148.62
376.319	141.62
376.545	136.62
376.771	151.62
376.997	138.62
377.222	136.62
377.448	141.62
377.674	139.62
377.899	146.62
378.125	141.62
378.35	161.62
378.576	139.62
378.802	150.62
379.027	160.62
379.253	141.62
379.478	137.62
379.704	152.62
379.929	154.62
380.155	141.62
380.38	136.62
380.606	153.62
380.831	148.62
381.057	151.62
381.282	151.62
381.507	144.62
381.733	155.62
381.958	152.62
382.184	169.62
382.409	151.62
382.634	160.62
382.86	146.62
383.085	132.62
383.31	160.62
383.535	162.62
383.761	164.62
383.986	149.62
384.211	150.62
384.436	160.62
384.662	156.62
384.887	167.62
385.112	157.62
385.337	171.62
385.562	160.62
385.787	166.62
386.013	156.62
386.238	157.62
386.463	153.62
386.688	188.62
386.913	162.62
387.138	163.62
387.363	171.62
387.588	162.62
387.813	178.62
388.038	164.62
388.263	157.62
388.488	166.62
388.713	152.62
388.938	140.62
389.163	157.62
389.387	162.62
389.612	161.62
389.837	167.62
390.062	166.62
390.287	143.62
390.512	169.62
390.736	158.62
390.961	162.62
391.186	183.62
391.411	184.62
391.636	172.62
391.86	166.62
392.085	172.62
392.31	166.62
392.534	162.62
392.759	176.62
392.984	165.62
393.208	166.62
393.433	155.62
393.658	167.62
393.882	151.62
394.107	177.62
394.331	167.62
394.556	164.62
394.78	186.62
395.005	172.62
395.229	178.62
395.454	189.62
395.678	168.62
395.903	173.62
396.127	167.62
396.352	168.62
396.576	162.62
396.801	159.62
397.025	156.62
397.249	174.62
397.474	170.62
397.698	170.62
397.922	174.62
398.147	186.62
398.371	166.62
398.595	186.62
398.82	194.62
399.044	191.62
399.268	211.62
399.492	232.62
399.717	230.62
399.941	215.62
400.165	226.62
400.389	198.62
400.613	197.62
400.837	190.62
401.062	191.62
401.286	198.62
401.51	196.62
401.734	174.62
401.958	186.62
402.182	190.62
402.406	183.62
402.63	185.62
402.854	188.62
403.078	206.62
403.302	212.62
403.526	201.62
403.75	219.62
403.974	201.62
404.198	213.62
404.422	195.62
404.645	187.62
404.869	202.62
405.093	203.62
405.317	187.62
405.541	189.62
405.765	206.62
405.988	207.62
406.212	222.62
406.436	190.62
406.66	216.62
406.883	209.62
407.107	206.62
407.331	204.62
407.555	214.62
407.778	194.62
408.002	225.62
408.226	222.62
408.449	206.62
408.673	184.62
408.896	208.62
409.12	207.62
409.344	201.62
409.567	203.62
409.791	207.62
410.014	190.62
410.238	216.62
410.461	197.62
410.685	195.62
410.908	195.62
411.132	216.62
411.355	213.62
411.578	189.62
411.802	202.62
412.025	193.62
412.249	210.62
412.472	204.62
412.695	201.62
412.919	190.62
413.142	201.62
413.365	204.62
413.589	195.62
413.812	191.62
414.035	195.62
414.258	193.62
414.482	194.62
414.705	197.62
414.928	196.62
415.151	209.62
415.374	201.62
415.597	196.62
415.821	194.62
416.044	177.62
416.267	185.62
416.49	189.62
416.713	193.62
416.936	187.62
417.159	204.62
417.382	186.62
417.605	190.62
417.828	203.62
418.051	194.62
418.274	223.62
418.497	208.62
418.72	189.62
418.943	195.62
419.166	224.62
419.389	211.62
419.611	219.62
419.834	197.62
420.057	187.62
420.28	199.62
420.503	203.62
420.726	182.62
420.948	174.62
421.171	191.62
421.394	191.62
421.617	197.62
421.839	212.62
422.062	212.62
422.285	201.62
422.507	198.62
422.73	196.62
422.953	206.62
423.175	195.62
423.398	199.62
423.621	205.62
423.843	204.62
424.066	206.62
424.288	192.62
424.511	195.62
424.733	199.62
424.956	199.62
425.178	199.62
425.401	186.62
425.623	215.62
425.846	192.62
426.068	189.62
426.291	179.62
426.513	195.62
426.735	182.62
426.958	195.62
427.18	181.62
427.402	182.62
427.625	174.62
427.847	191.62
428.069	182.62
428.292	185.62
428.514	177.62
428.736	190.62
428.958	193.62
429.181	184.62
429.403	172.62
429.625	183.62
429.847	174.62
430.069	189.62
430.292	195.62
430.514	189.62
430.736	173.62
430.958	177.62
431.18	185.62
431.402	186.62
431.624	187.62
431.846	170.62
432.068	188.62
432.29	184.62
432.512	181.62
432.734	182.62
432.956	202.62
433.178	186.62
433.4	188.62
433.622	173.62
433.844	175.62
434.066	182.62
434.287	166.62
434.509	180.62
434.731	194.62
434.953	188.62
435.175	187.62
435.397	194.62
435.618	186.62
435.84	168.62
436.062	178.62
436.284	174.62
436.505	185.62
436.727	180.62
436.949	188.62
437.17	187.62
437.392	202.62
437.614	195.62
437.835	172.62
438.057	181.62
438.278	174.62
438.5	180.62
438.721	176.62
438.943	191.62
439.165	187.62
439.386	186.62
439.608	182.62
439.829	192.62
440.05	197.62
440.272	190.62
440.493	191.62
440.715	190.62
440.936	208.62
441.158	207.62
441.379	203.62
441.6	217.62
441.822	199.62
442.043	203.62
442.264	205.62
442.486	197.62
442.707	195.62
442.928	201.62
443.149	203.62
443.371	182.62
443.592	210.62
443.813	206.62
444.034	203.62
444.255	207.62
444.476	215.62
444.698	230.62
444.919	221.62
445.14	483.62
445.361	325.62
445.582	213.62
445.803	196.62
446.024	185.62
446.245	216.62
446.466	206.62
446.687	180.62
446.908	197.62
447.129	210.62
447.35	187.62
447.571	201.62
447.792	194.62
448.013	196.62
448.234	174.62
448.455	182.62
448.675	186.62
448.896	190.62
449.117	172.62
449.338	183.62
449.559	180.62
449.779	185.62
450	181.62
450.221	190.62
450.442	190.62
450.662	170.62
450.883	176.62
451.104	191.62
451.324	188.62
451.545	180.62
451.766	187.62
451.986	175.62
452.207	181.62
452.428	179.62
452.648	178.62
452.869	161.62
453.089	175.62
453.31	174.62
453.53	172.62
453.751	168.62
453.971	150.62
454.192	154.62
454.412	160.62
454.633	188.62
454.853	171.62
455.073	164.62
455.294	171.62
455.514	170.62
455.734	172.62
455.955	163.62
456.175	160.62
456.395	148.62
456.616	158.62
456.836	146.62
457.056	166.62
457.276	162.62
457.497	164.62
457.717	164.62
457.937	164.62
458.157	168.62
458.377	165.62
458.598	181.62
458.818	174.62
459.038	164.62
459.258	156.62
459.478	175.62
459.698	177.62
459.918	186.62
460.138	195.62
460.358	205.62
460.578	199.62
460.798	192.62
461.018	196.62
461.238	189.62
461.458	197.62
461.678	182.62
461.898	186.62
462.118	207.62
462.338	210.62
462.558	214.62
462.777	191.62
462.997	214.62
463.217	244.62
463.437	240.62
463.657	214.62
463.876	210.62
464.096	211.62
464.316	185.62
464.536	202.62
464.755	197.62
464.975	203.62
465.195	189.62
465.414	202.62
465.634	177.62
465.854	177.62
466.073	180.62
466.293	177.62
466.512	190.62
466.732	174.62
466.951	187.62
467.171	172.62
467.391	172.62
467.61	181.62
467.829	193.62
468.049	203.62
468.268	179.62
468.488	200.62
468.707	184.62
468.927	184.62
469.146	205.62
469.365	198.62
469.585	187.62
469.804	183.62
470.023	190.62
470.243	188.62
470.462	191.62
470.681	185.62
470.901	191.62
471.12	205.62
471.339	205.62
471.558	191.62
471.777	208.62
471.997	191.62
472.216	184.62
472.435	189.62
472.654	162.62
472.873	176.62
473.092	169.62
473.311	186.62
473.53	157.62
473.749	188.62
473.968	182.62
474.187	183.62
474.406	164.62
474.625	173.62
474.844	175.62
475.063	190.62
475.282	188.62
475.501	168.62
475.72	180.62
475.939	194.62
476.158	185.62
476.377	183.62
476.596	174.62
476.814	186.62
477.033	171.62
477.252	172.62
477.471	183.62
477.69	190.62
477.908	199.62
478.127	210.62
478.346	202.62
478.564	213.62
478.783	198.62
479.002	196.62
479.22	191.62
479.439	207.62
479.658	177.62
479.876	183.62
480.095	188.62
480.313	205.62
480.532	198.62
480.751	197.62
480.969	183.62
481.188	165.62
481.406	171.62
481.624	167.62
481.843	167.62
482.061	167.62
482.28	192.62
482.498	184.62
482.717	200.62
482.935	175.62
483.153	210.62
483.372	180.62
483.59	198.62
483.808	196.62
484.027	200.62
484.245	213.62
484.463	206.62
484.681	225.62
484.9	203.62
485.118	210.62
485.336	198.62
485.554	183.62
485.772	173.62
485.99	192.62
486.209	181.62
486.427	189.62
486.645	200.62
486.863	202.62
487.081	212.62
487.299	202.62
487.517	210.62
487.735	234.62
487.953	226.62
488.171	231.62
488.389	229.62
488.607	199.62
488.825	184.62
489.043	200.62
489.261	205.62
489.479	203.62
489.696	188.62
489.914	189.62
490.132	223.62
490.35	223.62
490.568	223.62
490.786	228.62
491.003	219.62
491.221	220.62
491.439	225.62
491.657	224.62
491.874	237.62
492.092	246.62
492.31	252.62
492.527	237.62
492.745	243.62
492.963	236.62
493.18	230.62
493.398	238.62
493.615	236.62
493.833	221.62
494.05	218.62
494.268	226.62
494.485	223.62
494.703	231.62
494.92	228.62
495.138	228.62
495.355	219.62
495.573	234.62
495.79	239.62
496.008	251.62
496.225	222.62
496.442	202.62
496.66	248.62
496.877	234.62
497.094	243.62
497.312	234.62
497.529	251.62
497.746	230.62
497.963	223.62
498.181	221.62
498.398	217.62
498.615	245.62
498.832	241.62
499.049	260.62
499.267	279.62
499.484	301.62
499.701	332.62
499.918	347.62
500.135	378.62
500.352	434.62
500.569	427.62
500.786	416.62
501.003	373.62
501.22	346.62
501.437	326.62
501.654	286.62
501.871	267.62
502.088	250.62
502.305	266.62
502.522	236.62
502.739	246.62
502.956	232.62
503.172	235.62
503.389	212.62
503.606	201.62
503.823	216.62
504.04	216.62
504.256	224.62
504.473	213.62
