Data from SampD_HRD10591_00041.txt Node
Date: Mon Jan 19 11:50:29 EST 2026
User: Yrep
Spectrometer: HR+D1059
Trigger mode: 0
Integration Time (sec): 3.443000E-1
Scans to average: 1
Electric dark correction enabled: true
Nonlinearity correction enabled: false
Boxcar width: 0
XAxis mode: Wavelengths
Number of Pixels in Spectrum: 2048
>>>>>Begin Spectral Data<<<<<
223.165	-18.31
223.4	-18.31
223.635	-18.31
223.869	-27.31
224.104	-15.31
224.338	3.69
224.573	-26.31
224.808	-9.31
225.042	-14.31
225.277	-16.31
225.511	-7.31
225.746	13.69
225.98	18.69
226.215	8.69
226.449	27.69
226.683	26.69
226.918	5.69
227.152	29.69
227.387	28.69
227.621	51.69
227.856	49.69
228.09	51.69
228.324	50.69
228.559	61.69
228.793	57.69
229.027	48.69
229.262	64.69
229.496	64.69
229.73	78.69
229.964	76.69
230.199	92.69
230.433	80.69
230.667	71.69
230.901	67.69
231.136	72.69
231.37	81.69
231.604	63.69
231.838	71.69
232.072	72.69
232.306	79.69
232.541	72.69
232.775	84.69
233.009	86.69
233.243	78.69
233.477	80.69
233.711	82.69
233.945	79.69
234.179	79.69
234.413	82.69
234.647	82.69
234.881	71.69
235.115	85.69
235.349	82.69
235.583	92.69
235.817	81.69
236.051	90.69
236.285	79.69
236.519	77.69
236.753	77.69
236.987	88.69
237.221	75.69
237.455	64.69
237.689	62.69
237.922	77.69
238.156	71.69
238.39	63.69
238.624	86.69
238.858	66.69
239.091	94.69
239.325	71.69
239.559	83.69
239.793	80.69
240.027	99.69
240.26	81.69
240.494	97.69
240.728	67.69
240.961	69.69
241.195	69.69
241.429	94.69
241.662	81.69
241.896	82.69
242.13	85.69
242.363	69.69
242.597	83.69
242.83	81.69
243.064	81.69
243.298	70.69
243.531	77.69
243.765	71.69
243.998	91.69
244.232	94.69
244.465	72.69
244.699	89.69
244.932	71.69
245.166	83.69
245.399	95.69
245.633	90.69
245.866	84.69
246.099	82.69
246.333	79.69
246.566	104.69
246.8	92.69
247.033	92.69
247.266	89.69
247.5	73.69
247.733	77.69
247.966	83.69
248.2	90.69
248.433	88.69
248.666	73.69
248.899	91.69
249.133	96.69
249.366	92.69
249.599	84.69
249.832	88.69
250.066	89.69
250.299	89.69
250.532	92.69
250.765	81.69
250.998	77.69
251.231	89.69
251.465	95.69
251.698	90.69
251.931	94.69
252.164	98.69
252.397	82.69
252.63	97.69
252.863	74.69
253.096	85.69
253.329	88.69
253.562	84.69
253.795	96.69
254.028	95.69
254.261	83.69
254.494	78.69
254.727	98.69
254.96	93.69
255.193	87.69
255.426	98.69
255.659	89.69
255.892	104.69
256.124	86.69
256.357	85.69
256.59	93.69
256.823	89.69
257.056	93.69
257.289	83.69
257.521	96.69
257.754	104.69
257.987	82.69
258.22	92.69
258.452	91.69
258.685	103.69
258.918	109.69
259.151	81.69
259.383	97.69
259.616	97.69
259.849	91.69
260.081	88.69
260.314	94.69
260.547	90.69
260.779	95.69
261.012	88.69
261.244	102.69
261.477	97.69
261.71	98.69
261.942	107.69
262.175	95.69
262.407	90.69
262.64	88.69
262.872	98.69
263.105	90.69
263.337	110.69
263.57	97.69
263.802	104.69
264.035	94.69
264.267	84.69
264.499	96.69
264.732	97.69
264.964	103.69
265.197	107.69
265.429	97.69
265.661	96.69
265.894	89.69
266.126	104.69
266.358	99.69
266.591	94.69
266.823	113.69
267.055	107.69
267.287	93.69
267.52	100.69
267.752	93.69
267.984	94.69
268.216	99.69
268.448	105.69
268.681	119.69
268.913	118.69
269.145	102.69
269.377	95.69
269.609	96.69
269.841	88.69
270.073	101.69
270.306	98.69
270.538	88.69
270.77	93.69
271.002	113.69
271.234	107.69
271.466	112.69
271.698	93.69
271.93	96.69
272.162	97.69
272.394	113.69
272.626	99.69
272.858	100.69
273.09	102.69
273.322	107.69
273.553	97.69
273.785	108.69
274.017	98.69
274.249	95.69
274.481	101.69
274.713	97.69
274.945	102.69
275.176	107.69
275.408	101.69
275.64	101.69
275.872	106.69
276.104	98.69
276.335	101.69
276.567	99.69
276.799	97.69
277.031	97.69
277.262	110.69
277.494	112.69
277.726	115.69
277.957	105.69
278.189	86.69
278.421	103.69
278.652	117.69
278.884	114.69
279.115	97.69
279.347	131.69
279.579	114.69
279.81	104.69
280.042	105.69
280.273	93.69
280.505	90.69
280.736	112.69
280.968	114.69
281.199	114.69
281.431	113.69
281.662	111.69
281.894	98.69
282.125	119.69
282.356	108.69
282.588	124.69
282.819	106.69
283.051	107.69
283.282	119.69
283.513	122.69
283.745	122.69
283.976	125.69
284.207	105.69
284.439	114.69
284.67	109.69
284.901	113.69
285.132	112.69
285.364	102.69
285.595	121.69
285.826	121.69
286.057	106.69
286.288	117.69
286.52	127.69
286.751	111.69
286.982	121.69
287.213	93.69
287.444	125.69
287.675	109.69
287.906	113.69
288.138	108.69
288.369	107.69
288.6	119.69
288.831	118.69
289.062	126.69
289.293	118.69
289.524	112.69
289.755	135.69
289.986	108.69
290.217	110.69
290.448	121.69
290.679	122.69
290.91	129.69
291.141	113.69
291.371	119.69
291.602	129.69
291.833	109.69
292.064	96.69
292.295	126.69
292.526	115.69
292.757	93.69
292.987	107.69
293.218	106.69
293.449	140.69
293.68	128.69
293.91	112.69
294.141	117.69
294.372	102.69
294.603	115.69
294.833	129.69
295.064	124.69
295.295	100.69
295.525	98.69
295.756	104.69
295.987	122.69
296.217	124.69
296.448	129.69
296.679	106.69
296.909	113.69
297.14	107.69
297.37	121.69
297.601	123.69
297.831	122.69
298.062	117.69
298.292	119.69
298.523	122.69
298.753	118.69
298.984	133.69
299.214	115.69
299.445	138.69
299.675	118.69
299.905	124.69
300.136	129.69
300.366	107.69
300.597	122.69
300.827	122.69
301.057	131.69
301.288	123.69
301.518	111.69
301.748	121.69
301.979	153.69
302.209	122.69
302.439	131.69
302.669	134.69
302.9	134.69
303.13	130.69
303.36	120.69
303.59	117.69
303.82	123.69
304.051	118.69
304.281	142.69
304.511	128.69
304.741	122.69
304.971	119.69
305.201	126.69
305.431	133.69
305.661	127.69
305.891	126.69
306.121	137.69
306.352	127.69
306.582	128.69
306.812	121.69
307.042	114.69
307.272	123.69
307.502	117.69
307.731	134.69
307.961	130.69
308.191	128.69
308.421	126.69
308.651	113.69
308.881	137.69
309.111	123.69
309.341	104.69
309.571	131.69
309.8	105.69
310.03	131.69
310.26	135.69
310.49	121.69
310.72	131.69
310.949	117.69
311.179	110.69
311.409	125.69
311.639	136.69
311.868	124.69
312.098	120.69
312.328	125.69
312.557	128.69
312.787	123.69
313.017	128.69
313.246	125.69
313.476	122.69
313.706	122.69
313.935	121.69
314.165	136.69
314.394	116.69
314.624	123.69
314.853	130.69
315.083	119.69
315.312	132.69
315.542	125.69
315.771	123.69
316.001	122.69
316.23	114.69
316.46	131.69
316.689	110.69
316.919	145.69
317.148	119.69
317.377	141.69
317.607	128.69
317.836	124.69
318.065	129.69
318.295	131.69
318.524	126.69
318.753	130.69
318.983	124.69
319.212	127.69
319.441	125.69
319.67	118.69
319.9	106.69
320.129	120.69
320.358	142.69
320.587	117.69
320.816	135.69
321.046	136.69
321.275	134.69
321.504	111.69
321.733	117.69
321.962	121.69
322.191	135.69
322.42	128.69
322.649	143.69
322.878	124.69
323.108	118.69
323.337	107.69
323.566	119.69
323.795	129.69
324.024	130.69
324.253	114.69
324.482	124.69
324.71	149.69
324.939	142.69
325.168	127.69
325.397	125.69
325.626	127.69
325.855	131.69
326.084	143.69
326.313	147.69
326.542	113.69
326.77	149.69
326.999	130.69
327.228	132.69
327.457	124.69
327.686	117.69
327.914	118.69
328.143	127.69
328.372	119.69
328.6	124.69
328.829	137.69
329.058	129.69
329.287	129.69
329.515	138.69
329.744	131.69
329.972	132.69
330.201	138.69
330.43	138.69
330.658	127.69
330.887	120.69
331.115	136.69
331.344	127.69
331.572	153.69
331.801	131.69
332.03	136.69
332.258	142.69
332.486	133.69
332.715	143.69
332.943	145.69
333.172	158.69
333.4	156.69
333.629	170.69
333.857	151.69
334.085	154.69
334.314	137.69
334.542	142.69
334.771	150.69
334.999	155.69
335.227	143.69
335.455	143.69
335.684	144.69
335.912	162.69
336.14	151.69
336.369	160.69
336.597	150.69
336.825	152.69
337.053	129.69
337.281	139.69
337.51	144.69
337.738	138.69
337.966	145.69
338.194	124.69
338.422	136.69
338.65	132.69
338.878	135.69
339.106	141.69
339.334	155.69
339.562	131.69
339.79	139.69
340.018	132.69
340.246	139.69
340.474	137.69
340.702	135.69
340.93	136.69
341.158	144.69
341.386	142.69
341.614	120.69
341.842	128.69
342.07	137.69
342.298	146.69
342.526	145.69
342.754	139.69
342.981	145.69
343.209	133.69
343.437	176.69
343.665	137.69
343.893	152.69
344.12	157.69
344.348	149.69
344.576	139.69
344.804	148.69
345.031	138.69
345.259	142.69
345.487	133.69
345.714	126.69
345.942	143.69
346.17	134.69
346.397	132.69
346.625	128.69
346.853	138.69
347.08	139.69
347.308	144.69
347.535	126.69
347.763	120.69
347.99	147.69
348.218	141.69
348.445	127.69
348.673	135.69
348.9	136.69
349.128	129.69
349.355	137.69
349.583	148.69
349.81	136.69
350.037	120.69
350.265	136.69
350.492	132.69
350.72	129.69
350.947	129.69
351.174	136.69
351.402	126.69
351.629	124.69
351.856	144.69
352.083	107.69
352.311	136.69
352.538	124.69
352.765	131.69
352.992	157.69
353.22	150.69
353.447	128.69
353.674	139.69
353.901	127.69
354.128	137.69
354.355	122.69
354.583	138.69
354.81	131.69
355.037	130.69
355.264	122.69
355.491	138.69
355.718	132.69
355.945	142.69
356.172	134.69
356.399	134.69
356.626	126.69
356.853	140.69
357.08	137.69
357.307	143.69
357.534	131.69
357.761	130.69
357.988	135.69
358.215	143.69
358.441	132.69
358.668	123.69
358.895	121.69
359.122	142.69
359.349	137.69
359.576	141.69
359.802	130.69
360.029	135.69
360.256	133.69
360.483	140.69
360.709	130.69
360.936	148.69
361.163	143.69
361.39	133.69
361.616	117.69
361.843	126.69
362.07	129.69
362.296	130.69
362.523	127.69
362.749	124.69
362.976	144.69
363.203	142.69
363.429	110.69
363.656	125.69
363.882	127.69
364.109	137.69
364.335	146.69
364.562	124.69
364.788	127.69
365.015	135.69
365.241	136.69
365.468	160.69
365.694	120.69
365.92	143.69
366.147	136.69
366.373	131.69
366.599	130.69
366.826	130.69
367.052	127.69
367.278	149.69
367.505	145.69
367.731	138.69
367.957	130.69
368.184	132.69
368.41	126.69
368.636	128.69
368.862	136.69
369.089	107.69
369.315	145.69
369.541	134.69
369.767	140.69
369.993	149.69
370.219	130.69
370.445	150.69
370.672	132.69
370.898	125.69
371.124	129.69
371.35	165.69
371.576	149.69
371.802	126.69
372.028	118.69
372.254	144.69
372.48	150.69
372.706	144.69
372.932	150.69
373.158	149.69
373.384	161.69
373.61	146.69
373.835	145.69
374.061	126.69
374.287	153.69
374.513	136.69
374.739	151.69
374.965	141.69
375.191	154.69
375.416	155.69
375.642	136.69
375.868	144.69
376.094	145.69
376.319	154.69
376.545	142.69
376.771	138.69
376.997	143.69
377.222	139.69
377.448	144.69
377.674	157.69
377.899	141.69
378.125	141.69
378.35	143.69
378.576	153.69
378.802	158.69
379.027	147.69
379.253	152.69
379.478	159.69
379.704	143.69
379.929	136.69
380.155	141.69
380.38	132.69
380.606	155.69
380.831	144.69
381.057	158.69
381.282	149.69
381.507	158.69
381.733	145.69
381.958	135.69
382.184	137.69
382.409	150.69
382.634	151.69
382.86	147.69
383.085	153.69
383.31	151.69
383.535	145.69
383.761	151.69
383.986	154.69
384.211	141.69
384.436	154.69
384.662	150.69
384.887	158.69
385.112	150.69
385.337	144.69
385.562	147.69
385.787	166.69
386.013	157.69
386.238	166.69
386.463	160.69
386.688	176.69
386.913	176.69
387.138	153.69
387.363	162.69
387.588	162.69
387.813	165.69
388.038	159.69
388.263	172.69
388.488	162.69
388.713	147.69
388.938	168.69
389.163	159.69
389.387	159.69
389.612	170.69
389.837	164.69
390.062	175.69
390.287	153.69
390.512	163.69
390.736	161.69
390.961	163.69
391.186	162.69
391.411	172.69
391.636	175.69
391.86	183.69
392.085	157.69
392.31	161.69
392.534	177.69
392.759	170.69
392.984	159.69
393.208	166.69
393.433	166.69
393.658	179.69
393.882	166.69
394.107	166.69
394.331	167.69
394.556	166.69
394.78	169.69
395.005	166.69
395.229	167.69
395.454	181.69
395.678	170.69
395.903	197.69
396.127	176.69
396.352	167.69
396.576	169.69
396.801	158.69
397.025	165.69
397.249	189.69
397.474	182.69
397.698	175.69
397.922	170.69
398.147	167.69
398.371	171.69
398.595	183.69
398.82	198.69
399.044	177.69
399.268	211.69
399.492	231.69
399.717	231.69
399.941	233.69
400.165	230.69
400.389	194.69
400.613	185.69
400.837	189.69
401.062	196.69
401.286	191.69
401.51	182.69
401.734	193.69
401.958	193.69
402.182	183.69
402.406	197.69
402.63	202.69
402.854	193.69
403.078	187.69
403.302	196.69
403.526	198.69
403.75	208.69
403.974	202.69
404.198	207.69
404.422	207.69
404.645	222.69
404.869	207.69
405.093	202.69
405.317	207.69
405.541	208.69
405.765	184.69
405.988	196.69
406.212	210.69
406.436	217.69
406.66	224.69
406.883	217.69
407.107	209.69
407.331	219.69
407.555	223.69
407.778	223.69
408.002	223.69
408.226	219.69
408.449	210.69
408.673	210.69
408.896	212.69
409.12	224.69
409.344	212.69
409.567	207.69
409.791	212.69
410.014	214.69
410.238	212.69
410.461	198.69
410.685	189.69
410.908	200.69
411.132	201.69
411.355	199.69
411.578	205.69
411.802	207.69
412.025	186.69
412.249	206.69
412.472	187.69
412.695	189.69
412.919	208.69
413.142	179.69
413.365	189.69
413.589	209.69
413.812	170.69
414.035	196.69
414.258	216.69
414.482	203.69
414.705	201.69
414.928	209.69
415.151	198.69
415.374	193.69
415.597	187.69
415.821	202.69
416.044	202.69
416.267	200.69
416.49	169.69
416.713	182.69
416.936	207.69
417.159	199.69
417.382	192.69
417.605	189.69
417.828	211.69
418.051	210.69
418.274	194.69
418.497	211.69
418.72	206.69
418.943	217.69
419.166	216.69
419.389	219.69
419.611	202.69
419.834	201.69
420.057	205.69
420.28	204.69
420.503	182.69
420.726	207.69
420.948	202.69
421.171	199.69
421.394	195.69
421.617	213.69
421.839	212.69
422.062	206.69
422.285	210.69
422.507	211.69
422.73	223.69
422.953	212.69
423.175	189.69
423.398	217.69
423.621	216.69
423.843	190.69
424.066	222.69
424.288	211.69
424.511	205.69
424.733	215.69
424.956	190.69
425.178	205.69
425.401	213.69
425.623	188.69
425.846	195.69
426.068	213.69
426.291	199.69
426.513	185.69
426.735	199.69
426.958	205.69
427.18	183.69
427.402	188.69
427.625	177.69
427.847	189.69
428.069	181.69
428.292	187.69
428.514	182.69
428.736	182.69
428.958	190.69
429.181	197.69
429.403	198.69
429.625	197.69
429.847	176.69
430.069	181.69
430.292	190.69
430.514	201.69
430.736	178.69
430.958	178.69
431.18	174.69
431.402	166.69
431.624	185.69
431.846	186.69
432.068	183.69
432.29	180.69
432.512	182.69
432.734	188.69
432.956	195.69
433.178	205.69
433.4	175.69
433.622	198.69
433.844	193.69
434.066	197.69
434.287	170.69
434.509	170.69
434.731	183.69
434.953	203.69
435.175	205.69
435.397	200.69
435.618	173.69
435.84	179.69
436.062	171.69
436.284	182.69
436.505	167.69
436.727	186.69
436.949	186.69
437.17	192.69
437.392	178.69
437.614	172.69
437.835	156.69
438.057	170.69
438.278	177.69
438.5	181.69
438.721	195.69
438.943	196.69
439.165	184.69
439.386	184.69
439.608	203.69
439.829	178.69
440.05	198.69
440.272	181.69
440.493	187.69
440.715	210.69
440.936	205.69
441.158	208.69
441.379	202.69
441.6	217.69
441.822	212.69
442.043	193.69
442.264	214.69
442.486	204.69
442.707	196.69
442.928	197.69
443.149	190.69
443.371	198.69
443.592	198.69
443.813	215.69
444.034	207.69
444.255	230.69
444.476	220.69
444.698	226.69
444.919	237.69
445.14	452.69
445.361	343.69
445.582	225.69
445.803	193.69
446.024	199.69
446.245	200.69
446.466	201.69
446.687	194.69
446.908	192.69
447.129	201.69
447.35	200.69
447.571	197.69
447.792	185.69
448.013	177.69
448.234	196.69
448.455	188.69
448.675	181.69
448.896	191.69
449.117	189.69
449.338	183.69
449.559	193.69
449.779	187.69
450	183.69
450.221	185.69
450.442	182.69
450.662	192.69
450.883	194.69
451.104	185.69
451.324	169.69
451.545	177.69
451.766	192.69
451.986	192.69
452.207	192.69
452.428	164.69
452.648	183.69
452.869	176.69
453.089	183.69
453.31	160.69
453.53	167.69
453.751	166.69
453.971	173.69
454.192	165.69
454.412	179.69
454.633	178.69
454.853	178.69
455.073	155.69
455.294	161.69
455.514	178.69
455.734	162.69
455.955	177.69
456.175	161.69
456.395	179.69
456.616	149.69
456.836	149.69
457.056	170.69
457.276	170.69
457.497	151.69
457.717	171.69
457.937	165.69
458.157	158.69
458.377	165.69
458.598	151.69
458.818	176.69
459.038	169.69
459.258	161.69
459.478	143.69
459.698	165.69
459.918	183.69
460.138	193.69
460.358	200.69
460.578	191.69
460.798	205.69
461.018	212.69
461.238	177.69
461.458	206.69
461.678	194.69
461.898	196.69
462.118	203.69
462.338	199.69
462.558	201.69
462.777	218.69
462.997	219.69
463.217	247.69
463.437	237.69
463.657	222.69
463.876	209.69
464.096	213.69
464.316	213.69
464.536	200.69
464.755	193.69
464.975	201.69
465.195	208.69
465.414	188.69
465.634	172.69
465.854	178.69
466.073	203.69
466.293	182.69
466.512	182.69
466.732	182.69
466.951	192.69
467.171	182.69
467.391	176.69
467.61	177.69
467.829	182.69
468.049	196.69
468.268	200.69
468.488	184.69
468.707	185.69
468.927	170.69
469.146	190.69
469.365	179.69
469.585	182.69
469.804	187.69
470.023	178.69
470.243	191.69
470.462	195.69
470.681	187.69
470.901	199.69
471.12	192.69
471.339	199.69
471.558	191.69
471.777	181.69
471.997	183.69
472.216	167.69
472.435	181.69
472.654	175.69
472.873	181.69
473.092	168.69
473.311	158.69
473.53	168.69
473.749	162.69
473.968	175.69
474.187	182.69
474.406	175.69
474.625	175.69
474.844	199.69
475.063	180.69
475.282	185.69
475.501	175.69
475.72	177.69
475.939	183.69
476.158	177.69
476.377	161.69
476.596	174.69
476.814	170.69
477.033	168.69
477.252	175.69
477.471	179.69
477.69	198.69
477.908	194.69
478.127	211.69
478.346	204.69
478.564	195.69
478.783	200.69
479.002	189.69
479.22	213.69
479.439	205.69
479.658	200.69
479.876	207.69
480.095	189.69
480.313	196.69
480.532	203.69
480.751	209.69
480.969	193.69
481.188	177.69
481.406	187.69
481.624	172.69
481.843	164.69
482.061	163.69
482.28	175.69
482.498	184.69
482.717	173.69
482.935	201.69
483.153	196.69
483.372	192.69
483.59	218.69
483.808	187.69
484.027	197.69
484.245	184.69
484.463	187.69
484.681	225.69
484.9	202.69
485.118	207.69
485.336	195.69
485.554	171.69
485.772	183.69
485.99	198.69
486.209	184.69
486.427	177.69
486.645	186.69
486.863	223.69
487.081	201.69
487.299	192.69
487.517	212.69
487.735	222.69
487.953	221.69
488.171	239.69
488.389	220.69
488.607	214.69
488.825	208.69
489.043	207.69
489.261	200.69
489.479	200.69
489.696	199.69
489.914	201.69
490.132	210.69
490.35	221.69
490.568	229.69
490.786	215.69
491.003	227.69
491.221	225.69
491.439	236.69
491.657	226.69
491.874	234.69
492.092	243.69
492.31	238.69
492.527	243.69
492.745	237.69
492.963	255.69
493.18	236.69
493.398	228.69
493.615	225.69
493.833	225.69
494.05	218.69
494.268	221.69
494.485	225.69
494.703	238.69
494.92	223.69
495.138	226.69
495.355	242.69
495.573	231.69
495.79	221.69
496.008	227.69
496.225	223.69
496.442	236.69
496.66	246.69
496.877	210.69
497.094	239.69
497.312	221.69
497.529	222.69
497.746	226.69
497.963	229.69
498.181	226.69
498.398	232.69
498.615	247.69
498.832	244.69
499.049	267.69
499.267	296.69
499.484	291.69
499.701	318.69
499.918	358.69
500.135	362.69
500.352	426.69
500.569	426.69
500.786	445.69
501.003	380.69
501.22	356.69
501.437	324.69
501.654	300.69
501.871	271.69
502.088	271.69
502.305	263.69
502.522	249.69
502.739	240.69
502.956	227.69
503.172	229.69
503.389	227.69
503.606	221.69
503.823	225.69
504.04	222.69
504.256	222.69
504.473	230.69
504.69	226.69
504.907	228.69
505.123	219.69
