Data from SampD_HRD10591_00013.txt Node
Date: Mon Jan 19 11:50:19 EST 2026
User: Yrep
Spectrometer: HR+D1059
Trigger mode: 0
Integration Time (sec): 3.443000E-1
Scans to average: 1
Electric dark correction enabled: true
Nonlinearity correction enabled: false
Boxcar width: 0
XAxis mode: Wavelengths
Number of Pixels in Spectrum: 2048
>>>>>Begin Spectral Data<<<<<
223.165	-23.19
223.4	-23.19
223.635	-23.19
223.869	-6.19
224.104	-39.19
224.338	-6.19
224.573	-16.19
224.808	-13.19
225.042	-7.19
225.277	-18.19
225.511	-3.19
225.746	15.81
225.98	-6.19
226.215	4.81
226.449	26.81
226.683	12.81
226.918	34.81
227.152	43.81
227.387	32.81
227.621	32.81
227.856	46.81
228.09	44.81
228.324	43.81
228.559	50.81
228.793	58.81
229.027	64.81
229.262	66.81
229.496	70.81
229.73	68.81
229.964	82.81
230.199	71.81
230.433	72.81
230.667	91.81
230.901	63.81
231.136	90.81
231.37	96.81
231.604	72.81
231.838	88.81
232.072	90.81
232.306	80.81
232.541	76.81
232.775	82.81
233.009	87.81
233.243	85.81
233.477	80.81
233.711	74.81
233.945	86.81
234.179	87.81
234.413	77.81
234.647	81.81
234.881	84.81
235.115	94.81
235.349	77.81
235.583	88.81
235.817	78.81
236.051	86.81
236.285	92.81
236.519	87.81
236.753	90.81
236.987	84.81
237.221	93.81
237.455	89.81
237.689	87.81
237.922	91.81
238.156	73.81
238.39	87.81
238.624	81.81
238.858	87.81
239.091	81.81
239.325	79.81
239.559	95.81
239.793	65.81
240.027	76.81
240.26	70.81
240.494	73.81
240.728	96.81
240.961	81.81
241.195	88.81
241.429	91.81
241.662	77.81
241.896	73.81
242.13	75.81
242.363	69.81
242.597	98.81
242.83	101.81
243.064	79.81
243.298	80.81
243.531	93.81
243.765	83.81
243.998	95.81
244.232	77.81
244.465	71.81
244.699	73.81
244.932	79.81
245.166	83.81
245.399	93.81
245.633	95.81
245.866	81.81
246.099	77.81
246.333	87.81
246.566	79.81
246.8	99.81
247.033	97.81
247.266	103.81
247.5	87.81
247.733	91.81
247.966	98.81
248.2	81.81
248.433	86.81
248.666	75.81
248.899	87.81
249.133	92.81
249.366	80.81
249.599	81.81
249.832	89.81
250.066	92.81
250.299	79.81
250.532	101.81
250.765	93.81
250.998	84.81
251.231	99.81
251.465	95.81
251.698	92.81
251.931	90.81
252.164	95.81
252.397	92.81
252.63	91.81
252.863	80.81
253.096	86.81
253.329	87.81
253.562	97.81
253.795	87.81
254.028	95.81
254.261	92.81
254.494	87.81
254.727	98.81
254.96	90.81
255.193	87.81
255.426	94.81
255.659	90.81
255.892	110.81
256.124	100.81
256.357	105.81
256.59	98.81
256.823	85.81
257.056	99.81
257.289	93.81
257.521	81.81
257.754	95.81
257.987	80.81
258.22	103.81
258.452	107.81
258.685	107.81
258.918	99.81
259.151	93.81
259.383	96.81
259.616	95.81
259.849	102.81
260.081	85.81
260.314	99.81
260.547	90.81
260.779	83.81
261.012	103.81
261.244	95.81
261.477	94.81
261.71	85.81
261.942	94.81
262.175	115.81
262.407	100.81
262.64	102.81
262.872	89.81
263.105	103.81
263.337	125.81
263.57	101.81
263.802	97.81
264.035	91.81
264.267	82.81
264.499	112.81
264.732	97.81
264.964	104.81
265.197	98.81
265.429	105.81
265.661	116.81
265.894	99.81
266.126	121.81
266.358	103.81
266.591	104.81
266.823	105.81
267.055	90.81
267.287	96.81
267.52	95.81
267.752	107.81
267.984	104.81
268.216	107.81
268.448	98.81
268.681	104.81
268.913	120.81
269.145	97.81
269.377	95.81
269.609	112.81
269.841	89.81
270.073	111.81
270.306	99.81
270.538	102.81
270.77	100.81
271.002	86.81
271.234	83.81
271.466	98.81
271.698	97.81
271.93	97.81
272.162	103.81
272.394	107.81
272.626	100.81
272.858	125.81
273.09	106.81
273.322	118.81
273.553	113.81
273.785	100.81
274.017	115.81
274.249	98.81
274.481	110.81
274.713	104.81
274.945	104.81
275.176	106.81
275.408	108.81
275.64	107.81
275.872	108.81
276.104	110.81
276.335	105.81
276.567	115.81
276.799	112.81
277.031	103.81
277.262	110.81
277.494	102.81
277.726	101.81
277.957	112.81
278.189	113.81
278.421	89.81
278.652	103.81
278.884	103.81
279.115	118.81
279.347	109.81
279.579	120.81
279.81	115.81
280.042	113.81
280.273	111.81
280.505	109.81
280.736	94.81
280.968	115.81
281.199	106.81
281.431	109.81
281.662	111.81
281.894	116.81
282.125	116.81
282.356	107.81
282.588	102.81
282.819	109.81
283.051	109.81
283.282	102.81
283.513	109.81
283.745	109.81
283.976	130.81
284.207	120.81
284.439	110.81
284.67	115.81
284.901	111.81
285.132	104.81
285.364	98.81
285.595	121.81
285.826	105.81
286.057	114.81
286.288	113.81
286.52	126.81
286.751	102.81
286.982	123.81
287.213	107.81
287.444	119.81
287.675	113.81
287.906	118.81
288.138	119.81
288.369	114.81
288.6	121.81
288.831	109.81
289.062	116.81
289.293	129.81
289.524	106.81
289.755	103.81
289.986	100.81
290.217	108.81
290.448	111.81
290.679	121.81
290.91	124.81
291.141	99.81
291.371	128.81
291.602	126.81
291.833	128.81
292.064	120.81
292.295	104.81
292.526	123.81
292.757	120.81
292.987	123.81
293.218	128.81
293.449	116.81
293.68	123.81
293.91	124.81
294.141	133.81
294.372	116.81
294.603	120.81
294.833	115.81
295.064	109.81
295.295	110.81
295.525	103.81
295.756	122.81
295.987	99.81
296.217	121.81
296.448	112.81
296.679	127.81
296.909	138.81
297.14	129.81
297.37	113.81
297.601	108.81
297.831	117.81
298.062	114.81
298.292	102.81
298.523	119.81
298.753	127.81
298.984	106.81
299.214	124.81
299.445	122.81
299.675	125.81
299.905	130.81
300.136	112.81
300.366	113.81
300.597	110.81
300.827	136.81
301.057	118.81
301.288	130.81
301.518	123.81
301.748	121.81
301.979	162.81
302.209	129.81
302.439	115.81
302.669	121.81
302.9	134.81
303.13	142.81
303.36	122.81
303.59	121.81
303.82	120.81
304.051	129.81
304.281	142.81
304.511	136.81
304.741	131.81
304.971	117.81
305.201	141.81
305.431	110.81
305.661	128.81
305.891	135.81
306.121	117.81
306.352	125.81
306.582	116.81
306.812	138.81
307.042	116.81
307.272	123.81
307.502	125.81
307.731	140.81
307.961	131.81
308.191	123.81
308.421	129.81
308.651	120.81
308.881	121.81
309.111	128.81
309.341	109.81
309.571	122.81
309.8	124.81
310.03	107.81
310.26	123.81
310.49	123.81
310.72	130.81
310.949	128.81
311.179	123.81
311.409	113.81
311.639	129.81
311.868	122.81
312.098	116.81
312.328	124.81
312.557	148.81
312.787	124.81
313.017	131.81
313.246	120.81
313.476	140.81
313.706	118.81
313.935	118.81
314.165	135.81
314.394	128.81
314.624	118.81
314.853	124.81
315.083	117.81
315.312	128.81
315.542	119.81
315.771	121.81
316.001	135.81
316.23	131.81
316.46	123.81
316.689	135.81
316.919	129.81
317.148	121.81
317.377	129.81
317.607	140.81
317.836	127.81
318.065	126.81
318.295	120.81
318.524	113.81
318.753	133.81
318.983	110.81
319.212	123.81
319.441	130.81
319.67	121.81
319.9	115.81
320.129	116.81
320.358	130.81
320.587	127.81
320.816	124.81
321.046	115.81
321.275	150.81
321.504	129.81
321.733	131.81
321.962	114.81
322.191	123.81
322.42	131.81
322.649	119.81
322.878	124.81
323.108	127.81
323.337	126.81
323.566	133.81
323.795	119.81
324.024	131.81
324.253	122.81
324.482	121.81
324.71	116.81
324.939	126.81
325.168	131.81
325.397	111.81
325.626	113.81
325.855	119.81
326.084	130.81
326.313	113.81
326.542	122.81
326.77	137.81
326.999	136.81
327.228	128.81
327.457	138.81
327.686	137.81
327.914	141.81
328.143	137.81
328.372	139.81
328.6	134.81
328.829	120.81
329.058	136.81
329.287	113.81
329.515	139.81
329.744	127.81
329.972	124.81
330.201	140.81
330.43	133.81
330.658	120.81
330.887	143.81
331.115	145.81
331.344	132.81
331.572	141.81
331.801	133.81
332.03	137.81
332.258	157.81
332.486	132.81
332.715	133.81
332.943	148.81
333.172	163.81
333.4	147.81
333.629	147.81
333.857	152.81
334.085	157.81
334.314	150.81
334.542	156.81
334.771	145.81
334.999	136.81
335.227	147.81
335.455	146.81
335.684	151.81
335.912	149.81
336.14	139.81
336.369	153.81
336.597	132.81
336.825	133.81
337.053	143.81
337.281	138.81
337.51	130.81
337.738	151.81
337.966	143.81
338.194	140.81
338.422	139.81
338.65	140.81
338.878	145.81
339.106	133.81
339.334	154.81
339.562	136.81
339.79	129.81
340.018	153.81
340.246	125.81
340.474	135.81
340.702	144.81
340.93	137.81
341.158	133.81
341.386	122.81
341.614	130.81
341.842	132.81
342.07	128.81
342.298	125.81
342.526	136.81
342.754	124.81
342.981	138.81
343.209	137.81
343.437	185.81
343.665	156.81
343.893	139.81
344.12	158.81
344.348	149.81
344.576	147.81
344.804	146.81
345.031	123.81
345.259	139.81
345.487	121.81
345.714	133.81
345.942	127.81
346.17	122.81
346.397	133.81
346.625	120.81
346.853	125.81
347.08	126.81
347.308	141.81
347.535	130.81
347.763	128.81
347.99	128.81
348.218	130.81
348.445	148.81
348.673	122.81
348.9	134.81
349.128	139.81
349.355	140.81
349.583	124.81
349.81	136.81
350.037	148.81
350.265	132.81
350.492	121.81
350.72	134.81
350.947	133.81
351.174	137.81
351.402	122.81
351.629	127.81
351.856	147.81
352.083	116.81
352.311	127.81
352.538	104.81
352.765	132.81
352.992	144.81
353.22	140.81
353.447	125.81
353.674	116.81
353.901	131.81
354.128	133.81
354.355	114.81
354.583	121.81
354.81	146.81
355.037	137.81
355.264	149.81
355.491	148.81
355.718	131.81
355.945	151.81
356.172	134.81
356.399	140.81
356.626	134.81
356.853	132.81
357.08	145.81
357.307	136.81
357.534	134.81
357.761	134.81
357.988	143.81
358.215	122.81
358.441	119.81
358.668	131.81
358.895	128.81
359.122	128.81
359.349	129.81
359.576	128.81
359.802	115.81
360.029	121.81
360.256	135.81
360.483	122.81
360.709	121.81
360.936	151.81
361.163	144.81
361.39	139.81
361.616	125.81
361.843	141.81
362.07	137.81
362.296	137.81
362.523	124.81
362.749	128.81
362.976	130.81
363.203	133.81
363.429	130.81
363.656	135.81
363.882	131.81
364.109	130.81
364.335	129.81
364.562	124.81
364.788	137.81
365.015	125.81
365.241	136.81
365.468	140.81
365.694	143.81
365.92	130.81
366.147	141.81
366.373	130.81
366.599	128.81
366.826	136.81
367.052	122.81
367.278	130.81
367.505	140.81
367.731	143.81
367.957	132.81
368.184	137.81
368.41	139.81
368.636	127.81
368.862	146.81
369.089	136.81
369.315	147.81
369.541	149.81
369.767	143.81
369.993	119.81
370.219	141.81
370.445	119.81
370.672	139.81
370.898	137.81
371.124	129.81
371.35	133.81
371.576	133.81
371.802	139.81
372.028	142.81
372.254	145.81
372.48	148.81
372.706	140.81
372.932	134.81
373.158	134.81
373.384	162.81
373.61	131.81
373.835	140.81
374.061	143.81
374.287	148.81
374.513	128.81
374.739	148.81
374.965	140.81
375.191	143.81
375.416	137.81
375.642	163.81
375.868	153.81
376.094	143.81
376.319	122.81
376.545	129.81
376.771	152.81
376.997	136.81
377.222	145.81
377.448	134.81
377.674	133.81
377.899	130.81
378.125	148.81
378.35	154.81
378.576	129.81
378.802	149.81
379.027	143.81
379.253	145.81
379.478	153.81
379.704	151.81
379.929	147.81
380.155	141.81
380.38	157.81
380.606	129.81
380.831	131.81
381.057	149.81
381.282	135.81
381.507	161.81
381.733	152.81
381.958	136.81
382.184	136.81
382.409	153.81
382.634	153.81
382.86	139.81
383.085	153.81
383.31	141.81
383.535	169.81
383.761	163.81
383.986	165.81
384.211	153.81
384.436	163.81
384.662	146.81
384.887	169.81
385.112	148.81
385.337	156.81
385.562	155.81
385.787	162.81
386.013	148.81
386.238	168.81
386.463	160.81
386.688	177.81
386.913	146.81
387.138	165.81
387.363	173.81
387.588	164.81
387.813	167.81
388.038	161.81
388.263	167.81
388.488	162.81
388.713	163.81
388.938	141.81
389.163	164.81
389.387	147.81
389.612	160.81
389.837	153.81
390.062	157.81
390.287	150.81
390.512	152.81
390.736	157.81
390.961	164.81
391.186	181.81
391.411	161.81
391.636	159.81
391.86	170.81
392.085	182.81
392.31	173.81
392.534	163.81
392.759	176.81
392.984	179.81
393.208	166.81
393.433	165.81
393.658	165.81
393.882	185.81
394.107	155.81
394.331	162.81
394.556	151.81
394.78	170.81
395.005	173.81
395.229	165.81
395.454	182.81
395.678	179.81
395.903	167.81
396.127	184.81
396.352	163.81
396.576	157.81
396.801	157.81
397.025	167.81
397.249	179.81
397.474	193.81
397.698	182.81
397.922	159.81
398.147	159.81
398.371	174.81
398.595	197.81
398.82	192.81
399.044	211.81
399.268	211.81
399.492	233.81
399.717	250.81
399.941	247.81
400.165	211.81
400.389	205.81
400.613	188.81
400.837	189.81
401.062	191.81
401.286	197.81
401.51	183.81
401.734	180.81
401.958	191.81
402.182	185.81
402.406	186.81
402.63	197.81
402.854	184.81
403.078	187.81
403.302	196.81
403.526	204.81
403.75	212.81
403.974	216.81
404.198	200.81
404.422	215.81
404.645	204.81
404.869	196.81
405.093	193.81
405.317	198.81
405.541	217.81
405.765	211.81
405.988	211.81
406.212	199.81
406.436	204.81
406.66	204.81
406.883	183.81
407.107	215.81
407.331	225.81
407.555	223.81
407.778	215.81
408.002	214.81
408.226	215.81
408.449	201.81
408.673	207.81
408.896	210.81
409.12	207.81
409.344	206.81
409.567	213.81
409.791	203.81
410.014	211.81
410.238	197.81
410.461	198.81
410.685	210.81
410.908	202.81
411.132	206.81
411.355	190.81
411.578	173.81
411.802	202.81
412.025	188.81
412.249	176.81
412.472	194.81
412.695	189.81
412.919	202.81
413.142	190.81
413.365	188.81
413.589	186.81
413.812	193.81
414.035	196.81
414.258	184.81
414.482	182.81
414.705	195.81
414.928	182.81
415.151	195.81
415.374	187.81
415.597	190.81
415.821	187.81
416.044	187.81
416.267	203.81
416.49	174.81
416.713	195.81
416.936	193.81
417.159	193.81
417.382	198.81
417.605	187.81
417.828	197.81
418.051	176.81
418.274	194.81
418.497	186.81
418.72	193.81
418.943	190.81
419.166	212.81
419.389	207.81
419.611	211.81
419.834	192.81
420.057	207.81
420.28	204.81
420.503	197.81
420.726	189.81
420.948	191.81
421.171	212.81
421.394	195.81
421.617	207.81
421.839	205.81
422.062	187.81
422.285	195.81
422.507	188.81
422.73	187.81
422.953	188.81
423.175	200.81
423.398	200.81
423.621	198.81
423.843	198.81
424.066	215.81
424.288	213.81
424.511	189.81
424.733	211.81
424.956	225.81
425.178	194.81
425.401	209.81
425.623	187.81
425.846	180.81
426.068	198.81
426.291	194.81
426.513	162.81
426.735	195.81
426.958	185.81
427.18	191.81
427.402	185.81
427.625	174.81
427.847	184.81
428.069	189.81
428.292	182.81
428.514	192.81
428.736	191.81
428.958	195.81
429.181	193.81
429.403	171.81
429.625	185.81
429.847	181.81
430.069	186.81
430.292	175.81
430.514	189.81
430.736	192.81
430.958	192.81
431.18	184.81
431.402	187.81
431.624	173.81
431.846	151.81
432.068	162.81
432.29	159.81
432.512	183.81
432.734	181.81
432.956	188.81
433.178	199.81
433.4	209.81
433.622	203.81
433.844	179.81
434.066	180.81
434.287	178.81
434.509	159.81
434.731	173.81
434.953	184.81
435.175	188.81
435.397	193.81
435.618	190.81
435.84	176.81
436.062	192.81
436.284	181.81
436.505	189.81
436.727	180.81
436.949	195.81
437.17	190.81
437.392	176.81
437.614	189.81
437.835	163.81
438.057	166.81
438.278	158.81
438.5	171.81
438.721	196.81
438.943	199.81
439.165	180.81
439.386	187.81
439.608	202.81
439.829	193.81
440.05	200.81
440.272	178.81
440.493	182.81
440.715	202.81
440.936	214.81
441.158	211.81
441.379	202.81
441.6	220.81
441.822	207.81
442.043	211.81
442.264	208.81
442.486	190.81
442.707	193.81
442.928	215.81
443.149	203.81
443.371	193.81
443.592	214.81
443.813	200.81
444.034	215.81
444.255	217.81
444.476	237.81
444.698	236.81
444.919	242.81
445.14	490.81
445.361	331.81
445.582	213.81
445.803	203.81
446.024	189.81
446.245	217.81
446.466	209.81
446.687	194.81
446.908	200.81
447.129	203.81
447.35	203.81
447.571	193.81
447.792	190.81
448.013	184.81
448.234	192.81
448.455	189.81
448.675	178.81
448.896	196.81
449.117	187.81
449.338	178.81
449.559	191.81
449.779	187.81
450	186.81
450.221	187.81
450.442	188.81
450.662	187.81
450.883	188.81
451.104	192.81
451.324	197.81
451.545	185.81
451.766	179.81
451.986	189.81
452.207	162.81
452.428	181.81
452.648	177.81
452.869	181.81
453.089	164.81
453.31	170.81
453.53	180.81
453.751	161.81
453.971	173.81
454.192	159.81
454.412	164.81
454.633	159.81
454.853	168.81
455.073	169.81
455.294	187.81
455.514	189.81
455.734	150.81
455.955	140.81
456.175	161.81
456.395	177.81
456.616	159.81
456.836	169.81
457.056	156.81
457.276	151.81
457.497	176.81
457.717	142.81
457.937	148.81
458.157	170.81
458.377	159.81
458.598	149.81
458.818	167.81
459.038	160.81
459.258	166.81
459.478	162.81
459.698	168.81
459.918	195.81
460.138	193.81
460.358	189.81
460.578	208.81
460.798	200.81
461.018	200.81
461.238	197.81
461.458	187.81
461.678	200.81
461.898	184.81
462.118	215.81
462.338	191.81
462.558	210.81
462.777	191.81
462.997	221.81
463.217	226.81
463.437	211.81
463.657	210.81
463.876	200.81
464.096	196.81
464.316	219.81
464.536	202.81
464.755	197.81
464.975	201.81
465.195	204.81
465.414	202.81
465.634	175.81
465.854	185.81
466.073	192.81
466.293	199.81
466.512	184.81
466.732	170.81
466.951	188.81
467.171	183.81
467.391	187.81
467.61	179.81
467.829	193.81
468.049	191.81
468.268	174.81
468.488	183.81
468.707	194.81
468.927	195.81
469.146	181.81
469.365	199.81
469.585	179.81
469.804	186.81
470.023	186.81
470.243	205.81
470.462	192.81
470.681	187.81
470.901	195.81
471.12	195.81
471.339	193.81
471.558	202.81
471.777	188.81
471.997	185.81
472.216	190.81
472.435	174.81
472.654	161.81
472.873	180.81
473.092	172.81
473.311	176.81
473.53	173.81
473.749	186.81
473.968	186.81
474.187	161.81
474.406	162.81
474.625	179.81
474.844	181.81
475.063	182.81
475.282	165.81
475.501	173.81
475.72	201.81
475.939	177.81
476.158	177.81
476.377	180.81
476.596	173.81
476.814	172.81
477.033	178.81
477.252	169.81
477.471	185.81
477.69	196.81
477.908	193.81
478.127	224.81
478.346	219.81
478.564	198.81
478.783	195.81
479.002	209.81
479.22	196.81
479.439	207.81
479.658	195.81
479.876	182.81
480.095	207.81
480.313	203.81
480.532	198.81
480.751	186.81
480.969	182.81
481.188	151.81
481.406	180.81
481.624	172.81
481.843	154.81
482.061	173.81
482.28	203.81
482.498	173.81
482.717	185.81
482.935	183.81
483.153	197.81
483.372	211.81
483.59	190.81
483.808	195.81
484.027	189.81
484.245	201.81
484.463	207.81
484.681	222.81
484.9	209.81
485.118	200.81
485.336	191.81
485.554	180.81
485.772	192.81
485.99	183.81
486.209	195.81
486.427	167.81
486.645	200.81
486.863	194.81
487.081	194.81
487.299	199.81
487.517	211.81
487.735	219.81
487.953	217.81
488.171	237.81
488.389	214.81
488.607	212.81
488.825	193.81
489.043	197.81
489.261	216.81
489.479	202.81
489.696	201.81
489.914	202.81
490.132	187.81
490.35	199.81
490.568	212.81
490.786	225.81
491.003	222.81
491.221	217.81
491.439	238.81
491.657	228.81
491.874	237.81
492.092	257.81
492.31	245.81
492.527	248.81
492.745	239.81
492.963	245.81
493.18	244.81
493.398	234.81
493.615	241.81
493.833	234.81
494.05	240.81
494.268	242.81
494.485	228.81
494.703	253.81
494.92	235.81
495.138	221.81
495.355	241.81
495.573	239.81
495.79	225.81
496.008	241.81
496.225	240.81
496.442	218.81
496.66	238.81
496.877	215.81
497.094	229.81
497.312	240.81
497.529	244.81
497.746	234.81
497.963	228.81
498.181	212.81
498.398	240.81
498.615	242.81
498.832	240.81
499.049	260.81
499.267	289.81
499.484	303.81
499.701	316.81
499.918	346.81
500.135	386.81
500.352	428.81
500.569	425.81
500.786	412.81
501.003	392.81
501.22	351.81
501.437	330.81
501.654	299.81
501.871	298.81
502.088	247.81
502.305	250.81
502.522	236.81
502.739	255.81
502.956	231.81
503.172	228.81
503.389	220.81
503.606	212.81
503.823	208.81
504.04	220.81
504.256	224.81
504.473	220.81
504.69	219.81
504.907	225.81
