Data from SampD_HRD10591_00087.txt Node
Date: Mon Jan 19 11:50:45 EST 2026
User: Yrep
Spectrometer: HR+D1059
Trigger mode: 0
Integration Time (sec): 3.443000E-1
Scans to average: 1
Electric dark correction enabled: true
Nonlinearity correction enabled: false
Boxcar width: 0
XAxis mode: Wavelengths
Number of Pixels in Spectrum: 2048
>>>>>Begin Spectral Data<<<<<
223.165	-13.56
223.4	-13.56
223.635	-13.56
223.869	-18.56
224.104	-33.56
224.338	-20.56
224.573	-17.56
224.808	-6.56
225.042	-11.56
225.277	9.44
225.511	-8.56
225.746	11.44
225.98	-4.56
226.215	3.44
226.449	9.44
226.683	24.44
226.918	33.44
227.152	43.44
227.387	57.44
227.621	47.44
227.856	38.44
228.09	43.44
228.324	54.44
228.559	64.44
228.793	69.44
229.027	69.44
229.262	65.44
229.496	78.44
229.73	61.44
229.964	61.44
230.199	74.44
230.433	74.44
230.667	68.44
230.901	84.44
231.136	79.44
231.37	84.44
231.604	81.44
231.838	93.44
232.072	86.44
232.306	91.44
232.541	79.44
232.775	75.44
233.009	85.44
233.243	81.44
233.477	83.44
233.711	86.44
233.945	84.44
234.179	76.44
234.413	80.44
234.647	86.44
234.881	61.44
235.115	63.44
235.349	64.44
235.583	88.44
235.817	81.44
236.051	72.44
236.285	83.44
236.519	81.44
236.753	81.44
236.987	78.44
237.221	66.44
237.455	86.44
237.689	81.44
237.922	82.44
238.156	88.44
238.39	72.44
238.624	92.44
238.858	67.44
239.091	77.44
239.325	82.44
239.559	84.44
239.793	74.44
240.027	87.44
240.26	79.44
240.494	71.44
240.728	79.44
240.961	74.44
241.195	81.44
241.429	87.44
241.662	73.44
241.896	77.44
242.13	60.44
242.363	72.44
242.597	79.44
242.83	87.44
243.064	89.44
243.298	78.44
243.531	80.44
243.765	83.44
243.998	71.44
244.232	83.44
244.465	88.44
244.699	73.44
244.932	78.44
245.166	83.44
245.399	91.44
245.633	72.44
245.866	77.44
246.099	77.44
246.333	79.44
246.566	91.44
246.8	82.44
247.033	83.44
247.266	74.44
247.5	83.44
247.733	77.44
247.966	85.44
248.2	103.44
248.433	73.44
248.666	79.44
248.899	83.44
249.133	85.44
249.366	102.44
249.599	65.44
249.832	62.44
250.066	95.44
250.299	74.44
250.532	75.44
250.765	93.44
250.998	98.44
251.231	95.44
251.465	86.44
251.698	80.44
251.931	74.44
252.164	79.44
252.397	75.44
252.63	69.44
252.863	93.44
253.096	71.44
253.329	74.44
253.562	74.44
253.795	86.44
254.028	79.44
254.261	95.44
254.494	69.44
254.727	87.44
254.96	88.44
255.193	84.44
255.426	95.44
255.659	101.44
255.892	102.44
256.124	87.44
256.357	96.44
256.59	82.44
256.823	86.44
257.056	90.44
257.289	82.44
257.521	88.44
257.754	79.44
257.987	80.44
258.22	92.44
258.452	77.44
258.685	84.44
258.918	90.44
259.151	75.44
259.383	87.44
259.616	86.44
259.849	67.44
260.081	90.44
260.314	79.44
260.547	89.44
260.779	91.44
261.012	80.44
261.244	88.44
261.477	98.44
261.71	64.44
261.942	68.44
262.175	73.44
262.407	92.44
262.64	83.44
262.872	88.44
263.105	83.44
263.337	97.44
263.57	73.44
263.802	77.44
264.035	95.44
264.267	70.44
264.499	92.44
264.732	76.44
264.964	98.44
265.197	93.44
265.429	91.44
265.661	90.44
265.894	75.44
266.126	93.44
266.358	81.44
266.591	87.44
266.823	78.44
267.055	86.44
267.287	91.44
267.52	77.44
267.752	86.44
267.984	78.44
268.216	97.44
268.448	84.44
268.681	89.44
268.913	95.44
269.145	103.44
269.377	89.44
269.609	84.44
269.841	82.44
270.073	83.44
270.306	90.44
270.538	95.44
270.77	85.44
271.002	79.44
271.234	88.44
271.466	101.44
271.698	94.44
271.93	90.44
272.162	82.44
272.394	95.44
272.626	91.44
272.858	87.44
273.09	95.44
273.322	98.44
273.553	81.44
273.785	100.44
274.017	97.44
274.249	77.44
274.481	85.44
274.713	87.44
274.945	84.44
275.176	81.44
275.408	89.44
275.64	85.44
275.872	89.44
276.104	92.44
276.335	87.44
276.567	93.44
276.799	93.44
277.031	85.44
277.262	85.44
277.494	100.44
277.726	97.44
277.957	90.44
278.189	87.44
278.421	88.44
278.652	103.44
278.884	91.44
279.115	87.44
279.347	94.44
279.579	89.44
279.81	99.44
280.042	84.44
280.273	87.44
280.505	76.44
280.736	94.44
280.968	96.44
281.199	101.44
281.431	83.44
281.662	93.44
281.894	87.44
282.125	103.44
282.356	96.44
282.588	89.44
282.819	80.44
283.051	90.44
283.282	100.44
283.513	98.44
283.745	92.44
283.976	102.44
284.207	99.44
284.439	85.44
284.67	97.44
284.901	87.44
285.132	102.44
285.364	91.44
285.595	86.44
285.826	105.44
286.057	113.44
286.288	93.44
286.52	94.44
286.751	92.44
286.982	81.44
287.213	93.44
287.444	100.44
287.675	89.44
287.906	101.44
288.138	96.44
288.369	88.44
288.6	105.44
288.831	95.44
289.062	98.44
289.293	90.44
289.524	103.44
289.755	89.44
289.986	101.44
290.217	102.44
290.448	85.44
290.679	100.44
290.91	102.44
291.141	94.44
291.371	113.44
291.602	97.44
291.833	108.44
292.064	95.44
292.295	113.44
292.526	72.44
292.757	101.44
292.987	95.44
293.218	95.44
293.449	89.44
293.68	106.44
293.91	95.44
294.141	97.44
294.372	93.44
294.603	87.44
294.833	97.44
295.064	85.44
295.295	97.44
295.525	95.44
295.756	105.44
295.987	78.44
296.217	102.44
296.448	97.44
296.679	87.44
296.909	111.44
297.14	102.44
297.37	97.44
297.601	86.44
297.831	105.44
298.062	93.44
298.292	101.44
298.523	108.44
298.753	101.44
298.984	106.44
299.214	98.44
299.445	94.44
299.675	97.44
299.905	110.44
300.136	99.44
300.366	97.44
300.597	97.44
300.827	99.44
301.057	106.44
301.288	92.44
301.518	103.44
301.748	101.44
301.979	138.44
302.209	90.44
302.439	102.44
302.669	110.44
302.9	88.44
303.13	114.44
303.36	110.44
303.59	104.44
303.82	101.44
304.051	102.44
304.281	94.44
304.511	105.44
304.741	111.44
304.971	103.44
305.201	102.44
305.431	85.44
305.661	101.44
305.891	97.44
306.121	105.44
306.352	99.44
306.582	104.44
306.812	91.44
307.042	104.44
307.272	94.44
307.502	98.44
307.731	100.44
307.961	105.44
308.191	89.44
308.421	88.44
308.651	97.44
308.881	99.44
309.111	95.44
309.341	94.44
309.571	96.44
309.8	106.44
310.03	93.44
310.26	105.44
310.49	100.44
310.72	97.44
310.949	82.44
311.179	98.44
311.409	98.44
311.639	99.44
311.868	107.44
312.098	92.44
312.328	102.44
312.557	114.44
312.787	112.44
313.017	99.44
313.246	117.44
313.476	106.44
313.706	103.44
313.935	118.44
314.165	97.44
314.394	101.44
314.624	99.44
314.853	95.44
315.083	95.44
315.312	94.44
315.542	105.44
315.771	104.44
316.001	110.44
316.23	96.44
316.46	110.44
316.689	96.44
316.919	94.44
317.148	112.44
317.377	105.44
317.607	96.44
317.836	97.44
318.065	104.44
318.295	87.44
318.524	93.44
318.753	101.44
318.983	99.44
319.212	95.44
319.441	102.44
319.67	113.44
319.9	107.44
320.129	114.44
320.358	108.44
320.587	106.44
320.816	114.44
321.046	102.44
321.275	123.44
321.504	111.44
321.733	109.44
321.962	106.44
322.191	110.44
322.42	97.44
322.649	100.44
322.878	106.44
323.108	106.44
323.337	105.44
323.566	90.44
323.795	103.44
324.024	103.44
324.253	96.44
324.482	103.44
324.71	115.44
324.939	115.44
325.168	105.44
325.397	98.44
325.626	114.44
325.855	107.44
326.084	106.44
326.313	106.44
326.542	95.44
326.77	101.44
326.999	102.44
327.228	88.44
327.457	104.44
327.686	106.44
327.914	117.44
328.143	104.44
328.372	103.44
328.6	100.44
328.829	107.44
329.058	101.44
329.287	97.44
329.515	105.44
329.744	99.44
329.972	102.44
330.201	90.44
330.43	105.44
330.658	107.44
330.887	91.44
331.115	110.44
331.344	90.44
331.572	106.44
331.801	106.44
332.03	98.44
332.258	102.44
332.486	123.44
332.715	117.44
332.943	105.44
333.172	105.44
333.4	104.44
333.629	121.44
333.857	120.44
334.085	110.44
334.314	111.44
334.542	116.44
334.771	109.44
334.999	105.44
335.227	112.44
335.455	102.44
335.684	119.44
335.912	102.44
336.14	104.44
336.369	112.44
336.597	107.44
336.825	107.44
337.053	110.44
337.281	116.44
337.51	113.44
337.738	113.44
337.966	110.44
338.194	99.44
338.422	121.44
338.65	106.44
338.878	115.44
339.106	97.44
339.334	109.44
339.562	97.44
339.79	107.44
340.018	91.44
340.246	101.44
340.474	98.44
340.702	109.44
340.93	117.44
341.158	98.44
341.386	106.44
341.614	89.44
341.842	99.44
342.07	88.44
342.298	93.44
342.526	95.44
342.754	102.44
342.981	118.44
343.209	100.44
343.437	146.44
343.665	129.44
343.893	105.44
344.12	131.44
344.348	113.44
344.576	116.44
344.804	101.44
345.031	95.44
345.259	113.44
345.487	107.44
345.714	90.44
345.942	100.44
346.17	112.44
346.397	75.44
346.625	111.44
346.853	102.44
347.08	98.44
347.308	102.44
347.535	123.44
347.763	106.44
347.99	112.44
348.218	114.44
348.445	110.44
348.673	118.44
348.9	93.44
349.128	109.44
349.355	90.44
349.583	110.44
349.81	106.44
350.037	104.44
350.265	104.44
350.492	98.44
350.72	106.44
350.947	93.44
351.174	117.44
351.402	90.44
351.629	103.44
351.856	99.44
352.083	89.44
352.311	101.44
352.538	104.44
352.765	100.44
352.992	130.44
353.22	97.44
353.447	100.44
353.674	107.44
353.901	111.44
354.128	97.44
354.355	92.44
354.583	89.44
354.81	83.44
355.037	103.44
355.264	101.44
355.491	105.44
355.718	110.44
355.945	117.44
356.172	111.44
356.399	113.44
356.626	88.44
356.853	115.44
357.08	111.44
357.307	105.44
357.534	90.44
357.761	105.44
357.988	116.44
358.215	113.44
358.441	107.44
358.668	106.44
358.895	100.44
359.122	101.44
359.349	107.44
359.576	102.44
359.802	94.44
360.029	112.44
360.256	93.44
360.483	100.44
360.709	97.44
360.936	119.44
361.163	101.44
361.39	88.44
361.616	96.44
361.843	102.44
362.07	114.44
362.296	112.44
362.523	97.44
362.749	105.44
362.976	105.44
363.203	105.44
363.429	98.44
363.656	94.44
363.882	98.44
364.109	112.44
364.335	101.44
364.562	96.44
364.788	102.44
365.015	95.44
365.241	101.44
365.468	110.44
365.694	107.44
365.92	91.44
366.147	89.44
366.373	86.44
366.599	101.44
366.826	93.44
367.052	109.44
367.278	105.44
367.505	101.44
367.731	101.44
367.957	109.44
368.184	115.44
368.41	101.44
368.636	111.44
368.862	105.44
369.089	106.44
369.315	95.44
369.541	116.44
369.767	105.44
369.993	96.44
370.219	85.44
370.445	103.44
370.672	91.44
370.898	85.44
371.124	94.44
371.35	117.44
371.576	98.44
371.802	102.44
372.028	108.44
372.254	102.44
372.48	94.44
372.706	105.44
372.932	104.44
373.158	98.44
373.384	115.44
373.61	109.44
373.835	104.44
374.061	101.44
374.287	110.44
374.513	117.44
374.739	96.44
374.965	109.44
375.191	110.44
375.416	133.44
375.642	118.44
375.868	116.44
376.094	103.44
376.319	98.44
376.545	106.44
376.771	100.44
376.997	119.44
377.222	99.44
377.448	92.44
377.674	99.44
377.899	106.44
378.125	94.44
378.35	121.44
378.576	108.44
378.802	121.44
379.027	113.44
379.253	114.44
379.478	109.44
379.704	120.44
379.929	117.44
380.155	121.44
380.38	103.44
380.606	103.44
380.831	107.44
381.057	120.44
381.282	102.44
381.507	113.44
381.733	110.44
381.958	117.44
382.184	98.44
382.409	105.44
382.634	116.44
382.86	111.44
383.085	119.44
383.31	107.44
383.535	116.44
383.761	114.44
383.986	109.44
384.211	95.44
384.436	120.44
384.662	103.44
384.887	95.44
385.112	116.44
385.337	109.44
385.562	115.44
385.787	120.44
386.013	130.44
386.238	113.44
386.463	104.44
386.688	162.44
386.913	114.44
387.138	109.44
387.363	110.44
387.588	116.44
387.813	115.44
388.038	110.44
388.263	130.44
388.488	111.44
388.713	106.44
388.938	105.44
389.163	118.44
389.387	114.44
389.612	102.44
389.837	113.44
390.062	103.44
390.287	113.44
390.512	116.44
390.736	103.44
390.961	120.44
391.186	109.44
391.411	121.44
391.636	113.44
391.86	123.44
392.085	129.44
392.31	120.44
392.534	123.44
392.759	121.44
392.984	113.44
393.208	117.44
393.433	112.44
393.658	121.44
393.882	125.44
394.107	110.44
394.331	122.44
394.556	119.44
394.78	126.44
395.005	120.44
395.229	109.44
395.454	117.44
395.678	118.44
395.903	109.44
396.127	126.44
396.352	119.44
396.576	107.44
396.801	125.44
397.025	126.44
397.249	123.44
397.474	117.44
397.698	119.44
397.922	130.44
398.147	126.44
398.371	115.44
398.595	137.44
398.82	132.44
399.044	152.44
399.268	132.44
399.492	157.44
399.717	144.44
399.941	181.44
400.165	163.44
400.389	126.44
400.613	129.44
400.837	131.44
401.062	137.44
401.286	128.44
401.51	136.44
401.734	107.44
401.958	128.44
402.182	115.44
402.406	119.44
402.63	132.44
402.854	146.44
403.078	142.44
403.302	135.44
403.526	129.44
403.75	132.44
403.974	146.44
404.198	131.44
404.422	147.44
404.645	145.44
404.869	123.44
405.093	131.44
405.317	146.44
405.541	134.44
405.765	132.44
405.988	136.44
406.212	123.44
406.436	141.44
406.66	142.44
406.883	138.44
407.107	149.44
407.331	125.44
407.555	145.44
407.778	133.44
408.002	145.44
408.226	128.44
408.449	143.44
408.673	125.44
408.896	132.44
409.12	128.44
409.344	121.44
409.567	131.44
409.791	142.44
410.014	142.44
410.238	117.44
410.461	125.44
410.685	120.44
410.908	125.44
411.132	146.44
411.355	127.44
411.578	148.44
411.802	114.44
412.025	111.44
412.249	127.44
412.472	112.44
412.695	130.44
412.919	131.44
413.142	127.44
413.365	135.44
413.589	127.44
413.812	118.44
414.035	135.44
414.258	135.44
414.482	119.44
414.705	125.44
414.928	125.44
415.151	111.44
415.374	108.44
415.597	125.44
415.821	134.44
416.044	128.44
416.267	115.44
416.49	131.44
416.713	122.44
416.936	127.44
417.159	124.44
417.382	136.44
417.605	126.44
417.828	137.44
418.051	132.44
418.274	131.44
418.497	128.44
418.72	143.44
418.943	143.44
419.166	159.44
419.389	142.44
419.611	131.44
419.834	127.44
420.057	125.44
420.28	131.44
420.503	130.44
420.726	122.44
420.948	136.44
421.171	142.44
421.394	127.44
421.617	137.44
421.839	127.44
422.062	135.44
422.285	146.44
422.507	121.44
422.73	126.44
422.953	137.44
423.175	134.44
423.398	129.44
423.621	143.44
423.843	113.44
424.066	131.44
424.288	154.44
424.511	138.44
424.733	150.44
424.956	119.44
425.178	117.44
425.401	142.44
425.623	137.44
425.846	124.44
426.068	121.44
426.291	119.44
426.513	135.44
426.735	133.44
426.958	120.44
427.18	115.44
427.402	122.44
427.625	119.44
427.847	127.44
428.069	124.44
428.292	138.44
428.514	128.44
428.736	135.44
428.958	127.44
429.181	138.44
429.403	114.44
429.625	138.44
429.847	125.44
430.069	131.44
430.292	130.44
430.514	134.44
430.736	128.44
430.958	121.44
431.18	126.44
431.402	108.44
431.624	117.44
431.846	121.44
432.068	122.44
432.29	114.44
432.512	129.44
432.734	123.44
432.956	139.44
433.178	132.44
433.4	127.44
433.622	127.44
433.844	129.44
434.066	120.44
434.287	110.44
434.509	118.44
434.731	131.44
434.953	126.44
435.175	133.44
435.397	126.44
435.618	135.44
435.84	143.44
436.062	122.44
436.284	122.44
436.505	132.44
436.727	121.44
436.949	125.44
437.17	128.44
437.392	114.44
437.614	118.44
437.835	129.44
438.057	124.44
438.278	132.44
438.5	126.44
438.721	142.44
438.943	125.44
439.165	122.44
439.386	124.44
439.608	143.44
439.829	141.44
440.05	143.44
440.272	146.44
440.493	136.44
440.715	134.44
440.936	138.44
441.158	143.44
441.379	134.44
441.6	152.44
441.822	143.44
442.043	126.44
442.264	134.44
442.486	155.44
442.707	127.44
442.928	120.44
443.149	135.44
443.371	131.44
443.592	145.44
443.813	132.44
444.034	140.44
444.255	141.44
444.476	144.44
444.698	127.44
444.919	146.44
445.14	403.44
445.361	265.44
445.582	141.44
445.803	128.44
446.024	157.44
446.245	147.44
446.466	143.44
446.687	139.44
446.908	113.44
447.129	143.44
447.35	135.44
447.571	125.44
447.792	118.44
448.013	128.44
448.234	123.44
448.455	121.44
448.675	114.44
448.896	128.44
449.117	150.44
449.338	125.44
449.559	105.44
449.779	130.44
450	117.44
450.221	116.44
450.442	134.44
450.662	119.44
450.883	105.44
451.104	143.44
451.324	129.44
451.545	135.44
451.766	126.44
451.986	120.44
452.207	123.44
452.428	112.44
452.648	119.44
452.869	113.44
453.089	111.44
453.31	120.44
453.53	130.44
453.751	116.44
453.971	131.44
454.192	101.44
454.412	113.44
454.633	126.44
454.853	105.44
455.073	106.44
455.294	95.44
455.514	118.44
455.734	118.44
455.955	128.44
456.175	118.44
456.395	116.44
456.616	100.44
456.836	113.44
457.056	117.44
457.276	120.44
457.497	111.44
457.717	97.44
457.937	125.44
458.157	109.44
458.377	102.44
458.598	105.44
458.818	123.44
459.038	104.44
459.258	104.44
459.478	131.44
459.698	126.44
459.918	125.44
460.138	127.44
460.358	135.44
460.578	124.44
460.798	123.44
461.018	118.44
461.238	123.44
461.458	123.44
461.678	127.44
461.898	141.44
462.118	149.44
462.338	121.44
462.558	144.44
462.777	137.44
462.997	130.44
463.217	136.44
463.437	135.44
463.657	131.44
463.876	141.44
464.096	133.44
464.316	134.44
464.536	132.44
464.755	133.44
464.975	123.44
465.195	135.44
465.414	123.44
465.634	122.44
465.854	149.44
466.073	115.44
466.293	126.44
466.512	116.44
466.732	119.44
466.951	116.44
467.171	137.44
467.391	129.44
467.61	119.44
467.829	121.44
468.049	133.44
468.268	113.44
468.488	125.44
468.707	127.44
468.927	129.44
469.146	117.44
469.365	113.44
469.585	124.44
469.804	138.44
470.023	120.44
470.243	126.44
470.462	122.44
470.681	130.44
470.901	118.44
471.12	137.44
471.339	133.44
471.558	127.44
471.777	120.44
471.997	108.44
472.216	117.44
472.435	135.44
472.654	120.44
472.873	121.44
473.092	119.44
473.311	110.44
473.53	128.44
473.749	134.44
473.968	108.44
474.187	111.44
474.406	117.44
474.625	120.44
474.844	141.44
475.063	128.44
475.282	120.44
475.501	118.44
475.72	142.44
475.939	117.44
476.158	128.44
476.377	132.44
476.596	115.44
476.814	127.44
477.033	121.44
477.252	124.44
477.471	109.44
477.69	138.44
477.908	126.44
478.127	131.44
478.346	152.44
478.564	133.44
478.783	143.44
479.002	145.44
479.22	134.44
479.439	136.44
479.658	141.44
479.876	132.44
480.095	109.44
480.313	128.44
480.532	127.44
480.751	147.44
480.969	114.44
481.188	123.44
481.406	121.44
481.624	125.44
481.843	130.44
482.061	131.44
482.28	131.44
482.498	137.44
482.717	105.44
482.935	120.44
483.153	142.44
483.372	132.44
483.59	141.44
483.808	134.44
484.027	133.44
484.245	135.44
484.463	145.44
484.681	135.44
484.9	141.44
485.118	141.44
485.336	120.44
485.554	124.44
485.772	134.44
485.99	135.44
486.209	125.44
486.427	116.44
486.645	128.44
486.863	147.44
487.081	159.44
487.299	133.44
487.517	131.44
487.735	148.44
487.953	153.44
488.171	143.44
488.389	137.44
488.607	129.44
488.825	143.44
489.043	130.44
489.261	134.44
489.479	118.44
489.696	150.44
489.914	137.44
490.132	139.44
490.35	144.44
490.568	148.44
490.786	144.44
491.003	163.44
491.221	155.44
491.439	136.44
491.657	157.44
491.874	145.44
492.092	160.44
492.31	170.44
492.527	152.44
492.745	155.44
492.963	151.44
493.18	158.44
493.398	138.44
493.615	155.44
493.833	131.44
494.05	146.44
494.268	156.44
494.485	164.44
494.703	125.44
494.92	157.44
495.138	151.44
495.355	161.44
495.573	145.44
495.79	127.44
496.008	145.44
496.225	141.44
496.442	143.44
496.66	148.44
496.877	145.44
497.094	149.44
497.312	162.44
497.529	165.44
497.746	152.44
497.963	148.44
498.181	129.44
498.398	153.44
498.615	150.44
498.832	163.44
499.049	159.44
499.267	170.44
499.484	187.44
499.701	195.44
499.918	205.44
500.135	219.44
500.352	232.44
500.569	224.44
500.786	241.44
501.003	225.44
501.22	201.44
501.437	187.44
501.654	187.44
501.871	166.44
502.088	164.44
502.305	165.44
502.522	161.44
502.739	150.44
502.956	137.44
503.172	144.44
503.389	136.44
503.606	147.44
503.823	132.44
504.04	161.44
504.256	141.44
504.473	155.44
504.69	158.44
504.907	152.44
505.123	135.44
505.34	135.44
505.557	137.44
505.773	149.44
505.99	145.44
506.207	136.44
506.423	120.44
506.64	127.44
506.856	114.44
507.073	123.44
507.289	137.44
507.506	118.44
507.722	130.44
507.939	129.44
