Data from SampD_HRD10591_00061.txt Node
Date: Mon Jan 19 11:50:36 EST 2026
User: Yrep
Spectrometer: HR+D1059
Trigger mode: 0
Integration Time (sec): 3.443000E-1
Scans to average: 1
Electric dark correction enabled: true
Nonlinearity correction enabled: false
Boxcar width: 0
XAxis mode: Wavelengths
Number of Pixels in Spectrum: 2048
>>>>>Begin Spectral Data<<<<<
223.165	-21.38
223.4	-21.38
223.635	-21.38
223.869	-39.38
224.104	-30.38
224.338	-9.38
224.573	-21.38
224.808	-19.38
225.042	-1.38
225.277	-11.38
225.511	-1.38
225.746	17.62
225.98	0.62
226.215	6.62
226.449	21.62
226.683	31.62
226.918	37.62
227.152	39.62
227.387	28.62
227.621	38.62
227.856	50.62
228.09	47.62
228.324	47.62
228.559	65.62
228.793	65.62
229.027	71.62
229.262	69.62
229.496	58.62
229.73	55.62
229.964	78.62
230.199	81.62
230.433	75.62
230.667	85.62
230.901	78.62
231.136	83.62
231.37	78.62
231.604	85.62
231.838	89.62
232.072	77.62
232.306	80.62
232.541	95.62
232.775	84.62
233.009	72.62
233.243	78.62
233.477	73.62
233.711	77.62
233.945	84.62
234.179	88.62
234.413	78.62
234.647	100.62
234.881	80.62
235.115	72.62
235.349	73.62
235.583	79.62
235.817	69.62
236.051	101.62
236.285	86.62
236.519	69.62
236.753	71.62
236.987	86.62
237.221	75.62
237.455	81.62
237.689	81.62
237.922	80.62
238.156	68.62
238.39	64.62
238.624	67.62
238.858	75.62
239.091	82.62
239.325	77.62
239.559	69.62
239.793	95.62
240.027	81.62
240.26	77.62
240.494	67.62
240.728	93.62
240.961	75.62
241.195	79.62
241.429	87.62
241.662	77.62
241.896	83.62
242.13	82.62
242.363	73.62
242.597	82.62
242.83	87.62
243.064	79.62
243.298	86.62
243.531	87.62
243.765	83.62
243.998	83.62
244.232	93.62
244.465	84.62
244.699	70.62
244.932	69.62
245.166	75.62
245.399	83.62
245.633	92.62
245.866	79.62
246.099	77.62
246.333	84.62
246.566	57.62
246.8	96.62
247.033	79.62
247.266	65.62
247.5	64.62
247.733	79.62
247.966	85.62
248.2	79.62
248.433	79.62
248.666	80.62
248.899	74.62
249.133	83.62
249.366	74.62
249.599	95.62
249.832	80.62
250.066	97.62
250.299	85.62
250.532	84.62
250.765	78.62
250.998	78.62
251.231	83.62
251.465	93.62
251.698	81.62
251.931	84.62
252.164	87.62
252.397	95.62
252.63	96.62
252.863	90.62
253.096	97.62
253.329	97.62
253.562	84.62
253.795	73.62
254.028	93.62
254.261	91.62
254.494	86.62
254.727	75.62
254.96	97.62
255.193	106.62
255.426	77.62
255.659	81.62
255.892	105.62
256.124	91.62
256.357	76.62
256.59	82.62
256.823	79.62
257.056	93.62
257.289	78.62
257.521	86.62
257.754	82.62
257.987	83.62
258.22	105.62
258.452	90.62
258.685	66.62
258.918	88.62
259.151	64.62
259.383	80.62
259.616	83.62
259.849	80.62
260.081	100.62
260.314	89.62
260.547	90.62
260.779	79.62
261.012	89.62
261.244	78.62
261.477	92.62
261.71	90.62
261.942	95.62
262.175	95.62
262.407	91.62
262.64	79.62
262.872	86.62
263.105	95.62
263.337	81.62
263.57	96.62
263.802	109.62
264.035	99.62
264.267	89.62
264.499	93.62
264.732	102.62
264.964	89.62
265.197	91.62
265.429	79.62
265.661	80.62
265.894	86.62
266.126	87.62
266.358	87.62
266.591	76.62
266.823	89.62
267.055	81.62
267.287	93.62
267.52	93.62
267.752	97.62
267.984	85.62
268.216	89.62
268.448	97.62
268.681	81.62
268.913	79.62
269.145	99.62
269.377	87.62
269.609	79.62
269.841	90.62
270.073	83.62
270.306	79.62
270.538	95.62
270.77	92.62
271.002	104.62
271.234	90.62
271.466	85.62
271.698	93.62
271.93	90.62
272.162	100.62
272.394	97.62
272.626	90.62
272.858	87.62
273.09	91.62
273.322	81.62
273.553	87.62
273.785	109.62
274.017	100.62
274.249	88.62
274.481	87.62
274.713	91.62
274.945	91.62
275.176	92.62
275.408	95.62
275.64	101.62
275.872	91.62
276.104	113.62
276.335	93.62
276.567	85.62
276.799	90.62
277.031	97.62
277.262	101.62
277.494	94.62
277.726	97.62
277.957	97.62
278.189	100.62
278.421	103.62
278.652	86.62
278.884	98.62
279.115	97.62
279.347	89.62
279.579	92.62
279.81	90.62
280.042	87.62
280.273	96.62
280.505	88.62
280.736	97.62
280.968	106.62
281.199	105.62
281.431	88.62
281.662	106.62
281.894	94.62
282.125	96.62
282.356	95.62
282.588	95.62
282.819	94.62
283.051	89.62
283.282	99.62
283.513	94.62
283.745	87.62
283.976	97.62
284.207	96.62
284.439	96.62
284.67	100.62
284.901	93.62
285.132	95.62
285.364	100.62
285.595	98.62
285.826	95.62
286.057	105.62
286.288	93.62
286.52	111.62
286.751	86.62
286.982	96.62
287.213	102.62
287.444	109.62
287.675	102.62
287.906	88.62
288.138	102.62
288.369	102.62
288.6	88.62
288.831	94.62
289.062	105.62
289.293	104.62
289.524	98.62
289.755	97.62
289.986	78.62
290.217	95.62
290.448	85.62
290.679	103.62
290.91	105.62
291.141	99.62
291.371	91.62
291.602	113.62
291.833	83.62
292.064	99.62
292.295	81.62
292.526	96.62
292.757	87.62
292.987	115.62
293.218	83.62
293.449	111.62
293.68	96.62
293.91	93.62
294.141	99.62
294.372	104.62
294.603	95.62
294.833	100.62
295.064	103.62
295.295	115.62
295.525	82.62
295.756	100.62
295.987	89.62
296.217	102.62
296.448	112.62
296.679	107.62
296.909	110.62
297.14	111.62
297.37	126.62
297.601	107.62
297.831	101.62
298.062	104.62
298.292	105.62
298.523	111.62
298.753	82.62
298.984	102.62
299.214	96.62
299.445	118.62
299.675	102.62
299.905	103.62
300.136	101.62
300.366	95.62
300.597	111.62
300.827	109.62
301.057	100.62
301.288	111.62
301.518	103.62
301.748	98.62
301.979	137.62
302.209	115.62
302.439	97.62
302.669	106.62
302.9	107.62
303.13	96.62
303.36	107.62
303.59	79.62
303.82	88.62
304.051	87.62
304.281	105.62
304.511	113.62
304.741	105.62
304.971	105.62
305.201	113.62
305.431	103.62
305.661	100.62
305.891	104.62
306.121	99.62
306.352	106.62
306.582	101.62
306.812	99.62
307.042	106.62
307.272	93.62
307.502	107.62
307.731	99.62
307.961	107.62
308.191	119.62
308.421	97.62
308.651	87.62
308.881	107.62
309.111	103.62
309.341	96.62
309.571	88.62
309.8	101.62
310.03	113.62
310.26	102.62
310.49	111.62
310.72	90.62
310.949	88.62
311.179	114.62
311.409	94.62
311.639	104.62
311.868	116.62
312.098	97.62
312.328	103.62
312.557	117.62
312.787	102.62
313.017	99.62
313.246	96.62
313.476	106.62
313.706	112.62
313.935	110.62
314.165	101.62
314.394	97.62
314.624	107.62
314.853	103.62
315.083	112.62
315.312	103.62
315.542	96.62
315.771	106.62
316.001	95.62
316.23	93.62
316.46	98.62
316.689	112.62
316.919	99.62
317.148	105.62
317.377	104.62
317.607	112.62
317.836	110.62
318.065	105.62
318.295	101.62
318.524	99.62
318.753	97.62
318.983	94.62
319.212	103.62
319.441	104.62
319.67	110.62
319.9	105.62
320.129	104.62
320.358	112.62
320.587	95.62
320.816	108.62
321.046	101.62
321.275	106.62
321.504	114.62
321.733	98.62
321.962	98.62
322.191	102.62
322.42	97.62
322.649	108.62
322.878	94.62
323.108	106.62
323.337	98.62
323.566	107.62
323.795	105.62
324.024	95.62
324.253	95.62
324.482	98.62
324.71	105.62
324.939	112.62
325.168	98.62
325.397	91.62
325.626	102.62
325.855	93.62
326.084	104.62
326.313	104.62
326.542	93.62
326.77	106.62
326.999	101.62
327.228	103.62
327.457	114.62
327.686	100.62
327.914	104.62
328.143	117.62
328.372	104.62
328.6	101.62
328.829	98.62
329.058	94.62
329.287	88.62
329.515	104.62
329.744	96.62
329.972	99.62
330.201	96.62
330.43	95.62
330.658	100.62
330.887	103.62
331.115	108.62
331.344	105.62
331.572	105.62
331.801	114.62
332.03	115.62
332.258	112.62
332.486	109.62
332.715	121.62
332.943	121.62
333.172	136.62
333.4	114.62
333.629	120.62
333.857	113.62
334.085	111.62
334.314	105.62
334.542	120.62
334.771	112.62
334.999	114.62
335.227	102.62
335.455	110.62
335.684	103.62
335.912	124.62
336.14	115.62
336.369	114.62
336.597	111.62
336.825	124.62
337.053	111.62
337.281	104.62
337.51	104.62
337.738	107.62
337.966	106.62
338.194	107.62
338.422	97.62
338.65	113.62
338.878	104.62
339.106	106.62
339.334	122.62
339.562	95.62
339.79	97.62
340.018	101.62
340.246	104.62
340.474	109.62
340.702	104.62
340.93	96.62
341.158	99.62
341.386	103.62
341.614	111.62
341.842	111.62
342.07	103.62
342.298	101.62
342.526	94.62
342.754	96.62
342.981	133.62
343.209	110.62
343.437	154.62
343.665	113.62
343.893	115.62
344.12	117.62
344.348	126.62
344.576	114.62
344.804	113.62
345.031	96.62
345.259	110.62
345.487	101.62
345.714	94.62
345.942	106.62
346.17	118.62
346.397	107.62
346.625	99.62
346.853	110.62
347.08	101.62
347.308	106.62
347.535	113.62
347.763	118.62
347.99	123.62
348.218	98.62
348.445	112.62
348.673	107.62
348.9	107.62
349.128	118.62
349.355	102.62
349.583	102.62
349.81	120.62
350.037	115.62
350.265	99.62
350.492	113.62
350.72	93.62
350.947	100.62
351.174	110.62
351.402	96.62
351.629	103.62
351.856	106.62
352.083	107.62
352.311	118.62
352.538	106.62
352.765	99.62
352.992	117.62
353.22	98.62
353.447	109.62
353.674	104.62
353.901	115.62
354.128	114.62
354.355	111.62
354.583	106.62
354.81	115.62
355.037	97.62
355.264	104.62
355.491	112.62
355.718	107.62
355.945	108.62
356.172	107.62
356.399	105.62
356.626	111.62
356.853	111.62
357.08	87.62
357.307	110.62
357.534	105.62
357.761	105.62
357.988	102.62
358.215	89.62
358.441	105.62
358.668	124.62
358.895	106.62
359.122	105.62
359.349	107.62
359.576	102.62
359.802	94.62
360.029	105.62
360.256	99.62
360.483	99.62
360.709	93.62
360.936	114.62
361.163	96.62
361.39	103.62
361.616	90.62
361.843	103.62
362.07	113.62
362.296	111.62
362.523	104.62
362.749	110.62
362.976	109.62
363.203	109.62
363.429	101.62
363.656	94.62
363.882	93.62
364.109	112.62
364.335	114.62
364.562	115.62
364.788	111.62
365.015	97.62
365.241	103.62
365.468	114.62
365.694	102.62
365.92	103.62
366.147	88.62
366.373	103.62
366.599	111.62
366.826	106.62
367.052	90.62
367.278	117.62
367.505	114.62
367.731	122.62
367.957	103.62
368.184	114.62
368.41	115.62
368.636	93.62
368.862	113.62
369.089	96.62
369.315	105.62
369.541	93.62
369.767	116.62
369.993	102.62
370.219	105.62
370.445	103.62
370.672	109.62
370.898	111.62
371.124	103.62
371.35	95.62
371.576	116.62
371.802	106.62
372.028	119.62
372.254	113.62
372.48	105.62
372.706	112.62
372.932	102.62
373.158	102.62
373.384	101.62
373.61	94.62
373.835	116.62
374.061	101.62
374.287	106.62
374.513	113.62
374.739	107.62
374.965	113.62
375.191	106.62
375.416	96.62
375.642	105.62
375.868	134.62
376.094	116.62
376.319	104.62
376.545	102.62
376.771	102.62
376.997	97.62
377.222	98.62
377.448	98.62
377.674	121.62
377.899	104.62
378.125	106.62
378.35	107.62
378.576	111.62
378.802	105.62
379.027	116.62
379.253	106.62
379.478	118.62
379.704	109.62
379.929	111.62
380.155	97.62
380.38	100.62
380.606	91.62
380.831	100.62
381.057	102.62
381.282	104.62
381.507	101.62
381.733	106.62
381.958	105.62
382.184	106.62
382.409	110.62
382.634	114.62
382.86	112.62
383.085	129.62
383.31	110.62
383.535	121.62
383.761	122.62
383.986	115.62
384.211	124.62
384.436	118.62
384.662	104.62
384.887	135.62
385.112	95.62
385.337	122.62
385.562	106.62
385.787	119.62
386.013	115.62
386.238	141.62
386.463	113.62
386.688	147.62
386.913	127.62
387.138	117.62
387.363	126.62
387.588	130.62
387.813	118.62
388.038	117.62
388.263	109.62
388.488	118.62
388.713	120.62
388.938	102.62
389.163	111.62
389.387	112.62
389.612	113.62
389.837	115.62
390.062	111.62
390.287	112.62
390.512	116.62
390.736	123.62
390.961	122.62
391.186	128.62
391.411	132.62
391.636	127.62
391.86	129.62
392.085	122.62
392.31	126.62
392.534	124.62
392.759	114.62
392.984	131.62
393.208	115.62
393.433	112.62
393.658	114.62
393.882	121.62
394.107	121.62
394.331	119.62
394.556	106.62
394.78	123.62
395.005	124.62
395.229	134.62
395.454	116.62
395.678	123.62
395.903	136.62
396.127	114.62
396.352	123.62
396.576	112.62
396.801	128.62
397.025	131.62
397.249	122.62
397.474	137.62
397.698	121.62
397.922	136.62
398.147	121.62
398.371	148.62
398.595	125.62
398.82	140.62
399.044	146.62
399.268	121.62
399.492	148.62
399.717	156.62
399.941	167.62
400.165	172.62
400.389	137.62
400.613	136.62
400.837	125.62
401.062	137.62
401.286	121.62
401.51	120.62
401.734	114.62
401.958	128.62
402.182	141.62
402.406	128.62
402.63	144.62
402.854	136.62
403.078	135.62
403.302	132.62
403.526	145.62
403.75	135.62
403.974	162.62
404.198	136.62
404.422	145.62
404.645	138.62
404.869	131.62
405.093	132.62
405.317	129.62
405.541	143.62
405.765	138.62
405.988	151.62
406.212	135.62
406.436	142.62
406.66	145.62
406.883	135.62
407.107	144.62
407.331	138.62
407.555	149.62
407.778	153.62
408.002	146.62
408.226	150.62
408.449	131.62
408.673	143.62
408.896	141.62
409.12	150.62
409.344	154.62
409.567	126.62
409.791	145.62
410.014	143.62
410.238	150.62
410.461	143.62
410.685	140.62
410.908	137.62
411.132	149.62
411.355	140.62
411.578	145.62
411.802	119.62
412.025	119.62
412.249	125.62
412.472	138.62
412.695	126.62
412.919	136.62
413.142	136.62
413.365	136.62
413.589	131.62
413.812	118.62
414.035	154.62
414.258	129.62
414.482	132.62
414.705	137.62
414.928	122.62
415.151	123.62
415.374	135.62
415.597	134.62
415.821	136.62
416.044	136.62
416.267	141.62
416.49	129.62
416.713	134.62
416.936	120.62
417.159	121.62
417.382	130.62
417.605	139.62
417.828	139.62
418.051	150.62
418.274	138.62
418.497	135.62
418.72	129.62
418.943	125.62
419.166	157.62
419.389	137.62
419.611	123.62
419.834	147.62
420.057	136.62
420.28	129.62
420.503	129.62
420.726	138.62
420.948	148.62
421.171	121.62
421.394	147.62
421.617	161.62
421.839	138.62
422.062	135.62
422.285	143.62
422.507	147.62
422.73	145.62
422.953	127.62
423.175	147.62
423.398	138.62
423.621	139.62
423.843	134.62
424.066	141.62
424.288	147.62
424.511	146.62
424.733	143.62
424.956	148.62
425.178	134.62
425.401	137.62
425.623	147.62
425.846	141.62
426.068	136.62
426.291	139.62
426.513	148.62
426.735	136.62
426.958	127.62
427.18	134.62
427.402	134.62
427.625	123.62
427.847	125.62
428.069	120.62
428.292	126.62
428.514	143.62
428.736	112.62
428.958	115.62
429.181	123.62
429.403	125.62
429.625	128.62
429.847	115.62
430.069	140.62
430.292	134.62
430.514	123.62
430.736	132.62
430.958	128.62
431.18	138.62
431.402	132.62
431.624	135.62
431.846	123.62
432.068	124.62
432.29	121.62
432.512	120.62
432.734	132.62
432.956	120.62
433.178	148.62
433.4	129.62
433.622	145.62
433.844	122.62
434.066	131.62
434.287	118.62
434.509	141.62
434.731	127.62
434.953	125.62
435.175	129.62
435.397	148.62
435.618	155.62
435.84	137.62
436.062	133.62
436.284	138.62
436.505	128.62
436.727	115.62
436.949	145.62
437.17	135.62
437.392	124.62
437.614	121.62
437.835	111.62
438.057	114.62
438.278	127.62
438.5	126.62
438.721	133.62
438.943	119.62
439.165	131.62
439.386	138.62
439.608	130.62
439.829	133.62
440.05	124.62
440.272	126.62
440.493	129.62
440.715	137.62
440.936	136.62
441.158	128.62
441.379	148.62
441.6	138.62
441.822	137.62
442.043	132.62
442.264	150.62
442.486	130.62
442.707	141.62
442.928	127.62
443.149	125.62
443.371	145.62
443.592	138.62
443.813	149.62
444.034	155.62
444.255	150.62
444.476	139.62
444.698	139.62
444.919	149.62
445.14	392.62
445.361	277.62
445.582	134.62
445.803	132.62
446.024	126.62
446.245	142.62
446.466	133.62
446.687	137.62
446.908	136.62
447.129	124.62
447.35	144.62
447.571	137.62
447.792	134.62
448.013	137.62
448.234	135.62
448.455	134.62
448.675	132.62
448.896	132.62
449.117	122.62
449.338	123.62
449.559	143.62
449.779	127.62
450	109.62
450.221	133.62
450.442	139.62
450.662	125.62
450.883	118.62
451.104	138.62
451.324	116.62
451.545	130.62
451.766	136.62
451.986	111.62
452.207	119.62
452.428	107.62
452.648	120.62
452.869	127.62
453.089	123.62
453.31	118.62
453.53	134.62
453.751	106.62
453.971	124.62
454.192	115.62
454.412	123.62
454.633	122.62
454.853	114.62
455.073	121.62
455.294	138.62
455.514	123.62
455.734	121.62
455.955	112.62
456.175	118.62
456.395	115.62
456.616	119.62
456.836	114.62
457.056	117.62
457.276	101.62
457.497	118.62
457.717	107.62
457.937	105.62
458.157	107.62
458.377	117.62
458.598	111.62
458.818	128.62
459.038	127.62
459.258	117.62
459.478	122.62
459.698	124.62
459.918	117.62
460.138	120.62
460.358	151.62
460.578	144.62
460.798	132.62
461.018	151.62
461.238	131.62
461.458	129.62
461.678	146.62
461.898	147.62
462.118	146.62
462.338	153.62
462.558	144.62
462.777	144.62
462.997	159.62
463.217	150.62
463.437	150.62
463.657	158.62
463.876	149.62
464.096	145.62
464.316	135.62
464.536	130.62
464.755	147.62
464.975	129.62
465.195	142.62
465.414	134.62
465.634	124.62
465.854	136.62
466.073	136.62
466.293	143.62
466.512	127.62
466.732	122.62
466.951	133.62
467.171	123.62
467.391	140.62
467.61	135.62
467.829	137.62
468.049	97.62
468.268	132.62
468.488	112.62
468.707	132.62
468.927	122.62
469.146	143.62
469.365	127.62
469.585	125.62
469.804	144.62
470.023	122.62
470.243	136.62
470.462	147.62
470.681	129.62
470.901	137.62
471.12	131.62
471.339	138.62
471.558	118.62
471.777	131.62
471.997	128.62
472.216	130.62
472.435	121.62
472.654	115.62
472.873	136.62
473.092	117.62
473.311	128.62
473.53	122.62
473.749	102.62
473.968	136.62
474.187	121.62
474.406	117.62
474.625	131.62
474.844	136.62
475.063	132.62
475.282	138.62
475.501	118.62
475.72	132.62
475.939	123.62
476.158	128.62
476.377	131.62
476.596	127.62
476.814	116.62
477.033	127.62
477.252	120.62
477.471	118.62
477.69	107.62
477.908	145.62
478.127	157.62
478.346	131.62
478.564	136.62
478.783	139.62
479.002	126.62
479.22	137.62
479.439	138.62
479.658	129.62
479.876	133.62
480.095	134.62
480.313	142.62
480.532	134.62
480.751	137.62
480.969	136.62
481.188	105.62
481.406	123.62
481.624	121.62
481.843	121.62
482.061	131.62
482.28	135.62
482.498	114.62
482.717	133.62
482.935	119.62
483.153	141.62
483.372	148.62
483.59	159.62
483.808	136.62
484.027	146.62
484.245	136.62
484.463	143.62
484.681	154.62
484.9	137.62
485.118	146.62
485.336	136.62
485.554	127.62
485.772	134.62
485.99	135.62
486.209	130.62
486.427	133.62
486.645	131.62
486.863	138.62
487.081	146.62
487.299	144.62
487.517	157.62
487.735	147.62
487.953	145.62
488.171	138.62
488.389	149.62
488.607	146.62
488.825	120.62
489.043	129.62
489.261	147.62
489.479	129.62
489.696	137.62
489.914	142.62
490.132	141.62
490.35	160.62
490.568	137.62
490.786	157.62
491.003	157.62
491.221	147.62
491.439	169.62
491.657	158.62
491.874	171.62
492.092	170.62
492.31	171.62
492.527	168.62
492.745	153.62
492.963	149.62
493.18	156.62
493.398	146.62
493.615	168.62
493.833	176.62
494.05	147.62
494.268	156.62
494.485	156.62
494.703	134.62
494.92	151.62
495.138	156.62
495.355	156.62
495.573	149.62
495.79	161.62
496.008	150.62
496.225	145.62
496.442	165.62
496.66	169.62
496.877	143.62
497.094	162.62
497.312	156.62
497.529	150.62
497.746	163.62
497.963	137.62
498.181	159.62
498.398	161.62
498.615	173.62
498.832	158.62
499.049	169.62
499.267	190.62
499.484	191.62
499.701	210.62
499.918	219.62
500.135	226.62
500.352	244.62
500.569	262.62
500.786	249.62
501.003	249.62
501.22	213.62
501.437	209.62
501.654	189.62
501.871	192.62
502.088	179.62
502.305	175.62
502.522	166.62
502.739	161.62
502.956	172.62
503.172	157.62
503.389	149.62
503.606	158.62
503.823	150.62
504.04	139.62
504.256	149.62
504.473	161.62
504.69	152.62
504.907	169.62
505.123	147.62
505.34	129.62
505.557	133.62
505.773	147.62
505.99	147.62
506.207	130.62
506.423	135.62
506.64	113.62
506.856	133.62
507.073	129.62
507.289	137.62
507.506	142.62
