Data from SampD_HRD10591_00042.txt Node
Date: Mon Jan 19 11:50:29 EST 2026
User: Yrep
Spectrometer: HR+D1059
Trigger mode: 0
Integration Time (sec): 3.443000E-1
Scans to average: 1
Electric dark correction enabled: true
Nonlinearity correction enabled: false
Boxcar width: 0
XAxis mode: Wavelengths
Number of Pixels in Spectrum: 2048
>>>>>Begin Spectral Data<<<<<
223.165	-25.19
223.4	-25.19
223.635	-25.19
223.869	-32.19
224.104	-29.19
224.338	-20.19
224.573	-24.19
224.808	-18.19
225.042	-4.19
225.277	-5.19
225.511	5.81
225.746	9.81
225.98	20.81
226.215	30.81
226.449	15.81
226.683	22.81
226.918	22.81
227.152	29.81
227.387	39.81
227.621	23.81
227.856	55.81
228.09	43.81
228.324	50.81
228.559	60.81
228.793	61.81
229.027	60.81
229.262	64.81
229.496	60.81
229.73	61.81
229.964	72.81
230.199	71.81
230.433	78.81
230.667	88.81
230.901	80.81
231.136	69.81
231.37	76.81
231.604	81.81
231.838	68.81
232.072	76.81
232.306	87.81
232.541	81.81
232.775	86.81
233.009	77.81
233.243	87.81
233.477	85.81
233.711	82.81
233.945	84.81
234.179	92.81
234.413	103.81
234.647	73.81
234.881	82.81
235.115	81.81
235.349	87.81
235.583	93.81
235.817	65.81
236.051	74.81
236.285	73.81
236.519	89.81
236.753	73.81
236.987	82.81
237.221	69.81
237.455	80.81
237.689	90.81
237.922	68.81
238.156	73.81
238.39	69.81
238.624	72.81
238.858	78.81
239.091	77.81
239.325	78.81
239.559	88.81
239.793	89.81
240.027	94.81
240.26	83.81
240.494	76.81
240.728	74.81
240.961	96.81
241.195	94.81
241.429	80.81
241.662	80.81
241.896	74.81
242.13	82.81
242.363	76.81
242.597	82.81
242.83	78.81
243.064	94.81
243.298	85.81
243.531	90.81
243.765	85.81
243.998	78.81
244.232	93.81
244.465	76.81
244.699	87.81
244.932	101.81
245.166	93.81
245.399	92.81
245.633	89.81
245.866	82.81
246.099	88.81
246.333	73.81
246.566	70.81
246.8	94.81
247.033	83.81
247.266	85.81
247.5	77.81
247.733	81.81
247.966	82.81
248.2	88.81
248.433	84.81
248.666	90.81
248.899	80.81
249.133	84.81
249.366	115.81
249.599	85.81
249.832	85.81
250.066	104.81
250.299	83.81
250.532	88.81
250.765	88.81
250.998	97.81
251.231	98.81
251.465	81.81
251.698	64.81
251.931	80.81
252.164	83.81
252.397	79.81
252.63	96.81
252.863	88.81
253.096	84.81
253.329	99.81
253.562	90.81
253.795	88.81
254.028	87.81
254.261	90.81
254.494	104.81
254.727	89.81
254.96	77.81
255.193	84.81
255.426	88.81
255.659	87.81
255.892	103.81
256.124	89.81
256.357	96.81
256.59	78.81
256.823	82.81
257.056	90.81
257.289	94.81
257.521	85.81
257.754	82.81
257.987	85.81
258.22	102.81
258.452	101.81
258.685	96.81
258.918	95.81
259.151	93.81
259.383	109.81
259.616	89.81
259.849	81.81
260.081	102.81
260.314	76.81
260.547	88.81
260.779	86.81
261.012	95.81
261.244	80.81
261.477	110.81
261.71	101.81
261.942	103.81
262.175	88.81
262.407	98.81
262.64	83.81
262.872	89.81
263.105	82.81
263.337	101.81
263.57	96.81
263.802	103.81
264.035	93.81
264.267	90.81
264.499	101.81
264.732	102.81
264.964	92.81
265.197	91.81
265.429	96.81
265.661	93.81
265.894	110.81
266.126	112.81
266.358	105.81
266.591	96.81
266.823	95.81
267.055	94.81
267.287	84.81
267.52	84.81
267.752	103.81
267.984	106.81
268.216	92.81
268.448	112.81
268.681	102.81
268.913	98.81
269.145	100.81
269.377	112.81
269.609	111.81
269.841	112.81
270.073	96.81
270.306	95.81
270.538	103.81
270.77	102.81
271.002	100.81
271.234	100.81
271.466	90.81
271.698	104.81
271.93	110.81
272.162	105.81
272.394	117.81
272.626	92.81
272.858	88.81
273.09	101.81
273.322	106.81
273.553	101.81
273.785	111.81
274.017	114.81
274.249	118.81
274.481	119.81
274.713	95.81
274.945	108.81
275.176	100.81
275.408	106.81
275.64	117.81
275.872	90.81
276.104	98.81
276.335	96.81
276.567	104.81
276.799	102.81
277.031	95.81
277.262	96.81
277.494	109.81
277.726	88.81
277.957	107.81
278.189	94.81
278.421	101.81
278.652	92.81
278.884	109.81
279.115	108.81
279.347	95.81
279.579	106.81
279.81	101.81
280.042	105.81
280.273	94.81
280.505	117.81
280.736	119.81
280.968	94.81
281.199	112.81
281.431	94.81
281.662	102.81
281.894	110.81
282.125	109.81
282.356	101.81
282.588	109.81
282.819	109.81
283.051	90.81
283.282	105.81
283.513	112.81
283.745	107.81
283.976	104.81
284.207	108.81
284.439	115.81
284.67	113.81
284.901	118.81
285.132	112.81
285.364	124.81
285.595	122.81
285.826	114.81
286.057	129.81
286.288	117.81
286.52	112.81
286.751	107.81
286.982	120.81
287.213	115.81
287.444	117.81
287.675	116.81
287.906	116.81
288.138	114.81
288.369	122.81
288.6	114.81
288.831	124.81
289.062	123.81
289.293	104.81
289.524	119.81
289.755	125.81
289.986	101.81
290.217	118.81
290.448	109.81
290.679	120.81
290.91	127.81
291.141	110.81
291.371	112.81
291.602	107.81
291.833	113.81
292.064	115.81
292.295	123.81
292.526	121.81
292.757	119.81
292.987	124.81
293.218	99.81
293.449	123.81
293.68	103.81
293.91	120.81
294.141	114.81
294.372	116.81
294.603	120.81
294.833	115.81
295.064	118.81
295.295	124.81
295.525	121.81
295.756	128.81
295.987	128.81
296.217	129.81
296.448	117.81
296.679	126.81
296.909	127.81
297.14	126.81
297.37	119.81
297.601	124.81
297.831	120.81
298.062	124.81
298.292	140.81
298.523	134.81
298.753	129.81
298.984	120.81
299.214	127.81
299.445	112.81
299.675	121.81
299.905	128.81
300.136	125.81
300.366	126.81
300.597	137.81
300.827	125.81
301.057	115.81
301.288	131.81
301.518	127.81
301.748	124.81
301.979	166.81
302.209	128.81
302.439	110.81
302.669	133.81
302.9	123.81
303.13	123.81
303.36	120.81
303.59	128.81
303.82	124.81
304.051	109.81
304.281	122.81
304.511	139.81
304.741	121.81
304.971	117.81
305.201	123.81
305.431	131.81
305.661	140.81
305.891	118.81
306.121	111.81
306.352	115.81
306.582	124.81
306.812	113.81
307.042	124.81
307.272	113.81
307.502	119.81
307.731	125.81
307.961	124.81
308.191	123.81
308.421	110.81
308.651	125.81
308.881	125.81
309.111	118.81
309.341	121.81
309.571	130.81
309.8	121.81
310.03	129.81
310.26	120.81
310.49	131.81
310.72	126.81
310.949	127.81
311.179	109.81
311.409	130.81
311.639	106.81
311.868	138.81
312.098	130.81
312.328	128.81
312.557	129.81
312.787	125.81
313.017	130.81
313.246	141.81
313.476	129.81
313.706	117.81
313.935	107.81
314.165	124.81
314.394	131.81
314.624	122.81
314.853	121.81
315.083	123.81
315.312	121.81
315.542	127.81
315.771	125.81
316.001	127.81
316.23	119.81
316.46	117.81
316.689	116.81
316.919	125.81
317.148	134.81
317.377	132.81
317.607	126.81
317.836	118.81
318.065	123.81
318.295	129.81
318.524	113.81
318.753	121.81
318.983	115.81
319.212	124.81
319.441	121.81
319.67	126.81
319.9	110.81
320.129	133.81
320.358	126.81
320.587	116.81
320.816	128.81
321.046	111.81
321.275	115.81
321.504	141.81
321.733	121.81
321.962	130.81
322.191	120.81
322.42	143.81
322.649	120.81
322.878	122.81
323.108	127.81
323.337	135.81
323.566	129.81
323.795	115.81
324.024	129.81
324.253	140.81
324.482	122.81
324.71	136.81
324.939	131.81
325.168	132.81
325.397	129.81
325.626	131.81
325.855	118.81
326.084	114.81
326.313	133.81
326.542	126.81
326.77	135.81
326.999	142.81
327.228	128.81
327.457	133.81
327.686	123.81
327.914	137.81
328.143	129.81
328.372	136.81
328.6	132.81
328.829	131.81
329.058	126.81
329.287	136.81
329.515	117.81
329.744	146.81
329.972	133.81
330.201	116.81
330.43	128.81
330.658	122.81
330.887	135.81
331.115	126.81
331.344	140.81
331.572	143.81
331.801	135.81
332.03	136.81
332.258	134.81
332.486	126.81
332.715	144.81
332.943	140.81
333.172	145.81
333.4	158.81
333.629	152.81
333.857	154.81
334.085	163.81
334.314	148.81
334.542	142.81
334.771	152.81
334.999	143.81
335.227	148.81
335.455	143.81
335.684	127.81
335.912	152.81
336.14	141.81
336.369	133.81
336.597	157.81
336.825	138.81
337.053	131.81
337.281	132.81
337.51	131.81
337.738	138.81
337.966	140.81
338.194	132.81
338.422	137.81
338.65	125.81
338.878	140.81
339.106	145.81
339.334	147.81
339.562	138.81
339.79	142.81
340.018	121.81
340.246	131.81
340.474	136.81
340.702	136.81
340.93	131.81
341.158	139.81
341.386	130.81
341.614	124.81
341.842	120.81
342.07	138.81
342.298	146.81
342.526	128.81
342.754	130.81
342.981	140.81
343.209	125.81
343.437	158.81
343.665	141.81
343.893	139.81
344.12	152.81
344.348	144.81
344.576	142.81
344.804	132.81
345.031	138.81
345.259	147.81
345.487	138.81
345.714	138.81
345.942	134.81
346.17	134.81
346.397	120.81
346.625	107.81
346.853	121.81
347.08	131.81
347.308	127.81
347.535	126.81
347.763	147.81
347.99	146.81
348.218	148.81
348.445	125.81
348.673	122.81
348.9	133.81
349.128	128.81
349.355	128.81
349.583	130.81
349.81	122.81
350.037	130.81
350.265	130.81
350.492	134.81
350.72	128.81
350.947	115.81
351.174	149.81
351.402	126.81
351.629	137.81
351.856	129.81
352.083	125.81
352.311	145.81
352.538	117.81
352.765	124.81
352.992	150.81
353.22	141.81
353.447	131.81
353.674	123.81
353.901	119.81
354.128	133.81
354.355	116.81
354.583	148.81
354.81	130.81
355.037	143.81
355.264	132.81
355.491	128.81
355.718	126.81
355.945	129.81
356.172	120.81
356.399	134.81
356.626	136.81
356.853	127.81
357.08	123.81
357.307	145.81
357.534	120.81
357.761	132.81
357.988	141.81
358.215	132.81
358.441	141.81
358.668	142.81
358.895	131.81
359.122	136.81
359.349	143.81
359.576	120.81
359.802	121.81
360.029	125.81
360.256	126.81
360.483	130.81
360.709	140.81
360.936	146.81
361.163	132.81
361.39	126.81
361.616	125.81
361.843	148.81
362.07	130.81
362.296	131.81
362.523	102.81
362.749	124.81
362.976	124.81
363.203	136.81
363.429	124.81
363.656	134.81
363.882	127.81
364.109	151.81
364.335	137.81
364.562	129.81
364.788	128.81
365.015	133.81
365.241	137.81
365.468	140.81
365.694	136.81
365.92	121.81
366.147	138.81
366.373	136.81
366.599	122.81
366.826	136.81
367.052	136.81
367.278	138.81
367.505	126.81
367.731	133.81
367.957	136.81
368.184	131.81
368.41	149.81
368.636	135.81
368.862	145.81
369.089	123.81
369.315	141.81
369.541	141.81
369.767	132.81
369.993	137.81
370.219	120.81
370.445	125.81
370.672	122.81
370.898	155.81
371.124	137.81
371.35	150.81
371.576	152.81
371.802	141.81
372.028	142.81
372.254	142.81
372.48	154.81
372.706	124.81
372.932	145.81
373.158	129.81
373.384	155.81
373.61	152.81
373.835	153.81
374.061	140.81
374.287	157.81
374.513	162.81
374.739	152.81
374.965	149.81
375.191	157.81
375.416	156.81
375.642	142.81
375.868	141.81
376.094	151.81
376.319	141.81
376.545	131.81
376.771	129.81
376.997	143.81
377.222	136.81
377.448	142.81
377.674	126.81
377.899	134.81
378.125	133.81
378.35	137.81
378.576	127.81
378.802	144.81
379.027	132.81
379.253	142.81
379.478	130.81
379.704	137.81
379.929	139.81
380.155	142.81
380.38	132.81
380.606	133.81
380.831	149.81
381.057	153.81
381.282	147.81
381.507	141.81
381.733	153.81
381.958	135.81
382.184	156.81
382.409	158.81
382.634	136.81
382.86	142.81
383.085	145.81
383.31	151.81
383.535	165.81
383.761	156.81
383.986	149.81
384.211	148.81
384.436	148.81
384.662	153.81
384.887	164.81
385.112	154.81
385.337	163.81
385.562	163.81
385.787	158.81
386.013	170.81
386.238	162.81
386.463	155.81
386.688	184.81
386.913	168.81
387.138	159.81
387.363	155.81
387.588	169.81
387.813	159.81
388.038	160.81
388.263	157.81
388.488	156.81
388.713	166.81
388.938	162.81
389.163	140.81
389.387	150.81
389.612	167.81
389.837	156.81
390.062	152.81
390.287	167.81
390.512	148.81
390.736	165.81
390.961	163.81
391.186	164.81
391.411	138.81
391.636	169.81
391.86	161.81
392.085	178.81
392.31	179.81
392.534	159.81
392.759	178.81
392.984	149.81
393.208	166.81
393.433	170.81
393.658	175.81
393.882	170.81
394.107	180.81
394.331	161.81
394.556	159.81
394.78	170.81
395.005	165.81
395.229	168.81
395.454	177.81
395.678	175.81
395.903	179.81
396.127	181.81
396.352	186.81
396.576	170.81
396.801	168.81
397.025	162.81
397.249	191.81
397.474	181.81
397.698	192.81
397.922	184.81
398.147	168.81
398.371	181.81
398.595	177.81
398.82	170.81
399.044	210.81
399.268	223.81
399.492	234.81
399.717	254.81
399.941	216.81
400.165	196.81
400.389	200.81
400.613	185.81
400.837	192.81
401.062	189.81
401.286	173.81
401.51	201.81
401.734	197.81
401.958	184.81
402.182	192.81
402.406	182.81
402.63	180.81
402.854	201.81
403.078	208.81
403.302	210.81
403.526	220.81
403.75	196.81
403.974	196.81
404.198	201.81
404.422	216.81
404.645	217.81
404.869	198.81
405.093	216.81
405.317	211.81
405.541	199.81
405.765	200.81
405.988	202.81
406.212	207.81
406.436	208.81
406.66	217.81
406.883	214.81
407.107	214.81
407.331	227.81
407.555	225.81
407.778	216.81
408.002	214.81
408.226	216.81
408.449	216.81
408.673	197.81
408.896	202.81
409.12	202.81
409.344	217.81
409.567	204.81
409.791	219.81
410.014	209.81
410.238	209.81
410.461	195.81
410.685	196.81
410.908	197.81
411.132	206.81
411.355	184.81
411.578	190.81
411.802	201.81
412.025	202.81
412.249	189.81
412.472	210.81
412.695	189.81
412.919	208.81
413.142	200.81
413.365	215.81
413.589	207.81
413.812	208.81
414.035	200.81
414.258	187.81
414.482	189.81
414.705	185.81
414.928	210.81
415.151	204.81
415.374	201.81
415.597	188.81
415.821	193.81
416.044	198.81
416.267	188.81
416.49	194.81
416.713	189.81
416.936	207.81
417.159	205.81
417.382	189.81
417.605	188.81
417.828	201.81
418.051	190.81
418.274	197.81
418.497	190.81
418.72	192.81
418.943	209.81
419.166	204.81
419.389	209.81
419.611	213.81
419.834	223.81
420.057	223.81
420.28	211.81
420.503	197.81
420.726	191.81
420.948	192.81
421.171	204.81
421.394	199.81
421.617	194.81
421.839	201.81
422.062	211.81
422.285	202.81
422.507	199.81
422.73	190.81
422.953	188.81
423.175	199.81
423.398	197.81
423.621	220.81
423.843	225.81
424.066	223.81
424.288	196.81
424.511	220.81
424.733	212.81
424.956	205.81
425.178	191.81
425.401	204.81
425.623	192.81
425.846	193.81
426.068	186.81
426.291	180.81
426.513	183.81
426.735	194.81
426.958	200.81
427.18	193.81
427.402	198.81
427.625	184.81
427.847	190.81
428.069	196.81
428.292	185.81
428.514	209.81
428.736	188.81
428.958	194.81
429.181	183.81
429.403	177.81
429.625	185.81
429.847	192.81
430.069	184.81
430.292	181.81
430.514	177.81
430.736	184.81
430.958	183.81
431.18	163.81
431.402	183.81
431.624	189.81
431.846	179.81
432.068	168.81
432.29	166.81
432.512	185.81
432.734	194.81
432.956	184.81
433.178	197.81
433.4	206.81
433.622	195.81
433.844	188.81
434.066	193.81
434.287	193.81
434.509	163.81
434.731	196.81
434.953	199.81
435.175	198.81
435.397	206.81
435.618	194.81
435.84	167.81
436.062	168.81
436.284	183.81
436.505	192.81
436.727	185.81
436.949	182.81
437.17	180.81
437.392	175.81
437.614	178.81
437.835	188.81
438.057	172.81
438.278	178.81
438.5	181.81
438.721	199.81
438.943	179.81
439.165	179.81
439.386	201.81
439.608	192.81
439.829	204.81
440.05	198.81
440.272	188.81
440.493	205.81
440.715	193.81
440.936	201.81
441.158	198.81
441.379	187.81
441.6	220.81
441.822	191.81
442.043	210.81
442.264	204.81
442.486	195.81
442.707	218.81
442.928	204.81
443.149	190.81
443.371	219.81
443.592	184.81
443.813	202.81
444.034	212.81
444.255	204.81
444.476	209.81
444.698	228.81
444.919	217.81
445.14	448.81
445.361	338.81
445.582	228.81
445.803	200.81
446.024	198.81
446.245	232.81
446.466	225.81
446.687	213.81
446.908	221.81
447.129	201.81
447.35	195.81
447.571	212.81
447.792	197.81
448.013	177.81
448.234	190.81
448.455	194.81
448.675	199.81
448.896	191.81
449.117	196.81
449.338	176.81
449.559	183.81
449.779	190.81
450	189.81
450.221	181.81
450.442	184.81
450.662	196.81
450.883	189.81
451.104	212.81
451.324	177.81
451.545	177.81
451.766	163.81
451.986	192.81
452.207	173.81
452.428	162.81
452.648	165.81
452.869	194.81
453.089	169.81
453.31	141.81
453.53	162.81
453.751	172.81
453.971	180.81
454.192	166.81
454.412	159.81
454.633	183.81
454.853	169.81
455.073	161.81
455.294	166.81
455.514	172.81
455.734	169.81
455.955	153.81
456.175	168.81
456.395	164.81
456.616	168.81
456.836	157.81
457.056	175.81
457.276	169.81
457.497	157.81
457.717	178.81
457.937	176.81
458.157	163.81
458.377	162.81
458.598	154.81
458.818	153.81
459.038	161.81
459.258	158.81
459.478	162.81
459.698	175.81
459.918	191.81
460.138	183.81
460.358	170.81
460.578	189.81
460.798	197.81
461.018	192.81
461.238	208.81
461.458	198.81
461.678	196.81
461.898	191.81
462.118	205.81
462.338	210.81
462.558	221.81
462.777	216.81
462.997	236.81
463.217	240.81
463.437	232.81
463.657	223.81
463.876	228.81
464.096	214.81
464.316	213.81
464.536	202.81
464.755	216.81
464.975	208.81
465.195	201.81
465.414	190.81
465.634	168.81
465.854	174.81
466.073	174.81
466.293	177.81
466.512	180.81
466.732	179.81
466.951	189.81
467.171	184.81
467.391	182.81
467.61	182.81
467.829	185.81
468.049	184.81
468.268	196.81
468.488	173.81
468.707	201.81
468.927	171.81
469.146	178.81
469.365	189.81
469.585	201.81
469.804	196.81
470.023	186.81
470.243	197.81
470.462	190.81
470.681	190.81
470.901	189.81
471.12	190.81
471.339	204.81
471.558	204.81
471.777	175.81
471.997	185.81
472.216	183.81
472.435	182.81
472.654	178.81
472.873	180.81
473.092	166.81
473.311	173.81
473.53	153.81
473.749	169.81
473.968	196.81
474.187	185.81
474.406	165.81
474.625	192.81
474.844	204.81
475.063	168.81
475.282	181.81
475.501	161.81
475.72	171.81
475.939	182.81
476.158	189.81
476.377	174.81
476.596	168.81
476.814	165.81
477.033	162.81
477.252	180.81
477.471	181.81
477.69	191.81
477.908	208.81
478.127	216.81
478.346	206.81
478.564	200.81
478.783	213.81
479.002	210.81
479.22	218.81
479.439	196.81
479.658	201.81
479.876	191.81
480.095	186.81
480.313	198.81
480.532	213.81
480.751	200.81
480.969	178.81
481.188	174.81
481.406	178.81
481.624	180.81
481.843	177.81
482.061	169.81
482.28	179.81
482.498	169.81
482.717	178.81
482.935	189.81
483.153	217.81
483.372	221.81
483.59	206.81
483.808	204.81
484.027	193.81
484.245	206.81
484.463	201.81
484.681	220.81
484.9	210.81
485.118	216.81
485.336	201.81
485.554	195.81
485.772	193.81
485.99	204.81
486.209	200.81
486.427	188.81
486.645	192.81
486.863	199.81
487.081	222.81
487.299	204.81
487.517	212.81
487.735	217.81
487.953	240.81
488.171	241.81
488.389	222.81
488.607	198.81
488.825	186.81
489.043	193.81
489.261	210.81
489.479	204.81
489.696	218.81
489.914	204.81
490.132	204.81
490.35	212.81
490.568	214.81
490.786	216.81
491.003	230.81
491.221	225.81
491.439	252.81
491.657	222.81
491.874	240.81
492.092	251.81
492.31	256.81
492.527	237.81
492.745	249.81
492.963	245.81
493.18	235.81
493.398	218.81
493.615	244.81
493.833	232.81
494.05	241.81
494.268	228.81
494.485	232.81
494.703	233.81
494.92	219.81
495.138	225.81
495.355	248.81
495.573	238.81
495.79	237.81
496.008	234.81
496.225	230.81
496.442	241.81
496.66	242.81
496.877	236.81
497.094	230.81
497.312	229.81
497.529	232.81
497.746	235.81
497.963	228.81
498.181	231.81
498.398	237.81
498.615	248.81
498.832	248.81
499.049	246.81
499.267	277.81
499.484	306.81
499.701	317.81
499.918	351.81
500.135	387.81
500.352	442.81
500.569	441.81
500.786	437.81
501.003	404.81
501.22	344.81
501.437	327.81
501.654	312.81
501.871	286.81
502.088	260.81
502.305	256.81
502.522	257.81
502.739	246.81
502.956	233.81
503.172	222.81
503.389	229.81
503.606	212.81
503.823	224.81
504.04	210.81
504.256	226.81
504.473	227.81
504.69	228.81
504.907	234.81
505.123	209.81
