Data from SampD_HRD10591_00026.txt Node
Date: Mon Jan 19 11:50:24 EST 2026
User: Yrep
Spectrometer: HR+D1059
Trigger mode: 0
Integration Time (sec): 3.443000E-1
Scans to average: 1
Electric dark correction enabled: true
Nonlinearity correction enabled: false
Boxcar width: 0
XAxis mode: Wavelengths
Number of Pixels in Spectrum: 2048
>>>>>Begin Spectral Data<<<<<
223.165	-11.06
223.4	-11.06
223.635	-11.06
223.869	-28.06
224.104	-25.06
224.338	-18.06
224.573	-25.06
224.808	-4.06
225.042	-4.06
225.277	4.94
225.511	2.94
225.746	-7.06
225.98	12.94
226.215	16.94
226.449	8.94
226.683	11.94
226.918	28.94
227.152	34.94
227.387	52.94
227.621	32.94
227.856	43.94
228.09	48.94
228.324	52.94
228.559	53.94
228.793	64.94
229.027	54.94
229.262	67.94
229.496	82.94
229.73	66.94
229.964	73.94
230.199	74.94
230.433	77.94
230.667	80.94
230.901	67.94
231.136	74.94
231.37	77.94
231.604	79.94
231.838	75.94
232.072	82.94
232.306	93.94
232.541	73.94
232.775	78.94
233.009	92.94
233.243	69.94
233.477	77.94
233.711	65.94
233.945	74.94
234.179	90.94
234.413	72.94
234.647	79.94
234.881	79.94
235.115	86.94
235.349	84.94
235.583	88.94
235.817	77.94
236.051	78.94
236.285	67.94
236.519	86.94
236.753	76.94
236.987	83.94
237.221	72.94
237.455	77.94
237.689	84.94
237.922	86.94
238.156	76.94
238.39	81.94
238.624	73.94
238.858	74.94
239.091	72.94
239.325	76.94
239.559	71.94
239.793	68.94
240.027	77.94
240.26	60.94
240.494	71.94
240.728	78.94
240.961	65.94
241.195	73.94
241.429	76.94
241.662	79.94
241.896	62.94
242.13	81.94
242.363	81.94
242.597	76.94
242.83	73.94
243.064	89.94
243.298	71.94
243.531	70.94
243.765	79.94
243.998	63.94
244.232	76.94
244.465	78.94
244.699	77.94
244.932	76.94
245.166	78.94
245.399	68.94
245.633	76.94
245.866	66.94
246.099	82.94
246.333	98.94
246.566	80.94
246.8	82.94
247.033	73.94
247.266	71.94
247.5	80.94
247.733	68.94
247.966	87.94
248.2	83.94
248.433	93.94
248.666	87.94
248.899	77.94
249.133	76.94
249.366	96.94
249.599	62.94
249.832	76.94
250.066	77.94
250.299	83.94
250.532	74.94
250.765	86.94
250.998	81.94
251.231	90.94
251.465	72.94
251.698	79.94
251.931	82.94
252.164	73.94
252.397	80.94
252.63	96.94
252.863	88.94
253.096	80.94
253.329	74.94
253.562	86.94
253.795	90.94
254.028	86.94
254.261	90.94
254.494	78.94
254.727	92.94
254.96	96.94
255.193	87.94
255.426	87.94
255.659	99.94
255.892	88.94
256.124	81.94
256.357	95.94
256.59	87.94
256.823	80.94
257.056	62.94
257.289	77.94
257.521	87.94
257.754	88.94
257.987	86.94
258.22	93.94
258.452	82.94
258.685	92.94
258.918	79.94
259.151	95.94
259.383	83.94
259.616	83.94
259.849	91.94
260.081	88.94
260.314	78.94
260.547	87.94
260.779	79.94
261.012	92.94
261.244	85.94
261.477	98.94
261.71	76.94
261.942	70.94
262.175	92.94
262.407	100.94
262.64	93.94
262.872	82.94
263.105	73.94
263.337	100.94
263.57	93.94
263.802	97.94
264.035	90.94
264.267	84.94
264.499	87.94
264.732	78.94
264.964	104.94
265.197	89.94
265.429	84.94
265.661	99.94
265.894	82.94
266.126	88.94
266.358	96.94
266.591	81.94
266.823	80.94
267.055	82.94
267.287	84.94
267.52	82.94
267.752	102.94
267.984	84.94
268.216	92.94
268.448	92.94
268.681	98.94
268.913	100.94
269.145	93.94
269.377	94.94
269.609	90.94
269.841	103.94
270.073	93.94
270.306	87.94
270.538	87.94
270.77	94.94
271.002	89.94
271.234	92.94
271.466	97.94
271.698	85.94
271.93	87.94
272.162	83.94
272.394	88.94
272.626	75.94
272.858	92.94
273.09	86.94
273.322	86.94
273.553	88.94
273.785	88.94
274.017	83.94
274.249	89.94
274.481	110.94
274.713	100.94
274.945	97.94
275.176	98.94
275.408	111.94
275.64	103.94
275.872	95.94
276.104	101.94
276.335	101.94
276.567	92.94
276.799	84.94
277.031	81.94
277.262	82.94
277.494	98.94
277.726	96.94
277.957	83.94
278.189	83.94
278.421	72.94
278.652	102.94
278.884	99.94
279.115	80.94
279.347	96.94
279.579	102.94
279.81	90.94
280.042	81.94
280.273	98.94
280.505	79.94
280.736	95.94
280.968	98.94
281.199	98.94
281.431	95.94
281.662	98.94
281.894	87.94
282.125	82.94
282.356	97.94
282.588	82.94
282.819	93.94
283.051	89.94
283.282	96.94
283.513	97.94
283.745	105.94
283.976	94.94
284.207	98.94
284.439	95.94
284.67	98.94
284.901	93.94
285.132	89.94
285.364	87.94
285.595	86.94
285.826	104.94
286.057	107.94
286.288	87.94
286.52	90.94
286.751	83.94
286.982	100.94
287.213	93.94
287.444	104.94
287.675	94.94
287.906	106.94
288.138	94.94
288.369	99.94
288.6	105.94
288.831	106.94
289.062	98.94
289.293	104.94
289.524	89.94
289.755	88.94
289.986	106.94
290.217	90.94
290.448	103.94
290.679	112.94
290.91	95.94
291.141	84.94
291.371	94.94
291.602	96.94
291.833	89.94
292.064	69.94
292.295	108.94
292.526	93.94
292.757	94.94
292.987	94.94
293.218	99.94
293.449	103.94
293.68	102.94
293.91	99.94
294.141	106.94
294.372	101.94
294.603	90.94
294.833	89.94
295.064	98.94
295.295	90.94
295.525	95.94
295.756	98.94
295.987	92.94
296.217	101.94
296.448	104.94
296.679	96.94
296.909	99.94
297.14	92.94
297.37	99.94
297.601	100.94
297.831	99.94
298.062	102.94
298.292	103.94
298.523	106.94
298.753	86.94
298.984	86.94
299.214	96.94
299.445	114.94
299.675	103.94
299.905	102.94
300.136	105.94
300.366	97.94
300.597	118.94
300.827	106.94
301.057	102.94
301.288	106.94
301.518	110.94
301.748	108.94
301.979	135.94
302.209	88.94
302.439	106.94
302.669	105.94
302.9	92.94
303.13	95.94
303.36	104.94
303.59	96.94
303.82	100.94
304.051	122.94
304.281	102.94
304.511	98.94
304.741	105.94
304.971	104.94
305.201	118.94
305.431	85.94
305.661	101.94
305.891	94.94
306.121	103.94
306.352	92.94
306.582	88.94
306.812	92.94
307.042	94.94
307.272	98.94
307.502	95.94
307.731	98.94
307.961	103.94
308.191	97.94
308.421	88.94
308.651	100.94
308.881	103.94
309.111	86.94
309.341	112.94
309.571	114.94
309.8	105.94
310.03	112.94
310.26	102.94
310.49	92.94
310.72	100.94
310.949	101.94
311.179	96.94
311.409	99.94
311.639	101.94
311.868	102.94
312.098	89.94
312.328	100.94
312.557	105.94
312.787	89.94
313.017	101.94
313.246	102.94
313.476	103.94
313.706	86.94
313.935	88.94
314.165	104.94
314.394	90.94
314.624	94.94
314.853	100.94
315.083	90.94
315.312	125.94
315.542	100.94
315.771	121.94
316.001	93.94
316.23	95.94
316.46	107.94
316.689	94.94
316.919	88.94
317.148	110.94
317.377	109.94
317.607	96.94
317.836	100.94
318.065	103.94
318.295	105.94
318.524	112.94
318.753	105.94
318.983	99.94
319.212	101.94
319.441	99.94
319.67	85.94
319.9	97.94
320.129	102.94
320.358	100.94
320.587	111.94
320.816	90.94
321.046	94.94
321.275	106.94
321.504	88.94
321.733	102.94
321.962	101.94
322.191	96.94
322.42	95.94
322.649	112.94
322.878	110.94
323.108	100.94
323.337	103.94
323.566	104.94
323.795	104.94
324.024	94.94
324.253	94.94
324.482	95.94
324.71	110.94
324.939	104.94
325.168	97.94
325.397	92.94
325.626	104.94
325.855	94.94
326.084	108.94
326.313	113.94
326.542	88.94
326.77	102.94
326.999	110.94
327.228	82.94
327.457	102.94
327.686	118.94
327.914	114.94
328.143	128.94
328.372	117.94
328.6	113.94
328.829	111.94
329.058	98.94
329.287	109.94
329.515	115.94
329.744	112.94
329.972	98.94
330.201	105.94
330.43	108.94
330.658	109.94
330.887	100.94
331.115	113.94
331.344	80.94
331.572	124.94
331.801	99.94
332.03	110.94
332.258	118.94
332.486	105.94
332.715	113.94
332.943	101.94
333.172	102.94
333.4	105.94
333.629	113.94
333.857	101.94
334.085	110.94
334.314	130.94
334.542	126.94
334.771	105.94
334.999	104.94
335.227	120.94
335.455	102.94
335.684	118.94
335.912	104.94
336.14	121.94
336.369	115.94
336.597	122.94
336.825	114.94
337.053	110.94
337.281	113.94
337.51	106.94
337.738	118.94
337.966	97.94
338.194	90.94
338.422	100.94
338.65	101.94
338.878	112.94
339.106	100.94
339.334	116.94
339.562	106.94
339.79	107.94
340.018	104.94
340.246	102.94
340.474	122.94
340.702	126.94
340.93	112.94
341.158	102.94
341.386	106.94
341.614	91.94
341.842	104.94
342.07	92.94
342.298	114.94
342.526	102.94
342.754	107.94
342.981	102.94
343.209	102.94
343.437	156.94
343.665	104.94
343.893	101.94
344.12	112.94
344.348	100.94
344.576	106.94
344.804	94.94
345.031	111.94
345.259	108.94
345.487	110.94
345.714	97.94
345.942	106.94
346.17	102.94
346.397	103.94
346.625	102.94
346.853	95.94
347.08	114.94
347.308	117.94
347.535	104.94
347.763	109.94
347.99	103.94
348.218	104.94
348.445	115.94
348.673	96.94
348.9	118.94
349.128	110.94
349.355	109.94
349.583	106.94
349.81	98.94
350.037	92.94
350.265	96.94
350.492	109.94
350.72	98.94
350.947	107.94
351.174	104.94
351.402	93.94
351.629	98.94
351.856	97.94
352.083	92.94
352.311	114.94
352.538	111.94
352.765	101.94
352.992	106.94
353.22	101.94
353.447	95.94
353.674	100.94
353.901	121.94
354.128	92.94
354.355	97.94
354.583	98.94
354.81	114.94
355.037	114.94
355.264	114.94
355.491	116.94
355.718	92.94
355.945	107.94
356.172	101.94
356.399	113.94
356.626	96.94
356.853	105.94
357.08	100.94
357.307	92.94
357.534	94.94
357.761	124.94
357.988	100.94
358.215	106.94
358.441	107.94
358.668	103.94
358.895	101.94
359.122	104.94
359.349	106.94
359.576	93.94
359.802	90.94
360.029	112.94
360.256	105.94
360.483	94.94
360.709	105.94
360.936	115.94
361.163	109.94
361.39	120.94
361.616	92.94
361.843	102.94
362.07	112.94
362.296	90.94
362.523	109.94
362.749	110.94
362.976	92.94
363.203	110.94
363.429	104.94
363.656	107.94
363.882	96.94
364.109	105.94
364.335	97.94
364.562	93.94
364.788	96.94
365.015	99.94
365.241	95.94
365.468	109.94
365.694	101.94
365.92	109.94
366.147	101.94
366.373	125.94
366.599	113.94
366.826	113.94
367.052	112.94
367.278	107.94
367.505	97.94
367.731	113.94
367.957	105.94
368.184	103.94
368.41	87.94
368.636	103.94
368.862	108.94
369.089	95.94
369.315	96.94
369.541	130.94
369.767	89.94
369.993	90.94
370.219	106.94
370.445	98.94
370.672	111.94
370.898	92.94
371.124	96.94
371.35	118.94
371.576	102.94
371.802	116.94
372.028	117.94
372.254	110.94
372.48	104.94
372.706	119.94
372.932	116.94
373.158	105.94
373.384	100.94
373.61	115.94
373.835	104.94
374.061	111.94
374.287	114.94
374.513	111.94
374.739	110.94
374.965	112.94
375.191	106.94
375.416	116.94
375.642	105.94
375.868	131.94
376.094	114.94
376.319	112.94
376.545	101.94
376.771	111.94
376.997	111.94
377.222	120.94
377.448	102.94
377.674	110.94
377.899	100.94
378.125	112.94
378.35	104.94
378.576	114.94
378.802	104.94
379.027	117.94
379.253	120.94
379.478	104.94
379.704	98.94
379.929	104.94
380.155	96.94
380.38	115.94
380.606	109.94
380.831	106.94
381.057	112.94
381.282	125.94
381.507	100.94
381.733	115.94
381.958	116.94
382.184	96.94
382.409	111.94
382.634	120.94
382.86	104.94
383.085	104.94
383.31	112.94
383.535	111.94
383.761	113.94
383.986	107.94
384.211	98.94
384.436	108.94
384.662	111.94
384.887	106.94
385.112	117.94
385.337	125.94
385.562	118.94
385.787	121.94
386.013	129.94
386.238	119.94
386.463	116.94
386.688	132.94
386.913	130.94
387.138	111.94
387.363	121.94
387.588	116.94
387.813	120.94
388.038	122.94
388.263	127.94
388.488	109.94
388.713	113.94
388.938	104.94
389.163	105.94
389.387	126.94
389.612	105.94
389.837	121.94
390.062	112.94
390.287	118.94
390.512	124.94
390.736	116.94
390.961	117.94
391.186	108.94
391.411	132.94
391.636	115.94
391.86	106.94
392.085	115.94
392.31	110.94
392.534	133.94
392.759	131.94
392.984	125.94
393.208	112.94
393.433	126.94
393.658	116.94
393.882	128.94
394.107	121.94
394.331	126.94
394.556	126.94
394.78	125.94
395.005	125.94
395.229	105.94
395.454	118.94
395.678	120.94
395.903	129.94
396.127	120.94
396.352	126.94
396.576	113.94
396.801	117.94
397.025	116.94
397.249	127.94
397.474	128.94
397.698	115.94
397.922	117.94
398.147	121.94
398.371	125.94
398.595	131.94
398.82	121.94
399.044	134.94
399.268	127.94
399.492	158.94
399.717	156.94
399.941	164.94
400.165	128.94
400.389	117.94
400.613	125.94
400.837	131.94
401.062	129.94
401.286	125.94
401.51	126.94
401.734	122.94
401.958	128.94
402.182	123.94
402.406	132.94
402.63	118.94
402.854	139.94
403.078	148.94
403.302	126.94
403.526	120.94
403.75	137.94
403.974	130.94
404.198	121.94
404.422	119.94
404.645	140.94
404.869	132.94
405.093	140.94
405.317	140.94
405.541	129.94
405.765	145.94
405.988	132.94
406.212	140.94
406.436	134.94
406.66	147.94
406.883	155.94
407.107	135.94
407.331	136.94
407.555	144.94
407.778	150.94
408.002	146.94
408.226	163.94
408.449	133.94
408.673	124.94
408.896	138.94
409.12	146.94
409.344	136.94
409.567	150.94
409.791	124.94
410.014	141.94
410.238	128.94
410.461	119.94
410.685	142.94
410.908	130.94
411.132	138.94
411.355	125.94
411.578	132.94
411.802	123.94
412.025	127.94
412.249	112.94
412.472	141.94
412.695	128.94
412.919	140.94
413.142	134.94
413.365	120.94
413.589	125.94
413.812	107.94
414.035	125.94
414.258	145.94
414.482	131.94
414.705	130.94
414.928	132.94
415.151	121.94
415.374	132.94
415.597	126.94
415.821	135.94
416.044	126.94
416.267	128.94
416.49	130.94
416.713	145.94
416.936	133.94
417.159	132.94
417.382	133.94
417.605	124.94
417.828	128.94
418.051	126.94
418.274	135.94
418.497	144.94
418.72	125.94
418.943	146.94
419.166	135.94
419.389	136.94
419.611	148.94
419.834	120.94
420.057	127.94
420.28	135.94
420.503	123.94
420.726	119.94
420.948	136.94
421.171	128.94
421.394	130.94
421.617	153.94
421.839	136.94
422.062	144.94
422.285	128.94
422.507	134.94
422.73	116.94
422.953	114.94
423.175	130.94
423.398	144.94
423.621	117.94
423.843	128.94
424.066	124.94
424.288	133.94
424.511	130.94
424.733	142.94
424.956	126.94
425.178	136.94
425.401	132.94
425.623	141.94
425.846	130.94
426.068	127.94
426.291	127.94
426.513	136.94
426.735	130.94
426.958	130.94
427.18	116.94
427.402	135.94
427.625	133.94
427.847	136.94
428.069	135.94
428.292	129.94
428.514	114.94
428.736	137.94
428.958	120.94
429.181	119.94
429.403	123.94
429.625	128.94
429.847	128.94
430.069	131.94
430.292	133.94
430.514	125.94
430.736	126.94
430.958	125.94
431.18	129.94
431.402	129.94
431.624	126.94
431.846	121.94
432.068	118.94
432.29	126.94
432.512	140.94
432.734	136.94
432.956	127.94
433.178	139.94
433.4	120.94
433.622	132.94
433.844	126.94
434.066	134.94
434.287	126.94
434.509	123.94
434.731	113.94
434.953	129.94
435.175	129.94
435.397	134.94
435.618	130.94
435.84	126.94
436.062	132.94
436.284	126.94
436.505	117.94
436.727	139.94
436.949	137.94
437.17	130.94
437.392	128.94
437.614	131.94
437.835	108.94
438.057	112.94
438.278	130.94
438.5	121.94
438.721	125.94
438.943	131.94
439.165	127.94
439.386	117.94
439.608	138.94
439.829	120.94
440.05	129.94
440.272	127.94
440.493	130.94
440.715	130.94
440.936	130.94
441.158	162.94
441.379	125.94
441.6	127.94
441.822	132.94
442.043	138.94
442.264	142.94
442.486	122.94
442.707	130.94
442.928	140.94
443.149	131.94
443.371	128.94
443.592	144.94
443.813	134.94
444.034	135.94
444.255	127.94
444.476	136.94
444.698	143.94
444.919	152.94
445.14	324.94
445.361	234.94
445.582	160.94
445.803	147.94
446.024	137.94
446.245	142.94
446.466	129.94
446.687	131.94
446.908	136.94
447.129	137.94
447.35	134.94
447.571	136.94
447.792	145.94
448.013	128.94
448.234	127.94
448.455	141.94
448.675	120.94
448.896	120.94
449.117	128.94
449.338	108.94
449.559	143.94
449.779	120.94
450	117.94
450.221	122.94
450.442	113.94
450.662	121.94
450.883	134.94
451.104	117.94
451.324	115.94
451.545	128.94
451.766	114.94
451.986	116.94
452.207	118.94
452.428	134.94
452.648	133.94
452.869	125.94
453.089	112.94
453.31	126.94
453.53	126.94
453.751	107.94
453.971	133.94
454.192	113.94
454.412	116.94
454.633	126.94
454.853	111.94
455.073	117.94
455.294	125.94
455.514	115.94
455.734	95.94
455.955	119.94
456.175	114.94
456.395	112.94
456.616	120.94
456.836	113.94
457.056	120.94
457.276	104.94
457.497	108.94
457.717	111.94
457.937	112.94
458.157	115.94
458.377	131.94
458.598	115.94
458.818	113.94
459.038	103.94
459.258	106.94
459.478	100.94
459.698	117.94
459.918	118.94
460.138	108.94
460.358	136.94
460.578	140.94
460.798	137.94
461.018	124.94
461.238	138.94
461.458	136.94
461.678	113.94
461.898	133.94
462.118	164.94
462.338	143.94
462.558	137.94
462.777	132.94
462.997	144.94
463.217	141.94
463.437	140.94
463.657	137.94
463.876	138.94
464.096	148.94
464.316	145.94
464.536	140.94
464.755	146.94
464.975	128.94
465.195	134.94
465.414	130.94
465.634	134.94
465.854	121.94
466.073	134.94
466.293	120.94
466.512	136.94
466.732	126.94
466.951	143.94
467.171	127.94
467.391	130.94
467.61	111.94
467.829	132.94
468.049	136.94
468.268	129.94
468.488	102.94
468.707	124.94
468.927	135.94
469.146	139.94
469.365	128.94
469.585	126.94
469.804	127.94
470.023	136.94
470.243	143.94
470.462	137.94
470.681	126.94
470.901	108.94
471.12	128.94
471.339	127.94
471.558	131.94
471.777	139.94
471.997	118.94
472.216	119.94
472.435	129.94
472.654	138.94
472.873	126.94
473.092	131.94
473.311	130.94
473.53	118.94
473.749	133.94
473.968	114.94
474.187	124.94
474.406	116.94
474.625	124.94
474.844	141.94
475.063	125.94
475.282	141.94
475.501	120.94
475.72	130.94
475.939	111.94
476.158	113.94
476.377	113.94
476.596	128.94
476.814	119.94
477.033	125.94
477.252	128.94
477.471	121.94
477.69	137.94
477.908	135.94
478.127	143.94
478.346	148.94
478.564	136.94
478.783	138.94
479.002	132.94
479.22	141.94
479.439	131.94
479.658	125.94
479.876	131.94
480.095	121.94
480.313	125.94
480.532	142.94
480.751	146.94
480.969	133.94
481.188	126.94
481.406	112.94
481.624	126.94
481.843	108.94
482.061	118.94
482.28	128.94
482.498	128.94
482.717	125.94
482.935	142.94
483.153	127.94
483.372	126.94
483.59	127.94
483.808	157.94
484.027	134.94
484.245	148.94
484.463	148.94
484.681	173.94
484.9	132.94
485.118	147.94
485.336	129.94
485.554	131.94
485.772	122.94
485.99	134.94
486.209	132.94
486.427	139.94
486.645	124.94
486.863	132.94
487.081	132.94
487.299	132.94
487.517	131.94
487.735	153.94
487.953	156.94
488.171	144.94
488.389	152.94
488.607	135.94
488.825	149.94
489.043	140.94
489.261	131.94
489.479	133.94
489.696	134.94
489.914	140.94
490.132	133.94
490.35	135.94
490.568	131.94
490.786	166.94
491.003	148.94
491.221	166.94
491.439	139.94
491.657	153.94
491.874	169.94
492.092	167.94
492.31	179.94
492.527	157.94
492.745	146.94
492.963	145.94
493.18	155.94
493.398	168.94
493.615	148.94
493.833	152.94
494.05	149.94
494.268	159.94
494.485	145.94
494.703	153.94
494.92	145.94
495.138	154.94
495.355	149.94
495.573	135.94
495.79	133.94
496.008	167.94
496.225	155.94
496.442	166.94
496.66	178.94
496.877	156.94
497.094	169.94
497.312	160.94
497.529	164.94
497.746	142.94
497.963	156.94
498.181	162.94
498.398	146.94
498.615	166.94
498.832	168.94
499.049	160.94
499.267	167.94
499.484	200.94
499.701	208.94
499.918	207.94
500.135	227.94
500.352	244.94
500.569	243.94
500.786	249.94
501.003	221.94
501.22	213.94
501.437	191.94
501.654	173.94
501.871	161.94
502.088	170.94
502.305	158.94
502.522	170.94
502.739	175.94
502.956	146.94
503.172	148.94
503.389	142.94
503.606	135.94
503.823	143.94
504.04	154.94
504.256	143.94
504.473	140.94
504.69	156.94
504.907	159.94
505.123	133.94
505.34	141.94
505.557	133.94
505.773	146.94
505.99	131.94
506.207	134.94
506.423	134.94
506.64	141.94
506.856	140.94
507.073	126.94
507.289	144.94
507.506	113.94
507.722	130.94
