Data from SampD_HRD10591_00088.txt Node
Date: Mon Jan 19 11:50:45 EST 2026
User: Yrep
Spectrometer: HR+D1059
Trigger mode: 0
Integration Time (sec): 3.443000E-1
Scans to average: 1
Electric dark correction enabled: true
Nonlinearity correction enabled: false
Boxcar width: 0
XAxis mode: Wavelengths
Number of Pixels in Spectrum: 2048
>>>>>Begin Spectral Data<<<<<
223.165	-28.75
223.4	-28.75
223.635	-28.75
223.869	-21.75
224.104	-18.75
224.338	-3.75
224.573	-19.75
224.808	-15.75
225.042	-1.75
225.277	-7.75
225.511	-19.75
225.746	19.25
225.98	12.25
226.215	6.25
226.449	21.25
226.683	14.25
226.918	28.25
227.152	36.25
227.387	43.25
227.621	51.25
227.856	36.25
228.09	43.25
228.324	45.25
228.559	51.25
228.793	69.25
229.027	79.25
229.262	73.25
229.496	69.25
229.73	80.25
229.964	93.25
230.199	79.25
230.433	91.25
230.667	74.25
230.901	91.25
231.136	85.25
231.37	78.25
231.604	76.25
231.838	98.25
232.072	83.25
232.306	89.25
232.541	69.25
232.775	96.25
233.009	101.25
233.243	96.25
233.477	87.25
233.711	83.25
233.945	82.25
234.179	85.25
234.413	94.25
234.647	73.25
234.881	71.25
235.115	92.25
235.349	102.25
235.583	83.25
235.817	78.25
236.051	97.25
236.285	83.25
236.519	86.25
236.753	85.25
236.987	78.25
237.221	85.25
237.455	89.25
237.689	85.25
237.922	74.25
238.156	75.25
238.39	84.25
238.624	81.25
238.858	92.25
239.091	62.25
239.325	87.25
239.559	85.25
239.793	91.25
240.027	82.25
240.26	82.25
240.494	88.25
240.728	93.25
240.961	88.25
241.195	92.25
241.429	91.25
241.662	73.25
241.896	70.25
242.13	85.25
242.363	93.25
242.597	81.25
242.83	95.25
243.064	85.25
243.298	82.25
243.531	95.25
243.765	102.25
243.998	113.25
244.232	92.25
244.465	84.25
244.699	92.25
244.932	99.25
245.166	89.25
245.399	100.25
245.633	81.25
245.866	83.25
246.099	83.25
246.333	85.25
246.566	89.25
246.8	79.25
247.033	75.25
247.266	81.25
247.5	97.25
247.733	90.25
247.966	91.25
248.2	90.25
248.433	89.25
248.666	73.25
248.899	87.25
249.133	80.25
249.366	91.25
249.599	95.25
249.832	94.25
250.066	101.25
250.299	97.25
250.532	91.25
250.765	86.25
250.998	76.25
251.231	94.25
251.465	94.25
251.698	97.25
251.931	93.25
252.164	86.25
252.397	88.25
252.63	96.25
252.863	83.25
253.096	99.25
253.329	96.25
253.562	101.25
253.795	113.25
254.028	90.25
254.261	100.25
254.494	103.25
254.727	108.25
254.96	108.25
255.193	91.25
255.426	97.25
255.659	100.25
255.892	103.25
256.124	93.25
256.357	115.25
256.59	97.25
256.823	90.25
257.056	121.25
257.289	93.25
257.521	87.25
257.754	92.25
257.987	90.25
258.22	97.25
258.452	102.25
258.685	100.25
258.918	89.25
259.151	93.25
259.383	96.25
259.616	90.25
259.849	95.25
260.081	93.25
260.314	99.25
260.547	97.25
260.779	98.25
261.012	94.25
261.244	93.25
261.477	110.25
261.71	104.25
261.942	109.25
262.175	109.25
262.407	107.25
262.64	112.25
262.872	106.25
263.105	109.25
263.337	94.25
263.57	102.25
263.802	103.25
264.035	106.25
264.267	84.25
264.499	108.25
264.732	102.25
264.964	99.25
265.197	107.25
265.429	111.25
265.661	104.25
265.894	101.25
266.126	118.25
266.358	110.25
266.591	101.25
266.823	96.25
267.055	105.25
267.287	93.25
267.52	90.25
267.752	97.25
267.984	94.25
268.216	110.25
268.448	120.25
268.681	120.25
268.913	94.25
269.145	98.25
269.377	111.25
269.609	88.25
269.841	103.25
270.073	96.25
270.306	106.25
270.538	90.25
270.77	95.25
271.002	105.25
271.234	113.25
271.466	106.25
271.698	95.25
271.93	103.25
272.162	108.25
272.394	104.25
272.626	92.25
272.858	90.25
273.09	105.25
273.322	103.25
273.553	116.25
273.785	114.25
274.017	89.25
274.249	99.25
274.481	106.25
274.713	106.25
274.945	116.25
275.176	105.25
275.408	118.25
275.64	94.25
275.872	102.25
276.104	115.25
276.335	112.25
276.567	110.25
276.799	98.25
277.031	105.25
277.262	124.25
277.494	119.25
277.726	94.25
277.957	98.25
278.189	105.25
278.421	105.25
278.652	116.25
278.884	101.25
279.115	119.25
279.347	103.25
279.579	101.25
279.81	98.25
280.042	109.25
280.273	112.25
280.505	108.25
280.736	109.25
280.968	130.25
281.199	130.25
281.431	123.25
281.662	109.25
281.894	109.25
282.125	124.25
282.356	112.25
282.588	108.25
282.819	120.25
283.051	129.25
283.282	110.25
283.513	125.25
283.745	107.25
283.976	125.25
284.207	115.25
284.439	109.25
284.67	130.25
284.901	99.25
285.132	101.25
285.364	110.25
285.595	131.25
285.826	115.25
286.057	114.25
286.288	114.25
286.52	109.25
286.751	120.25
286.982	129.25
287.213	110.25
287.444	121.25
287.675	117.25
287.906	120.25
288.138	122.25
288.369	107.25
288.6	106.25
288.831	119.25
289.062	118.25
289.293	131.25
289.524	110.25
289.755	130.25
289.986	117.25
290.217	126.25
290.448	103.25
290.679	128.25
290.91	118.25
291.141	121.25
291.371	123.25
291.602	126.25
291.833	139.25
292.064	120.25
292.295	131.25
292.526	104.25
292.757	110.25
292.987	106.25
293.218	118.25
293.449	126.25
293.68	125.25
293.91	107.25
294.141	125.25
294.372	107.25
294.603	108.25
294.833	119.25
295.064	121.25
295.295	107.25
295.525	119.25
295.756	119.25
295.987	125.25
296.217	119.25
296.448	124.25
296.679	104.25
296.909	129.25
297.14	123.25
297.37	133.25
297.601	135.25
297.831	113.25
298.062	126.25
298.292	131.25
298.523	125.25
298.753	115.25
298.984	120.25
299.214	124.25
299.445	111.25
299.675	128.25
299.905	139.25
300.136	125.25
300.366	125.25
300.597	131.25
300.827	125.25
301.057	128.25
301.288	120.25
301.518	130.25
301.748	136.25
301.979	138.25
302.209	130.25
302.439	122.25
302.669	100.25
302.9	108.25
303.13	121.25
303.36	137.25
303.59	117.25
303.82	139.25
304.051	113.25
304.281	133.25
304.511	133.25
304.741	136.25
304.971	127.25
305.201	116.25
305.431	117.25
305.661	114.25
305.891	111.25
306.121	113.25
306.352	113.25
306.582	115.25
306.812	117.25
307.042	113.25
307.272	119.25
307.502	113.25
307.731	117.25
307.961	116.25
308.191	119.25
308.421	118.25
308.651	123.25
308.881	123.25
309.111	114.25
309.341	119.25
309.571	126.25
309.8	126.25
310.03	114.25
310.26	125.25
310.49	126.25
310.72	130.25
310.949	129.25
311.179	124.25
311.409	127.25
311.639	121.25
311.868	125.25
312.098	124.25
312.328	133.25
312.557	141.25
312.787	132.25
313.017	136.25
313.246	138.25
313.476	133.25
313.706	136.25
313.935	116.25
314.165	134.25
314.394	124.25
314.624	125.25
314.853	123.25
315.083	123.25
315.312	121.25
315.542	134.25
315.771	114.25
316.001	141.25
316.23	121.25
316.46	129.25
316.689	132.25
316.919	127.25
317.148	119.25
317.377	140.25
317.607	125.25
317.836	130.25
318.065	142.25
318.295	126.25
318.524	130.25
318.753	123.25
318.983	113.25
319.212	119.25
319.441	123.25
319.67	122.25
319.9	107.25
320.129	122.25
320.358	114.25
320.587	126.25
320.816	126.25
321.046	139.25
321.275	127.25
321.504	123.25
321.733	127.25
321.962	122.25
322.191	122.25
322.42	131.25
322.649	125.25
322.878	129.25
323.108	133.25
323.337	133.25
323.566	135.25
323.795	133.25
324.024	132.25
324.253	122.25
324.482	129.25
324.71	133.25
324.939	132.25
325.168	129.25
325.397	131.25
325.626	131.25
325.855	134.25
326.084	129.25
326.313	129.25
326.542	114.25
326.77	134.25
326.999	128.25
327.228	128.25
327.457	130.25
327.686	131.25
327.914	124.25
328.143	141.25
328.372	120.25
328.6	140.25
328.829	118.25
329.058	123.25
329.287	136.25
329.515	132.25
329.744	145.25
329.972	132.25
330.201	128.25
330.43	126.25
330.658	119.25
330.887	134.25
331.115	135.25
331.344	122.25
331.572	141.25
331.801	144.25
332.03	147.25
332.258	139.25
332.486	145.25
332.715	133.25
332.943	151.25
333.172	163.25
333.4	150.25
333.629	161.25
333.857	161.25
334.085	147.25
334.314	165.25
334.542	144.25
334.771	151.25
334.999	145.25
335.227	140.25
335.455	135.25
335.684	150.25
335.912	141.25
336.14	139.25
336.369	158.25
336.597	151.25
336.825	141.25
337.053	134.25
337.281	157.25
337.51	147.25
337.738	141.25
337.966	129.25
338.194	149.25
338.422	135.25
338.65	133.25
338.878	137.25
339.106	120.25
339.334	132.25
339.562	140.25
339.79	141.25
340.018	125.25
340.246	129.25
340.474	131.25
340.702	150.25
340.93	123.25
341.158	139.25
341.386	137.25
341.614	138.25
341.842	129.25
342.07	126.25
342.298	125.25
342.526	137.25
342.754	123.25
342.981	141.25
343.209	135.25
343.437	176.25
343.665	147.25
343.893	140.25
344.12	149.25
344.348	134.25
344.576	146.25
344.804	145.25
345.031	138.25
345.259	136.25
345.487	138.25
345.714	121.25
345.942	130.25
346.17	126.25
346.397	148.25
346.625	132.25
346.853	140.25
347.08	115.25
347.308	129.25
347.535	147.25
347.763	143.25
347.99	136.25
348.218	133.25
348.445	135.25
348.673	147.25
348.9	134.25
349.128	142.25
349.355	108.25
349.583	132.25
349.81	126.25
350.037	125.25
350.265	132.25
350.492	123.25
350.72	132.25
350.947	125.25
351.174	134.25
351.402	117.25
351.629	124.25
351.856	119.25
352.083	142.25
352.311	135.25
352.538	130.25
352.765	136.25
352.992	140.25
353.22	130.25
353.447	131.25
353.674	139.25
353.901	137.25
354.128	131.25
354.355	141.25
354.583	135.25
354.81	131.25
355.037	130.25
355.264	122.25
355.491	146.25
355.718	133.25
355.945	129.25
356.172	141.25
356.399	138.25
356.626	130.25
356.853	129.25
357.08	135.25
357.307	130.25
357.534	124.25
357.761	129.25
357.988	130.25
358.215	133.25
358.441	127.25
358.668	132.25
358.895	138.25
359.122	146.25
359.349	142.25
359.576	131.25
359.802	129.25
360.029	125.25
360.256	126.25
360.483	137.25
360.709	137.25
360.936	158.25
361.163	124.25
361.39	129.25
361.616	133.25
361.843	150.25
362.07	151.25
362.296	137.25
362.523	133.25
362.749	119.25
362.976	128.25
363.203	135.25
363.429	124.25
363.656	132.25
363.882	128.25
364.109	148.25
364.335	131.25
364.562	137.25
364.788	132.25
365.015	148.25
365.241	116.25
365.468	137.25
365.694	130.25
365.92	132.25
366.147	127.25
366.373	128.25
366.599	138.25
366.826	158.25
367.052	125.25
367.278	142.25
367.505	138.25
367.731	146.25
367.957	125.25
368.184	132.25
368.41	142.25
368.636	134.25
368.862	136.25
369.089	134.25
369.315	143.25
369.541	146.25
369.767	126.25
369.993	157.25
370.219	122.25
370.445	152.25
370.672	130.25
370.898	139.25
371.124	146.25
371.35	128.25
371.576	135.25
371.802	140.25
372.028	127.25
372.254	143.25
372.48	123.25
372.706	141.25
372.932	142.25
373.158	141.25
373.384	160.25
373.61	147.25
373.835	135.25
374.061	140.25
374.287	138.25
374.513	143.25
374.739	151.25
374.965	143.25
375.191	167.25
375.416	143.25
375.642	139.25
375.868	161.25
376.094	145.25
376.319	148.25
376.545	135.25
376.771	161.25
376.997	138.25
377.222	143.25
377.448	152.25
377.674	145.25
377.899	152.25
378.125	132.25
378.35	138.25
378.576	129.25
378.802	137.25
379.027	159.25
379.253	137.25
379.478	145.25
379.704	133.25
379.929	148.25
380.155	146.25
380.38	156.25
380.606	150.25
380.831	148.25
381.057	149.25
381.282	149.25
381.507	152.25
381.733	149.25
381.958	146.25
382.184	137.25
382.409	161.25
382.634	147.25
382.86	149.25
383.085	166.25
383.31	151.25
383.535	146.25
383.761	161.25
383.986	164.25
384.211	148.25
384.436	161.25
384.662	146.25
384.887	162.25
385.112	145.25
385.337	160.25
385.562	163.25
385.787	174.25
386.013	166.25
386.238	156.25
386.463	169.25
386.688	195.25
386.913	172.25
387.138	171.25
387.363	151.25
387.588	166.25
387.813	156.25
388.038	156.25
388.263	165.25
388.488	157.25
388.713	157.25
388.938	161.25
389.163	165.25
389.387	139.25
389.612	161.25
389.837	167.25
390.062	151.25
390.287	162.25
390.512	167.25
390.736	146.25
390.961	166.25
391.186	168.25
391.411	180.25
391.636	183.25
391.86	175.25
392.085	173.25
392.31	162.25
392.534	159.25
392.759	171.25
392.984	179.25
393.208	164.25
393.433	171.25
393.658	164.25
393.882	158.25
394.107	189.25
394.331	166.25
394.556	176.25
394.78	188.25
395.005	171.25
395.229	161.25
395.454	186.25
395.678	165.25
395.903	167.25
396.127	167.25
396.352	173.25
396.576	159.25
396.801	170.25
397.025	184.25
397.249	173.25
397.474	191.25
397.698	177.25
397.922	170.25
398.147	181.25
398.371	185.25
398.595	173.25
398.82	191.25
399.044	212.25
399.268	220.25
399.492	249.25
399.717	251.25
399.941	232.25
400.165	217.25
400.389	181.25
400.613	195.25
400.837	198.25
401.062	190.25
401.286	179.25
401.51	185.25
401.734	184.25
401.958	186.25
402.182	206.25
402.406	185.25
402.63	179.25
402.854	201.25
403.078	195.25
403.302	195.25
403.526	203.25
403.75	206.25
403.974	212.25
404.198	196.25
404.422	203.25
404.645	195.25
404.869	197.25
405.093	200.25
405.317	197.25
405.541	197.25
405.765	205.25
405.988	201.25
406.212	194.25
406.436	190.25
406.66	214.25
406.883	189.25
407.107	197.25
407.331	206.25
407.555	218.25
407.778	217.25
408.002	217.25
408.226	213.25
408.449	209.25
408.673	196.25
408.896	200.25
409.12	195.25
409.344	198.25
409.567	203.25
409.791	199.25
410.014	210.25
410.238	213.25
410.461	202.25
410.685	203.25
410.908	191.25
411.132	205.25
411.355	195.25
411.578	196.25
411.802	187.25
412.025	190.25
412.249	202.25
412.472	194.25
412.695	196.25
412.919	197.25
413.142	179.25
413.365	195.25
413.589	187.25
413.812	186.25
414.035	198.25
414.258	180.25
414.482	178.25
414.705	191.25
414.928	204.25
415.151	194.25
415.374	190.25
415.597	187.25
415.821	184.25
416.044	189.25
416.267	181.25
416.49	194.25
416.713	202.25
416.936	194.25
417.159	186.25
417.382	182.25
417.605	187.25
417.828	202.25
418.051	186.25
418.274	206.25
418.497	187.25
418.72	201.25
418.943	203.25
419.166	209.25
419.389	198.25
419.611	187.25
419.834	202.25
420.057	213.25
420.28	187.25
420.503	190.25
420.726	184.25
420.948	178.25
421.171	205.25
421.394	205.25
421.617	190.25
421.839	178.25
422.062	210.25
422.285	199.25
422.507	209.25
422.73	181.25
422.953	189.25
423.175	200.25
423.398	213.25
423.621	209.25
423.843	190.25
424.066	209.25
424.288	211.25
424.511	216.25
424.733	206.25
424.956	217.25
425.178	202.25
425.401	203.25
425.623	195.25
425.846	194.25
426.068	184.25
426.291	187.25
426.513	188.25
426.735	193.25
426.958	185.25
427.18	178.25
427.402	197.25
427.625	185.25
427.847	182.25
428.069	185.25
428.292	187.25
428.514	191.25
428.736	174.25
428.958	174.25
429.181	171.25
429.403	185.25
429.625	180.25
429.847	188.25
430.069	173.25
430.292	194.25
430.514	189.25
430.736	205.25
430.958	176.25
431.18	198.25
431.402	180.25
431.624	178.25
431.846	162.25
432.068	162.25
432.29	180.25
432.512	183.25
432.734	177.25
432.956	193.25
433.178	181.25
433.4	187.25
433.622	177.25
433.844	170.25
434.066	181.25
434.287	173.25
434.509	158.25
434.731	177.25
434.953	197.25
435.175	186.25
435.397	202.25
435.618	174.25
435.84	177.25
436.062	195.25
436.284	186.25
436.505	184.25
436.727	188.25
436.949	182.25
437.17	171.25
437.392	172.25
437.614	167.25
437.835	171.25
438.057	171.25
438.278	176.25
438.5	173.25
438.721	168.25
438.943	191.25
439.165	173.25
439.386	174.25
439.608	172.25
439.829	187.25
440.05	206.25
440.272	202.25
440.493	178.25
440.715	185.25
440.936	177.25
441.158	212.25
441.379	196.25
441.6	203.25
441.822	210.25
442.043	202.25
442.264	198.25
442.486	186.25
442.707	190.25
442.928	195.25
443.149	179.25
443.371	219.25
443.592	194.25
443.813	197.25
444.034	216.25
444.255	221.25
444.476	221.25
444.698	228.25
444.919	227.25
445.14	467.25
445.361	317.25
445.582	213.25
445.803	191.25
446.024	197.25
446.245	222.25
446.466	200.25
446.687	189.25
446.908	203.25
447.129	193.25
447.35	178.25
447.571	179.25
447.792	191.25
448.013	194.25
448.234	180.25
448.455	173.25
448.675	180.25
448.896	187.25
449.117	174.25
449.338	193.25
449.559	193.25
449.779	186.25
450	161.25
450.221	189.25
450.442	198.25
450.662	186.25
450.883	163.25
451.104	181.25
451.324	183.25
451.545	188.25
451.766	170.25
451.986	179.25
452.207	181.25
452.428	151.25
452.648	174.25
452.869	180.25
453.089	177.25
453.31	177.25
453.53	164.25
453.751	166.25
453.971	159.25
454.192	149.25
454.412	155.25
454.633	162.25
454.853	179.25
455.073	169.25
455.294	179.25
455.514	174.25
455.734	171.25
455.955	174.25
456.175	174.25
456.395	152.25
456.616	161.25
456.836	176.25
457.056	165.25
457.276	152.25
457.497	163.25
457.717	145.25
457.937	170.25
458.157	165.25
458.377	157.25
458.598	166.25
458.818	158.25
459.038	158.25
459.258	155.25
459.478	150.25
459.698	180.25
459.918	174.25
460.138	174.25
460.358	181.25
460.578	209.25
460.798	200.25
461.018	179.25
461.238	183.25
461.458	199.25
461.678	207.25
461.898	194.25
462.118	198.25
462.338	212.25
462.558	204.25
462.777	202.25
462.997	223.25
463.217	213.25
463.437	214.25
463.657	211.25
463.876	208.25
464.096	203.25
464.316	209.25
464.536	194.25
464.755	203.25
464.975	198.25
465.195	212.25
465.414	190.25
465.634	189.25
465.854	179.25
466.073	192.25
466.293	181.25
466.512	174.25
466.732	190.25
466.951	171.25
467.171	183.25
467.391	181.25
467.61	196.25
467.829	186.25
468.049	174.25
468.268	196.25
468.488	162.25
468.707	161.25
468.927	169.25
469.146	187.25
469.365	190.25
469.585	200.25
469.804	179.25
470.023	196.25
470.243	185.25
470.462	179.25
470.681	185.25
470.901	207.25
471.12	190.25
471.339	211.25
471.558	173.25
471.777	177.25
471.997	173.25
472.216	181.25
472.435	173.25
472.654	167.25
472.873	173.25
473.092	195.25
473.311	169.25
473.53	181.25
473.749	179.25
473.968	166.25
474.187	167.25
474.406	183.25
474.625	176.25
474.844	192.25
475.063	174.25
475.282	172.25
475.501	169.25
475.72	185.25
475.939	172.25
476.158	173.25
476.377	164.25
476.596	169.25
476.814	171.25
477.033	166.25
477.252	163.25
477.471	175.25
477.69	200.25
477.908	198.25
478.127	191.25
478.346	198.25
478.564	201.25
478.783	202.25
479.002	205.25
479.22	190.25
479.439	205.25
479.658	175.25
479.876	194.25
480.095	165.25
480.313	174.25
480.532	218.25
480.751	191.25
480.969	189.25
481.188	183.25
481.406	185.25
481.624	162.25
481.843	175.25
482.061	182.25
482.28	183.25
482.498	192.25
482.717	179.25
482.935	188.25
483.153	200.25
483.372	210.25
483.59	197.25
483.808	184.25
484.027	198.25
484.245	210.25
484.463	195.25
484.681	215.25
484.9	204.25
485.118	204.25
485.336	208.25
485.554	191.25
485.772	187.25
485.99	188.25
486.209	178.25
486.427	193.25
486.645	191.25
486.863	210.25
487.081	202.25
487.299	192.25
487.517	202.25
487.735	225.25
487.953	219.25
488.171	226.25
488.389	218.25
488.607	200.25
488.825	191.25
489.043	189.25
489.261	205.25
489.479	199.25
489.696	193.25
489.914	168.25
490.132	192.25
490.35	207.25
490.568	208.25
490.786	209.25
491.003	198.25
491.221	237.25
491.439	230.25
491.657	230.25
491.874	243.25
492.092	254.25
492.31	228.25
492.527	238.25
492.745	238.25
492.963	241.25
493.18	229.25
493.398	227.25
493.615	226.25
493.833	207.25
494.05	221.25
494.268	235.25
494.485	237.25
494.703	228.25
494.92	211.25
495.138	229.25
495.355	231.25
495.573	222.25
495.79	233.25
496.008	223.25
496.225	224.25
496.442	238.25
496.66	243.25
496.877	224.25
497.094	238.25
497.312	236.25
497.529	227.25
497.746	239.25
497.963	215.25
498.181	215.25
498.398	219.25
498.615	231.25
498.832	241.25
499.049	235.25
499.267	281.25
499.484	285.25
499.701	313.25
499.918	343.25
500.135	379.25
500.352	380.25
500.569	408.25
500.786	409.25
501.003	360.25
501.22	332.25
501.437	306.25
501.654	281.25
501.871	270.25
502.088	255.25
502.305	241.25
502.522	243.25
502.739	235.25
502.956	221.25
503.172	215.25
503.389	209.25
503.606	216.25
503.823	217.25
504.04	214.25
504.256	230.25
504.473	214.25
504.69	219.25
