Data from SampD_HRD10591_00043.txt Node
Date: Mon Jan 19 11:50:30 EST 2026
User: Yrep
Spectrometer: HR+D1059
Trigger mode: 0
Integration Time (sec): 3.443000E-1
Scans to average: 1
Electric dark correction enabled: true
Nonlinearity correction enabled: false
Boxcar width: 0
XAxis mode: Wavelengths
Number of Pixels in Spectrum: 2048
>>>>>Begin Spectral Data<<<<<
223.165	-21.19
223.4	-21.19
223.635	-21.19
223.869	-26.19
224.104	-30.19
224.338	1.81
224.573	-26.19
224.808	-10.19
225.042	-0.19
225.277	-6.19
225.511	3.81
225.746	-3.19
225.98	0.81
226.215	18.81
226.449	24.81
226.683	17.81
226.918	20.81
227.152	34.81
227.387	47.81
227.621	41.81
227.856	58.81
228.09	47.81
228.324	51.81
228.559	64.81
228.793	67.81
229.027	55.81
229.262	66.81
229.496	58.81
229.73	62.81
229.964	68.81
230.199	62.81
230.433	64.81
230.667	79.81
230.901	73.81
231.136	78.81
231.37	73.81
231.604	75.81
231.838	88.81
232.072	87.81
232.306	90.81
232.541	74.81
232.775	80.81
233.009	72.81
233.243	62.81
233.477	78.81
233.711	80.81
233.945	80.81
234.179	90.81
234.413	85.81
234.647	88.81
234.881	88.81
235.115	82.81
235.349	86.81
235.583	82.81
235.817	73.81
236.051	63.81
236.285	85.81
236.519	97.81
236.753	80.81
236.987	73.81
237.221	72.81
237.455	82.81
237.689	87.81
237.922	88.81
238.156	83.81
238.39	88.81
238.624	72.81
238.858	69.81
239.091	69.81
239.325	71.81
239.559	69.81
239.793	83.81
240.027	106.81
240.26	87.81
240.494	90.81
240.728	94.81
240.961	65.81
241.195	84.81
241.429	69.81
241.662	53.81
241.896	80.81
242.13	85.81
242.363	78.81
242.597	64.81
242.83	90.81
243.064	73.81
243.298	83.81
243.531	69.81
243.765	80.81
243.998	88.81
244.232	88.81
244.465	94.81
244.699	71.81
244.932	90.81
245.166	76.81
245.399	92.81
245.633	79.81
245.866	70.81
246.099	83.81
246.333	79.81
246.566	88.81
246.8	83.81
247.033	78.81
247.266	79.81
247.5	83.81
247.733	78.81
247.966	79.81
248.2	91.81
248.433	66.81
248.666	83.81
248.899	85.81
249.133	86.81
249.366	90.81
249.599	77.81
249.832	78.81
250.066	96.81
250.299	68.81
250.532	87.81
250.765	89.81
250.998	84.81
251.231	80.81
251.465	82.81
251.698	77.81
251.931	89.81
252.164	86.81
252.397	85.81
252.63	89.81
252.863	91.81
253.096	78.81
253.329	89.81
253.562	86.81
253.795	86.81
254.028	99.81
254.261	86.81
254.494	82.81
254.727	97.81
254.96	94.81
255.193	83.81
255.426	93.81
255.659	84.81
255.892	93.81
256.124	78.81
256.357	93.81
256.59	93.81
256.823	80.81
257.056	97.81
257.289	90.81
257.521	75.81
257.754	89.81
257.987	90.81
258.22	107.81
258.452	94.81
258.685	95.81
258.918	88.81
259.151	71.81
259.383	90.81
259.616	107.81
259.849	90.81
260.081	79.81
260.314	91.81
260.547	74.81
260.779	94.81
261.012	88.81
261.244	82.81
261.477	97.81
261.71	107.81
261.942	82.81
262.175	89.81
262.407	98.81
262.64	107.81
262.872	90.81
263.105	103.81
263.337	86.81
263.57	89.81
263.802	78.81
264.035	82.81
264.267	83.81
264.499	94.81
264.732	80.81
264.964	82.81
265.197	95.81
265.429	95.81
265.661	73.81
265.894	98.81
266.126	100.81
266.358	86.81
266.591	81.81
266.823	85.81
267.055	85.81
267.287	96.81
267.52	89.81
267.752	99.81
267.984	93.81
268.216	65.81
268.448	96.81
268.681	113.81
268.913	93.81
269.145	96.81
269.377	105.81
269.609	105.81
269.841	85.81
270.073	101.81
270.306	87.81
270.538	87.81
270.77	89.81
271.002	81.81
271.234	75.81
271.466	97.81
271.698	91.81
271.93	87.81
272.162	90.81
272.394	95.81
272.626	78.81
272.858	86.81
273.09	104.81
273.322	98.81
273.553	89.81
273.785	90.81
274.017	98.81
274.249	87.81
274.481	89.81
274.713	88.81
274.945	88.81
275.176	89.81
275.408	84.81
275.64	91.81
275.872	97.81
276.104	90.81
276.335	91.81
276.567	81.81
276.799	86.81
277.031	84.81
277.262	83.81
277.494	94.81
277.726	82.81
277.957	97.81
278.189	84.81
278.421	97.81
278.652	98.81
278.884	104.81
279.115	102.81
279.347	86.81
279.579	103.81
279.81	95.81
280.042	88.81
280.273	91.81
280.505	91.81
280.736	94.81
280.968	93.81
281.199	94.81
281.431	91.81
281.662	106.81
281.894	101.81
282.125	106.81
282.356	99.81
282.588	85.81
282.819	89.81
283.051	95.81
283.282	82.81
283.513	99.81
283.745	86.81
283.976	98.81
284.207	84.81
284.439	92.81
284.67	112.81
284.901	97.81
285.132	101.81
285.364	95.81
285.595	89.81
285.826	102.81
286.057	88.81
286.288	98.81
286.52	103.81
286.751	102.81
286.982	90.81
287.213	96.81
287.444	113.81
287.675	90.81
287.906	89.81
288.138	105.81
288.369	101.81
288.6	82.81
288.831	107.81
289.062	101.81
289.293	86.81
289.524	122.81
289.755	99.81
289.986	108.81
290.217	83.81
290.448	99.81
290.679	98.81
290.91	119.81
291.141	104.81
291.371	89.81
291.602	86.81
291.833	88.81
292.064	105.81
292.295	99.81
292.526	94.81
292.757	92.81
292.987	97.81
293.218	96.81
293.449	96.81
293.68	110.81
293.91	99.81
294.141	115.81
294.372	96.81
294.603	90.81
294.833	83.81
295.064	90.81
295.295	108.81
295.525	95.81
295.756	101.81
295.987	104.81
296.217	96.81
296.448	100.81
296.679	112.81
296.909	103.81
297.14	98.81
297.37	106.81
297.601	106.81
297.831	103.81
298.062	103.81
298.292	98.81
298.523	113.81
298.753	102.81
298.984	97.81
299.214	95.81
299.445	100.81
299.675	121.81
299.905	111.81
300.136	106.81
300.366	98.81
300.597	88.81
300.827	93.81
301.057	108.81
301.288	94.81
301.518	104.81
301.748	95.81
301.979	141.81
302.209	111.81
302.439	92.81
302.669	107.81
302.9	101.81
303.13	100.81
303.36	92.81
303.59	98.81
303.82	97.81
304.051	107.81
304.281	106.81
304.511	108.81
304.741	109.81
304.971	97.81
305.201	99.81
305.431	110.81
305.661	106.81
305.891	116.81
306.121	105.81
306.352	113.81
306.582	102.81
306.812	106.81
307.042	103.81
307.272	103.81
307.502	95.81
307.731	97.81
307.961	115.81
308.191	104.81
308.421	103.81
308.651	107.81
308.881	112.81
309.111	91.81
309.341	101.81
309.571	93.81
309.8	103.81
310.03	99.81
310.26	92.81
310.49	99.81
310.72	107.81
310.949	101.81
311.179	84.81
311.409	94.81
311.639	106.81
311.868	119.81
312.098	115.81
312.328	106.81
312.557	99.81
312.787	96.81
313.017	92.81
313.246	93.81
313.476	100.81
313.706	101.81
313.935	105.81
314.165	112.81
314.394	79.81
314.624	89.81
314.853	93.81
315.083	111.81
315.312	107.81
315.542	94.81
315.771	94.81
316.001	113.81
316.23	106.81
316.46	95.81
316.689	95.81
316.919	113.81
317.148	112.81
317.377	94.81
317.607	97.81
317.836	92.81
318.065	111.81
318.295	101.81
318.524	97.81
318.753	85.81
318.983	110.81
319.212	114.81
319.441	98.81
319.67	99.81
319.9	102.81
320.129	120.81
320.358	95.81
320.587	113.81
320.816	101.81
321.046	110.81
321.275	110.81
321.504	114.81
321.733	112.81
321.962	120.81
322.191	118.81
322.42	107.81
322.649	98.81
322.878	115.81
323.108	106.81
323.337	93.81
323.566	96.81
323.795	110.81
324.024	112.81
324.253	111.81
324.482	106.81
324.71	98.81
324.939	109.81
325.168	101.81
325.397	98.81
325.626	108.81
325.855	110.81
326.084	115.81
326.313	122.81
326.542	110.81
326.77	110.81
326.999	96.81
327.228	97.81
327.457	88.81
327.686	117.81
327.914	124.81
328.143	106.81
328.372	109.81
328.6	99.81
328.829	109.81
329.058	111.81
329.287	114.81
329.515	97.81
329.744	99.81
329.972	104.81
330.201	121.81
330.43	108.81
330.658	103.81
330.887	101.81
331.115	111.81
331.344	112.81
331.572	109.81
331.801	115.81
332.03	102.81
332.258	107.81
332.486	103.81
332.715	101.81
332.943	119.81
333.172	118.81
333.4	99.81
333.629	114.81
333.857	124.81
334.085	114.81
334.314	100.81
334.542	121.81
334.771	115.81
334.999	122.81
335.227	105.81
335.455	104.81
335.684	115.81
335.912	111.81
336.14	112.81
336.369	113.81
336.597	111.81
336.825	118.81
337.053	102.81
337.281	120.81
337.51	108.81
337.738	106.81
337.966	113.81
338.194	106.81
338.422	109.81
338.65	103.81
338.878	127.81
339.106	105.81
339.334	120.81
339.562	98.81
339.79	105.81
340.018	101.81
340.246	103.81
340.474	106.81
340.702	111.81
340.93	95.81
341.158	111.81
341.386	103.81
341.614	100.81
341.842	100.81
342.07	99.81
342.298	107.81
342.526	111.81
342.754	112.81
342.981	111.81
343.209	107.81
343.437	135.81
343.665	107.81
343.893	132.81
344.12	120.81
344.348	125.81
344.576	106.81
344.804	102.81
345.031	113.81
345.259	113.81
345.487	114.81
345.714	98.81
345.942	95.81
346.17	92.81
346.397	106.81
346.625	102.81
346.853	106.81
347.08	112.81
347.308	118.81
347.535	97.81
347.763	99.81
347.99	93.81
348.218	115.81
348.445	111.81
348.673	102.81
348.9	92.81
349.128	116.81
349.355	116.81
349.583	101.81
349.81	105.81
350.037	95.81
350.265	103.81
350.492	110.81
350.72	102.81
350.947	114.81
351.174	114.81
351.402	94.81
351.629	100.81
351.856	103.81
352.083	105.81
352.311	97.81
352.538	112.81
352.765	102.81
352.992	128.81
353.22	105.81
353.447	97.81
353.674	101.81
353.901	118.81
354.128	102.81
354.355	87.81
354.583	98.81
354.81	117.81
355.037	106.81
355.264	102.81
355.491	105.81
355.718	85.81
355.945	111.81
356.172	93.81
356.399	87.81
356.626	122.81
356.853	103.81
357.08	118.81
357.307	125.81
357.534	112.81
357.761	105.81
357.988	115.81
358.215	106.81
358.441	105.81
358.668	104.81
358.895	111.81
359.122	109.81
359.349	93.81
359.576	119.81
359.802	93.81
360.029	111.81
360.256	116.81
360.483	108.81
360.709	109.81
360.936	119.81
361.163	111.81
361.39	110.81
361.616	96.81
361.843	105.81
362.07	114.81
362.296	118.81
362.523	94.81
362.749	102.81
362.976	96.81
363.203	107.81
363.429	80.81
363.656	113.81
363.882	94.81
364.109	98.81
364.335	113.81
364.562	110.81
364.788	98.81
365.015	105.81
365.241	107.81
365.468	119.81
365.694	118.81
365.92	110.81
366.147	110.81
366.373	102.81
366.599	107.81
366.826	105.81
367.052	101.81
367.278	116.81
367.505	97.81
367.731	113.81
367.957	102.81
368.184	105.81
368.41	106.81
368.636	108.81
368.862	105.81
369.089	109.81
369.315	116.81
369.541	107.81
369.767	105.81
369.993	107.81
370.219	102.81
370.445	106.81
370.672	98.81
370.898	107.81
371.124	106.81
371.35	97.81
371.576	112.81
371.802	106.81
372.028	109.81
372.254	101.81
372.48	119.81
372.706	113.81
372.932	105.81
373.158	113.81
373.384	105.81
373.61	113.81
373.835	104.81
374.061	105.81
374.287	114.81
374.513	117.81
374.739	109.81
374.965	104.81
375.191	105.81
375.416	114.81
375.642	115.81
375.868	113.81
376.094	117.81
376.319	117.81
376.545	110.81
376.771	107.81
376.997	114.81
377.222	121.81
377.448	109.81
377.674	106.81
377.899	111.81
378.125	109.81
378.35	99.81
378.576	122.81
378.802	104.81
379.027	103.81
379.253	112.81
379.478	134.81
379.704	116.81
379.929	101.81
380.155	106.81
380.38	107.81
380.606	113.81
380.831	120.81
381.057	139.81
381.282	122.81
381.507	99.81
381.733	117.81
381.958	102.81
382.184	108.81
382.409	118.81
382.634	131.81
382.86	112.81
383.085	121.81
383.31	123.81
383.535	124.81
383.761	116.81
383.986	117.81
384.211	114.81
384.436	107.81
384.662	107.81
384.887	121.81
385.112	120.81
385.337	99.81
385.562	126.81
385.787	110.81
386.013	125.81
386.238	125.81
386.463	112.81
386.688	132.81
386.913	125.81
387.138	119.81
387.363	121.81
387.588	138.81
387.813	129.81
388.038	133.81
388.263	122.81
388.488	113.81
388.713	119.81
388.938	118.81
389.163	117.81
389.387	127.81
389.612	117.81
389.837	112.81
390.062	116.81
390.287	117.81
390.512	117.81
390.736	121.81
390.961	110.81
391.186	126.81
391.411	108.81
391.636	119.81
391.86	123.81
392.085	144.81
392.31	127.81
392.534	137.81
392.759	126.81
392.984	143.81
393.208	134.81
393.433	136.81
393.658	117.81
393.882	118.81
394.107	113.81
394.331	120.81
394.556	114.81
394.78	130.81
395.005	130.81
395.229	128.81
395.454	139.81
395.678	125.81
395.903	113.81
396.127	131.81
396.352	123.81
396.576	116.81
396.801	111.81
397.025	112.81
397.249	121.81
397.474	129.81
397.698	134.81
397.922	127.81
398.147	132.81
398.371	131.81
398.595	123.81
398.82	119.81
399.044	149.81
399.268	141.81
399.492	162.81
399.717	176.81
399.941	154.81
400.165	161.81
400.389	147.81
400.613	139.81
400.837	125.81
401.062	121.81
401.286	137.81
401.51	120.81
401.734	140.81
401.958	127.81
402.182	138.81
402.406	133.81
402.63	121.81
402.854	128.81
403.078	136.81
403.302	137.81
403.526	138.81
403.75	157.81
403.974	133.81
404.198	153.81
404.422	154.81
404.645	146.81
404.869	137.81
405.093	132.81
405.317	147.81
405.541	149.81
405.765	130.81
405.988	130.81
406.212	137.81
406.436	138.81
406.66	141.81
406.883	138.81
407.107	142.81
407.331	155.81
407.555	151.81
407.778	162.81
408.002	141.81
408.226	148.81
408.449	157.81
408.673	138.81
408.896	133.81
409.12	152.81
409.344	142.81
409.567	129.81
409.791	132.81
410.014	132.81
410.238	146.81
410.461	157.81
410.685	151.81
410.908	151.81
411.132	146.81
411.355	141.81
411.578	145.81
411.802	154.81
412.025	137.81
412.249	122.81
412.472	135.81
412.695	138.81
412.919	134.81
413.142	129.81
413.365	139.81
413.589	132.81
413.812	119.81
414.035	152.81
414.258	135.81
414.482	145.81
414.705	154.81
414.928	127.81
415.151	128.81
415.374	143.81
415.597	125.81
415.821	141.81
416.044	129.81
416.267	150.81
416.49	138.81
416.713	143.81
416.936	143.81
417.159	137.81
417.382	126.81
417.605	122.81
417.828	136.81
418.051	141.81
418.274	150.81
418.497	152.81
418.72	141.81
418.943	144.81
419.166	151.81
419.389	139.81
419.611	129.81
419.834	138.81
420.057	146.81
420.28	135.81
420.503	163.81
420.726	132.81
420.948	121.81
421.171	138.81
421.394	142.81
421.617	134.81
421.839	124.81
422.062	149.81
422.285	136.81
422.507	122.81
422.73	134.81
422.953	133.81
423.175	149.81
423.398	139.81
423.621	130.81
423.843	130.81
424.066	140.81
424.288	130.81
424.511	148.81
424.733	151.81
424.956	126.81
425.178	140.81
425.401	135.81
425.623	132.81
425.846	147.81
426.068	134.81
426.291	118.81
426.513	144.81
426.735	148.81
426.958	144.81
427.18	144.81
427.402	141.81
427.625	138.81
427.847	126.81
428.069	131.81
428.292	121.81
428.514	136.81
428.736	143.81
428.958	131.81
429.181	143.81
429.403	122.81
429.625	137.81
429.847	122.81
430.069	124.81
430.292	133.81
430.514	126.81
430.736	136.81
430.958	129.81
431.18	115.81
431.402	143.81
431.624	128.81
431.846	131.81
432.068	113.81
432.29	106.81
432.512	150.81
432.734	140.81
432.956	147.81
433.178	154.81
433.4	131.81
433.622	131.81
433.844	137.81
434.066	123.81
434.287	129.81
434.509	114.81
434.731	134.81
434.953	130.81
435.175	136.81
435.397	121.81
435.618	130.81
435.84	120.81
436.062	131.81
436.284	127.81
436.505	139.81
436.727	122.81
436.949	137.81
437.17	112.81
437.392	129.81
437.614	137.81
437.835	113.81
438.057	127.81
438.278	134.81
438.5	120.81
438.721	125.81
438.943	123.81
439.165	144.81
439.386	156.81
439.608	144.81
439.829	132.81
440.05	131.81
440.272	139.81
440.493	135.81
440.715	144.81
440.936	144.81
441.158	131.81
441.379	150.81
441.6	132.81
441.822	134.81
442.043	139.81
442.264	139.81
442.486	142.81
442.707	131.81
442.928	135.81
443.149	136.81
443.371	124.81
443.592	133.81
443.813	136.81
444.034	155.81
444.255	155.81
444.476	144.81
444.698	156.81
444.919	138.81
445.14	385.81
445.361	257.81
445.582	161.81
445.803	134.81
446.024	142.81
446.245	141.81
446.466	135.81
446.687	134.81
446.908	138.81
447.129	142.81
447.35	126.81
447.571	139.81
447.792	128.81
448.013	132.81
448.234	132.81
448.455	138.81
448.675	142.81
448.896	120.81
449.117	127.81
449.338	119.81
449.559	131.81
449.779	119.81
450	129.81
450.221	122.81
450.442	131.81
450.662	119.81
450.883	126.81
451.104	146.81
451.324	121.81
451.545	143.81
451.766	119.81
451.986	130.81
452.207	137.81
452.428	143.81
452.648	132.81
452.869	124.81
453.089	117.81
453.31	129.81
453.53	114.81
453.751	120.81
453.971	127.81
454.192	111.81
454.412	113.81
454.633	134.81
454.853	132.81
455.073	136.81
455.294	118.81
455.514	127.81
455.734	125.81
455.955	120.81
456.175	126.81
456.395	133.81
456.616	115.81
456.836	134.81
457.056	127.81
457.276	116.81
457.497	105.81
457.717	121.81
457.937	126.81
458.157	112.81
458.377	116.81
458.598	122.81
458.818	113.81
459.038	108.81
459.258	126.81
459.478	107.81
459.698	138.81
459.918	138.81
460.138	127.81
460.358	126.81
460.578	127.81
460.798	141.81
461.018	145.81
461.238	146.81
461.458	133.81
461.678	135.81
461.898	145.81
462.118	157.81
462.338	139.81
462.558	136.81
462.777	134.81
462.997	153.81
463.217	159.81
463.437	148.81
463.657	150.81
463.876	159.81
464.096	155.81
464.316	135.81
464.536	142.81
464.755	163.81
464.975	139.81
465.195	141.81
465.414	125.81
465.634	125.81
465.854	123.81
466.073	130.81
466.293	130.81
466.512	120.81
466.732	137.81
466.951	139.81
467.171	137.81
467.391	141.81
467.61	123.81
467.829	115.81
468.049	130.81
468.268	132.81
468.488	133.81
468.707	123.81
468.927	143.81
469.146	118.81
469.365	123.81
469.585	120.81
469.804	129.81
470.023	119.81
470.243	138.81
470.462	159.81
470.681	128.81
470.901	126.81
471.12	135.81
471.339	157.81
471.558	132.81
471.777	133.81
471.997	133.81
472.216	132.81
472.435	123.81
472.654	127.81
472.873	133.81
473.092	134.81
473.311	127.81
473.53	113.81
473.749	123.81
473.968	141.81
474.187	126.81
474.406	133.81
474.625	128.81
474.844	131.81
475.063	131.81
475.282	129.81
475.501	126.81
475.72	128.81
475.939	124.81
476.158	123.81
476.377	135.81
476.596	137.81
476.814	132.81
477.033	120.81
477.252	124.81
477.471	128.81
477.69	130.81
477.908	138.81
478.127	142.81
478.346	144.81
478.564	139.81
478.783	137.81
479.002	158.81
479.22	136.81
479.439	152.81
479.658	141.81
479.876	133.81
480.095	124.81
480.313	135.81
480.532	145.81
480.751	130.81
480.969	145.81
481.188	132.81
481.406	136.81
481.624	133.81
481.843	123.81
482.061	124.81
482.28	113.81
482.498	112.81
482.717	125.81
482.935	134.81
483.153	143.81
483.372	141.81
483.59	143.81
483.808	137.81
484.027	134.81
484.245	130.81
484.463	143.81
484.681	157.81
484.9	152.81
485.118	160.81
485.336	131.81
485.554	128.81
485.772	131.81
485.99	154.81
486.209	122.81
486.427	123.81
486.645	124.81
486.863	145.81
487.081	141.81
487.299	137.81
487.517	146.81
487.735	119.81
487.953	154.81
488.171	162.81
488.389	163.81
488.607	129.81
488.825	149.81
489.043	141.81
489.261	149.81
489.479	153.81
489.696	139.81
489.914	145.81
490.132	141.81
490.35	136.81
490.568	157.81
490.786	149.81
491.003	146.81
491.221	144.81
491.439	158.81
491.657	169.81
491.874	174.81
492.092	162.81
492.31	178.81
492.527	167.81
492.745	172.81
492.963	172.81
493.18	149.81
493.398	167.81
493.615	146.81
493.833	158.81
494.05	157.81
494.268	175.81
494.485	176.81
494.703	162.81
494.92	139.81
495.138	145.81
495.355	152.81
495.573	169.81
495.79	151.81
496.008	151.81
496.225	159.81
496.442	175.81
496.66	166.81
496.877	162.81
497.094	160.81
497.312	153.81
497.529	166.81
497.746	153.81
497.963	146.81
498.181	146.81
498.398	144.81
498.615	150.81
498.832	153.81
499.049	160.81
499.267	161.81
499.484	192.81
499.701	223.81
499.918	212.81
500.135	223.81
500.352	247.81
500.569	263.81
500.786	257.81
501.003	242.81
501.22	214.81
501.437	197.81
501.654	184.81
501.871	183.81
502.088	176.81
502.305	171.81
502.522	158.81
502.739	177.81
502.956	152.81
503.172	160.81
503.389	147.81
503.606	153.81
503.823	152.81
504.04	142.81
504.256	165.81
504.473	142.81
504.69	153.81
504.907	163.81
505.123	146.81
505.34	163.81
505.557	148.81
505.773	147.81
505.99	123.81
506.207	129.81
506.423	134.81
506.64	150.81
506.856	142.81
507.073	133.81
507.289	141.81
507.506	114.81
