Data from SampD_HRD10591_00007.txt Node
Date: Mon Jan 19 11:50:17 EST 2026
User: Yrep
Spectrometer: HR+D1059
Trigger mode: 0
Integration Time (sec): 3.443000E-1
Scans to average: 1
Electric dark correction enabled: true
Nonlinearity correction enabled: false
Boxcar width: 0
XAxis mode: Wavelengths
Number of Pixels in Spectrum: 2048
>>>>>Begin Spectral Data<<<<<
223.165	-24.06
223.4	-24.06
223.635	-24.06
223.869	-22.06
224.104	-25.06
224.338	-12.06
224.573	-9.06
224.808	-22.06
225.042	-2.06
225.277	-9.06
225.511	-3.06
225.746	-1.06
225.98	8.94
226.215	13.94
226.449	9.94
226.683	29.94
226.918	30.94
227.152	35.94
227.387	46.94
227.621	51.94
227.856	32.94
228.09	47.94
228.324	52.94
228.559	62.94
228.793	70.94
229.027	76.94
229.262	65.94
229.496	70.94
229.73	75.94
229.964	82.94
230.199	80.94
230.433	88.94
230.667	97.94
230.901	75.94
231.136	78.94
231.37	79.94
231.604	73.94
231.838	96.94
232.072	98.94
232.306	84.94
232.541	76.94
232.775	80.94
233.009	93.94
233.243	91.94
233.477	82.94
233.711	92.94
233.945	87.94
234.179	91.94
234.413	90.94
234.647	104.94
234.881	67.94
235.115	90.94
235.349	82.94
235.583	94.94
235.817	77.94
236.051	93.94
236.285	85.94
236.519	94.94
236.753	93.94
236.987	83.94
237.221	80.94
237.455	92.94
237.689	79.94
237.922	72.94
238.156	91.94
238.39	71.94
238.624	72.94
238.858	90.94
239.091	78.94
239.325	73.94
239.559	81.94
239.793	83.94
240.027	81.94
240.26	90.94
240.494	97.94
240.728	89.94
240.961	84.94
241.195	80.94
241.429	86.94
241.662	91.94
241.896	84.94
242.13	73.94
242.363	86.94
242.597	75.94
242.83	88.94
243.064	88.94
243.298	70.94
243.531	82.94
243.765	93.94
243.998	82.94
244.232	90.94
244.465	84.94
244.699	94.94
244.932	77.94
245.166	97.94
245.399	88.94
245.633	88.94
245.866	93.94
246.099	76.94
246.333	97.94
246.566	89.94
246.8	77.94
247.033	89.94
247.266	90.94
247.5	97.94
247.733	90.94
247.966	95.94
248.2	98.94
248.433	97.94
248.666	98.94
248.899	89.94
249.133	116.94
249.366	103.94
249.599	81.94
249.832	84.94
250.066	96.94
250.299	81.94
250.532	88.94
250.765	97.94
250.998	86.94
251.231	81.94
251.465	101.94
251.698	100.94
251.931	110.94
252.164	96.94
252.397	83.94
252.63	94.94
252.863	87.94
253.096	87.94
253.329	96.94
253.562	94.94
253.795	101.94
254.028	112.94
254.261	96.94
254.494	88.94
254.727	106.94
254.96	104.94
255.193	94.94
255.426	93.94
255.659	100.94
255.892	99.94
256.124	77.94
256.357	100.94
256.59	87.94
256.823	93.94
257.056	99.94
257.289	96.94
257.521	102.94
257.754	94.94
257.987	97.94
258.22	108.94
258.452	105.94
258.685	95.94
258.918	92.94
259.151	92.94
259.383	93.94
259.616	92.94
259.849	108.94
260.081	100.94
260.314	98.94
260.547	99.94
260.779	82.94
261.012	100.94
261.244	109.94
261.477	117.94
261.71	101.94
261.942	91.94
262.175	94.94
262.407	93.94
262.64	97.94
262.872	108.94
263.105	108.94
263.337	104.94
263.57	104.94
263.802	100.94
264.035	93.94
264.267	91.94
264.499	79.94
264.732	85.94
264.964	98.94
265.197	110.94
265.429	110.94
265.661	96.94
265.894	104.94
266.126	97.94
266.358	109.94
266.591	97.94
266.823	105.94
267.055	108.94
267.287	94.94
267.52	110.94
267.752	94.94
267.984	106.94
268.216	110.94
268.448	109.94
268.681	108.94
268.913	94.94
269.145	100.94
269.377	110.94
269.609	96.94
269.841	103.94
270.073	99.94
270.306	87.94
270.538	99.94
270.77	96.94
271.002	108.94
271.234	102.94
271.466	107.94
271.698	110.94
271.93	119.94
272.162	107.94
272.394	104.94
272.626	111.94
272.858	107.94
273.09	100.94
273.322	102.94
273.553	115.94
273.785	96.94
274.017	97.94
274.249	110.94
274.481	109.94
274.713	111.94
274.945	107.94
275.176	98.94
275.408	101.94
275.64	109.94
275.872	108.94
276.104	114.94
276.335	105.94
276.567	112.94
276.799	92.94
277.031	94.94
277.262	102.94
277.494	117.94
277.726	125.94
277.957	92.94
278.189	113.94
278.421	114.94
278.652	105.94
278.884	112.94
279.115	116.94
279.347	107.94
279.579	98.94
279.81	108.94
280.042	125.94
280.273	118.94
280.505	106.94
280.736	102.94
280.968	119.94
281.199	113.94
281.431	108.94
281.662	129.94
281.894	113.94
282.125	125.94
282.356	106.94
282.588	108.94
282.819	108.94
283.051	110.94
283.282	95.94
283.513	124.94
283.745	110.94
283.976	116.94
284.207	118.94
284.439	122.94
284.67	122.94
284.901	121.94
285.132	123.94
285.364	97.94
285.595	114.94
285.826	110.94
286.057	134.94
286.288	109.94
286.52	119.94
286.751	121.94
286.982	113.94
287.213	108.94
287.444	122.94
287.675	114.94
287.906	118.94
288.138	111.94
288.369	120.94
288.6	126.94
288.831	114.94
289.062	114.94
289.293	129.94
289.524	129.94
289.755	111.94
289.986	125.94
290.217	111.94
290.448	110.94
290.679	124.94
290.91	126.94
291.141	102.94
291.371	119.94
291.602	104.94
291.833	109.94
292.064	115.94
292.295	129.94
292.526	116.94
292.757	110.94
292.987	113.94
293.218	105.94
293.449	114.94
293.68	117.94
293.91	118.94
294.141	146.94
294.372	125.94
294.603	115.94
294.833	130.94
295.064	120.94
295.295	110.94
295.525	116.94
295.756	130.94
295.987	129.94
296.217	115.94
296.448	118.94
296.679	125.94
296.909	137.94
297.14	114.94
297.37	130.94
297.601	120.94
297.831	125.94
298.062	123.94
298.292	108.94
298.523	122.94
298.753	131.94
298.984	120.94
299.214	130.94
299.445	126.94
299.675	112.94
299.905	115.94
300.136	121.94
300.366	117.94
300.597	116.94
300.827	122.94
301.057	118.94
301.288	122.94
301.518	129.94
301.748	121.94
301.979	166.94
302.209	119.94
302.439	120.94
302.669	122.94
302.9	113.94
303.13	119.94
303.36	121.94
303.59	126.94
303.82	120.94
304.051	131.94
304.281	130.94
304.511	133.94
304.741	124.94
304.971	112.94
305.201	120.94
305.431	141.94
305.661	135.94
305.891	113.94
306.121	121.94
306.352	125.94
306.582	119.94
306.812	125.94
307.042	142.94
307.272	109.94
307.502	112.94
307.731	131.94
307.961	134.94
308.191	119.94
308.421	125.94
308.651	112.94
308.881	126.94
309.111	109.94
309.341	135.94
309.571	120.94
309.8	115.94
310.03	121.94
310.26	139.94
310.49	120.94
310.72	116.94
310.949	117.94
311.179	144.94
311.409	119.94
311.639	129.94
311.868	116.94
312.098	121.94
312.328	129.94
312.557	130.94
312.787	128.94
313.017	128.94
313.246	116.94
313.476	136.94
313.706	125.94
313.935	139.94
314.165	145.94
314.394	136.94
314.624	128.94
314.853	137.94
315.083	128.94
315.312	118.94
315.542	116.94
315.771	125.94
316.001	126.94
316.23	134.94
316.46	117.94
316.689	126.94
316.919	131.94
317.148	123.94
317.377	133.94
317.607	116.94
317.836	125.94
318.065	121.94
318.295	111.94
318.524	124.94
318.753	129.94
318.983	121.94
319.212	134.94
319.441	129.94
319.67	131.94
319.9	126.94
320.129	119.94
320.358	108.94
320.587	134.94
320.816	126.94
321.046	138.94
321.275	141.94
321.504	122.94
321.733	119.94
321.962	125.94
322.191	121.94
322.42	129.94
322.649	127.94
322.878	130.94
323.108	152.94
323.337	119.94
323.566	119.94
323.795	124.94
324.024	123.94
324.253	117.94
324.482	124.94
324.71	132.94
324.939	129.94
325.168	117.94
325.397	149.94
325.626	134.94
325.855	118.94
326.084	135.94
326.313	135.94
326.542	124.94
326.77	126.94
326.999	127.94
327.228	123.94
327.457	127.94
327.686	140.94
327.914	128.94
328.143	138.94
328.372	134.94
328.6	124.94
328.829	128.94
329.058	142.94
329.287	145.94
329.515	133.94
329.744	123.94
329.972	127.94
330.201	129.94
330.43	136.94
330.658	133.94
330.887	137.94
331.115	130.94
331.344	137.94
331.572	122.94
331.801	122.94
332.03	141.94
332.258	143.94
332.486	158.94
332.715	135.94
332.943	134.94
333.172	140.94
333.4	159.94
333.629	152.94
333.857	140.94
334.085	150.94
334.314	146.94
334.542	147.94
334.771	147.94
334.999	133.94
335.227	125.94
335.455	131.94
335.684	158.94
335.912	148.94
336.14	121.94
336.369	151.94
336.597	137.94
336.825	164.94
337.053	146.94
337.281	139.94
337.51	133.94
337.738	140.94
337.966	123.94
338.194	118.94
338.422	146.94
338.65	132.94
338.878	148.94
339.106	148.94
339.334	141.94
339.562	147.94
339.79	135.94
340.018	116.94
340.246	124.94
340.474	139.94
340.702	132.94
340.93	130.94
341.158	129.94
341.386	129.94
341.614	129.94
341.842	130.94
342.07	140.94
342.298	147.94
342.526	134.94
342.754	127.94
342.981	136.94
343.209	145.94
343.437	172.94
343.665	138.94
343.893	129.94
344.12	147.94
344.348	134.94
344.576	124.94
344.804	136.94
345.031	122.94
345.259	124.94
345.487	131.94
345.714	135.94
345.942	137.94
346.17	131.94
346.397	118.94
346.625	136.94
346.853	126.94
347.08	126.94
347.308	146.94
347.535	130.94
347.763	119.94
347.99	132.94
348.218	138.94
348.445	136.94
348.673	124.94
348.9	135.94
349.128	146.94
349.355	121.94
349.583	139.94
349.81	131.94
350.037	130.94
350.265	129.94
350.492	129.94
350.72	109.94
350.947	135.94
351.174	145.94
351.402	131.94
351.629	125.94
351.856	128.94
352.083	131.94
352.311	128.94
352.538	112.94
352.765	133.94
352.992	145.94
353.22	142.94
353.447	114.94
353.674	127.94
353.901	134.94
354.128	130.94
354.355	139.94
354.583	135.94
354.81	148.94
355.037	124.94
355.264	138.94
355.491	135.94
355.718	138.94
355.945	140.94
356.172	131.94
356.399	127.94
356.626	126.94
356.853	113.94
357.08	139.94
357.307	138.94
357.534	132.94
357.761	131.94
357.988	129.94
358.215	136.94
358.441	151.94
358.668	135.94
358.895	128.94
359.122	133.94
359.349	122.94
359.576	141.94
359.802	123.94
360.029	128.94
360.256	115.94
360.483	117.94
360.709	115.94
360.936	152.94
361.163	113.94
361.39	136.94
361.616	116.94
361.843	120.94
362.07	137.94
362.296	131.94
362.523	117.94
362.749	129.94
362.976	135.94
363.203	137.94
363.429	139.94
363.656	139.94
363.882	133.94
364.109	140.94
364.335	137.94
364.562	125.94
364.788	119.94
365.015	132.94
365.241	137.94
365.468	142.94
365.694	127.94
365.92	138.94
366.147	113.94
366.373	113.94
366.599	122.94
366.826	153.94
367.052	128.94
367.278	136.94
367.505	125.94
367.731	138.94
367.957	144.94
368.184	129.94
368.41	135.94
368.636	139.94
368.862	121.94
369.089	140.94
369.315	136.94
369.541	128.94
369.767	138.94
369.993	134.94
370.219	136.94
370.445	120.94
370.672	124.94
370.898	137.94
371.124	136.94
371.35	120.94
371.576	140.94
371.802	122.94
372.028	137.94
372.254	136.94
372.48	150.94
372.706	133.94
372.932	130.94
373.158	145.94
373.384	136.94
373.61	150.94
373.835	143.94
374.061	135.94
374.287	147.94
374.513	160.94
374.739	130.94
374.965	139.94
375.191	148.94
375.416	135.94
375.642	155.94
375.868	156.94
376.094	147.94
376.319	139.94
376.545	136.94
376.771	136.94
376.997	139.94
377.222	139.94
377.448	161.94
377.674	141.94
377.899	129.94
378.125	128.94
378.35	148.94
378.576	140.94
378.802	138.94
379.027	149.94
379.253	154.94
379.478	157.94
379.704	153.94
379.929	144.94
380.155	136.94
380.38	136.94
380.606	140.94
380.831	144.94
381.057	179.94
381.282	130.94
381.507	145.94
381.733	159.94
381.958	138.94
382.184	136.94
382.409	160.94
382.634	161.94
382.86	133.94
383.085	136.94
383.31	144.94
383.535	168.94
383.761	152.94
383.986	150.94
384.211	152.94
384.436	160.94
384.662	159.94
384.887	158.94
385.112	158.94
385.337	160.94
385.562	153.94
385.787	149.94
386.013	153.94
386.238	140.94
386.463	169.94
386.688	185.94
386.913	166.94
387.138	138.94
387.363	168.94
387.588	150.94
387.813	171.94
388.038	160.94
388.263	169.94
388.488	177.94
388.713	154.94
388.938	154.94
389.163	168.94
389.387	173.94
389.612	156.94
389.837	156.94
390.062	164.94
390.287	132.94
390.512	145.94
390.736	174.94
390.961	174.94
391.186	170.94
391.411	176.94
391.636	160.94
391.86	166.94
392.085	180.94
392.31	172.94
392.534	169.94
392.759	179.94
392.984	167.94
393.208	170.94
393.433	160.94
393.658	151.94
393.882	146.94
394.107	174.94
394.331	160.94
394.556	149.94
394.78	159.94
395.005	165.94
395.229	161.94
395.454	170.94
395.678	160.94
395.903	169.94
396.127	182.94
396.352	186.94
396.576	170.94
396.801	162.94
397.025	181.94
397.249	170.94
397.474	186.94
397.698	174.94
397.922	169.94
398.147	178.94
398.371	177.94
398.595	180.94
398.82	171.94
399.044	192.94
399.268	198.94
399.492	245.94
399.717	237.94
399.941	226.94
400.165	214.94
400.389	197.94
400.613	200.94
400.837	192.94
401.062	193.94
401.286	174.94
401.51	193.94
401.734	174.94
401.958	196.94
402.182	188.94
402.406	193.94
402.63	194.94
402.854	203.94
403.078	184.94
403.302	192.94
403.526	203.94
403.75	203.94
403.974	200.94
404.198	209.94
404.422	202.94
404.645	204.94
404.869	206.94
405.093	219.94
405.317	202.94
405.541	204.94
405.765	177.94
405.988	168.94
406.212	198.94
406.436	189.94
406.66	200.94
406.883	192.94
407.107	205.94
407.331	216.94
407.555	206.94
407.778	198.94
408.002	200.94
408.226	201.94
408.449	200.94
408.673	205.94
408.896	203.94
409.12	193.94
409.344	208.94
409.567	218.94
409.791	218.94
410.014	181.94
410.238	201.94
410.461	184.94
410.685	194.94
410.908	201.94
411.132	187.94
411.355	185.94
411.578	203.94
411.802	181.94
412.025	216.94
412.249	204.94
412.472	205.94
412.695	179.94
412.919	184.94
413.142	187.94
413.365	187.94
413.589	195.94
413.812	181.94
414.035	194.94
414.258	178.94
414.482	198.94
414.705	192.94
414.928	201.94
415.151	197.94
415.374	181.94
415.597	187.94
415.821	184.94
416.044	171.94
416.267	191.94
416.49	178.94
416.713	184.94
416.936	195.94
417.159	209.94
417.382	190.94
417.605	197.94
417.828	185.94
418.051	198.94
418.274	207.94
418.497	204.94
418.72	195.94
418.943	200.94
419.166	214.94
419.389	202.94
419.611	208.94
419.834	192.94
420.057	190.94
420.28	189.94
420.503	200.94
420.726	209.94
420.948	196.94
421.171	198.94
421.394	200.94
421.617	200.94
421.839	212.94
422.062	204.94
422.285	201.94
422.507	202.94
422.73	185.94
422.953	198.94
423.175	196.94
423.398	203.94
423.621	216.94
423.843	195.94
424.066	230.94
424.288	200.94
424.511	190.94
424.733	211.94
424.956	203.94
425.178	189.94
425.401	210.94
425.623	213.94
425.846	193.94
426.068	194.94
426.291	196.94
426.513	199.94
426.735	189.94
426.958	180.94
427.18	190.94
427.402	203.94
427.625	187.94
427.847	181.94
428.069	184.94
428.292	173.94
428.514	172.94
428.736	170.94
428.958	193.94
429.181	190.94
429.403	176.94
429.625	169.94
429.847	166.94
430.069	179.94
430.292	198.94
430.514	180.94
430.736	193.94
430.958	172.94
431.18	183.94
431.402	187.94
431.624	187.94
431.846	152.94
432.068	144.94
432.29	171.94
432.512	172.94
432.734	170.94
432.956	188.94
433.178	186.94
433.4	187.94
433.622	210.94
433.844	182.94
434.066	180.94
434.287	150.94
434.509	178.94
434.731	189.94
434.953	186.94
435.175	173.94
435.397	180.94
435.618	173.94
435.84	175.94
436.062	184.94
436.284	180.94
436.505	183.94
436.727	174.94
436.949	213.94
437.17	189.94
437.392	182.94
437.614	169.94
437.835	162.94
438.057	164.94
438.278	181.94
438.5	184.94
438.721	195.94
438.943	190.94
439.165	198.94
439.386	196.94
439.608	205.94
439.829	199.94
440.05	194.94
440.272	196.94
440.493	199.94
440.715	197.94
440.936	201.94
441.158	202.94
441.379	191.94
441.6	198.94
441.822	214.94
442.043	200.94
442.264	210.94
442.486	195.94
442.707	188.94
442.928	189.94
443.149	214.94
443.371	194.94
443.592	185.94
443.813	193.94
444.034	210.94
444.255	209.94
444.476	201.94
444.698	227.94
444.919	212.94
445.14	474.94
445.361	320.94
445.582	199.94
445.803	212.94
446.024	181.94
446.245	219.94
446.466	200.94
446.687	190.94
446.908	201.94
447.129	207.94
447.35	202.94
447.571	186.94
447.792	170.94
448.013	177.94
448.234	189.94
448.455	181.94
448.675	204.94
448.896	187.94
449.117	171.94
449.338	182.94
449.559	178.94
449.779	177.94
450	187.94
450.221	194.94
450.442	175.94
450.662	167.94
450.883	180.94
451.104	180.94
451.324	181.94
451.545	173.94
451.766	177.94
451.986	173.94
452.207	179.94
452.428	182.94
452.648	188.94
452.869	152.94
453.089	150.94
453.31	172.94
453.53	159.94
453.751	171.94
453.971	173.94
454.192	148.94
454.412	162.94
454.633	158.94
454.853	158.94
455.073	159.94
455.294	160.94
455.514	175.94
455.734	163.94
455.955	167.94
456.175	170.94
456.395	174.94
456.616	164.94
456.836	153.94
457.056	150.94
457.276	149.94
457.497	152.94
457.717	160.94
457.937	162.94
458.157	178.94
458.377	161.94
458.598	160.94
458.818	163.94
459.038	169.94
459.258	170.94
459.478	168.94
459.698	166.94
459.918	182.94
460.138	187.94
460.358	193.94
460.578	184.94
460.798	214.94
461.018	198.94
461.238	202.94
461.458	193.94
461.678	183.94
461.898	186.94
462.118	210.94
462.338	206.94
462.558	206.94
462.777	208.94
462.997	232.94
463.217	234.94
463.437	214.94
463.657	201.94
463.876	211.94
464.096	211.94
464.316	196.94
464.536	200.94
464.755	212.94
464.975	200.94
465.195	188.94
465.414	190.94
465.634	174.94
465.854	186.94
466.073	179.94
466.293	195.94
466.512	180.94
466.732	165.94
466.951	180.94
467.171	194.94
467.391	181.94
467.61	185.94
467.829	193.94
468.049	188.94
468.268	187.94
468.488	171.94
468.707	171.94
468.927	163.94
469.146	174.94
469.365	196.94
469.585	176.94
469.804	194.94
470.023	195.94
470.243	192.94
470.462	201.94
470.681	209.94
470.901	190.94
471.12	187.94
471.339	180.94
471.558	186.94
471.777	186.94
471.997	197.94
472.216	184.94
472.435	169.94
472.654	165.94
472.873	165.94
473.092	175.94
473.311	185.94
473.53	171.94
473.749	176.94
473.968	179.94
474.187	179.94
474.406	169.94
474.625	168.94
474.844	177.94
475.063	190.94
475.282	173.94
475.501	172.94
475.72	173.94
475.939	172.94
476.158	179.94
476.377	168.94
476.596	172.94
476.814	161.94
477.033	166.94
477.252	163.94
477.471	182.94
477.69	198.94
477.908	189.94
478.127	213.94
478.346	186.94
478.564	202.94
478.783	194.94
479.002	208.94
479.22	201.94
479.439	200.94
479.658	178.94
479.876	165.94
480.095	201.94
480.313	180.94
480.532	192.94
480.751	197.94
480.969	179.94
481.188	165.94
481.406	173.94
481.624	164.94
481.843	153.94
482.061	174.94
482.28	179.94
482.498	171.94
482.717	168.94
482.935	189.94
483.153	219.94
483.372	193.94
483.59	208.94
483.808	190.94
484.027	194.94
484.245	198.94
484.463	197.94
484.681	228.94
484.9	212.94
485.118	204.94
485.336	192.94
485.554	181.94
485.772	191.94
485.99	184.94
486.209	195.94
486.427	197.94
486.645	212.94
486.863	202.94
487.081	212.94
487.299	200.94
487.517	200.94
487.735	227.94
487.953	225.94
488.171	238.94
488.389	232.94
488.607	205.94
488.825	195.94
489.043	188.94
489.261	207.94
489.479	194.94
489.696	221.94
489.914	202.94
490.132	197.94
490.35	205.94
490.568	221.94
490.786	215.94
491.003	215.94
491.221	225.94
491.439	205.94
491.657	249.94
491.874	247.94
492.092	265.94
492.31	243.94
492.527	238.94
492.745	234.94
492.963	251.94
493.18	244.94
493.398	223.94
493.615	235.94
493.833	210.94
494.05	214.94
494.268	209.94
494.485	219.94
494.703	233.94
494.92	231.94
495.138	233.94
495.355	234.94
495.573	228.94
495.79	229.94
496.008	221.94
496.225	238.94
496.442	224.94
496.66	236.94
496.877	233.94
497.094	237.94
497.312	222.94
497.529	233.94
497.746	226.94
497.963	221.94
498.181	233.94
498.398	227.94
498.615	230.94
498.832	239.94
499.049	263.94
499.267	279.94
499.484	299.94
499.701	330.94
499.918	332.94
500.135	370.94
500.352	407.94
500.569	421.94
500.786	425.94
501.003	366.94
501.22	337.94
501.437	310.94
501.654	287.94
501.871	260.94
502.088	272.94
502.305	253.94
502.522	238.94
502.739	236.94
502.956	222.94
503.172	217.94
503.389	201.94
503.606	210.94
503.823	187.94
504.04	226.94
504.256	218.94
504.473	223.94
504.69	220.94
