Data from SampD_HRD10591_00081.txt Node
Date: Mon Jan 19 11:50:43 EST 2026
User: Yrep
Spectrometer: HR+D1059
Trigger mode: 0
Integration Time (sec): 3.443000E-1
Scans to average: 1
Electric dark correction enabled: true
Nonlinearity correction enabled: false
Boxcar width: 0
XAxis mode: Wavelengths
Number of Pixels in Spectrum: 2048
>>>>>Begin Spectral Data<<<<<
223.165	-24.12
223.4	-24.12
223.635	-24.12
223.869	-24.12
224.104	-39.12
224.338	-6.12
224.573	-20.12
224.808	-7.12
225.042	-3.12
225.277	-2.12
225.511	-11.12
225.746	15.88
225.98	15.88
226.215	30.88
226.449	-2.12
226.683	26.88
226.918	14.88
227.152	34.88
227.387	39.88
227.621	41.88
227.856	39.88
228.09	43.88
228.324	64.88
228.559	45.88
228.793	83.88
229.027	74.88
229.262	72.88
229.496	73.88
229.73	82.88
229.964	83.88
230.199	78.88
230.433	78.88
230.667	87.88
230.901	91.88
231.136	89.88
231.37	77.88
231.604	83.88
231.838	92.88
232.072	84.88
232.306	95.88
232.541	85.88
232.775	85.88
233.009	78.88
233.243	91.88
233.477	94.88
233.711	111.88
233.945	97.88
234.179	85.88
234.413	83.88
234.647	83.88
234.881	78.88
235.115	88.88
235.349	92.88
235.583	82.88
235.817	78.88
236.051	78.88
236.285	75.88
236.519	83.88
236.753	94.88
236.987	89.88
237.221	92.88
237.455	77.88
237.689	82.88
237.922	98.88
238.156	81.88
238.39	84.88
238.624	86.88
238.858	89.88
239.091	73.88
239.325	88.88
239.559	94.88
239.793	88.88
240.027	83.88
240.26	83.88
240.494	73.88
240.728	93.88
240.961	86.88
241.195	96.88
241.429	116.88
241.662	89.88
241.896	86.88
242.13	93.88
242.363	92.88
242.597	80.88
242.83	92.88
243.064	79.88
243.298	86.88
243.531	90.88
243.765	86.88
243.998	87.88
244.232	104.88
244.465	111.88
244.699	74.88
244.932	99.88
245.166	81.88
245.399	87.88
245.633	104.88
245.866	89.88
246.099	76.88
246.333	87.88
246.566	93.88
246.8	95.88
247.033	101.88
247.266	76.88
247.5	86.88
247.733	90.88
247.966	95.88
248.2	83.88
248.433	79.88
248.666	74.88
248.899	87.88
249.133	88.88
249.366	109.88
249.599	85.88
249.832	117.88
250.066	107.88
250.299	72.88
250.532	98.88
250.765	84.88
250.998	78.88
251.231	98.88
251.465	80.88
251.698	99.88
251.931	99.88
252.164	95.88
252.397	75.88
252.63	91.88
252.863	102.88
253.096	96.88
253.329	96.88
253.562	94.88
253.795	107.88
254.028	107.88
254.261	80.88
254.494	90.88
254.727	95.88
254.96	92.88
255.193	95.88
255.426	105.88
255.659	100.88
255.892	107.88
256.124	104.88
256.357	84.88
256.59	106.88
256.823	95.88
257.056	102.88
257.289	107.88
257.521	118.88
257.754	94.88
257.987	80.88
258.22	96.88
258.452	100.88
258.685	103.88
258.918	99.88
259.151	93.88
259.383	102.88
259.616	93.88
259.849	97.88
260.081	102.88
260.314	85.88
260.547	108.88
260.779	98.88
261.012	110.88
261.244	102.88
261.477	108.88
261.71	102.88
261.942	109.88
262.175	107.88
262.407	92.88
262.64	98.88
262.872	93.88
263.105	96.88
263.337	124.88
263.57	98.88
263.802	114.88
264.035	102.88
264.267	87.88
264.499	106.88
264.732	116.88
264.964	115.88
265.197	111.88
265.429	94.88
265.661	104.88
265.894	102.88
266.126	109.88
266.358	97.88
266.591	91.88
266.823	106.88
267.055	95.88
267.287	101.88
267.52	116.88
267.752	109.88
267.984	102.88
268.216	116.88
268.448	113.88
268.681	110.88
268.913	113.88
269.145	92.88
269.377	95.88
269.609	104.88
269.841	106.88
270.073	108.88
270.306	98.88
270.538	108.88
270.77	97.88
271.002	113.88
271.234	111.88
271.466	100.88
271.698	104.88
271.93	108.88
272.162	114.88
272.394	110.88
272.626	91.88
272.858	102.88
273.09	101.88
273.322	122.88
273.553	108.88
273.785	104.88
274.017	101.88
274.249	110.88
274.481	111.88
274.713	110.88
274.945	106.88
275.176	100.88
275.408	115.88
275.64	101.88
275.872	107.88
276.104	89.88
276.335	117.88
276.567	121.88
276.799	107.88
277.031	108.88
277.262	104.88
277.494	133.88
277.726	116.88
277.957	114.88
278.189	108.88
278.421	99.88
278.652	119.88
278.884	104.88
279.115	116.88
279.347	110.88
279.579	106.88
279.81	130.88
280.042	123.88
280.273	123.88
280.505	103.88
280.736	109.88
280.968	100.88
281.199	102.88
281.431	121.88
281.662	121.88
281.894	116.88
282.125	127.88
282.356	119.88
282.588	119.88
282.819	121.88
283.051	114.88
283.282	119.88
283.513	125.88
283.745	122.88
283.976	115.88
284.207	132.88
284.439	130.88
284.67	129.88
284.901	117.88
285.132	117.88
285.364	111.88
285.595	115.88
285.826	115.88
286.057	111.88
286.288	109.88
286.52	116.88
286.751	108.88
286.982	109.88
287.213	116.88
287.444	105.88
287.675	105.88
287.906	140.88
288.138	124.88
288.369	125.88
288.6	117.88
288.831	126.88
289.062	126.88
289.293	111.88
289.524	118.88
289.755	120.88
289.986	117.88
290.217	123.88
290.448	123.88
290.679	138.88
290.91	128.88
291.141	102.88
291.371	111.88
291.602	114.88
291.833	114.88
292.064	115.88
292.295	119.88
292.526	112.88
292.757	110.88
292.987	118.88
293.218	105.88
293.449	119.88
293.68	122.88
293.91	126.88
294.141	122.88
294.372	121.88
294.603	112.88
294.833	114.88
295.064	119.88
295.295	119.88
295.525	114.88
295.756	116.88
295.987	141.88
296.217	113.88
296.448	132.88
296.679	125.88
296.909	126.88
297.14	127.88
297.37	117.88
297.601	120.88
297.831	123.88
298.062	131.88
298.292	141.88
298.523	138.88
298.753	122.88
298.984	122.88
299.214	125.88
299.445	129.88
299.675	126.88
299.905	123.88
300.136	126.88
300.366	129.88
300.597	135.88
300.827	128.88
301.057	145.88
301.288	122.88
301.518	115.88
301.748	115.88
301.979	148.88
302.209	141.88
302.439	113.88
302.669	122.88
302.9	119.88
303.13	119.88
303.36	120.88
303.59	111.88
303.82	118.88
304.051	122.88
304.281	142.88
304.511	133.88
304.741	133.88
304.971	134.88
305.201	127.88
305.431	137.88
305.661	123.88
305.891	124.88
306.121	128.88
306.352	135.88
306.582	124.88
306.812	131.88
307.042	126.88
307.272	125.88
307.502	149.88
307.731	128.88
307.961	126.88
308.191	120.88
308.421	116.88
308.651	124.88
308.881	148.88
309.111	148.88
309.341	117.88
309.571	119.88
309.8	107.88
310.03	115.88
310.26	124.88
310.49	135.88
310.72	130.88
310.949	137.88
311.179	135.88
311.409	128.88
311.639	146.88
311.868	129.88
312.098	148.88
312.328	132.88
312.557	133.88
312.787	131.88
313.017	125.88
313.246	136.88
313.476	145.88
313.706	124.88
313.935	136.88
314.165	139.88
314.394	132.88
314.624	134.88
314.853	134.88
315.083	143.88
315.312	126.88
315.542	129.88
315.771	116.88
316.001	118.88
316.23	140.88
316.46	135.88
316.689	129.88
316.919	141.88
317.148	134.88
317.377	143.88
317.607	139.88
317.836	137.88
318.065	117.88
318.295	136.88
318.524	132.88
318.753	124.88
318.983	140.88
319.212	123.88
319.441	115.88
319.67	132.88
319.9	155.88
320.129	141.88
320.358	131.88
320.587	132.88
320.816	122.88
321.046	135.88
321.275	135.88
321.504	127.88
321.733	150.88
321.962	132.88
322.191	115.88
322.42	118.88
322.649	129.88
322.878	130.88
323.108	122.88
323.337	130.88
323.566	128.88
323.795	142.88
324.024	140.88
324.253	147.88
324.482	123.88
324.71	135.88
324.939	146.88
325.168	124.88
325.397	137.88
325.626	135.88
325.855	131.88
326.084	142.88
326.313	138.88
326.542	132.88
326.77	142.88
326.999	130.88
327.228	139.88
327.457	149.88
327.686	135.88
327.914	133.88
328.143	146.88
328.372	134.88
328.6	117.88
328.829	143.88
329.058	120.88
329.287	121.88
329.515	144.88
329.744	137.88
329.972	141.88
330.201	130.88
330.43	140.88
330.658	130.88
330.887	146.88
331.115	143.88
331.344	140.88
331.572	150.88
331.801	139.88
332.03	142.88
332.258	153.88
332.486	158.88
332.715	135.88
332.943	150.88
333.172	154.88
333.4	143.88
333.629	145.88
333.857	178.88
334.085	156.88
334.314	150.88
334.542	154.88
334.771	156.88
334.999	157.88
335.227	160.88
335.455	133.88
335.684	146.88
335.912	154.88
336.14	154.88
336.369	140.88
336.597	144.88
336.825	150.88
337.053	138.88
337.281	130.88
337.51	148.88
337.738	129.88
337.966	140.88
338.194	143.88
338.422	142.88
338.65	150.88
338.878	160.88
339.106	153.88
339.334	149.88
339.562	123.88
339.79	144.88
340.018	150.88
340.246	141.88
340.474	135.88
340.702	126.88
340.93	138.88
341.158	128.88
341.386	142.88
341.614	130.88
341.842	130.88
342.07	149.88
342.298	120.88
342.526	131.88
342.754	148.88
342.981	154.88
343.209	140.88
343.437	173.88
343.665	173.88
343.893	151.88
344.12	163.88
344.348	162.88
344.576	147.88
344.804	140.88
345.031	137.88
345.259	161.88
345.487	150.88
345.714	130.88
345.942	132.88
346.17	134.88
346.397	141.88
346.625	133.88
346.853	143.88
347.08	127.88
347.308	157.88
347.535	145.88
347.763	143.88
347.99	164.88
348.218	144.88
348.445	121.88
348.673	130.88
348.9	141.88
349.128	151.88
349.355	137.88
349.583	142.88
349.81	144.88
350.037	135.88
350.265	142.88
350.492	121.88
350.72	123.88
350.947	142.88
351.174	127.88
351.402	132.88
351.629	141.88
351.856	143.88
352.083	137.88
352.311	135.88
352.538	133.88
352.765	137.88
352.992	132.88
353.22	131.88
353.447	143.88
353.674	146.88
353.901	154.88
354.128	135.88
354.355	133.88
354.583	121.88
354.81	139.88
355.037	141.88
355.264	146.88
355.491	135.88
355.718	129.88
355.945	139.88
356.172	126.88
356.399	129.88
356.626	132.88
356.853	132.88
357.08	149.88
357.307	136.88
357.534	126.88
357.761	143.88
357.988	152.88
358.215	139.88
358.441	132.88
358.668	138.88
358.895	129.88
359.122	141.88
359.349	138.88
359.576	139.88
359.802	130.88
360.029	130.88
360.256	133.88
360.483	136.88
360.709	146.88
360.936	154.88
361.163	138.88
361.39	132.88
361.616	136.88
361.843	162.88
362.07	138.88
362.296	143.88
362.523	141.88
362.749	141.88
362.976	139.88
363.203	130.88
363.429	134.88
363.656	140.88
363.882	128.88
364.109	155.88
364.335	134.88
364.562	160.88
364.788	133.88
365.015	128.88
365.241	144.88
365.468	131.88
365.694	149.88
365.92	140.88
366.147	140.88
366.373	128.88
366.599	136.88
366.826	139.88
367.052	124.88
367.278	146.88
367.505	131.88
367.731	150.88
367.957	139.88
368.184	147.88
368.41	148.88
368.636	129.88
368.862	140.88
369.089	132.88
369.315	154.88
369.541	146.88
369.767	142.88
369.993	130.88
370.219	130.88
370.445	126.88
370.672	143.88
370.898	132.88
371.124	135.88
371.35	138.88
371.576	150.88
371.802	133.88
372.028	146.88
372.254	138.88
372.48	151.88
372.706	166.88
372.932	150.88
373.158	152.88
373.384	151.88
373.61	142.88
373.835	132.88
374.061	128.88
374.287	156.88
374.513	155.88
374.739	155.88
374.965	160.88
375.191	141.88
375.416	158.88
375.642	148.88
375.868	158.88
376.094	147.88
376.319	132.88
376.545	147.88
376.771	135.88
376.997	148.88
377.222	160.88
377.448	155.88
377.674	141.88
377.899	143.88
378.125	152.88
378.35	137.88
378.576	140.88
378.802	149.88
379.027	160.88
379.253	154.88
379.478	155.88
379.704	169.88
379.929	135.88
380.155	143.88
380.38	156.88
380.606	152.88
380.831	153.88
381.057	158.88
381.282	162.88
381.507	153.88
381.733	166.88
381.958	154.88
382.184	147.88
382.409	163.88
382.634	162.88
382.86	163.88
383.085	142.88
383.31	166.88
383.535	155.88
383.761	168.88
383.986	156.88
384.211	170.88
384.436	166.88
384.662	152.88
384.887	174.88
385.112	160.88
385.337	174.88
385.562	156.88
385.787	159.88
386.013	165.88
386.238	139.88
386.463	150.88
386.688	185.88
386.913	160.88
387.138	154.88
387.363	161.88
387.588	160.88
387.813	181.88
388.038	165.88
388.263	185.88
388.488	154.88
388.713	157.88
388.938	168.88
389.163	170.88
389.387	156.88
389.612	164.88
389.837	171.88
390.062	170.88
390.287	160.88
390.512	170.88
390.736	166.88
390.961	171.88
391.186	181.88
391.411	173.88
391.636	172.88
391.86	175.88
392.085	186.88
392.31	180.88
392.534	174.88
392.759	186.88
392.984	175.88
393.208	169.88
393.433	187.88
393.658	163.88
393.882	163.88
394.107	180.88
394.331	171.88
394.556	172.88
394.78	187.88
395.005	166.88
395.229	180.88
395.454	180.88
395.678	172.88
395.903	175.88
396.127	168.88
396.352	179.88
396.576	186.88
396.801	162.88
397.025	175.88
397.249	176.88
397.474	164.88
397.698	180.88
397.922	190.88
398.147	193.88
398.371	188.88
398.595	183.88
398.82	200.88
399.044	199.88
399.268	211.88
399.492	232.88
399.717	249.88
399.941	231.88
400.165	236.88
400.389	208.88
400.613	204.88
400.837	195.88
401.062	193.88
401.286	195.88
401.51	196.88
401.734	198.88
401.958	193.88
402.182	192.88
402.406	192.88
402.63	199.88
402.854	210.88
403.078	194.88
403.302	228.88
403.526	205.88
403.75	206.88
403.974	229.88
404.198	221.88
404.422	204.88
404.645	222.88
404.869	220.88
405.093	216.88
405.317	203.88
405.541	205.88
405.765	189.88
405.988	202.88
406.212	199.88
406.436	182.88
406.66	219.88
406.883	228.88
407.107	218.88
407.331	224.88
407.555	221.88
407.778	237.88
408.002	231.88
408.226	206.88
408.449	208.88
408.673	198.88
408.896	204.88
409.12	210.88
409.344	218.88
409.567	217.88
409.791	202.88
410.014	214.88
410.238	201.88
410.461	190.88
410.685	196.88
410.908	212.88
411.132	189.88
411.355	201.88
411.578	219.88
411.802	195.88
412.025	184.88
412.249	207.88
412.472	183.88
412.695	194.88
412.919	202.88
413.142	203.88
413.365	193.88
413.589	203.88
413.812	212.88
414.035	191.88
414.258	187.88
414.482	182.88
414.705	199.88
414.928	202.88
415.151	207.88
415.374	200.88
415.597	202.88
415.821	190.88
416.044	199.88
416.267	190.88
416.49	187.88
416.713	195.88
416.936	201.88
417.159	190.88
417.382	194.88
417.605	189.88
417.828	190.88
418.051	194.88
418.274	201.88
418.497	196.88
418.72	192.88
418.943	195.88
419.166	218.88
419.389	213.88
419.611	219.88
419.834	212.88
420.057	197.88
420.28	207.88
420.503	202.88
420.726	195.88
420.948	198.88
421.171	195.88
421.394	189.88
421.617	194.88
421.839	199.88
422.062	207.88
422.285	207.88
422.507	202.88
422.73	202.88
422.953	168.88
423.175	207.88
423.398	196.88
423.621	221.88
423.843	230.88
424.066	218.88
424.288	214.88
424.511	211.88
424.733	216.88
424.956	219.88
425.178	215.88
425.401	222.88
425.623	195.88
425.846	212.88
426.068	201.88
426.291	206.88
426.513	216.88
426.735	210.88
426.958	203.88
427.18	171.88
427.402	184.88
427.625	200.88
427.847	183.88
428.069	200.88
428.292	196.88
428.514	196.88
428.736	184.88
428.958	165.88
429.181	190.88
429.403	188.88
429.625	163.88
429.847	187.88
430.069	188.88
430.292	200.88
430.514	173.88
430.736	189.88
430.958	177.88
431.18	167.88
431.402	181.88
431.624	171.88
431.846	176.88
432.068	166.88
432.29	176.88
432.512	186.88
432.734	187.88
432.956	178.88
433.178	203.88
433.4	191.88
433.622	194.88
433.844	191.88
434.066	184.88
434.287	169.88
434.509	165.88
434.731	192.88
434.953	192.88
435.175	204.88
435.397	199.88
435.618	187.88
435.84	180.88
436.062	185.88
436.284	190.88
436.505	189.88
436.727	202.88
436.949	179.88
437.17	193.88
437.392	174.88
437.614	182.88
437.835	174.88
438.057	167.88
438.278	170.88
438.5	181.88
438.721	197.88
438.943	184.88
439.165	193.88
439.386	172.88
439.608	182.88
439.829	187.88
440.05	197.88
440.272	206.88
440.493	190.88
440.715	190.88
440.936	198.88
441.158	199.88
441.379	207.88
441.6	223.88
441.822	210.88
442.043	210.88
442.264	204.88
442.486	217.88
442.707	191.88
442.928	214.88
443.149	204.88
443.371	199.88
443.592	214.88
443.813	208.88
444.034	207.88
444.255	215.88
444.476	213.88
444.698	223.88
444.919	220.88
445.14	485.88
445.361	332.88
445.582	214.88
445.803	204.88
446.024	195.88
446.245	216.88
446.466	181.88
446.687	202.88
446.908	202.88
447.129	202.88
447.35	177.88
447.571	213.88
447.792	190.88
448.013	184.88
448.234	197.88
448.455	177.88
448.675	175.88
448.896	175.88
449.117	178.88
449.338	183.88
449.559	199.88
449.779	178.88
450	185.88
450.221	190.88
450.442	199.88
450.662	177.88
450.883	189.88
451.104	183.88
451.324	182.88
451.545	186.88
451.766	181.88
451.986	172.88
452.207	178.88
452.428	176.88
452.648	180.88
452.869	190.88
453.089	166.88
453.31	166.88
453.53	172.88
453.751	171.88
453.971	161.88
454.192	157.88
454.412	167.88
454.633	157.88
454.853	169.88
455.073	171.88
455.294	179.88
455.514	194.88
455.734	159.88
455.955	180.88
456.175	164.88
456.395	163.88
456.616	171.88
456.836	167.88
457.056	165.88
457.276	164.88
457.497	154.88
457.717	175.88
457.937	168.88
458.157	178.88
458.377	151.88
458.598	164.88
458.818	169.88
459.038	164.88
459.258	170.88
459.478	151.88
459.698	176.88
459.918	186.88
460.138	196.88
460.358	202.88
460.578	224.88
460.798	208.88
461.018	189.88
461.238	203.88
461.458	198.88
461.678	181.88
461.898	201.88
462.118	207.88
462.338	218.88
462.558	212.88
462.777	208.88
462.997	221.88
463.217	246.88
463.437	233.88
463.657	217.88
463.876	217.88
464.096	211.88
464.316	215.88
464.536	228.88
464.755	207.88
464.975	208.88
465.195	214.88
465.414	214.88
465.634	173.88
465.854	176.88
466.073	173.88
466.293	188.88
466.512	172.88
466.732	180.88
466.951	206.88
467.171	188.88
467.391	193.88
467.61	190.88
467.829	182.88
468.049	179.88
468.268	197.88
468.488	185.88
468.707	180.88
468.927	179.88
469.146	192.88
469.365	192.88
469.585	199.88
469.804	190.88
470.023	199.88
470.243	198.88
470.462	194.88
470.681	200.88
470.901	190.88
471.12	193.88
471.339	186.88
471.558	189.88
471.777	183.88
471.997	180.88
472.216	170.88
472.435	161.88
472.654	156.88
472.873	173.88
473.092	177.88
473.311	165.88
473.53	171.88
473.749	173.88
473.968	185.88
474.187	166.88
474.406	200.88
474.625	192.88
474.844	204.88
475.063	168.88
475.282	156.88
475.501	178.88
475.72	192.88
475.939	190.88
476.158	188.88
476.377	199.88
476.596	163.88
476.814	162.88
477.033	167.88
477.252	192.88
477.471	199.88
477.69	198.88
477.908	203.88
478.127	205.88
478.346	212.88
478.564	195.88
478.783	203.88
479.002	213.88
479.22	203.88
479.439	213.88
479.658	196.88
479.876	198.88
480.095	182.88
480.313	198.88
480.532	213.88
480.751	202.88
480.969	173.88
481.188	171.88
481.406	186.88
481.624	192.88
481.843	179.88
482.061	186.88
482.28	198.88
482.498	169.88
482.717	194.88
482.935	189.88
483.153	197.88
483.372	191.88
483.59	198.88
483.808	187.88
484.027	206.88
484.245	203.88
484.463	206.88
484.681	227.88
484.9	199.88
485.118	218.88
485.336	206.88
485.554	197.88
485.772	175.88
485.99	183.88
486.209	191.88
486.427	180.88
486.645	182.88
486.863	215.88
487.081	207.88
487.299	200.88
487.517	206.88
487.735	216.88
487.953	246.88
488.171	212.88
488.389	221.88
488.607	202.88
488.825	198.88
489.043	203.88
489.261	214.88
489.479	207.88
489.696	196.88
489.914	206.88
490.132	216.88
490.35	216.88
490.568	216.88
490.786	228.88
491.003	216.88
491.221	231.88
491.439	231.88
491.657	234.88
491.874	236.88
492.092	252.88
492.31	260.88
492.527	249.88
492.745	248.88
492.963	233.88
493.18	250.88
493.398	235.88
493.615	230.88
493.833	236.88
494.05	249.88
494.268	229.88
494.485	227.88
494.703	235.88
494.92	235.88
495.138	237.88
495.355	237.88
495.573	246.88
495.79	228.88
496.008	230.88
496.225	223.88
496.442	226.88
496.66	258.88
496.877	237.88
497.094	243.88
497.312	215.88
497.529	242.88
497.746	239.88
497.963	226.88
498.181	212.88
498.398	224.88
498.615	250.88
498.832	246.88
499.049	254.88
499.267	278.88
499.484	291.88
499.701	320.88
499.918	355.88
500.135	395.88
500.352	404.88
500.569	438.88
500.786	431.88
501.003	395.88
501.22	343.88
501.437	331.88
501.654	288.88
501.871	293.88
502.088	279.88
502.305	252.88
502.522	254.88
502.739	246.88
502.956	225.88
503.172	231.88
503.389	228.88
503.606	231.88
503.823	222.88
504.04	229.88
504.256	207.88
504.473	224.88
