Data from SampD_HRD10591_00021.txt Node
Date: Mon Jan 19 11:50:22 EST 2026
User: Yrep
Spectrometer: HR+D1059
Trigger mode: 0
Integration Time (sec): 3.443000E-1
Scans to average: 1
Electric dark correction enabled: true
Nonlinearity correction enabled: false
Boxcar width: 0
XAxis mode: Wavelengths
Number of Pixels in Spectrum: 2048
>>>>>Begin Spectral Data<<<<<
223.165	-24.94
223.4	-24.94
223.635	-24.94
223.869	-7.94
224.104	-22.94
224.338	-16.94
224.573	-4.94
224.808	-13.94
225.042	-11.94
225.277	-19.94
225.511	-4.94
225.746	12.06
225.98	10.06
226.215	8.06
226.449	20.06
226.683	24.06
226.918	26.06
227.152	28.06
227.387	33.06
227.621	44.06
227.856	54.06
228.09	50.06
228.324	54.06
228.559	61.06
228.793	58.06
229.027	62.06
229.262	71.06
229.496	69.06
229.73	60.06
229.964	77.06
230.199	88.06
230.433	80.06
230.667	75.06
230.901	84.06
231.136	88.06
231.37	72.06
231.604	77.06
231.838	80.06
232.072	83.06
232.306	92.06
232.541	69.06
232.775	78.06
233.009	89.06
233.243	75.06
233.477	90.06
233.711	102.06
233.945	89.06
234.179	94.06
234.413	71.06
234.647	90.06
234.881	94.06
235.115	80.06
235.349	77.06
235.583	84.06
235.817	89.06
236.051	73.06
236.285	88.06
236.519	87.06
236.753	86.06
236.987	80.06
237.221	76.06
237.455	78.06
237.689	93.06
237.922	91.06
238.156	90.06
238.39	81.06
238.624	77.06
238.858	85.06
239.091	77.06
239.325	78.06
239.559	99.06
239.793	64.06
240.027	87.06
240.26	68.06
240.494	84.06
240.728	99.06
240.961	80.06
241.195	85.06
241.429	84.06
241.662	68.06
241.896	83.06
242.13	71.06
242.363	91.06
242.597	90.06
242.83	90.06
243.064	77.06
243.298	78.06
243.531	81.06
243.765	81.06
243.998	104.06
244.232	84.06
244.465	91.06
244.699	98.06
244.932	80.06
245.166	86.06
245.399	100.06
245.633	87.06
245.866	92.06
246.099	82.06
246.333	76.06
246.566	76.06
246.8	71.06
247.033	89.06
247.266	80.06
247.5	100.06
247.733	89.06
247.966	93.06
248.2	96.06
248.433	78.06
248.666	91.06
248.899	101.06
249.133	86.06
249.366	109.06
249.599	92.06
249.832	105.06
250.066	93.06
250.299	93.06
250.532	78.06
250.765	77.06
250.998	84.06
251.231	84.06
251.465	89.06
251.698	92.06
251.931	86.06
252.164	84.06
252.397	82.06
252.63	92.06
252.863	92.06
253.096	98.06
253.329	85.06
253.562	110.06
253.795	86.06
254.028	97.06
254.261	86.06
254.494	81.06
254.727	101.06
254.96	93.06
255.193	93.06
255.426	81.06
255.659	97.06
255.892	109.06
256.124	96.06
256.357	82.06
256.59	94.06
256.823	85.06
257.056	89.06
257.289	102.06
257.521	82.06
257.754	101.06
257.987	91.06
258.22	104.06
258.452	100.06
258.685	102.06
258.918	103.06
259.151	96.06
259.383	94.06
259.616	80.06
259.849	85.06
260.081	102.06
260.314	89.06
260.547	107.06
260.779	101.06
261.012	79.06
261.244	92.06
261.477	116.06
261.71	106.06
261.942	96.06
262.175	100.06
262.407	92.06
262.64	84.06
262.872	94.06
263.105	108.06
263.337	126.06
263.57	103.06
263.802	96.06
264.035	94.06
264.267	97.06
264.499	98.06
264.732	98.06
264.964	101.06
265.197	92.06
265.429	112.06
265.661	113.06
265.894	97.06
266.126	105.06
266.358	110.06
266.591	104.06
266.823	98.06
267.055	103.06
267.287	94.06
267.52	113.06
267.752	98.06
267.984	108.06
268.216	95.06
268.448	104.06
268.681	107.06
268.913	110.06
269.145	120.06
269.377	108.06
269.609	105.06
269.841	102.06
270.073	114.06
270.306	105.06
270.538	114.06
270.77	96.06
271.002	90.06
271.234	107.06
271.466	104.06
271.698	104.06
271.93	115.06
272.162	111.06
272.394	106.06
272.626	107.06
272.858	102.06
273.09	101.06
273.322	101.06
273.553	97.06
273.785	119.06
274.017	90.06
274.249	116.06
274.481	103.06
274.713	101.06
274.945	109.06
275.176	119.06
275.408	114.06
275.64	108.06
275.872	101.06
276.104	115.06
276.335	97.06
276.567	109.06
276.799	100.06
277.031	107.06
277.262	104.06
277.494	98.06
277.726	112.06
277.957	92.06
278.189	106.06
278.421	119.06
278.652	97.06
278.884	106.06
279.115	108.06
279.347	122.06
279.579	108.06
279.81	104.06
280.042	116.06
280.273	99.06
280.505	107.06
280.736	121.06
280.968	108.06
281.199	133.06
281.431	99.06
281.662	105.06
281.894	100.06
282.125	113.06
282.356	105.06
282.588	104.06
282.819	102.06
283.051	121.06
283.282	99.06
283.513	109.06
283.745	120.06
283.976	109.06
284.207	118.06
284.439	103.06
284.67	105.06
284.901	128.06
285.132	109.06
285.364	117.06
285.595	112.06
285.826	120.06
286.057	113.06
286.288	110.06
286.52	108.06
286.751	107.06
286.982	117.06
287.213	120.06
287.444	118.06
287.675	106.06
287.906	119.06
288.138	117.06
288.369	130.06
288.6	128.06
288.831	125.06
289.062	113.06
289.293	94.06
289.524	112.06
289.755	115.06
289.986	109.06
290.217	111.06
290.448	125.06
290.679	114.06
290.91	122.06
291.141	120.06
291.371	120.06
291.602	105.06
291.833	118.06
292.064	120.06
292.295	120.06
292.526	130.06
292.757	113.06
292.987	128.06
293.218	117.06
293.449	115.06
293.68	124.06
293.91	108.06
294.141	124.06
294.372	126.06
294.603	118.06
294.833	145.06
295.064	132.06
295.295	109.06
295.525	110.06
295.756	130.06
295.987	125.06
296.217	120.06
296.448	108.06
296.679	111.06
296.909	118.06
297.14	120.06
297.37	120.06
297.601	117.06
297.831	114.06
298.062	108.06
298.292	126.06
298.523	124.06
298.753	113.06
298.984	115.06
299.214	132.06
299.445	121.06
299.675	129.06
299.905	132.06
300.136	126.06
300.366	128.06
300.597	119.06
300.827	116.06
301.057	126.06
301.288	129.06
301.518	122.06
301.748	120.06
301.979	161.06
302.209	133.06
302.439	118.06
302.669	120.06
302.9	116.06
303.13	128.06
303.36	126.06
303.59	111.06
303.82	131.06
304.051	124.06
304.281	131.06
304.511	124.06
304.741	132.06
304.971	119.06
305.201	118.06
305.431	127.06
305.661	116.06
305.891	124.06
306.121	122.06
306.352	122.06
306.582	120.06
306.812	131.06
307.042	121.06
307.272	131.06
307.502	119.06
307.731	136.06
307.961	117.06
308.191	132.06
308.421	118.06
308.651	131.06
308.881	128.06
309.111	123.06
309.341	127.06
309.571	119.06
309.8	118.06
310.03	122.06
310.26	118.06
310.49	125.06
310.72	123.06
310.949	125.06
311.179	129.06
311.409	116.06
311.639	122.06
311.868	132.06
312.098	118.06
312.328	127.06
312.557	133.06
312.787	122.06
313.017	126.06
313.246	143.06
313.476	129.06
313.706	114.06
313.935	117.06
314.165	125.06
314.394	137.06
314.624	122.06
314.853	128.06
315.083	130.06
315.312	110.06
315.542	119.06
315.771	123.06
316.001	109.06
316.23	133.06
316.46	125.06
316.689	126.06
316.919	126.06
317.148	124.06
317.377	134.06
317.607	128.06
317.836	126.06
318.065	129.06
318.295	128.06
318.524	120.06
318.753	126.06
318.983	136.06
319.212	123.06
319.441	121.06
319.67	128.06
319.9	123.06
320.129	123.06
320.358	116.06
320.587	129.06
320.816	112.06
321.046	107.06
321.275	138.06
321.504	136.06
321.733	134.06
321.962	122.06
322.191	114.06
322.42	117.06
322.649	123.06
322.878	114.06
323.108	126.06
323.337	119.06
323.566	132.06
323.795	128.06
324.024	140.06
324.253	117.06
324.482	121.06
324.71	133.06
324.939	138.06
325.168	125.06
325.397	140.06
325.626	129.06
325.855	136.06
326.084	134.06
326.313	128.06
326.542	122.06
326.77	129.06
326.999	124.06
327.228	123.06
327.457	125.06
327.686	134.06
327.914	144.06
328.143	134.06
328.372	135.06
328.6	119.06
328.829	119.06
329.058	123.06
329.287	144.06
329.515	141.06
329.744	128.06
329.972	138.06
330.201	133.06
330.43	133.06
330.658	128.06
330.887	133.06
331.115	138.06
331.344	132.06
331.572	135.06
331.801	144.06
332.03	145.06
332.258	131.06
332.486	150.06
332.715	120.06
332.943	150.06
333.172	158.06
333.4	155.06
333.629	152.06
333.857	141.06
334.085	146.06
334.314	147.06
334.542	139.06
334.771	150.06
334.999	144.06
335.227	150.06
335.455	141.06
335.684	154.06
335.912	166.06
336.14	154.06
336.369	151.06
336.597	141.06
336.825	154.06
337.053	139.06
337.281	140.06
337.51	140.06
337.738	135.06
337.966	137.06
338.194	128.06
338.422	132.06
338.65	146.06
338.878	141.06
339.106	133.06
339.334	146.06
339.562	128.06
339.79	133.06
340.018	145.06
340.246	141.06
340.474	134.06
340.702	139.06
340.93	125.06
341.158	133.06
341.386	117.06
341.614	126.06
341.842	129.06
342.07	131.06
342.298	136.06
342.526	129.06
342.754	126.06
342.981	139.06
343.209	136.06
343.437	181.06
343.665	149.06
343.893	152.06
344.12	150.06
344.348	143.06
344.576	128.06
344.804	139.06
345.031	144.06
345.259	128.06
345.487	130.06
345.714	122.06
345.942	133.06
346.17	134.06
346.397	149.06
346.625	134.06
346.853	132.06
347.08	115.06
347.308	136.06
347.535	119.06
347.763	149.06
347.99	121.06
348.218	121.06
348.445	131.06
348.673	137.06
348.9	138.06
349.128	137.06
349.355	120.06
349.583	117.06
349.81	143.06
350.037	133.06
350.265	126.06
350.492	144.06
350.72	115.06
350.947	135.06
351.174	135.06
351.402	137.06
351.629	123.06
351.856	130.06
352.083	124.06
352.311	136.06
352.538	131.06
352.765	139.06
352.992	151.06
353.22	132.06
353.447	130.06
353.674	135.06
353.901	131.06
354.128	139.06
354.355	131.06
354.583	139.06
354.81	109.06
355.037	135.06
355.264	138.06
355.491	139.06
355.718	125.06
355.945	142.06
356.172	139.06
356.399	125.06
356.626	144.06
356.853	136.06
357.08	145.06
357.307	126.06
357.534	138.06
357.761	146.06
357.988	139.06
358.215	138.06
358.441	123.06
358.668	124.06
358.895	118.06
359.122	131.06
359.349	128.06
359.576	137.06
359.802	146.06
360.029	131.06
360.256	115.06
360.483	127.06
360.709	129.06
360.936	158.06
361.163	140.06
361.39	155.06
361.616	123.06
361.843	133.06
362.07	136.06
362.296	126.06
362.523	146.06
362.749	136.06
362.976	146.06
363.203	139.06
363.429	124.06
363.656	138.06
363.882	133.06
364.109	122.06
364.335	129.06
364.562	112.06
364.788	121.06
365.015	133.06
365.241	127.06
365.468	144.06
365.694	123.06
365.92	135.06
366.147	137.06
366.373	145.06
366.599	129.06
366.826	123.06
367.052	129.06
367.278	131.06
367.505	133.06
367.731	160.06
367.957	141.06
368.184	134.06
368.41	130.06
368.636	147.06
368.862	141.06
369.089	130.06
369.315	139.06
369.541	155.06
369.767	146.06
369.993	141.06
370.219	138.06
370.445	138.06
370.672	122.06
370.898	142.06
371.124	130.06
371.35	128.06
371.576	147.06
371.802	135.06
372.028	150.06
372.254	135.06
372.48	129.06
372.706	129.06
372.932	128.06
373.158	128.06
373.384	137.06
373.61	158.06
373.835	154.06
374.061	129.06
374.287	158.06
374.513	132.06
374.739	146.06
374.965	141.06
375.191	149.06
375.416	132.06
375.642	150.06
375.868	147.06
376.094	140.06
376.319	141.06
376.545	139.06
376.771	140.06
376.997	145.06
377.222	132.06
377.448	145.06
377.674	156.06
377.899	152.06
378.125	146.06
378.35	152.06
378.576	150.06
378.802	138.06
379.027	149.06
379.253	142.06
379.478	136.06
379.704	135.06
379.929	147.06
380.155	146.06
380.38	128.06
380.606	139.06
380.831	137.06
381.057	149.06
381.282	134.06
381.507	159.06
381.733	148.06
381.958	144.06
382.184	137.06
382.409	114.06
382.634	145.06
382.86	145.06
383.085	158.06
383.31	135.06
383.535	160.06
383.761	147.06
383.986	160.06
384.211	153.06
384.436	154.06
384.662	153.06
384.887	155.06
385.112	149.06
385.337	175.06
385.562	174.06
385.787	151.06
386.013	172.06
386.238	152.06
386.463	160.06
386.688	184.06
386.913	158.06
387.138	170.06
387.363	167.06
387.588	164.06
387.813	165.06
388.038	155.06
388.263	177.06
388.488	166.06
388.713	157.06
388.938	162.06
389.163	144.06
389.387	152.06
389.612	141.06
389.837	164.06
390.062	168.06
390.287	158.06
390.512	156.06
390.736	164.06
390.961	160.06
391.186	145.06
391.411	166.06
391.636	168.06
391.86	179.06
392.085	166.06
392.31	175.06
392.534	162.06
392.759	181.06
392.984	168.06
393.208	167.06
393.433	176.06
393.658	149.06
393.882	168.06
394.107	183.06
394.331	177.06
394.556	169.06
394.78	159.06
395.005	168.06
395.229	174.06
395.454	188.06
395.678	178.06
395.903	172.06
396.127	190.06
396.352	176.06
396.576	161.06
396.801	190.06
397.025	182.06
397.249	181.06
397.474	199.06
397.698	187.06
397.922	179.06
398.147	182.06
398.371	171.06
398.595	169.06
398.82	195.06
399.044	204.06
399.268	195.06
399.492	227.06
399.717	238.06
399.941	237.06
400.165	213.06
400.389	209.06
400.613	194.06
400.837	188.06
401.062	198.06
401.286	180.06
401.51	191.06
401.734	194.06
401.958	209.06
402.182	185.06
402.406	200.06
402.63	174.06
402.854	195.06
403.078	212.06
403.302	201.06
403.526	220.06
403.75	208.06
403.974	212.06
404.198	205.06
404.422	203.06
404.645	211.06
404.869	202.06
405.093	200.06
405.317	193.06
405.541	204.06
405.765	212.06
405.988	216.06
406.212	205.06
406.436	196.06
406.66	189.06
406.883	218.06
407.107	209.06
407.331	227.06
407.555	208.06
407.778	214.06
408.002	211.06
408.226	210.06
408.449	217.06
408.673	213.06
408.896	200.06
409.12	197.06
409.344	203.06
409.567	204.06
409.791	196.06
410.014	219.06
410.238	198.06
410.461	203.06
410.685	203.06
410.908	199.06
411.132	218.06
411.355	198.06
411.578	205.06
411.802	188.06
412.025	183.06
412.249	214.06
412.472	196.06
412.695	178.06
412.919	210.06
413.142	196.06
413.365	190.06
413.589	180.06
413.812	196.06
414.035	188.06
414.258	190.06
414.482	194.06
414.705	192.06
414.928	210.06
415.151	195.06
415.374	193.06
415.597	200.06
415.821	206.06
416.044	199.06
416.267	186.06
416.49	192.06
416.713	197.06
416.936	185.06
417.159	203.06
417.382	192.06
417.605	188.06
417.828	194.06
418.051	178.06
418.274	203.06
418.497	196.06
418.72	220.06
418.943	209.06
419.166	200.06
419.389	217.06
419.611	213.06
419.834	199.06
420.057	205.06
420.28	216.06
420.503	194.06
420.726	190.06
420.948	191.06
421.171	204.06
421.394	198.06
421.617	198.06
421.839	204.06
422.062	194.06
422.285	192.06
422.507	198.06
422.73	194.06
422.953	204.06
423.175	202.06
423.398	217.06
423.621	203.06
423.843	198.06
424.066	219.06
424.288	206.06
424.511	209.06
424.733	219.06
424.956	215.06
425.178	189.06
425.401	189.06
425.623	199.06
425.846	194.06
426.068	204.06
426.291	200.06
426.513	194.06
426.735	189.06
426.958	186.06
427.18	186.06
427.402	188.06
427.625	182.06
427.847	182.06
428.069	176.06
428.292	185.06
428.514	182.06
428.736	192.06
428.958	178.06
429.181	201.06
429.403	177.06
429.625	175.06
429.847	199.06
430.069	194.06
430.292	203.06
430.514	180.06
430.736	168.06
430.958	186.06
431.18	177.06
431.402	182.06
431.624	179.06
431.846	163.06
432.068	172.06
432.29	164.06
432.512	180.06
432.734	197.06
432.956	189.06
433.178	205.06
433.4	207.06
433.622	191.06
433.844	188.06
434.066	196.06
434.287	178.06
434.509	173.06
434.731	184.06
434.953	194.06
435.175	185.06
435.397	200.06
435.618	186.06
435.84	174.06
436.062	161.06
436.284	180.06
436.505	193.06
436.727	188.06
436.949	189.06
437.17	183.06
437.392	179.06
437.614	182.06
437.835	173.06
438.057	154.06
438.278	188.06
438.5	188.06
438.721	195.06
438.943	181.06
439.165	187.06
439.386	182.06
439.608	194.06
439.829	194.06
440.05	194.06
440.272	180.06
440.493	194.06
440.715	170.06
440.936	177.06
441.158	221.06
441.379	189.06
441.6	189.06
441.822	214.06
442.043	193.06
442.264	195.06
442.486	216.06
442.707	204.06
442.928	197.06
443.149	205.06
443.371	213.06
443.592	196.06
443.813	194.06
444.034	205.06
444.255	213.06
444.476	208.06
444.698	225.06
444.919	234.06
445.14	423.06
445.361	291.06
445.582	210.06
445.803	192.06
446.024	212.06
446.245	174.06
446.466	200.06
446.687	202.06
446.908	213.06
447.129	197.06
447.35	189.06
447.571	197.06
447.792	177.06
448.013	179.06
448.234	196.06
448.455	209.06
448.675	171.06
448.896	189.06
449.117	177.06
449.338	186.06
449.559	185.06
449.779	185.06
450	185.06
450.221	185.06
450.442	174.06
450.662	163.06
450.883	164.06
451.104	199.06
451.324	188.06
451.545	177.06
451.766	186.06
451.986	181.06
452.207	181.06
452.428	186.06
452.648	184.06
452.869	155.06
453.089	171.06
453.31	164.06
453.53	163.06
453.751	151.06
453.971	171.06
454.192	168.06
454.412	156.06
454.633	162.06
454.853	165.06
455.073	153.06
455.294	187.06
455.514	164.06
455.734	156.06
455.955	168.06
456.175	181.06
456.395	160.06
456.616	165.06
456.836	182.06
457.056	164.06
457.276	154.06
457.497	160.06
457.717	178.06
457.937	157.06
458.157	160.06
458.377	146.06
458.598	164.06
458.818	161.06
459.038	162.06
459.258	188.06
459.478	157.06
459.698	162.06
459.918	183.06
460.138	195.06
460.358	201.06
460.578	197.06
460.798	189.06
461.018	203.06
461.238	198.06
461.458	190.06
461.678	181.06
461.898	186.06
462.118	188.06
462.338	214.06
462.558	230.06
462.777	230.06
462.997	230.06
463.217	233.06
463.437	238.06
463.657	227.06
463.876	209.06
464.096	200.06
464.316	196.06
464.536	209.06
464.755	211.06
464.975	198.06
465.195	201.06
465.414	203.06
465.634	176.06
465.854	179.06
466.073	174.06
466.293	183.06
466.512	171.06
466.732	179.06
466.951	168.06
467.171	176.06
467.391	173.06
467.61	186.06
467.829	186.06
468.049	166.06
468.268	177.06
468.488	181.06
468.707	181.06
468.927	195.06
469.146	174.06
469.365	190.06
469.585	185.06
469.804	204.06
470.023	197.06
470.243	199.06
470.462	197.06
470.681	196.06
470.901	206.06
471.12	194.06
471.339	196.06
471.558	192.06
471.777	179.06
471.997	186.06
472.216	187.06
472.435	179.06
472.654	170.06
472.873	176.06
473.092	170.06
473.311	170.06
473.53	174.06
473.749	176.06
473.968	173.06
474.187	181.06
474.406	169.06
474.625	174.06
474.844	185.06
475.063	175.06
475.282	184.06
475.501	168.06
475.72	188.06
475.939	183.06
476.158	169.06
476.377	184.06
476.596	177.06
476.814	160.06
477.033	192.06
477.252	168.06
477.471	188.06
477.69	197.06
477.908	198.06
478.127	209.06
478.346	203.06
478.564	203.06
478.783	220.06
479.002	202.06
479.22	188.06
479.439	199.06
479.658	192.06
479.876	187.06
480.095	196.06
480.313	197.06
480.532	202.06
480.751	172.06
480.969	178.06
481.188	168.06
481.406	174.06
481.624	170.06
481.843	169.06
482.061	182.06
482.28	197.06
482.498	192.06
482.717	177.06
482.935	190.06
483.153	201.06
483.372	213.06
483.59	184.06
483.808	196.06
484.027	180.06
484.245	190.06
484.463	222.06
484.681	219.06
484.9	188.06
485.118	206.06
485.336	189.06
485.554	197.06
485.772	192.06
485.99	186.06
486.209	186.06
486.427	170.06
486.645	186.06
486.863	187.06
487.081	212.06
487.299	215.06
487.517	224.06
487.735	229.06
487.953	222.06
488.171	221.06
488.389	217.06
488.607	225.06
488.825	208.06
489.043	197.06
489.261	208.06
489.479	210.06
489.696	193.06
489.914	195.06
490.132	210.06
490.35	213.06
490.568	202.06
490.786	215.06
491.003	219.06
491.221	204.06
491.439	227.06
491.657	232.06
491.874	251.06
492.092	240.06
492.31	261.06
492.527	231.06
492.745	228.06
492.963	238.06
493.18	224.06
493.398	236.06
493.615	244.06
493.833	219.06
494.05	230.06
494.268	223.06
494.485	228.06
494.703	225.06
494.92	233.06
495.138	227.06
495.355	217.06
495.573	234.06
495.79	246.06
496.008	240.06
496.225	238.06
496.442	240.06
496.66	232.06
496.877	233.06
497.094	235.06
497.312	233.06
497.529	223.06
497.746	216.06
497.963	227.06
498.181	213.06
498.398	230.06
498.615	232.06
498.832	233.06
499.049	272.06
499.267	275.06
499.484	297.06
499.701	334.06
499.918	353.06
500.135	372.06
500.352	402.06
500.569	414.06
500.786	392.06
501.003	390.06
501.22	349.06
501.437	300.06
501.654	308.06
501.871	280.06
502.088	254.06
502.305	270.06
502.522	243.06
502.739	248.06
502.956	238.06
503.172	228.06
503.389	217.06
503.606	215.06
503.823	219.06
504.04	222.06
504.256	219.06
504.473	208.06
504.69	220.06
