Data from SampD_HRD10591_00046.txt Node
Date: Mon Jan 19 11:50:31 EST 2026
User: Yrep
Spectrometer: HR+D1059
Trigger mode: 0
Integration Time (sec): 3.443000E-1
Scans to average: 1
Electric dark correction enabled: true
Nonlinearity correction enabled: false
Boxcar width: 0
XAxis mode: Wavelengths
Number of Pixels in Spectrum: 2048
>>>>>Begin Spectral Data<<<<<
223.165	-20.94
223.4	-20.94
223.635	-20.94
223.869	-27.94
224.104	-13.94
224.338	-1.94
224.573	-25.94
224.808	-15.94
225.042	2.06
225.277	-1.94
225.511	-10.94
225.746	-0.94
225.98	8.06
226.215	21.06
226.449	12.06
226.683	16.06
226.918	24.06
227.152	37.06
227.387	30.06
227.621	35.06
227.856	46.06
228.09	35.06
228.324	43.06
228.559	67.06
228.793	68.06
229.027	55.06
229.262	59.06
229.496	82.06
229.73	81.06
229.964	78.06
230.199	71.06
230.433	73.06
230.667	79.06
230.901	66.06
231.136	67.06
231.37	77.06
231.604	86.06
231.838	73.06
232.072	76.06
232.306	78.06
232.541	78.06
232.775	69.06
233.009	58.06
233.243	80.06
233.477	76.06
233.711	83.06
233.945	101.06
234.179	70.06
234.413	86.06
234.647	85.06
234.881	79.06
235.115	79.06
235.349	79.06
235.583	60.06
235.817	88.06
236.051	91.06
236.285	76.06
236.519	82.06
236.753	87.06
236.987	73.06
237.221	76.06
237.455	80.06
237.689	84.06
237.922	86.06
238.156	99.06
238.39	66.06
238.624	74.06
238.858	85.06
239.091	86.06
239.325	88.06
239.559	80.06
239.793	87.06
240.027	91.06
240.26	87.06
240.494	88.06
240.728	74.06
240.961	75.06
241.195	89.06
241.429	101.06
241.662	87.06
241.896	82.06
242.13	80.06
242.363	78.06
242.597	76.06
242.83	88.06
243.064	86.06
243.298	75.06
243.531	82.06
243.765	91.06
243.998	86.06
244.232	91.06
244.465	87.06
244.699	71.06
244.932	70.06
245.166	82.06
245.399	73.06
245.633	83.06
245.866	86.06
246.099	73.06
246.333	84.06
246.566	94.06
246.8	89.06
247.033	91.06
247.266	95.06
247.5	82.06
247.733	85.06
247.966	68.06
248.2	80.06
248.433	79.06
248.666	83.06
248.899	96.06
249.133	88.06
249.366	104.06
249.599	77.06
249.832	83.06
250.066	97.06
250.299	87.06
250.532	90.06
250.765	73.06
250.998	100.06
251.231	98.06
251.465	91.06
251.698	89.06
251.931	72.06
252.164	94.06
252.397	71.06
252.63	91.06
252.863	91.06
253.096	104.06
253.329	104.06
253.562	90.06
253.795	94.06
254.028	95.06
254.261	85.06
254.494	91.06
254.727	86.06
254.96	91.06
255.193	78.06
255.426	81.06
255.659	92.06
255.892	86.06
256.124	74.06
256.357	105.06
256.59	97.06
256.823	94.06
257.056	86.06
257.289	85.06
257.521	79.06
257.754	102.06
257.987	90.06
258.22	90.06
258.452	84.06
258.685	97.06
258.918	90.06
259.151	71.06
259.383	83.06
259.616	102.06
259.849	97.06
260.081	100.06
260.314	97.06
260.547	80.06
260.779	102.06
261.012	98.06
261.244	102.06
261.477	104.06
261.71	82.06
261.942	74.06
262.175	88.06
262.407	92.06
262.64	101.06
262.872	90.06
263.105	88.06
263.337	118.06
263.57	100.06
263.802	96.06
264.035	111.06
264.267	85.06
264.499	105.06
264.732	110.06
264.964	91.06
265.197	107.06
265.429	89.06
265.661	98.06
265.894	100.06
266.126	109.06
266.358	96.06
266.591	90.06
266.823	96.06
267.055	105.06
267.287	94.06
267.52	105.06
267.752	84.06
267.984	103.06
268.216	112.06
268.448	94.06
268.681	100.06
268.913	96.06
269.145	85.06
269.377	84.06
269.609	95.06
269.841	107.06
270.073	95.06
270.306	93.06
270.538	104.06
270.77	104.06
271.002	95.06
271.234	100.06
271.466	110.06
271.698	106.06
271.93	100.06
272.162	97.06
272.394	105.06
272.626	90.06
272.858	98.06
273.09	102.06
273.322	102.06
273.553	94.06
273.785	110.06
274.017	110.06
274.249	111.06
274.481	107.06
274.713	98.06
274.945	99.06
275.176	102.06
275.408	101.06
275.64	113.06
275.872	99.06
276.104	96.06
276.335	91.06
276.567	93.06
276.799	102.06
277.031	113.06
277.262	89.06
277.494	131.06
277.726	121.06
277.957	95.06
278.189	107.06
278.421	114.06
278.652	100.06
278.884	94.06
279.115	110.06
279.347	109.06
279.579	99.06
279.81	102.06
280.042	102.06
280.273	102.06
280.505	118.06
280.736	102.06
280.968	99.06
281.199	119.06
281.431	104.06
281.662	107.06
281.894	117.06
282.125	118.06
282.356	101.06
282.588	109.06
282.819	96.06
283.051	104.06
283.282	90.06
283.513	105.06
283.745	111.06
283.976	104.06
284.207	103.06
284.439	124.06
284.67	107.06
284.901	100.06
285.132	118.06
285.364	119.06
285.595	108.06
285.826	119.06
286.057	115.06
286.288	112.06
286.52	118.06
286.751	106.06
286.982	112.06
287.213	118.06
287.444	108.06
287.675	125.06
287.906	131.06
288.138	110.06
288.369	116.06
288.6	114.06
288.831	106.06
289.062	123.06
289.293	113.06
289.524	103.06
289.755	118.06
289.986	115.06
290.217	115.06
290.448	100.06
290.679	119.06
290.91	113.06
291.141	116.06
291.371	113.06
291.602	114.06
291.833	107.06
292.064	104.06
292.295	103.06
292.526	123.06
292.757	119.06
292.987	107.06
293.218	110.06
293.449	99.06
293.68	94.06
293.91	114.06
294.141	115.06
294.372	114.06
294.603	113.06
294.833	111.06
295.064	107.06
295.295	114.06
295.525	112.06
295.756	102.06
295.987	124.06
296.217	122.06
296.448	113.06
296.679	131.06
296.909	121.06
297.14	121.06
297.37	103.06
297.601	103.06
297.831	124.06
298.062	116.06
298.292	118.06
298.523	108.06
298.753	123.06
298.984	109.06
299.214	114.06
299.445	130.06
299.675	113.06
299.905	119.06
300.136	123.06
300.366	103.06
300.597	125.06
300.827	110.06
301.057	115.06
301.288	133.06
301.518	124.06
301.748	139.06
301.979	145.06
302.209	123.06
302.439	112.06
302.669	120.06
302.9	115.06
303.13	120.06
303.36	117.06
303.59	113.06
303.82	116.06
304.051	131.06
304.281	124.06
304.511	135.06
304.741	123.06
304.971	127.06
305.201	128.06
305.431	128.06
305.661	116.06
305.891	114.06
306.121	135.06
306.352	136.06
306.582	106.06
306.812	119.06
307.042	134.06
307.272	113.06
307.502	108.06
307.731	127.06
307.961	125.06
308.191	130.06
308.421	118.06
308.651	115.06
308.881	115.06
309.111	118.06
309.341	115.06
309.571	107.06
309.8	117.06
310.03	124.06
310.26	123.06
310.49	114.06
310.72	105.06
310.949	114.06
311.179	112.06
311.409	126.06
311.639	122.06
311.868	120.06
312.098	110.06
312.328	127.06
312.557	114.06
312.787	116.06
313.017	139.06
313.246	134.06
313.476	115.06
313.706	126.06
313.935	127.06
314.165	117.06
314.394	128.06
314.624	124.06
314.853	120.06
315.083	119.06
315.312	131.06
315.542	124.06
315.771	139.06
316.001	129.06
316.23	125.06
316.46	125.06
316.689	122.06
316.919	133.06
317.148	107.06
317.377	131.06
317.607	130.06
317.836	119.06
318.065	123.06
318.295	130.06
318.524	124.06
318.753	106.06
318.983	120.06
319.212	139.06
319.441	127.06
319.67	118.06
319.9	120.06
320.129	130.06
320.358	115.06
320.587	114.06
320.816	120.06
321.046	124.06
321.275	124.06
321.504	112.06
321.733	114.06
321.962	118.06
322.191	119.06
322.42	128.06
322.649	129.06
322.878	120.06
323.108	122.06
323.337	127.06
323.566	126.06
323.795	129.06
324.024	120.06
324.253	123.06
324.482	132.06
324.71	130.06
324.939	135.06
325.168	119.06
325.397	147.06
325.626	127.06
325.855	126.06
326.084	127.06
326.313	143.06
326.542	109.06
326.77	142.06
326.999	127.06
327.228	129.06
327.457	120.06
327.686	130.06
327.914	128.06
328.143	131.06
328.372	132.06
328.6	125.06
328.829	119.06
329.058	131.06
329.287	119.06
329.515	119.06
329.744	131.06
329.972	138.06
330.201	141.06
330.43	126.06
330.658	124.06
330.887	143.06
331.115	126.06
331.344	123.06
331.572	141.06
331.801	130.06
332.03	144.06
332.258	142.06
332.486	140.06
332.715	128.06
332.943	133.06
333.172	157.06
333.4	142.06
333.629	146.06
333.857	144.06
334.085	147.06
334.314	134.06
334.542	152.06
334.771	140.06
334.999	141.06
335.227	146.06
335.455	137.06
335.684	137.06
335.912	130.06
336.14	135.06
336.369	144.06
336.597	150.06
336.825	144.06
337.053	130.06
337.281	133.06
337.51	135.06
337.738	144.06
337.966	127.06
338.194	135.06
338.422	130.06
338.65	136.06
338.878	137.06
339.106	137.06
339.334	144.06
339.562	139.06
339.79	142.06
340.018	136.06
340.246	119.06
340.474	120.06
340.702	132.06
340.93	128.06
341.158	133.06
341.386	122.06
341.614	144.06
341.842	118.06
342.07	141.06
342.298	134.06
342.526	133.06
342.754	127.06
342.981	137.06
343.209	141.06
343.437	172.06
343.665	139.06
343.893	135.06
344.12	147.06
344.348	122.06
344.576	132.06
344.804	138.06
345.031	133.06
345.259	131.06
345.487	119.06
345.714	133.06
345.942	124.06
346.17	123.06
346.397	143.06
346.625	118.06
346.853	118.06
347.08	133.06
347.308	131.06
347.535	133.06
347.763	123.06
347.99	127.06
348.218	147.06
348.445	135.06
348.673	128.06
348.9	115.06
349.128	122.06
349.355	137.06
349.583	107.06
349.81	129.06
350.037	118.06
350.265	127.06
350.492	109.06
350.72	125.06
350.947	131.06
351.174	127.06
351.402	124.06
351.629	131.06
351.856	130.06
352.083	129.06
352.311	117.06
352.538	121.06
352.765	128.06
352.992	135.06
353.22	130.06
353.447	117.06
353.674	131.06
353.901	121.06
354.128	122.06
354.355	138.06
354.583	124.06
354.81	139.06
355.037	131.06
355.264	132.06
355.491	130.06
355.718	111.06
355.945	136.06
356.172	139.06
356.399	119.06
356.626	128.06
356.853	128.06
357.08	125.06
357.307	158.06
357.534	149.06
357.761	123.06
357.988	133.06
358.215	131.06
358.441	116.06
358.668	129.06
358.895	131.06
359.122	121.06
359.349	130.06
359.576	114.06
359.802	124.06
360.029	118.06
360.256	125.06
360.483	112.06
360.709	117.06
360.936	149.06
361.163	132.06
361.39	126.06
361.616	134.06
361.843	131.06
362.07	147.06
362.296	133.06
362.523	123.06
362.749	132.06
362.976	127.06
363.203	137.06
363.429	139.06
363.656	122.06
363.882	135.06
364.109	127.06
364.335	122.06
364.562	123.06
364.788	128.06
365.015	132.06
365.241	126.06
365.468	150.06
365.694	124.06
365.92	139.06
366.147	134.06
366.373	141.06
366.599	128.06
366.826	124.06
367.052	128.06
367.278	129.06
367.505	132.06
367.731	155.06
367.957	130.06
368.184	115.06
368.41	128.06
368.636	140.06
368.862	127.06
369.089	131.06
369.315	135.06
369.541	130.06
369.767	132.06
369.993	123.06
370.219	128.06
370.445	132.06
370.672	130.06
370.898	153.06
371.124	136.06
371.35	138.06
371.576	135.06
371.802	131.06
372.028	137.06
372.254	137.06
372.48	146.06
372.706	138.06
372.932	138.06
373.158	146.06
373.384	135.06
373.61	130.06
373.835	139.06
374.061	115.06
374.287	134.06
374.513	129.06
374.739	146.06
374.965	154.06
375.191	143.06
375.416	143.06
375.642	144.06
375.868	158.06
376.094	128.06
376.319	135.06
376.545	145.06
376.771	128.06
376.997	123.06
377.222	138.06
377.448	139.06
377.674	147.06
377.899	137.06
378.125	136.06
378.35	145.06
378.576	136.06
378.802	135.06
379.027	130.06
379.253	146.06
379.478	131.06
379.704	131.06
379.929	144.06
380.155	118.06
380.38	131.06
380.606	120.06
380.831	134.06
381.057	150.06
381.282	144.06
381.507	145.06
381.733	136.06
381.958	141.06
382.184	134.06
382.409	132.06
382.634	158.06
382.86	145.06
383.085	146.06
383.31	145.06
383.535	158.06
383.761	163.06
383.986	143.06
384.211	163.06
384.436	147.06
384.662	162.06
384.887	160.06
385.112	144.06
385.337	153.06
385.562	146.06
385.787	151.06
386.013	144.06
386.238	142.06
386.463	146.06
386.688	194.06
386.913	158.06
387.138	151.06
387.363	160.06
387.588	168.06
387.813	147.06
388.038	163.06
388.263	165.06
388.488	158.06
388.713	148.06
388.938	147.06
389.163	141.06
389.387	148.06
389.612	152.06
389.837	169.06
390.062	170.06
390.287	139.06
390.512	140.06
390.736	167.06
390.961	153.06
391.186	179.06
391.411	172.06
391.636	160.06
391.86	169.06
392.085	169.06
392.31	152.06
392.534	143.06
392.759	166.06
392.984	168.06
393.208	160.06
393.433	163.06
393.658	153.06
393.882	156.06
394.107	171.06
394.331	158.06
394.556	152.06
394.78	161.06
395.005	161.06
395.229	172.06
395.454	169.06
395.678	171.06
395.903	173.06
396.127	180.06
396.352	169.06
396.576	146.06
396.801	157.06
397.025	148.06
397.249	169.06
397.474	164.06
397.698	162.06
397.922	182.06
398.147	166.06
398.371	172.06
398.595	180.06
398.82	178.06
399.044	202.06
399.268	203.06
399.492	232.06
399.717	248.06
399.941	216.06
400.165	217.06
400.389	202.06
400.613	195.06
400.837	180.06
401.062	176.06
401.286	191.06
401.51	184.06
401.734	176.06
401.958	180.06
402.182	186.06
402.406	186.06
402.63	196.06
402.854	190.06
403.078	187.06
403.302	198.06
403.526	192.06
403.75	198.06
403.974	186.06
404.198	210.06
404.422	199.06
404.645	200.06
404.869	198.06
405.093	198.06
405.317	200.06
405.541	194.06
405.765	194.06
405.988	194.06
406.212	202.06
406.436	180.06
406.66	216.06
406.883	200.06
407.107	209.06
407.331	206.06
407.555	211.06
407.778	201.06
408.002	217.06
408.226	208.06
408.449	218.06
408.673	203.06
408.896	206.06
409.12	188.06
409.344	197.06
409.567	191.06
409.791	210.06
410.014	197.06
410.238	195.06
410.461	199.06
410.685	208.06
410.908	195.06
411.132	191.06
411.355	177.06
411.578	203.06
411.802	185.06
412.025	182.06
412.249	205.06
412.472	180.06
412.695	182.06
412.919	190.06
413.142	191.06
413.365	186.06
413.589	166.06
413.812	172.06
414.035	192.06
414.258	179.06
414.482	180.06
414.705	170.06
414.928	204.06
415.151	178.06
415.374	190.06
415.597	186.06
415.821	189.06
416.044	176.06
416.267	183.06
416.49	176.06
416.713	197.06
416.936	199.06
417.159	184.06
417.382	179.06
417.605	186.06
417.828	191.06
418.051	197.06
418.274	194.06
418.497	185.06
418.72	181.06
418.943	196.06
419.166	191.06
419.389	196.06
419.611	195.06
419.834	194.06
420.057	205.06
420.28	182.06
420.503	190.06
420.726	190.06
420.948	183.06
421.171	180.06
421.394	191.06
421.617	201.06
421.839	181.06
422.062	193.06
422.285	188.06
422.507	184.06
422.73	180.06
422.953	184.06
423.175	185.06
423.398	194.06
423.621	193.06
423.843	214.06
424.066	194.06
424.288	192.06
424.511	212.06
424.733	215.06
424.956	194.06
425.178	202.06
425.401	199.06
425.623	185.06
425.846	175.06
426.068	175.06
426.291	185.06
426.513	179.06
426.735	186.06
426.958	169.06
427.18	183.06
427.402	177.06
427.625	182.06
427.847	180.06
428.069	170.06
428.292	181.06
428.514	177.06
428.736	175.06
428.958	167.06
429.181	175.06
429.403	186.06
429.625	181.06
429.847	186.06
430.069	182.06
430.292	172.06
430.514	169.06
430.736	163.06
430.958	180.06
431.18	163.06
431.402	177.06
431.624	188.06
431.846	178.06
432.068	166.06
432.29	162.06
432.512	177.06
432.734	169.06
432.956	182.06
433.178	203.06
433.4	174.06
433.622	202.06
433.844	176.06
434.066	167.06
434.287	175.06
434.509	167.06
434.731	181.06
434.953	169.06
435.175	197.06
435.397	195.06
435.618	190.06
435.84	178.06
436.062	181.06
436.284	193.06
436.505	189.06
436.727	178.06
436.949	167.06
437.17	176.06
437.392	164.06
437.614	137.06
437.835	157.06
438.057	140.06
438.278	167.06
438.5	169.06
438.721	179.06
438.943	185.06
439.165	185.06
439.386	169.06
439.608	178.06
439.829	184.06
440.05	183.06
440.272	187.06
440.493	186.06
440.715	187.06
440.936	185.06
441.158	181.06
441.379	193.06
441.6	193.06
441.822	201.06
442.043	198.06
442.264	173.06
442.486	186.06
442.707	187.06
442.928	192.06
443.149	191.06
443.371	195.06
443.592	183.06
443.813	188.06
444.034	196.06
444.255	203.06
444.476	213.06
444.698	212.06
444.919	210.06
445.14	473.06
445.361	336.06
445.582	203.06
445.803	192.06
446.024	180.06
446.245	192.06
446.466	184.06
446.687	181.06
446.908	192.06
447.129	199.06
447.35	188.06
447.571	181.06
447.792	194.06
448.013	182.06
448.234	182.06
448.455	182.06
448.675	186.06
448.896	177.06
449.117	177.06
449.338	172.06
449.559	186.06
449.779	162.06
450	171.06
450.221	172.06
450.442	181.06
450.662	167.06
450.883	161.06
451.104	184.06
451.324	179.06
451.545	176.06
451.766	153.06
451.986	188.06
452.207	170.06
452.428	175.06
452.648	171.06
452.869	176.06
453.089	170.06
453.31	161.06
453.53	146.06
453.751	172.06
453.971	152.06
454.192	145.06
454.412	162.06
454.633	165.06
454.853	170.06
455.073	164.06
455.294	158.06
455.514	150.06
455.734	150.06
455.955	159.06
456.175	158.06
456.395	147.06
456.616	169.06
456.836	163.06
457.056	154.06
457.276	162.06
457.497	166.06
457.717	144.06
457.937	157.06
458.157	158.06
458.377	150.06
458.598	149.06
458.818	149.06
459.038	155.06
459.258	158.06
459.478	154.06
459.698	159.06
459.918	176.06
460.138	182.06
460.358	186.06
460.578	201.06
460.798	186.06
461.018	166.06
461.238	187.06
461.458	196.06
461.678	199.06
461.898	175.06
462.118	183.06
462.338	192.06
462.558	215.06
462.777	192.06
462.997	226.06
463.217	224.06
463.437	222.06
463.657	203.06
463.876	178.06
464.096	206.06
464.316	199.06
464.536	200.06
464.755	187.06
464.975	175.06
465.195	186.06
465.414	182.06
465.634	169.06
465.854	178.06
466.073	179.06
466.293	191.06
466.512	189.06
466.732	172.06
466.951	177.06
467.171	162.06
467.391	182.06
467.61	191.06
467.829	164.06
468.049	172.06
468.268	190.06
468.488	177.06
468.707	178.06
468.927	179.06
469.146	193.06
469.365	178.06
469.585	188.06
469.804	194.06
470.023	178.06
470.243	194.06
470.462	208.06
470.681	181.06
470.901	166.06
471.12	188.06
471.339	194.06
471.558	161.06
471.777	183.06
471.997	194.06
472.216	168.06
472.435	175.06
472.654	166.06
472.873	165.06
473.092	187.06
473.311	172.06
473.53	167.06
473.749	172.06
473.968	170.06
474.187	166.06
474.406	178.06
474.625	171.06
474.844	181.06
475.063	158.06
475.282	173.06
475.501	172.06
475.72	176.06
475.939	179.06
476.158	175.06
476.377	184.06
476.596	168.06
476.814	164.06
477.033	171.06
477.252	177.06
477.471	190.06
477.69	183.06
477.908	206.06
478.127	196.06
478.346	182.06
478.564	198.06
478.783	187.06
479.002	186.06
479.22	196.06
479.439	193.06
479.658	207.06
479.876	185.06
480.095	191.06
480.313	198.06
480.532	183.06
480.751	185.06
480.969	179.06
481.188	178.06
481.406	166.06
481.624	183.06
481.843	167.06
482.061	168.06
482.28	186.06
482.498	178.06
482.717	161.06
482.935	177.06
483.153	192.06
483.372	201.06
483.59	203.06
483.808	187.06
484.027	183.06
484.245	196.06
484.463	201.06
484.681	226.06
484.9	197.06
485.118	193.06
485.336	195.06
485.554	191.06
485.772	175.06
485.99	181.06
486.209	174.06
486.427	198.06
486.645	189.06
486.863	208.06
487.081	208.06
487.299	182.06
487.517	207.06
487.735	223.06
487.953	215.06
488.171	206.06
488.389	219.06
488.607	203.06
488.825	192.06
489.043	184.06
489.261	198.06
489.479	193.06
489.696	203.06
489.914	196.06
490.132	188.06
490.35	202.06
490.568	222.06
490.786	213.06
491.003	216.06
491.221	223.06
491.439	226.06
491.657	234.06
491.874	225.06
492.092	229.06
492.31	243.06
492.527	216.06
492.745	237.06
492.963	231.06
493.18	244.06
493.398	225.06
493.615	235.06
493.833	229.06
494.05	218.06
494.268	220.06
494.485	233.06
494.703	218.06
494.92	226.06
495.138	238.06
495.355	226.06
495.573	231.06
495.79	216.06
496.008	229.06
496.225	199.06
496.442	210.06
496.66	231.06
496.877	226.06
497.094	233.06
497.312	225.06
497.529	233.06
497.746	208.06
497.963	214.06
498.181	199.06
498.398	226.06
498.615	231.06
498.832	244.06
499.049	259.06
499.267	281.06
499.484	282.06
499.701	296.06
499.918	306.06
500.135	366.06
500.352	404.06
500.569	407.06
500.786	401.06
501.003	370.06
501.22	338.06
501.437	303.06
501.654	291.06
501.871	266.06
502.088	259.06
502.305	244.06
502.522	239.06
502.739	242.06
502.956	222.06
503.172	220.06
503.389	211.06
503.606	210.06
503.823	187.06
504.04	225.06
504.256	216.06
504.473	208.06
504.69	212.06
504.907	207.06
505.123	195.06
