Data from SampD_HRD10591_00066.txt Node
Date: Mon Jan 19 11:50:38 EST 2026
User: Yrep
Spectrometer: HR+D1059
Trigger mode: 0
Integration Time (sec): 3.443000E-1
Scans to average: 1
Electric dark correction enabled: true
Nonlinearity correction enabled: false
Boxcar width: 0
XAxis mode: Wavelengths
Number of Pixels in Spectrum: 2048
>>>>>Begin Spectral Data<<<<<
223.165	-31.75
223.4	-31.75
223.635	-31.75
223.869	-22.75
224.104	-24.75
224.338	-13.75
224.573	-0.75
224.808	-6.75
225.042	-9.75
225.277	1.25
225.511	5.25
225.746	0.25
225.98	21.25
226.215	16.25
226.449	12.25
226.683	9.25
226.918	11.25
227.152	33.25
227.387	44.25
227.621	46.25
227.856	44.25
228.09	44.25
228.324	45.25
228.559	68.25
228.793	80.25
229.027	67.25
229.262	75.25
229.496	73.25
229.73	77.25
229.964	84.25
230.199	83.25
230.433	85.25
230.667	86.25
230.901	73.25
231.136	74.25
231.37	89.25
231.604	79.25
231.838	88.25
232.072	93.25
232.306	85.25
232.541	89.25
232.775	91.25
233.009	82.25
233.243	79.25
233.477	84.25
233.711	89.25
233.945	89.25
234.179	75.25
234.413	90.25
234.647	86.25
234.881	84.25
235.115	98.25
235.349	92.25
235.583	92.25
235.817	77.25
236.051	82.25
236.285	86.25
236.519	91.25
236.753	72.25
236.987	82.25
237.221	80.25
237.455	98.25
237.689	85.25
237.922	76.25
238.156	65.25
238.39	77.25
238.624	80.25
238.858	77.25
239.091	82.25
239.325	73.25
239.559	85.25
239.793	80.25
240.027	96.25
240.26	81.25
240.494	78.25
240.728	87.25
240.961	91.25
241.195	91.25
241.429	75.25
241.662	88.25
241.896	82.25
242.13	81.25
242.363	82.25
242.597	92.25
242.83	99.25
243.064	88.25
243.298	92.25
243.531	96.25
243.765	76.25
243.998	96.25
244.232	90.25
244.465	98.25
244.699	81.25
244.932	74.25
245.166	87.25
245.399	82.25
245.633	85.25
245.866	94.25
246.099	88.25
246.333	82.25
246.566	84.25
246.8	86.25
247.033	76.25
247.266	78.25
247.5	77.25
247.733	85.25
247.966	94.25
248.2	63.25
248.433	94.25
248.666	90.25
248.899	81.25
249.133	64.25
249.366	85.25
249.599	67.25
249.832	77.25
250.066	112.25
250.299	88.25
250.532	98.25
250.765	99.25
250.998	104.25
251.231	90.25
251.465	96.25
251.698	88.25
251.931	104.25
252.164	99.25
252.397	91.25
252.63	84.25
252.863	77.25
253.096	82.25
253.329	91.25
253.562	96.25
253.795	108.25
254.028	109.25
254.261	83.25
254.494	84.25
254.727	100.25
254.96	101.25
255.193	90.25
255.426	78.25
255.659	98.25
255.892	98.25
256.124	97.25
256.357	105.25
256.59	104.25
256.823	106.25
257.056	98.25
257.289	86.25
257.521	84.25
257.754	94.25
257.987	96.25
258.22	98.25
258.452	104.25
258.685	88.25
258.918	99.25
259.151	88.25
259.383	93.25
259.616	92.25
259.849	98.25
260.081	107.25
260.314	93.25
260.547	101.25
260.779	104.25
261.012	97.25
261.244	86.25
261.477	112.25
261.71	98.25
261.942	108.25
262.175	88.25
262.407	99.25
262.64	90.25
262.872	90.25
263.105	98.25
263.337	107.25
263.57	94.25
263.802	109.25
264.035	94.25
264.267	93.25
264.499	103.25
264.732	102.25
264.964	100.25
265.197	98.25
265.429	110.25
265.661	110.25
265.894	102.25
266.126	110.25
266.358	111.25
266.591	111.25
266.823	108.25
267.055	106.25
267.287	104.25
267.52	90.25
267.752	101.25
267.984	101.25
268.216	94.25
268.448	101.25
268.681	113.25
268.913	105.25
269.145	84.25
269.377	106.25
269.609	105.25
269.841	104.25
270.073	102.25
270.306	96.25
270.538	104.25
270.77	104.25
271.002	109.25
271.234	98.25
271.466	109.25
271.698	101.25
271.93	107.25
272.162	106.25
272.394	115.25
272.626	97.25
272.858	106.25
273.09	101.25
273.322	99.25
273.553	95.25
273.785	111.25
274.017	110.25
274.249	128.25
274.481	109.25
274.713	108.25
274.945	104.25
275.176	116.25
275.408	114.25
275.64	109.25
275.872	101.25
276.104	102.25
276.335	110.25
276.567	111.25
276.799	109.25
277.031	106.25
277.262	104.25
277.494	116.25
277.726	107.25
277.957	93.25
278.189	119.25
278.421	105.25
278.652	104.25
278.884	115.25
279.115	105.25
279.347	110.25
279.579	107.25
279.81	100.25
280.042	116.25
280.273	110.25
280.505	107.25
280.736	97.25
280.968	119.25
281.199	114.25
281.431	112.25
281.662	108.25
281.894	108.25
282.125	113.25
282.356	113.25
282.588	102.25
282.819	125.25
283.051	113.25
283.282	103.25
283.513	117.25
283.745	125.25
283.976	115.25
284.207	124.25
284.439	114.25
284.67	120.25
284.901	128.25
285.132	122.25
285.364	129.25
285.595	122.25
285.826	109.25
286.057	98.25
286.288	119.25
286.52	118.25
286.751	107.25
286.982	110.25
287.213	100.25
287.444	114.25
287.675	128.25
287.906	117.25
288.138	116.25
288.369	122.25
288.6	134.25
288.831	106.25
289.062	123.25
289.293	120.25
289.524	116.25
289.755	115.25
289.986	117.25
290.217	107.25
290.448	102.25
290.679	124.25
290.91	126.25
291.141	117.25
291.371	129.25
291.602	109.25
291.833	119.25
292.064	132.25
292.295	107.25
292.526	124.25
292.757	128.25
292.987	118.25
293.218	114.25
293.449	103.25
293.68	100.25
293.91	110.25
294.141	130.25
294.372	123.25
294.603	125.25
294.833	116.25
295.064	122.25
295.295	145.25
295.525	108.25
295.756	121.25
295.987	127.25
296.217	121.25
296.448	112.25
296.679	124.25
296.909	134.25
297.14	125.25
297.37	127.25
297.601	124.25
297.831	123.25
298.062	123.25
298.292	108.25
298.523	129.25
298.753	119.25
298.984	132.25
299.214	131.25
299.445	130.25
299.675	117.25
299.905	119.25
300.136	113.25
300.366	122.25
300.597	121.25
300.827	126.25
301.057	124.25
301.288	123.25
301.518	120.25
301.748	126.25
301.979	170.25
302.209	139.25
302.439	134.25
302.669	121.25
302.9	113.25
303.13	137.25
303.36	130.25
303.59	115.25
303.82	113.25
304.051	131.25
304.281	131.25
304.511	141.25
304.741	130.25
304.971	117.25
305.201	133.25
305.431	129.25
305.661	124.25
305.891	129.25
306.121	106.25
306.352	125.25
306.582	132.25
306.812	140.25
307.042	121.25
307.272	135.25
307.502	133.25
307.731	128.25
307.961	125.25
308.191	118.25
308.421	119.25
308.651	116.25
308.881	113.25
309.111	117.25
309.341	122.25
309.571	116.25
309.8	122.25
310.03	126.25
310.26	114.25
310.49	122.25
310.72	116.25
310.949	120.25
311.179	111.25
311.409	129.25
311.639	123.25
311.868	140.25
312.098	137.25
312.328	116.25
312.557	129.25
312.787	123.25
313.017	116.25
313.246	128.25
313.476	116.25
313.706	118.25
313.935	134.25
314.165	129.25
314.394	137.25
314.624	137.25
314.853	124.25
315.083	128.25
315.312	136.25
315.542	144.25
315.771	127.25
316.001	130.25
316.23	143.25
316.46	126.25
316.689	120.25
316.919	114.25
317.148	137.25
317.377	145.25
317.607	129.25
317.836	137.25
318.065	137.25
318.295	135.25
318.524	124.25
318.753	109.25
318.983	114.25
319.212	138.25
319.441	117.25
319.67	135.25
319.9	131.25
320.129	120.25
320.358	123.25
320.587	117.25
320.816	135.25
321.046	127.25
321.275	141.25
321.504	133.25
321.733	125.25
321.962	131.25
322.191	131.25
322.42	145.25
322.649	132.25
322.878	121.25
323.108	130.25
323.337	123.25
323.566	149.25
323.795	122.25
324.024	139.25
324.253	117.25
324.482	122.25
324.71	126.25
324.939	130.25
325.168	139.25
325.397	114.25
325.626	126.25
325.855	139.25
326.084	142.25
326.313	122.25
326.542	147.25
326.77	139.25
326.999	126.25
327.228	136.25
327.457	132.25
327.686	136.25
327.914	143.25
328.143	149.25
328.372	129.25
328.6	146.25
328.829	124.25
329.058	134.25
329.287	116.25
329.515	126.25
329.744	133.25
329.972	134.25
330.201	128.25
330.43	132.25
330.658	125.25
330.887	121.25
331.115	130.25
331.344	135.25
331.572	157.25
331.801	139.25
332.03	134.25
332.258	139.25
332.486	147.25
332.715	149.25
332.943	154.25
333.172	147.25
333.4	153.25
333.629	153.25
333.857	153.25
334.085	151.25
334.314	155.25
334.542	147.25
334.771	149.25
334.999	145.25
335.227	146.25
335.455	141.25
335.684	135.25
335.912	124.25
336.14	138.25
336.369	123.25
336.597	129.25
336.825	150.25
337.053	156.25
337.281	141.25
337.51	114.25
337.738	156.25
337.966	131.25
338.194	147.25
338.422	123.25
338.65	144.25
338.878	148.25
339.106	122.25
339.334	147.25
339.562	144.25
339.79	125.25
340.018	116.25
340.246	150.25
340.474	137.25
340.702	135.25
340.93	150.25
341.158	134.25
341.386	137.25
341.614	127.25
341.842	135.25
342.07	128.25
342.298	131.25
342.526	134.25
342.754	127.25
342.981	129.25
343.209	129.25
343.437	183.25
343.665	150.25
343.893	153.25
344.12	152.25
344.348	139.25
344.576	156.25
344.804	136.25
345.031	136.25
345.259	131.25
345.487	137.25
345.714	133.25
345.942	134.25
346.17	128.25
346.397	123.25
346.625	131.25
346.853	139.25
347.08	135.25
347.308	132.25
347.535	121.25
347.763	131.25
347.99	148.25
348.218	134.25
348.445	130.25
348.673	138.25
348.9	137.25
349.128	154.25
349.355	132.25
349.583	128.25
349.81	138.25
350.037	126.25
350.265	146.25
350.492	132.25
350.72	132.25
350.947	144.25
351.174	135.25
351.402	128.25
351.629	137.25
351.856	132.25
352.083	144.25
352.311	134.25
352.538	138.25
352.765	128.25
352.992	148.25
353.22	132.25
353.447	134.25
353.674	133.25
353.901	121.25
354.128	133.25
354.355	130.25
354.583	141.25
354.81	138.25
355.037	129.25
355.264	134.25
355.491	130.25
355.718	138.25
355.945	140.25
356.172	137.25
356.399	118.25
356.626	142.25
356.853	126.25
357.08	130.25
357.307	133.25
357.534	137.25
357.761	133.25
357.988	139.25
358.215	131.25
358.441	145.25
358.668	130.25
358.895	127.25
359.122	131.25
359.349	129.25
359.576	136.25
359.802	130.25
360.029	133.25
360.256	147.25
360.483	123.25
360.709	124.25
360.936	151.25
361.163	144.25
361.39	123.25
361.616	133.25
361.843	144.25
362.07	130.25
362.296	134.25
362.523	131.25
362.749	129.25
362.976	144.25
363.203	154.25
363.429	122.25
363.656	148.25
363.882	129.25
364.109	147.25
364.335	139.25
364.562	141.25
364.788	131.25
365.015	152.25
365.241	129.25
365.468	150.25
365.694	156.25
365.92	149.25
366.147	133.25
366.373	134.25
366.599	124.25
366.826	136.25
367.052	118.25
367.278	129.25
367.505	140.25
367.731	164.25
367.957	143.25
368.184	150.25
368.41	146.25
368.636	136.25
368.862	132.25
369.089	131.25
369.315	130.25
369.541	130.25
369.767	144.25
369.993	129.25
370.219	140.25
370.445	145.25
370.672	134.25
370.898	137.25
371.124	151.25
371.35	148.25
371.576	142.25
371.802	135.25
372.028	121.25
372.254	137.25
372.48	144.25
372.706	142.25
372.932	114.25
373.158	139.25
373.384	165.25
373.61	147.25
373.835	156.25
374.061	157.25
374.287	136.25
374.513	138.25
374.739	164.25
374.965	158.25
375.191	146.25
375.416	154.25
375.642	137.25
375.868	171.25
376.094	136.25
376.319	134.25
376.545	144.25
376.771	144.25
376.997	132.25
377.222	134.25
377.448	153.25
377.674	146.25
377.899	139.25
378.125	147.25
378.35	132.25
378.576	124.25
378.802	138.25
379.027	157.25
379.253	165.25
379.478	144.25
379.704	147.25
379.929	141.25
380.155	141.25
380.38	133.25
380.606	131.25
380.831	146.25
381.057	156.25
381.282	147.25
381.507	138.25
381.733	157.25
381.958	152.25
382.184	139.25
382.409	153.25
382.634	152.25
382.86	133.25
383.085	158.25
383.31	136.25
383.535	165.25
383.761	160.25
383.986	164.25
384.211	161.25
384.436	172.25
384.662	173.25
384.887	167.25
385.112	152.25
385.337	172.25
385.562	163.25
385.787	151.25
386.013	174.25
386.238	169.25
386.463	161.25
386.688	203.25
386.913	146.25
387.138	156.25
387.363	142.25
387.588	182.25
387.813	160.25
388.038	173.25
388.263	162.25
388.488	162.25
388.713	166.25
388.938	145.25
389.163	160.25
389.387	164.25
389.612	170.25
389.837	175.25
390.062	154.25
390.287	169.25
390.512	160.25
390.736	154.25
390.961	156.25
391.186	171.25
391.411	172.25
391.636	164.25
391.86	164.25
392.085	175.25
392.31	171.25
392.534	178.25
392.759	174.25
392.984	166.25
393.208	164.25
393.433	166.25
393.658	163.25
393.882	163.25
394.107	170.25
394.331	165.25
394.556	168.25
394.78	170.25
395.005	176.25
395.229	152.25
395.454	188.25
395.678	172.25
395.903	180.25
396.127	184.25
396.352	164.25
396.576	166.25
396.801	158.25
397.025	169.25
397.249	174.25
397.474	188.25
397.698	190.25
397.922	176.25
398.147	178.25
398.371	164.25
398.595	181.25
398.82	184.25
399.044	198.25
399.268	200.25
399.492	228.25
399.717	236.25
399.941	224.25
400.165	212.25
400.389	213.25
400.613	218.25
400.837	185.25
401.062	186.25
401.286	192.25
401.51	182.25
401.734	186.25
401.958	191.25
402.182	192.25
402.406	180.25
402.63	200.25
402.854	199.25
403.078	199.25
403.302	185.25
403.526	195.25
403.75	199.25
403.974	212.25
404.198	192.25
404.422	195.25
404.645	195.25
404.869	207.25
405.093	202.25
405.317	202.25
405.541	196.25
405.765	195.25
405.988	209.25
406.212	198.25
406.436	190.25
406.66	201.25
406.883	194.25
407.107	211.25
407.331	209.25
407.555	221.25
407.778	227.25
408.002	215.25
408.226	201.25
408.449	200.25
408.673	199.25
408.896	193.25
409.12	200.25
409.344	200.25
409.567	203.25
409.791	193.25
410.014	211.25
410.238	215.25
410.461	216.25
410.685	211.25
410.908	197.25
411.132	216.25
411.355	190.25
411.578	208.25
411.802	190.25
412.025	199.25
412.249	203.25
412.472	202.25
412.695	198.25
412.919	190.25
413.142	198.25
413.365	200.25
413.589	195.25
413.812	188.25
414.035	213.25
414.258	208.25
414.482	205.25
414.705	196.25
414.928	200.25
415.151	192.25
415.374	201.25
415.597	186.25
415.821	193.25
416.044	191.25
416.267	187.25
416.49	196.25
416.713	187.25
416.936	189.25
417.159	176.25
417.382	186.25
417.605	186.25
417.828	200.25
418.051	190.25
418.274	212.25
418.497	196.25
418.72	191.25
418.943	203.25
419.166	214.25
419.389	226.25
419.611	230.25
419.834	200.25
420.057	218.25
420.28	197.25
420.503	201.25
420.726	192.25
420.948	194.25
421.171	209.25
421.394	189.25
421.617	203.25
421.839	178.25
422.062	205.25
422.285	193.25
422.507	184.25
422.73	189.25
422.953	198.25
423.175	210.25
423.398	210.25
423.621	213.25
423.843	198.25
424.066	196.25
424.288	223.25
424.511	198.25
424.733	212.25
424.956	219.25
425.178	222.25
425.401	208.25
425.623	221.25
425.846	196.25
426.068	201.25
426.291	177.25
426.513	193.25
426.735	194.25
426.958	195.25
427.18	178.25
427.402	202.25
427.625	188.25
427.847	186.25
428.069	195.25
428.292	182.25
428.514	181.25
428.736	184.25
428.958	182.25
429.181	173.25
429.403	169.25
429.625	167.25
429.847	184.25
430.069	180.25
430.292	189.25
430.514	187.25
430.736	197.25
430.958	181.25
431.18	185.25
431.402	188.25
431.624	189.25
431.846	174.25
432.068	174.25
432.29	179.25
432.512	187.25
432.734	168.25
432.956	173.25
433.178	185.25
433.4	194.25
433.622	181.25
433.844	197.25
434.066	187.25
434.287	182.25
434.509	180.25
434.731	189.25
434.953	182.25
435.175	198.25
435.397	189.25
435.618	178.25
435.84	180.25
436.062	193.25
436.284	180.25
436.505	175.25
436.727	181.25
436.949	182.25
437.17	179.25
437.392	187.25
437.614	193.25
437.835	168.25
438.057	154.25
438.278	175.25
438.5	154.25
438.721	186.25
438.943	195.25
439.165	179.25
439.386	171.25
439.608	189.25
439.829	199.25
440.05	206.25
440.272	174.25
440.493	171.25
440.715	186.25
440.936	195.25
441.158	200.25
441.379	194.25
441.6	224.25
441.822	204.25
442.043	195.25
442.264	213.25
442.486	210.25
442.707	198.25
442.928	195.25
443.149	193.25
443.371	205.25
443.592	199.25
443.813	201.25
444.034	203.25
444.255	202.25
444.476	217.25
444.698	233.25
444.919	223.25
445.14	462.25
445.361	356.25
445.582	225.25
445.803	194.25
446.024	215.25
446.245	222.25
446.466	191.25
446.687	190.25
446.908	197.25
447.129	204.25
447.35	196.25
447.571	185.25
447.792	189.25
448.013	182.25
448.234	174.25
448.455	187.25
448.675	192.25
448.896	187.25
449.117	177.25
449.338	186.25
449.559	187.25
449.779	188.25
450	186.25
450.221	169.25
450.442	179.25
450.662	188.25
450.883	204.25
451.104	189.25
451.324	195.25
451.545	206.25
451.766	177.25
451.986	161.25
452.207	170.25
452.428	174.25
452.648	186.25
452.869	196.25
453.089	168.25
453.31	162.25
453.53	168.25
453.751	161.25
453.971	153.25
454.192	140.25
454.412	162.25
454.633	159.25
454.853	174.25
455.073	184.25
455.294	181.25
455.514	177.25
455.734	173.25
455.955	167.25
456.175	169.25
456.395	180.25
456.616	159.25
456.836	151.25
457.056	172.25
457.276	159.25
457.497	148.25
457.717	144.25
457.937	156.25
458.157	158.25
458.377	160.25
458.598	168.25
458.818	150.25
459.038	164.25
459.258	158.25
459.478	176.25
459.698	166.25
459.918	170.25
460.138	192.25
460.358	196.25
460.578	202.25
460.798	194.25
461.018	207.25
461.238	210.25
461.458	212.25
461.678	198.25
461.898	188.25
462.118	209.25
462.338	199.25
462.558	197.25
462.777	214.25
462.997	226.25
463.217	234.25
463.437	222.25
463.657	228.25
463.876	216.25
464.096	222.25
464.316	208.25
464.536	228.25
464.755	221.25
464.975	208.25
465.195	181.25
465.414	196.25
465.634	198.25
465.854	192.25
466.073	189.25
466.293	198.25
466.512	166.25
466.732	183.25
466.951	175.25
467.171	184.25
467.391	185.25
467.61	181.25
467.829	179.25
468.049	188.25
468.268	179.25
468.488	188.25
468.707	189.25
468.927	177.25
469.146	193.25
469.365	190.25
469.585	169.25
469.804	190.25
470.023	189.25
470.243	193.25
470.462	192.25
470.681	188.25
470.901	194.25
471.12	176.25
471.339	185.25
471.558	201.25
471.777	195.25
471.997	189.25
472.216	193.25
472.435	172.25
472.654	168.25
472.873	181.25
473.092	183.25
473.311	175.25
473.53	168.25
473.749	185.25
473.968	185.25
474.187	175.25
474.406	168.25
474.625	179.25
474.844	178.25
475.063	189.25
475.282	180.25
475.501	170.25
475.72	194.25
475.939	180.25
476.158	185.25
476.377	178.25
476.596	181.25
476.814	179.25
477.033	182.25
477.252	177.25
477.471	185.25
477.69	209.25
477.908	184.25
478.127	210.25
478.346	194.25
478.564	194.25
478.783	217.25
479.002	198.25
479.22	203.25
479.439	197.25
479.658	181.25
479.876	204.25
480.095	205.25
480.313	211.25
480.532	211.25
480.751	212.25
480.969	187.25
481.188	165.25
481.406	180.25
481.624	182.25
481.843	166.25
482.061	182.25
482.28	204.25
482.498	182.25
482.717	184.25
482.935	188.25
483.153	189.25
483.372	200.25
483.59	195.25
483.808	188.25
484.027	191.25
484.245	192.25
484.463	204.25
484.681	230.25
484.9	198.25
485.118	193.25
485.336	187.25
485.554	191.25
485.772	195.25
485.99	182.25
486.209	184.25
486.427	190.25
486.645	212.25
486.863	207.25
487.081	201.25
487.299	206.25
487.517	203.25
487.735	228.25
487.953	233.25
488.171	224.25
488.389	233.25
488.607	218.25
488.825	180.25
489.043	196.25
489.261	212.25
489.479	195.25
489.696	204.25
489.914	189.25
490.132	201.25
490.35	208.25
490.568	217.25
490.786	216.25
491.003	218.25
491.221	228.25
491.439	233.25
491.657	235.25
491.874	249.25
492.092	235.25
492.31	266.25
492.527	252.25
492.745	233.25
492.963	236.25
493.18	229.25
493.398	229.25
493.615	246.25
493.833	229.25
494.05	221.25
494.268	210.25
494.485	233.25
494.703	227.25
494.92	217.25
495.138	212.25
495.355	222.25
495.573	220.25
495.79	224.25
496.008	246.25
496.225	214.25
496.442	234.25
496.66	236.25
496.877	218.25
497.094	228.25
497.312	229.25
497.529	248.25
497.746	222.25
497.963	226.25
498.181	230.25
498.398	229.25
498.615	234.25
498.832	242.25
499.049	255.25
499.267	284.25
499.484	301.25
499.701	320.25
499.918	353.25
500.135	386.25
500.352	421.25
500.569	432.25
500.786	416.25
501.003	395.25
501.22	353.25
501.437	318.25
501.654	309.25
501.871	298.25
502.088	268.25
502.305	262.25
502.522	242.25
502.739	238.25
502.956	230.25
503.172	231.25
503.389	221.25
503.606	221.25
503.823	213.25
504.04	203.25
504.256	214.25
504.473	221.25
504.69	216.25
