Data from SampD_HRD10591_00076.txt Node
Date: Mon Jan 19 11:50:41 EST 2026
User: Yrep
Spectrometer: HR+D1059
Trigger mode: 0
Integration Time (sec): 3.443000E-1
Scans to average: 1
Electric dark correction enabled: true
Nonlinearity correction enabled: false
Boxcar width: 0
XAxis mode: Wavelengths
Number of Pixels in Spectrum: 2048
>>>>>Begin Spectral Data<<<<<
223.165	-16.62
223.4	-16.62
223.635	-16.62
223.869	-25.62
224.104	-37.62
224.338	-9.62
224.573	-14.62
224.808	-11.62
225.042	2.38
225.277	1.38
225.511	11.38
225.746	3.38
225.98	11.38
226.215	9.38
226.449	17.38
226.683	7.38
226.918	18.38
227.152	33.38
227.387	42.38
227.621	26.38
227.856	37.38
228.09	47.38
228.324	49.38
228.559	69.38
228.793	58.38
229.027	67.38
229.262	74.38
229.496	76.38
229.73	75.38
229.964	91.38
230.199	70.38
230.433	71.38
230.667	84.38
230.901	75.38
231.136	82.38
231.37	87.38
231.604	77.38
231.838	82.38
232.072	83.38
232.306	90.38
232.541	76.38
232.775	85.38
233.009	75.38
233.243	83.38
233.477	89.38
233.711	85.38
233.945	83.38
234.179	66.38
234.413	83.38
234.647	86.38
234.881	86.38
235.115	101.38
235.349	92.38
235.583	89.38
235.817	95.38
236.051	83.38
236.285	73.38
236.519	85.38
236.753	83.38
236.987	74.38
237.221	76.38
237.455	69.38
237.689	61.38
237.922	89.38
238.156	76.38
238.39	72.38
238.624	79.38
238.858	77.38
239.091	91.38
239.325	90.38
239.559	82.38
239.793	77.38
240.027	103.38
240.26	89.38
240.494	93.38
240.728	72.38
240.961	73.38
241.195	101.38
241.429	85.38
241.662	74.38
241.896	73.38
242.13	71.38
242.363	81.38
242.597	95.38
242.83	85.38
243.064	77.38
243.298	81.38
243.531	86.38
243.765	94.38
243.998	101.38
244.232	99.38
244.465	92.38
244.699	88.38
244.932	79.38
245.166	92.38
245.399	92.38
245.633	90.38
245.866	95.38
246.099	99.38
246.333	71.38
246.566	88.38
246.8	100.38
247.033	80.38
247.266	91.38
247.5	85.38
247.733	86.38
247.966	84.38
248.2	95.38
248.433	92.38
248.666	70.38
248.899	78.38
249.133	88.38
249.366	101.38
249.599	93.38
249.832	83.38
250.066	88.38
250.299	75.38
250.532	93.38
250.765	88.38
250.998	83.38
251.231	85.38
251.465	85.38
251.698	84.38
251.931	91.38
252.164	85.38
252.397	87.38
252.63	90.38
252.863	82.38
253.096	91.38
253.329	84.38
253.562	93.38
253.795	110.38
254.028	86.38
254.261	84.38
254.494	83.38
254.727	94.38
254.96	86.38
255.193	86.38
255.426	87.38
255.659	83.38
255.892	109.38
256.124	85.38
256.357	79.38
256.59	103.38
256.823	89.38
257.056	97.38
257.289	91.38
257.521	98.38
257.754	94.38
257.987	81.38
258.22	98.38
258.452	87.38
258.685	85.38
258.918	89.38
259.151	100.38
259.383	99.38
259.616	94.38
259.849	101.38
260.081	87.38
260.314	78.38
260.547	101.38
260.779	102.38
261.012	93.38
261.244	95.38
261.477	97.38
261.71	94.38
261.942	95.38
262.175	95.38
262.407	88.38
262.64	87.38
262.872	89.38
263.105	87.38
263.337	108.38
263.57	84.38
263.802	82.38
264.035	84.38
264.267	92.38
264.499	99.38
264.732	95.38
264.964	87.38
265.197	93.38
265.429	94.38
265.661	93.38
265.894	101.38
266.126	98.38
266.358	93.38
266.591	96.38
266.823	105.38
267.055	89.38
267.287	111.38
267.52	93.38
267.752	92.38
267.984	102.38
268.216	86.38
268.448	94.38
268.681	94.38
268.913	106.38
269.145	101.38
269.377	110.38
269.609	102.38
269.841	94.38
270.073	93.38
270.306	89.38
270.538	90.38
270.77	85.38
271.002	92.38
271.234	82.38
271.466	81.38
271.698	95.38
271.93	91.38
272.162	90.38
272.394	93.38
272.626	93.38
272.858	99.38
273.09	111.38
273.322	94.38
273.553	97.38
273.785	93.38
274.017	89.38
274.249	102.38
274.481	97.38
274.713	92.38
274.945	103.38
275.176	115.38
275.408	99.38
275.64	97.38
275.872	106.38
276.104	107.38
276.335	100.38
276.567	90.38
276.799	97.38
277.031	94.38
277.262	103.38
277.494	94.38
277.726	94.38
277.957	88.38
278.189	101.38
278.421	100.38
278.652	98.38
278.884	98.38
279.115	94.38
279.347	94.38
279.579	115.38
279.81	109.38
280.042	117.38
280.273	93.38
280.505	95.38
280.736	91.38
280.968	96.38
281.199	91.38
281.431	86.38
281.662	83.38
281.894	99.38
282.125	104.38
282.356	97.38
282.588	96.38
282.819	101.38
283.051	101.38
283.282	98.38
283.513	107.38
283.745	95.38
283.976	102.38
284.207	99.38
284.439	100.38
284.67	108.38
284.901	105.38
285.132	89.38
285.364	107.38
285.595	108.38
285.826	108.38
286.057	112.38
286.288	104.38
286.52	96.38
286.751	89.38
286.982	97.38
287.213	93.38
287.444	102.38
287.675	112.38
287.906	98.38
288.138	108.38
288.369	99.38
288.6	114.38
288.831	97.38
289.062	108.38
289.293	102.38
289.524	115.38
289.755	106.38
289.986	110.38
290.217	99.38
290.448	102.38
290.679	99.38
290.91	110.38
291.141	103.38
291.371	101.38
291.602	106.38
291.833	104.38
292.064	94.38
292.295	110.38
292.526	98.38
292.757	92.38
292.987	107.38
293.218	90.38
293.449	103.38
293.68	109.38
293.91	105.38
294.141	97.38
294.372	102.38
294.603	99.38
294.833	110.38
295.064	105.38
295.295	109.38
295.525	111.38
295.756	98.38
295.987	105.38
296.217	102.38
296.448	97.38
296.679	104.38
296.909	118.38
297.14	111.38
297.37	102.38
297.601	109.38
297.831	111.38
298.062	115.38
298.292	110.38
298.523	92.38
298.753	89.38
298.984	91.38
299.214	106.38
299.445	110.38
299.675	100.38
299.905	96.38
300.136	107.38
300.366	102.38
300.597	95.38
300.827	101.38
301.057	113.38
301.288	109.38
301.518	106.38
301.748	113.38
301.979	138.38
302.209	105.38
302.439	100.38
302.669	106.38
302.9	119.38
303.13	105.38
303.36	102.38
303.59	102.38
303.82	119.38
304.051	109.38
304.281	130.38
304.511	109.38
304.741	118.38
304.971	111.38
305.201	122.38
305.431	115.38
305.661	124.38
305.891	93.38
306.121	103.38
306.352	105.38
306.582	110.38
306.812	123.38
307.042	103.38
307.272	103.38
307.502	117.38
307.731	120.38
307.961	119.38
308.191	98.38
308.421	103.38
308.651	107.38
308.881	100.38
309.111	108.38
309.341	92.38
309.571	111.38
309.8	97.38
310.03	109.38
310.26	116.38
310.49	110.38
310.72	99.38
310.949	95.38
311.179	117.38
311.409	96.38
311.639	115.38
311.868	124.38
312.098	118.38
312.328	117.38
312.557	116.38
312.787	123.38
313.017	110.38
313.246	88.38
313.476	109.38
313.706	94.38
313.935	105.38
314.165	109.38
314.394	109.38
314.624	107.38
314.853	122.38
315.083	110.38
315.312	114.38
315.542	105.38
315.771	113.38
316.001	107.38
316.23	108.38
316.46	82.38
316.689	105.38
316.919	107.38
317.148	111.38
317.377	113.38
317.607	113.38
317.836	110.38
318.065	93.38
318.295	99.38
318.524	99.38
318.753	87.38
318.983	95.38
319.212	109.38
319.441	99.38
319.67	108.38
319.9	103.38
320.129	103.38
320.358	108.38
320.587	106.38
320.816	101.38
321.046	101.38
321.275	103.38
321.504	109.38
321.733	117.38
321.962	110.38
322.191	116.38
322.42	109.38
322.649	97.38
322.878	105.38
323.108	101.38
323.337	110.38
323.566	110.38
323.795	107.38
324.024	101.38
324.253	115.38
324.482	97.38
324.71	110.38
324.939	111.38
325.168	119.38
325.397	89.38
325.626	102.38
325.855	108.38
326.084	116.38
326.313	128.38
326.542	121.38
326.77	118.38
326.999	110.38
327.228	102.38
327.457	115.38
327.686	111.38
327.914	118.38
328.143	125.38
328.372	118.38
328.6	122.38
328.829	102.38
329.058	109.38
329.287	120.38
329.515	100.38
329.744	114.38
329.972	110.38
330.201	103.38
330.43	101.38
330.658	110.38
330.887	106.38
331.115	109.38
331.344	100.38
331.572	130.38
331.801	114.38
332.03	112.38
332.258	107.38
332.486	103.38
332.715	120.38
332.943	121.38
333.172	120.38
333.4	118.38
333.629	118.38
333.857	116.38
334.085	113.38
334.314	126.38
334.542	118.38
334.771	108.38
334.999	117.38
335.227	130.38
335.455	119.38
335.684	115.38
335.912	118.38
336.14	119.38
336.369	116.38
336.597	120.38
336.825	129.38
337.053	116.38
337.281	111.38
337.51	97.38
337.738	118.38
337.966	108.38
338.194	87.38
338.422	99.38
338.65	102.38
338.878	117.38
339.106	117.38
339.334	117.38
339.562	101.38
339.79	105.38
340.018	108.38
340.246	117.38
340.474	127.38
340.702	104.38
340.93	107.38
341.158	105.38
341.386	98.38
341.614	112.38
341.842	113.38
342.07	118.38
342.298	99.38
342.526	109.38
342.754	120.38
342.981	117.38
343.209	110.38
343.437	137.38
343.665	117.38
343.893	120.38
344.12	132.38
344.348	124.38
344.576	116.38
344.804	108.38
345.031	107.38
345.259	101.38
345.487	112.38
345.714	102.38
345.942	108.38
346.17	121.38
346.397	118.38
346.625	117.38
346.853	93.38
347.08	112.38
347.308	110.38
347.535	103.38
347.763	97.38
347.99	106.38
348.218	129.38
348.445	114.38
348.673	105.38
348.9	122.38
349.128	106.38
349.355	105.38
349.583	97.38
349.81	90.38
350.037	99.38
350.265	121.38
350.492	103.38
350.72	102.38
350.947	112.38
351.174	109.38
351.402	104.38
351.629	106.38
351.856	100.38
352.083	93.38
352.311	99.38
352.538	105.38
352.765	92.38
352.992	111.38
353.22	93.38
353.447	112.38
353.674	103.38
353.901	110.38
354.128	115.38
354.355	105.38
354.583	107.38
354.81	109.38
355.037	110.38
355.264	121.38
355.491	117.38
355.718	95.38
355.945	113.38
356.172	90.38
356.399	101.38
356.626	102.38
356.853	111.38
357.08	105.38
357.307	113.38
357.534	120.38
357.761	114.38
357.988	103.38
358.215	106.38
358.441	101.38
358.668	104.38
358.895	103.38
359.122	102.38
359.349	114.38
359.576	116.38
359.802	91.38
360.029	99.38
360.256	115.38
360.483	102.38
360.709	105.38
360.936	125.38
361.163	121.38
361.39	117.38
361.616	108.38
361.843	111.38
362.07	120.38
362.296	103.38
362.523	104.38
362.749	113.38
362.976	101.38
363.203	122.38
363.429	103.38
363.656	121.38
363.882	90.38
364.109	102.38
364.335	109.38
364.562	118.38
364.788	103.38
365.015	109.38
365.241	111.38
365.468	110.38
365.694	107.38
365.92	109.38
366.147	114.38
366.373	123.38
366.599	106.38
366.826	92.38
367.052	94.38
367.278	104.38
367.505	109.38
367.731	134.38
367.957	111.38
368.184	102.38
368.41	92.38
368.636	110.38
368.862	111.38
369.089	117.38
369.315	110.38
369.541	116.38
369.767	121.38
369.993	94.38
370.219	103.38
370.445	101.38
370.672	104.38
370.898	101.38
371.124	111.38
371.35	113.38
371.576	128.38
371.802	108.38
372.028	116.38
372.254	97.38
372.48	131.38
372.706	104.38
372.932	114.38
373.158	118.38
373.384	113.38
373.61	114.38
373.835	125.38
374.061	109.38
374.287	118.38
374.513	112.38
374.739	106.38
374.965	100.38
375.191	107.38
375.416	117.38
375.642	127.38
375.868	124.38
376.094	118.38
376.319	107.38
376.545	101.38
376.771	111.38
376.997	118.38
377.222	124.38
377.448	97.38
377.674	115.38
377.899	105.38
378.125	110.38
378.35	111.38
378.576	111.38
378.802	108.38
379.027	124.38
379.253	113.38
379.478	96.38
379.704	123.38
379.929	109.38
380.155	107.38
380.38	106.38
380.606	125.38
380.831	107.38
381.057	107.38
381.282	123.38
381.507	130.38
381.733	111.38
381.958	118.38
382.184	116.38
382.409	120.38
382.634	126.38
382.86	121.38
383.085	121.38
383.31	124.38
383.535	122.38
383.761	107.38
383.986	124.38
384.211	116.38
384.436	130.38
384.662	119.38
384.887	132.38
385.112	128.38
385.337	129.38
385.562	120.38
385.787	116.38
386.013	124.38
386.238	119.38
386.463	117.38
386.688	161.38
386.913	120.38
387.138	111.38
387.363	119.38
387.588	121.38
387.813	111.38
388.038	130.38
388.263	117.38
388.488	118.38
388.713	118.38
388.938	122.38
389.163	123.38
389.387	119.38
389.612	111.38
389.837	123.38
390.062	129.38
390.287	120.38
390.512	133.38
390.736	121.38
390.961	134.38
391.186	127.38
391.411	113.38
391.636	109.38
391.86	131.38
392.085	136.38
392.31	114.38
392.534	121.38
392.759	138.38
392.984	131.38
393.208	129.38
393.433	122.38
393.658	122.38
393.882	116.38
394.107	123.38
394.331	119.38
394.556	129.38
394.78	128.38
395.005	126.38
395.229	123.38
395.454	130.38
395.678	115.38
395.903	139.38
396.127	134.38
396.352	152.38
396.576	134.38
396.801	109.38
397.025	124.38
397.249	130.38
397.474	142.38
397.698	128.38
397.922	141.38
398.147	129.38
398.371	132.38
398.595	143.38
398.82	126.38
399.044	136.38
399.268	154.38
399.492	152.38
399.717	163.38
399.941	163.38
400.165	154.38
400.389	153.38
400.613	146.38
400.837	136.38
401.062	129.38
401.286	134.38
401.51	133.38
401.734	134.38
401.958	125.38
402.182	138.38
402.406	131.38
402.63	142.38
402.854	136.38
403.078	160.38
403.302	146.38
403.526	139.38
403.75	147.38
403.974	135.38
404.198	137.38
404.422	145.38
404.645	158.38
404.869	146.38
405.093	157.38
405.317	147.38
405.541	138.38
405.765	140.38
405.988	143.38
406.212	153.38
406.436	124.38
406.66	136.38
406.883	145.38
407.107	153.38
407.331	154.38
407.555	157.38
407.778	140.38
408.002	145.38
408.226	146.38
408.449	136.38
408.673	150.38
408.896	158.38
409.12	153.38
409.344	156.38
409.567	148.38
409.791	151.38
410.014	155.38
410.238	142.38
410.461	145.38
410.685	143.38
410.908	159.38
411.132	154.38
411.355	149.38
411.578	141.38
411.802	140.38
412.025	130.38
412.249	147.38
412.472	131.38
412.695	140.38
412.919	136.38
413.142	134.38
413.365	153.38
413.589	138.38
413.812	132.38
414.035	160.38
414.258	148.38
414.482	135.38
414.705	133.38
414.928	145.38
415.151	133.38
415.374	136.38
415.597	140.38
415.821	131.38
416.044	127.38
416.267	134.38
416.49	122.38
416.713	136.38
416.936	138.38
417.159	130.38
417.382	142.38
417.605	148.38
417.828	143.38
418.051	154.38
418.274	149.38
418.497	145.38
418.72	145.38
418.943	149.38
419.166	140.38
419.389	146.38
419.611	143.38
419.834	125.38
420.057	148.38
420.28	137.38
420.503	156.38
420.726	152.38
420.948	148.38
421.171	142.38
421.394	123.38
421.617	133.38
421.839	129.38
422.062	139.38
422.285	143.38
422.507	151.38
422.73	143.38
422.953	147.38
423.175	143.38
423.398	161.38
423.621	142.38
423.843	126.38
424.066	136.38
424.288	148.38
424.511	150.38
424.733	173.38
424.956	141.38
425.178	170.38
425.401	153.38
425.623	133.38
425.846	138.38
426.068	158.38
426.291	130.38
426.513	136.38
426.735	135.38
426.958	137.38
427.18	122.38
427.402	148.38
427.625	122.38
427.847	115.38
428.069	142.38
428.292	140.38
428.514	127.38
428.736	127.38
428.958	124.38
429.181	135.38
429.403	135.38
429.625	133.38
429.847	128.38
430.069	132.38
430.292	137.38
430.514	139.38
430.736	135.38
430.958	126.38
431.18	129.38
431.402	138.38
431.624	121.38
431.846	127.38
432.068	115.38
432.29	123.38
432.512	131.38
432.734	115.38
432.956	143.38
433.178	152.38
433.4	138.38
433.622	146.38
433.844	129.38
434.066	131.38
434.287	123.38
434.509	115.38
434.731	134.38
434.953	134.38
435.175	133.38
435.397	133.38
435.618	140.38
435.84	142.38
436.062	125.38
436.284	149.38
436.505	139.38
436.727	127.38
436.949	127.38
437.17	138.38
437.392	126.38
437.614	126.38
437.835	121.38
438.057	129.38
438.278	124.38
438.5	129.38
438.721	126.38
438.943	134.38
439.165	147.38
439.386	135.38
439.608	138.38
439.829	133.38
440.05	139.38
440.272	138.38
440.493	131.38
440.715	139.38
440.936	150.38
441.158	150.38
441.379	134.38
441.6	147.38
441.822	147.38
442.043	145.38
442.264	152.38
442.486	138.38
442.707	144.38
442.928	155.38
443.149	134.38
443.371	147.38
443.592	134.38
443.813	136.38
444.034	145.38
444.255	145.38
444.476	152.38
444.698	152.38
444.919	157.38
445.14	418.38
445.361	281.38
445.582	132.38
445.803	132.38
446.024	124.38
446.245	150.38
446.466	136.38
446.687	135.38
446.908	151.38
447.129	146.38
447.35	138.38
447.571	131.38
447.792	122.38
448.013	142.38
448.234	124.38
448.455	132.38
448.675	137.38
448.896	147.38
449.117	117.38
449.338	116.38
449.559	137.38
449.779	133.38
450	138.38
450.221	136.38
450.442	136.38
450.662	123.38
450.883	119.38
451.104	138.38
451.324	135.38
451.545	130.38
451.766	135.38
451.986	132.38
452.207	110.38
452.428	130.38
452.648	146.38
452.869	132.38
453.089	117.38
453.31	115.38
453.53	114.38
453.751	116.38
453.971	135.38
454.192	117.38
454.412	118.38
454.633	126.38
454.853	129.38
455.073	125.38
455.294	122.38
455.514	137.38
455.734	122.38
455.955	117.38
456.175	124.38
456.395	124.38
456.616	118.38
456.836	118.38
457.056	108.38
457.276	131.38
457.497	115.38
457.717	115.38
457.937	126.38
458.157	121.38
458.377	127.38
458.598	113.38
458.818	121.38
459.038	114.38
459.258	142.38
459.478	133.38
459.698	125.38
459.918	159.38
460.138	127.38
460.358	131.38
460.578	153.38
460.798	137.38
461.018	145.38
461.238	157.38
461.458	145.38
461.678	141.38
461.898	154.38
462.118	122.38
462.338	153.38
462.558	161.38
462.777	164.38
462.997	158.38
463.217	150.38
463.437	162.38
463.657	161.38
463.876	135.38
464.096	150.38
464.316	151.38
464.536	143.38
464.755	155.38
464.975	142.38
465.195	147.38
465.414	148.38
465.634	123.38
465.854	135.38
466.073	132.38
466.293	129.38
466.512	122.38
466.732	115.38
466.951	140.38
467.171	129.38
467.391	124.38
467.61	132.38
467.829	125.38
468.049	122.38
468.268	131.38
468.488	140.38
468.707	146.38
468.927	129.38
469.146	125.38
469.365	136.38
469.585	133.38
469.804	132.38
470.023	146.38
470.243	147.38
470.462	143.38
470.681	138.38
470.901	142.38
471.12	143.38
471.339	142.38
471.558	146.38
471.777	149.38
471.997	125.38
472.216	125.38
472.435	124.38
472.654	115.38
472.873	129.38
473.092	116.38
473.311	132.38
473.53	141.38
473.749	125.38
473.968	141.38
474.187	134.38
474.406	131.38
474.625	129.38
474.844	149.38
475.063	117.38
475.282	125.38
475.501	123.38
475.72	144.38
475.939	123.38
476.158	133.38
476.377	123.38
476.596	114.38
476.814	129.38
477.033	150.38
477.252	135.38
477.471	137.38
477.69	129.38
477.908	158.38
478.127	162.38
478.346	146.38
478.564	145.38
478.783	136.38
479.002	134.38
479.22	128.38
479.439	151.38
479.658	142.38
479.876	133.38
480.095	121.38
480.313	140.38
480.532	155.38
480.751	142.38
480.969	125.38
481.188	127.38
481.406	137.38
481.624	134.38
481.843	123.38
482.061	131.38
482.28	138.38
482.498	142.38
482.717	135.38
482.935	135.38
483.153	146.38
483.372	153.38
483.59	154.38
483.808	140.38
484.027	141.38
484.245	146.38
484.463	149.38
484.681	154.38
484.9	138.38
485.118	162.38
485.336	131.38
485.554	132.38
485.772	136.38
485.99	157.38
486.209	132.38
486.427	122.38
486.645	140.38
486.863	140.38
487.081	139.38
487.299	139.38
487.517	156.38
487.735	165.38
487.953	145.38
488.171	146.38
488.389	148.38
488.607	149.38
488.825	135.38
489.043	148.38
489.261	148.38
489.479	139.38
489.696	150.38
489.914	142.38
490.132	155.38
490.35	148.38
490.568	163.38
490.786	175.38
491.003	146.38
491.221	150.38
491.439	146.38
491.657	140.38
491.874	163.38
492.092	150.38
492.31	172.38
492.527	154.38
492.745	168.38
492.963	175.38
493.18	156.38
493.398	164.38
493.615	161.38
493.833	149.38
494.05	143.38
494.268	151.38
494.485	173.38
494.703	150.38
494.92	168.38
495.138	154.38
495.355	147.38
495.573	161.38
495.79	156.38
496.008	168.38
496.225	154.38
496.442	157.38
496.66	182.38
496.877	149.38
497.094	180.38
497.312	159.38
497.529	157.38
497.746	157.38
497.963	163.38
498.181	148.38
498.398	167.38
498.615	171.38
498.832	169.38
499.049	181.38
499.267	182.38
499.484	204.38
499.701	185.38
499.918	218.38
500.135	234.38
500.352	254.38
500.569	266.38
500.786	257.38
501.003	237.38
501.22	223.38
501.437	212.38
501.654	172.38
501.871	187.38
502.088	183.38
502.305	175.38
502.522	175.38
502.739	170.38
502.956	169.38
503.172	163.38
503.389	151.38
503.606	135.38
503.823	147.38
504.04	169.38
504.256	169.38
504.473	162.38
504.69	163.38
504.907	166.38
505.123	142.38
505.34	128.38
505.557	139.38
505.773	139.38
505.99	130.38
506.207	143.38
506.423	141.38
