Data from SampD_HRD10591_00093.txt Node
Date: Mon Jan 19 11:50:47 EST 2026
User: Yrep
Spectrometer: HR+D1059
Trigger mode: 0
Integration Time (sec): 3.443000E-1
Scans to average: 1
Electric dark correction enabled: true
Nonlinearity correction enabled: false
Boxcar width: 0
XAxis mode: Wavelengths
Number of Pixels in Spectrum: 2048
>>>>>Begin Spectral Data<<<<<
223.165	-11.94
223.4	-11.94
223.635	-11.94
223.869	-18.94
224.104	-27.94
224.338	-10.94
224.573	-20.94
224.808	-12.94
225.042	-4.94
225.277	-15.94
225.511	-10.94
225.746	19.06
225.98	-1.94
226.215	20.06
226.449	24.06
226.683	20.06
226.918	22.06
227.152	32.06
227.387	42.06
227.621	46.06
227.856	42.06
228.09	31.06
228.324	56.06
228.559	75.06
228.793	87.06
229.027	79.06
229.262	74.06
229.496	58.06
229.73	89.06
229.964	78.06
230.199	73.06
230.433	83.06
230.667	71.06
230.901	74.06
231.136	86.06
231.37	72.06
231.604	91.06
231.838	96.06
232.072	82.06
232.306	83.06
232.541	89.06
232.775	102.06
233.009	100.06
233.243	88.06
233.477	77.06
233.711	86.06
233.945	86.06
234.179	89.06
234.413	67.06
234.647	94.06
234.881	86.06
235.115	88.06
235.349	82.06
235.583	94.06
235.817	72.06
236.051	78.06
236.285	83.06
236.519	89.06
236.753	96.06
236.987	83.06
237.221	98.06
237.455	78.06
237.689	65.06
237.922	67.06
238.156	68.06
238.39	68.06
238.624	84.06
238.858	88.06
239.091	70.06
239.325	77.06
239.559	83.06
239.793	94.06
240.027	99.06
240.26	104.06
240.494	76.06
240.728	80.06
240.961	77.06
241.195	97.06
241.429	92.06
241.662	78.06
241.896	77.06
242.13	74.06
242.363	63.06
242.597	69.06
242.83	94.06
243.064	88.06
243.298	77.06
243.531	83.06
243.765	86.06
243.998	71.06
244.232	84.06
244.465	94.06
244.699	92.06
244.932	102.06
245.166	90.06
245.399	90.06
245.633	90.06
245.866	106.06
246.099	83.06
246.333	80.06
246.566	75.06
246.8	93.06
247.033	99.06
247.266	88.06
247.5	72.06
247.733	102.06
247.966	98.06
248.2	98.06
248.433	93.06
248.666	85.06
248.899	95.06
249.133	106.06
249.366	99.06
249.599	83.06
249.832	98.06
250.066	101.06
250.299	92.06
250.532	98.06
250.765	93.06
250.998	95.06
251.231	86.06
251.465	88.06
251.698	92.06
251.931	100.06
252.164	93.06
252.397	98.06
252.63	88.06
252.863	97.06
253.096	84.06
253.329	91.06
253.562	96.06
253.795	97.06
254.028	110.06
254.261	96.06
254.494	84.06
254.727	106.06
254.96	100.06
255.193	94.06
255.426	92.06
255.659	88.06
255.892	118.06
256.124	90.06
256.357	97.06
256.59	95.06
256.823	102.06
257.056	93.06
257.289	88.06
257.521	95.06
257.754	97.06
257.987	89.06
258.22	112.06
258.452	101.06
258.685	94.06
258.918	93.06
259.151	102.06
259.383	96.06
259.616	86.06
259.849	98.06
260.081	102.06
260.314	86.06
260.547	84.06
260.779	110.06
261.012	101.06
261.244	100.06
261.477	109.06
261.71	81.06
261.942	99.06
262.175	95.06
262.407	94.06
262.64	103.06
262.872	114.06
263.105	100.06
263.337	112.06
263.57	111.06
263.802	93.06
264.035	116.06
264.267	105.06
264.499	98.06
264.732	133.06
264.964	110.06
265.197	107.06
265.429	94.06
265.661	90.06
265.894	120.06
266.126	123.06
266.358	91.06
266.591	103.06
266.823	120.06
267.055	105.06
267.287	101.06
267.52	95.06
267.752	105.06
267.984	109.06
268.216	116.06
268.448	102.06
268.681	112.06
268.913	112.06
269.145	102.06
269.377	103.06
269.609	86.06
269.841	99.06
270.073	104.06
270.306	119.06
270.538	101.06
270.77	110.06
271.002	120.06
271.234	88.06
271.466	109.06
271.698	110.06
271.93	100.06
272.162	118.06
272.394	117.06
272.626	101.06
272.858	96.06
273.09	107.06
273.322	109.06
273.553	109.06
273.785	107.06
274.017	99.06
274.249	115.06
274.481	111.06
274.713	96.06
274.945	112.06
275.176	103.06
275.408	109.06
275.64	124.06
275.872	112.06
276.104	108.06
276.335	107.06
276.567	105.06
276.799	106.06
277.031	100.06
277.262	119.06
277.494	103.06
277.726	103.06
277.957	115.06
278.189	99.06
278.421	107.06
278.652	116.06
278.884	104.06
279.115	101.06
279.347	108.06
279.579	111.06
279.81	94.06
280.042	116.06
280.273	109.06
280.505	125.06
280.736	118.06
280.968	105.06
281.199	107.06
281.431	126.06
281.662	101.06
281.894	121.06
282.125	128.06
282.356	106.06
282.588	107.06
282.819	116.06
283.051	114.06
283.282	110.06
283.513	114.06
283.745	115.06
283.976	119.06
284.207	120.06
284.439	117.06
284.67	126.06
284.901	117.06
285.132	115.06
285.364	107.06
285.595	122.06
285.826	123.06
286.057	133.06
286.288	132.06
286.52	118.06
286.751	122.06
286.982	130.06
287.213	121.06
287.444	123.06
287.675	119.06
287.906	115.06
288.138	125.06
288.369	141.06
288.6	115.06
288.831	119.06
289.062	127.06
289.293	134.06
289.524	117.06
289.755	125.06
289.986	102.06
290.217	107.06
290.448	133.06
290.679	124.06
290.91	119.06
291.141	100.06
291.371	129.06
291.602	115.06
291.833	120.06
292.064	114.06
292.295	109.06
292.526	117.06
292.757	139.06
292.987	124.06
293.218	118.06
293.449	116.06
293.68	110.06
293.91	127.06
294.141	126.06
294.372	118.06
294.603	118.06
294.833	121.06
295.064	103.06
295.295	100.06
295.525	124.06
295.756	115.06
295.987	110.06
296.217	127.06
296.448	119.06
296.679	125.06
296.909	127.06
297.14	134.06
297.37	122.06
297.601	131.06
297.831	121.06
298.062	115.06
298.292	129.06
298.523	138.06
298.753	133.06
298.984	114.06
299.214	112.06
299.445	127.06
299.675	122.06
299.905	124.06
300.136	128.06
300.366	117.06
300.597	129.06
300.827	138.06
301.057	130.06
301.288	132.06
301.518	131.06
301.748	140.06
301.979	155.06
302.209	126.06
302.439	126.06
302.669	128.06
302.9	130.06
303.13	133.06
303.36	128.06
303.59	126.06
303.82	110.06
304.051	138.06
304.281	127.06
304.511	148.06
304.741	118.06
304.971	129.06
305.201	147.06
305.431	130.06
305.661	132.06
305.891	116.06
306.121	113.06
306.352	130.06
306.582	116.06
306.812	136.06
307.042	138.06
307.272	132.06
307.502	124.06
307.731	135.06
307.961	127.06
308.191	120.06
308.421	114.06
308.651	120.06
308.881	128.06
309.111	124.06
309.341	115.06
309.571	128.06
309.8	121.06
310.03	115.06
310.26	127.06
310.49	129.06
310.72	140.06
310.949	130.06
311.179	112.06
311.409	118.06
311.639	139.06
311.868	128.06
312.098	120.06
312.328	122.06
312.557	129.06
312.787	127.06
313.017	112.06
313.246	146.06
313.476	117.06
313.706	134.06
313.935	130.06
314.165	125.06
314.394	136.06
314.624	116.06
314.853	130.06
315.083	130.06
315.312	137.06
315.542	144.06
315.771	121.06
316.001	142.06
316.23	136.06
316.46	122.06
316.689	125.06
316.919	124.06
317.148	125.06
317.377	119.06
317.607	123.06
317.836	119.06
318.065	129.06
318.295	124.06
318.524	136.06
318.753	132.06
318.983	129.06
319.212	147.06
319.441	131.06
319.67	136.06
319.9	132.06
320.129	117.06
320.358	125.06
320.587	122.06
320.816	110.06
321.046	123.06
321.275	133.06
321.504	116.06
321.733	135.06
321.962	141.06
322.191	127.06
322.42	117.06
322.649	133.06
322.878	127.06
323.108	133.06
323.337	124.06
323.566	123.06
323.795	127.06
324.024	138.06
324.253	118.06
324.482	136.06
324.71	130.06
324.939	119.06
325.168	125.06
325.397	131.06
325.626	123.06
325.855	137.06
326.084	141.06
326.313	126.06
326.542	123.06
326.77	152.06
326.999	135.06
327.228	134.06
327.457	139.06
327.686	147.06
327.914	141.06
328.143	143.06
328.372	130.06
328.6	125.06
328.829	128.06
329.058	137.06
329.287	133.06
329.515	127.06
329.744	138.06
329.972	133.06
330.201	156.06
330.43	126.06
330.658	124.06
330.887	129.06
331.115	133.06
331.344	142.06
331.572	154.06
331.801	126.06
332.03	130.06
332.258	132.06
332.486	146.06
332.715	143.06
332.943	129.06
333.172	169.06
333.4	153.06
333.629	151.06
333.857	153.06
334.085	150.06
334.314	162.06
334.542	152.06
334.771	130.06
334.999	135.06
335.227	134.06
335.455	146.06
335.684	151.06
335.912	147.06
336.14	142.06
336.369	156.06
336.597	151.06
336.825	144.06
337.053	139.06
337.281	140.06
337.51	131.06
337.738	148.06
337.966	140.06
338.194	136.06
338.422	135.06
338.65	132.06
338.878	147.06
339.106	127.06
339.334	142.06
339.562	127.06
339.79	152.06
340.018	122.06
340.246	114.06
340.474	139.06
340.702	135.06
340.93	129.06
341.158	131.06
341.386	146.06
341.614	147.06
341.842	125.06
342.07	133.06
342.298	120.06
342.526	126.06
342.754	129.06
342.981	141.06
343.209	144.06
343.437	163.06
343.665	150.06
343.893	151.06
344.12	159.06
344.348	154.06
344.576	119.06
344.804	130.06
345.031	135.06
345.259	139.06
345.487	138.06
345.714	126.06
345.942	134.06
346.17	148.06
346.397	134.06
346.625	127.06
346.853	113.06
347.08	130.06
347.308	135.06
347.535	131.06
347.763	130.06
347.99	143.06
348.218	144.06
348.445	125.06
348.673	148.06
348.9	131.06
349.128	140.06
349.355	134.06
349.583	135.06
349.81	149.06
350.037	122.06
350.265	143.06
350.492	127.06
350.72	125.06
350.947	137.06
351.174	127.06
351.402	115.06
351.629	138.06
351.856	135.06
352.083	131.06
352.311	143.06
352.538	121.06
352.765	126.06
352.992	130.06
353.22	130.06
353.447	130.06
353.674	142.06
353.901	150.06
354.128	127.06
354.355	134.06
354.583	117.06
354.81	134.06
355.037	137.06
355.264	138.06
355.491	140.06
355.718	131.06
355.945	128.06
356.172	139.06
356.399	123.06
356.626	124.06
356.853	139.06
357.08	135.06
357.307	130.06
357.534	138.06
357.761	126.06
357.988	152.06
358.215	124.06
358.441	134.06
358.668	116.06
358.895	138.06
359.122	131.06
359.349	137.06
359.576	138.06
359.802	137.06
360.029	131.06
360.256	131.06
360.483	116.06
360.709	129.06
360.936	150.06
361.163	134.06
361.39	151.06
361.616	136.06
361.843	144.06
362.07	138.06
362.296	131.06
362.523	141.06
362.749	125.06
362.976	124.06
363.203	152.06
363.429	122.06
363.656	130.06
363.882	131.06
364.109	138.06
364.335	134.06
364.562	137.06
364.788	143.06
365.015	136.06
365.241	154.06
365.468	141.06
365.694	121.06
365.92	131.06
366.147	136.06
366.373	133.06
366.599	139.06
366.826	113.06
367.052	138.06
367.278	143.06
367.505	124.06
367.731	151.06
367.957	155.06
368.184	137.06
368.41	139.06
368.636	127.06
368.862	128.06
369.089	128.06
369.315	125.06
369.541	136.06
369.767	137.06
369.993	136.06
370.219	136.06
370.445	127.06
370.672	121.06
370.898	136.06
371.124	135.06
371.35	141.06
371.576	153.06
371.802	138.06
372.028	122.06
372.254	131.06
372.48	155.06
372.706	134.06
372.932	137.06
373.158	131.06
373.384	140.06
373.61	147.06
373.835	130.06
374.061	136.06
374.287	153.06
374.513	144.06
374.739	146.06
374.965	134.06
375.191	149.06
375.416	149.06
375.642	151.06
375.868	165.06
376.094	155.06
376.319	156.06
376.545	126.06
376.771	131.06
376.997	138.06
377.222	138.06
377.448	142.06
377.674	144.06
377.899	148.06
378.125	134.06
378.35	141.06
378.576	149.06
378.802	138.06
379.027	150.06
379.253	161.06
379.478	164.06
379.704	144.06
379.929	144.06
380.155	146.06
380.38	142.06
380.606	129.06
380.831	132.06
381.057	155.06
381.282	145.06
381.507	144.06
381.733	146.06
381.958	126.06
382.184	151.06
382.409	146.06
382.634	152.06
382.86	151.06
383.085	157.06
383.31	156.06
383.535	169.06
383.761	160.06
383.986	161.06
384.211	147.06
384.436	163.06
384.662	151.06
384.887	168.06
385.112	156.06
385.337	180.06
385.562	157.06
385.787	165.06
386.013	167.06
386.238	179.06
386.463	170.06
386.688	184.06
386.913	164.06
387.138	159.06
387.363	154.06
387.588	173.06
387.813	151.06
388.038	173.06
388.263	165.06
388.488	156.06
388.713	146.06
388.938	155.06
389.163	154.06
389.387	154.06
389.612	168.06
389.837	176.06
390.062	152.06
390.287	171.06
390.512	175.06
390.736	153.06
390.961	164.06
391.186	167.06
391.411	172.06
391.636	180.06
391.86	186.06
392.085	176.06
392.31	182.06
392.534	182.06
392.759	165.06
392.984	149.06
393.208	169.06
393.433	191.06
393.658	166.06
393.882	172.06
394.107	173.06
394.331	164.06
394.556	182.06
394.78	176.06
395.005	154.06
395.229	162.06
395.454	170.06
395.678	170.06
395.903	169.06
396.127	171.06
396.352	178.06
396.576	171.06
396.801	169.06
397.025	174.06
397.249	174.06
397.474	186.06
397.698	177.06
397.922	161.06
398.147	160.06
398.371	188.06
398.595	199.06
398.82	183.06
399.044	180.06
399.268	213.06
399.492	231.06
399.717	235.06
399.941	227.06
400.165	237.06
400.389	216.06
400.613	195.06
400.837	208.06
401.062	198.06
401.286	195.06
401.51	197.06
401.734	180.06
401.958	190.06
402.182	179.06
402.406	193.06
402.63	186.06
402.854	187.06
403.078	191.06
403.302	187.06
403.526	218.06
403.75	200.06
403.974	220.06
404.198	192.06
404.422	216.06
404.645	199.06
404.869	190.06
405.093	210.06
405.317	198.06
405.541	194.06
405.765	198.06
405.988	196.06
406.212	188.06
406.436	186.06
406.66	202.06
406.883	201.06
407.107	210.06
407.331	214.06
407.555	233.06
407.778	217.06
408.002	199.06
408.226	224.06
408.449	207.06
408.673	212.06
408.896	208.06
409.12	212.06
409.344	204.06
409.567	205.06
409.791	196.06
410.014	218.06
410.238	206.06
410.461	186.06
410.685	179.06
410.908	164.06
411.132	199.06
411.355	210.06
411.578	205.06
411.802	193.06
412.025	191.06
412.249	202.06
412.472	187.06
412.695	190.06
412.919	179.06
413.142	198.06
413.365	188.06
413.589	205.06
413.812	211.06
414.035	196.06
414.258	190.06
414.482	210.06
414.705	182.06
414.928	194.06
415.151	196.06
415.374	200.06
415.597	183.06
415.821	181.06
416.044	185.06
416.267	184.06
416.49	205.06
416.713	192.06
416.936	183.06
417.159	187.06
417.382	174.06
417.605	194.06
417.828	205.06
418.051	206.06
418.274	184.06
418.497	210.06
418.72	217.06
418.943	216.06
419.166	207.06
419.389	207.06
419.611	207.06
419.834	195.06
420.057	199.06
420.28	195.06
420.503	194.06
420.726	189.06
420.948	189.06
421.171	189.06
421.394	196.06
421.617	199.06
421.839	214.06
422.062	197.06
422.285	190.06
422.507	180.06
422.73	189.06
422.953	202.06
423.175	186.06
423.398	200.06
423.621	208.06
423.843	202.06
424.066	203.06
424.288	208.06
424.511	211.06
424.733	222.06
424.956	194.06
425.178	203.06
425.401	193.06
425.623	200.06
425.846	190.06
426.068	200.06
426.291	165.06
426.513	183.06
426.735	198.06
426.958	185.06
427.18	193.06
427.402	206.06
427.625	195.06
427.847	170.06
428.069	182.06
428.292	184.06
428.514	174.06
428.736	169.06
428.958	181.06
429.181	180.06
429.403	180.06
429.625	179.06
429.847	176.06
430.069	182.06
430.292	206.06
430.514	181.06
430.736	182.06
430.958	195.06
431.18	186.06
431.402	183.06
431.624	177.06
431.846	182.06
432.068	164.06
432.29	175.06
432.512	193.06
432.734	187.06
432.956	183.06
433.178	200.06
433.4	192.06
433.622	204.06
433.844	193.06
434.066	179.06
434.287	175.06
434.509	176.06
434.731	172.06
434.953	190.06
435.175	201.06
435.397	200.06
435.618	188.06
435.84	179.06
436.062	172.06
436.284	178.06
436.505	167.06
436.727	176.06
436.949	180.06
437.17	194.06
437.392	186.06
437.614	171.06
437.835	165.06
438.057	159.06
438.278	171.06
438.5	166.06
438.721	188.06
438.943	191.06
439.165	188.06
439.386	195.06
439.608	185.06
439.829	188.06
440.05	204.06
440.272	182.06
440.493	187.06
440.715	169.06
440.936	195.06
441.158	190.06
441.379	184.06
441.6	206.06
441.822	210.06
442.043	196.06
442.264	210.06
442.486	204.06
442.707	194.06
442.928	215.06
443.149	205.06
443.371	227.06
443.592	216.06
443.813	218.06
444.034	188.06
444.255	212.06
444.476	218.06
444.698	219.06
444.919	232.06
445.14	463.06
445.361	312.06
445.582	212.06
445.803	196.06
446.024	191.06
446.245	205.06
446.466	195.06
446.687	185.06
446.908	212.06
447.129	208.06
447.35	199.06
447.571	204.06
447.792	185.06
448.013	185.06
448.234	179.06
448.455	194.06
448.675	185.06
448.896	200.06
449.117	186.06
449.338	180.06
449.559	199.06
449.779	191.06
450	176.06
450.221	188.06
450.442	192.06
450.662	176.06
450.883	186.06
451.104	196.06
451.324	197.06
451.545	198.06
451.766	179.06
451.986	177.06
452.207	164.06
452.428	168.06
452.648	190.06
452.869	176.06
453.089	177.06
453.31	174.06
453.53	177.06
453.751	188.06
453.971	162.06
454.192	172.06
454.412	166.06
454.633	169.06
454.853	176.06
455.073	168.06
455.294	180.06
455.514	184.06
455.734	179.06
455.955	173.06
456.175	168.06
456.395	148.06
456.616	166.06
456.836	166.06
457.056	169.06
457.276	156.06
457.497	161.06
457.717	168.06
457.937	160.06
458.157	157.06
458.377	151.06
458.598	161.06
458.818	152.06
459.038	148.06
459.258	158.06
459.478	168.06
459.698	162.06
459.918	192.06
460.138	182.06
460.358	181.06
460.578	206.06
460.798	182.06
461.018	202.06
461.238	194.06
461.458	213.06
461.678	202.06
461.898	192.06
462.118	211.06
462.338	201.06
462.558	224.06
462.777	201.06
462.997	191.06
463.217	221.06
463.437	237.06
463.657	213.06
463.876	204.06
464.096	204.06
464.316	204.06
464.536	211.06
464.755	222.06
464.975	214.06
465.195	192.06
465.414	196.06
465.634	190.06
465.854	182.06
466.073	162.06
466.293	179.06
466.512	185.06
466.732	173.06
466.951	186.06
467.171	178.06
467.391	183.06
467.61	187.06
467.829	186.06
468.049	171.06
468.268	185.06
468.488	173.06
468.707	176.06
468.927	184.06
469.146	177.06
469.365	195.06
469.585	176.06
469.804	190.06
470.023	196.06
470.243	202.06
470.462	195.06
470.681	191.06
470.901	212.06
471.12	201.06
471.339	191.06
471.558	190.06
471.777	200.06
471.997	190.06
472.216	180.06
472.435	169.06
472.654	158.06
472.873	176.06
473.092	171.06
473.311	173.06
473.53	174.06
473.749	189.06
473.968	175.06
474.187	188.06
474.406	157.06
474.625	170.06
474.844	184.06
475.063	182.06
475.282	164.06
475.501	168.06
475.72	182.06
475.939	173.06
476.158	178.06
476.377	180.06
476.596	167.06
476.814	179.06
477.033	175.06
477.252	166.06
477.471	181.06
477.69	185.06
477.908	186.06
478.127	216.06
478.346	192.06
478.564	214.06
478.783	197.06
479.002	194.06
479.22	207.06
479.439	223.06
479.658	194.06
479.876	189.06
480.095	201.06
480.313	218.06
480.532	214.06
480.751	220.06
480.969	170.06
481.188	175.06
481.406	177.06
481.624	171.06
481.843	163.06
482.061	182.06
482.28	182.06
482.498	169.06
482.717	192.06
482.935	182.06
483.153	196.06
483.372	208.06
483.59	207.06
483.808	206.06
484.027	221.06
484.245	215.06
484.463	212.06
484.681	232.06
484.9	191.06
485.118	203.06
485.336	198.06
485.554	168.06
485.772	179.06
485.99	183.06
486.209	171.06
486.427	175.06
486.645	191.06
486.863	217.06
487.081	214.06
487.299	193.06
487.517	217.06
487.735	214.06
487.953	211.06
488.171	219.06
488.389	233.06
488.607	207.06
488.825	205.06
489.043	196.06
489.261	202.06
489.479	203.06
489.696	204.06
489.914	222.06
490.132	203.06
490.35	213.06
490.568	192.06
490.786	208.06
491.003	217.06
491.221	231.06
491.439	223.06
491.657	231.06
491.874	214.06
492.092	252.06
492.31	259.06
492.527	236.06
492.745	227.06
492.963	233.06
493.18	249.06
493.398	235.06
493.615	219.06
493.833	233.06
494.05	232.06
494.268	236.06
494.485	231.06
494.703	230.06
494.92	207.06
495.138	216.06
495.355	252.06
495.573	220.06
495.79	214.06
496.008	219.06
496.225	243.06
496.442	224.06
496.66	246.06
496.877	238.06
497.094	236.06
497.312	220.06
497.529	236.06
497.746	240.06
497.963	214.06
498.181	235.06
498.398	241.06
498.615	262.06
498.832	239.06
499.049	249.06
499.267	294.06
499.484	290.06
499.701	323.06
499.918	339.06
500.135	360.06
500.352	423.06
500.569	420.06
500.786	427.06
501.003	376.06
501.22	345.06
501.437	332.06
501.654	303.06
501.871	278.06
502.088	269.06
502.305	257.06
502.522	239.06
502.739	237.06
502.956	227.06
503.172	220.06
503.389	218.06
503.606	213.06
503.823	217.06
504.04	224.06
504.256	226.06
504.473	211.06
