Data from SampD_HRD10591_00082.txt Node
Date: Mon Jan 19 11:50:43 EST 2026
User: Yrep
Spectrometer: HR+D1059
Trigger mode: 0
Integration Time (sec): 3.443000E-1
Scans to average: 1
Electric dark correction enabled: true
Nonlinearity correction enabled: false
Boxcar width: 0
XAxis mode: Wavelengths
Number of Pixels in Spectrum: 2048
>>>>>Begin Spectral Data<<<<<
223.165	-24.56
223.4	-24.56
223.635	-24.56
223.869	-27.56
224.104	-23.56
224.338	-0.56
224.573	-6.56
224.808	-10.56
225.042	-1.56
225.277	-12.56
225.511	-4.56
225.746	8.44
225.98	5.44
226.215	0.44
226.449	20.44
226.683	13.44
226.918	32.44
227.152	31.44
227.387	41.44
227.621	41.44
227.856	42.44
228.09	31.44
228.324	57.44
228.559	62.44
228.793	64.44
229.027	55.44
229.262	62.44
229.496	63.44
229.73	53.44
229.964	80.44
230.199	67.44
230.433	69.44
230.667	76.44
230.901	77.44
231.136	85.44
231.37	86.44
231.604	88.44
231.838	87.44
232.072	89.44
232.306	75.44
232.541	90.44
232.775	81.44
233.009	73.44
233.243	78.44
233.477	82.44
233.711	80.44
233.945	80.44
234.179	77.44
234.413	83.44
234.647	84.44
234.881	97.44
235.115	94.44
235.349	87.44
235.583	82.44
235.817	83.44
236.051	81.44
236.285	87.44
236.519	79.44
236.753	78.44
236.987	83.44
237.221	69.44
237.455	69.44
237.689	79.44
237.922	72.44
238.156	77.44
238.39	75.44
238.624	83.44
238.858	81.44
239.091	94.44
239.325	71.44
239.559	77.44
239.793	80.44
240.027	101.44
240.26	95.44
240.494	79.44
240.728	86.44
240.961	83.44
241.195	94.44
241.429	87.44
241.662	85.44
241.896	54.44
242.13	72.44
242.363	64.44
242.597	82.44
242.83	101.44
243.064	72.44
243.298	78.44
243.531	79.44
243.765	70.44
243.998	81.44
244.232	106.44
244.465	80.44
244.699	84.44
244.932	93.44
245.166	80.44
245.399	93.44
245.633	80.44
245.866	85.44
246.099	81.44
246.333	102.44
246.566	102.44
246.8	81.44
247.033	81.44
247.266	91.44
247.5	83.44
247.733	79.44
247.966	92.44
248.2	93.44
248.433	82.44
248.666	84.44
248.899	87.44
249.133	92.44
249.366	100.44
249.599	93.44
249.832	90.44
250.066	102.44
250.299	82.44
250.532	93.44
250.765	94.44
250.998	71.44
251.231	82.44
251.465	102.44
251.698	91.44
251.931	80.44
252.164	93.44
252.397	88.44
252.63	91.44
252.863	90.44
253.096	85.44
253.329	82.44
253.562	75.44
253.795	101.44
254.028	107.44
254.261	98.44
254.494	87.44
254.727	101.44
254.96	91.44
255.193	96.44
255.426	95.44
255.659	91.44
255.892	99.44
256.124	93.44
256.357	93.44
256.59	94.44
256.823	109.44
257.056	93.44
257.289	107.44
257.521	94.44
257.754	93.44
257.987	97.44
258.22	95.44
258.452	101.44
258.685	102.44
258.918	101.44
259.151	103.44
259.383	85.44
259.616	93.44
259.849	83.44
260.081	96.44
260.314	87.44
260.547	93.44
260.779	101.44
261.012	99.44
261.244	99.44
261.477	106.44
261.71	94.44
261.942	90.44
262.175	85.44
262.407	108.44
262.64	97.44
262.872	91.44
263.105	105.44
263.337	97.44
263.57	90.44
263.802	93.44
264.035	104.44
264.267	84.44
264.499	106.44
264.732	106.44
264.964	93.44
265.197	111.44
265.429	87.44
265.661	102.44
265.894	106.44
266.126	103.44
266.358	93.44
266.591	90.44
266.823	91.44
267.055	94.44
267.287	69.44
267.52	93.44
267.752	96.44
267.984	88.44
268.216	97.44
268.448	115.44
268.681	120.44
268.913	95.44
269.145	99.44
269.377	101.44
269.609	97.44
269.841	117.44
270.073	93.44
270.306	90.44
270.538	115.44
270.77	102.44
271.002	98.44
271.234	121.44
271.466	122.44
271.698	99.44
271.93	95.44
272.162	99.44
272.394	105.44
272.626	117.44
272.858	104.44
273.09	99.44
273.322	118.44
273.553	100.44
273.785	96.44
274.017	98.44
274.249	106.44
274.481	109.44
274.713	109.44
274.945	102.44
275.176	89.44
275.408	115.44
275.64	112.44
275.872	102.44
276.104	125.44
276.335	105.44
276.567	113.44
276.799	102.44
277.031	106.44
277.262	109.44
277.494	97.44
277.726	102.44
277.957	93.44
278.189	104.44
278.421	103.44
278.652	99.44
278.884	95.44
279.115	128.44
279.347	117.44
279.579	115.44
279.81	99.44
280.042	116.44
280.273	101.44
280.505	102.44
280.736	111.44
280.968	107.44
281.199	117.44
281.431	119.44
281.662	103.44
281.894	96.44
282.125	104.44
282.356	104.44
282.588	103.44
282.819	112.44
283.051	108.44
283.282	117.44
283.513	112.44
283.745	99.44
283.976	122.44
284.207	107.44
284.439	122.44
284.67	129.44
284.901	118.44
285.132	117.44
285.364	113.44
285.595	111.44
285.826	121.44
286.057	141.44
286.288	118.44
286.52	108.44
286.751	114.44
286.982	119.44
287.213	113.44
287.444	123.44
287.675	100.44
287.906	121.44
288.138	119.44
288.369	111.44
288.6	110.44
288.831	116.44
289.062	132.44
289.293	111.44
289.524	125.44
289.755	108.44
289.986	110.44
290.217	117.44
290.448	98.44
290.679	114.44
290.91	134.44
291.141	109.44
291.371	111.44
291.602	119.44
291.833	113.44
292.064	127.44
292.295	120.44
292.526	119.44
292.757	126.44
292.987	110.44
293.218	115.44
293.449	107.44
293.68	114.44
293.91	131.44
294.141	132.44
294.372	110.44
294.603	123.44
294.833	117.44
295.064	110.44
295.295	109.44
295.525	122.44
295.756	126.44
295.987	123.44
296.217	115.44
296.448	122.44
296.679	108.44
296.909	106.44
297.14	116.44
297.37	130.44
297.601	132.44
297.831	114.44
298.062	137.44
298.292	128.44
298.523	132.44
298.753	123.44
298.984	113.44
299.214	123.44
299.445	112.44
299.675	118.44
299.905	131.44
300.136	133.44
300.366	110.44
300.597	115.44
300.827	115.44
301.057	120.44
301.288	118.44
301.518	119.44
301.748	130.44
301.979	164.44
302.209	130.44
302.439	138.44
302.669	127.44
302.9	133.44
303.13	134.44
303.36	126.44
303.59	102.44
303.82	121.44
304.051	124.44
304.281	133.44
304.511	117.44
304.741	129.44
304.971	118.44
305.201	127.44
305.431	125.44
305.661	127.44
305.891	126.44
306.121	116.44
306.352	130.44
306.582	109.44
306.812	116.44
307.042	116.44
307.272	106.44
307.502	117.44
307.731	135.44
307.961	127.44
308.191	122.44
308.421	118.44
308.651	121.44
308.881	119.44
309.111	117.44
309.341	121.44
309.571	115.44
309.8	117.44
310.03	116.44
310.26	118.44
310.49	132.44
310.72	110.44
310.949	124.44
311.179	131.44
311.409	123.44
311.639	117.44
311.868	137.44
312.098	110.44
312.328	117.44
312.557	121.44
312.787	137.44
313.017	125.44
313.246	124.44
313.476	121.44
313.706	125.44
313.935	120.44
314.165	120.44
314.394	130.44
314.624	114.44
314.853	139.44
315.083	110.44
315.312	134.44
315.542	137.44
315.771	122.44
316.001	114.44
316.23	127.44
316.46	126.44
316.689	106.44
316.919	136.44
317.148	135.44
317.377	129.44
317.607	125.44
317.836	130.44
318.065	129.44
318.295	136.44
318.524	130.44
318.753	112.44
318.983	136.44
319.212	146.44
319.441	123.44
319.67	130.44
319.9	115.44
320.129	124.44
320.358	123.44
320.587	117.44
320.816	132.44
321.046	128.44
321.275	127.44
321.504	123.44
321.733	105.44
321.962	128.44
322.191	119.44
322.42	125.44
322.649	127.44
322.878	129.44
323.108	119.44
323.337	130.44
323.566	121.44
323.795	118.44
324.024	122.44
324.253	122.44
324.482	131.44
324.71	121.44
324.939	127.44
325.168	120.44
325.397	135.44
325.626	130.44
325.855	130.44
326.084	132.44
326.313	132.44
326.542	144.44
326.77	138.44
326.999	137.44
327.228	135.44
327.457	132.44
327.686	124.44
327.914	126.44
328.143	134.44
328.372	125.44
328.6	135.44
328.829	122.44
329.058	130.44
329.287	142.44
329.515	134.44
329.744	129.44
329.972	149.44
330.201	131.44
330.43	129.44
330.658	133.44
330.887	144.44
331.115	121.44
331.344	135.44
331.572	142.44
331.801	129.44
332.03	126.44
332.258	133.44
332.486	130.44
332.715	139.44
332.943	138.44
333.172	145.44
333.4	161.44
333.629	151.44
333.857	136.44
334.085	142.44
334.314	151.44
334.542	147.44
334.771	135.44
334.999	143.44
335.227	131.44
335.455	146.44
335.684	159.44
335.912	133.44
336.14	145.44
336.369	146.44
336.597	146.44
336.825	143.44
337.053	136.44
337.281	155.44
337.51	141.44
337.738	147.44
337.966	130.44
338.194	142.44
338.422	130.44
338.65	151.44
338.878	138.44
339.106	147.44
339.334	160.44
339.562	147.44
339.79	141.44
340.018	141.44
340.246	128.44
340.474	128.44
340.702	131.44
340.93	122.44
341.158	132.44
341.386	126.44
341.614	137.44
341.842	128.44
342.07	125.44
342.298	139.44
342.526	126.44
342.754	140.44
342.981	146.44
343.209	151.44
343.437	177.44
343.665	151.44
343.893	144.44
344.12	158.44
344.348	151.44
344.576	151.44
344.804	132.44
345.031	137.44
345.259	138.44
345.487	141.44
345.714	137.44
345.942	135.44
346.17	144.44
346.397	128.44
346.625	143.44
346.853	141.44
347.08	121.44
347.308	130.44
347.535	122.44
347.763	120.44
347.99	157.44
348.218	132.44
348.445	133.44
348.673	144.44
348.9	152.44
349.128	141.44
349.355	135.44
349.583	128.44
349.81	122.44
350.037	131.44
350.265	136.44
350.492	132.44
350.72	125.44
350.947	131.44
351.174	133.44
351.402	126.44
351.629	122.44
351.856	121.44
352.083	122.44
352.311	142.44
352.538	109.44
352.765	138.44
352.992	151.44
353.22	147.44
353.447	127.44
353.674	129.44
353.901	134.44
354.128	134.44
354.355	115.44
354.583	130.44
354.81	121.44
355.037	125.44
355.264	131.44
355.491	131.44
355.718	116.44
355.945	125.44
356.172	145.44
356.399	135.44
356.626	127.44
356.853	117.44
357.08	138.44
357.307	133.44
357.534	131.44
357.761	127.44
357.988	133.44
358.215	138.44
358.441	134.44
358.668	138.44
358.895	132.44
359.122	132.44
359.349	133.44
359.576	124.44
359.802	128.44
360.029	134.44
360.256	145.44
360.483	125.44
360.709	129.44
360.936	147.44
361.163	127.44
361.39	113.44
361.616	112.44
361.843	127.44
362.07	121.44
362.296	135.44
362.523	125.44
362.749	136.44
362.976	130.44
363.203	138.44
363.429	118.44
363.656	143.44
363.882	122.44
364.109	127.44
364.335	141.44
364.562	134.44
364.788	127.44
365.015	129.44
365.241	136.44
365.468	135.44
365.694	132.44
365.92	134.44
366.147	141.44
366.373	114.44
366.599	139.44
366.826	136.44
367.052	131.44
367.278	133.44
367.505	112.44
367.731	146.44
367.957	123.44
368.184	115.44
368.41	134.44
368.636	143.44
368.862	134.44
369.089	137.44
369.315	132.44
369.541	135.44
369.767	132.44
369.993	123.44
370.219	128.44
370.445	136.44
370.672	146.44
370.898	138.44
371.124	141.44
371.35	142.44
371.576	141.44
371.802	157.44
372.028	138.44
372.254	142.44
372.48	138.44
372.706	143.44
372.932	144.44
373.158	143.44
373.384	163.44
373.61	142.44
373.835	141.44
374.061	133.44
374.287	137.44
374.513	141.44
374.739	148.44
374.965	138.44
375.191	155.44
375.416	151.44
375.642	144.44
375.868	127.44
376.094	145.44
376.319	150.44
376.545	137.44
376.771	143.44
376.997	159.44
377.222	146.44
377.448	159.44
377.674	139.44
377.899	134.44
378.125	145.44
378.35	148.44
378.576	132.44
378.802	145.44
379.027	137.44
379.253	134.44
379.478	142.44
379.704	150.44
379.929	136.44
380.155	139.44
380.38	137.44
380.606	145.44
380.831	132.44
381.057	150.44
381.282	143.44
381.507	173.44
381.733	156.44
381.958	141.44
382.184	148.44
382.409	144.44
382.634	143.44
382.86	165.44
383.085	147.44
383.31	150.44
383.535	156.44
383.761	157.44
383.986	165.44
384.211	152.44
384.436	160.44
384.662	143.44
384.887	164.44
385.112	165.44
385.337	169.44
385.562	159.44
385.787	154.44
386.013	156.44
386.238	158.44
386.463	157.44
386.688	196.44
386.913	154.44
387.138	157.44
387.363	159.44
387.588	155.44
387.813	174.44
388.038	165.44
388.263	171.44
388.488	149.44
388.713	172.44
388.938	152.44
389.163	147.44
389.387	157.44
389.612	161.44
389.837	164.44
390.062	154.44
390.287	159.44
390.512	155.44
390.736	163.44
390.961	161.44
391.186	174.44
391.411	181.44
391.636	179.44
391.86	158.44
392.085	181.44
392.31	161.44
392.534	174.44
392.759	158.44
392.984	177.44
393.208	175.44
393.433	160.44
393.658	189.44
393.882	170.44
394.107	177.44
394.331	163.44
394.556	154.44
394.78	167.44
395.005	183.44
395.229	162.44
395.454	179.44
395.678	186.44
395.903	184.44
396.127	184.44
396.352	174.44
396.576	165.44
396.801	172.44
397.025	170.44
397.249	189.44
397.474	161.44
397.698	179.44
397.922	181.44
398.147	153.44
398.371	178.44
398.595	177.44
398.82	184.44
399.044	201.44
399.268	217.44
399.492	232.44
399.717	247.44
399.941	232.44
400.165	210.44
400.389	194.44
400.613	194.44
400.837	185.44
401.062	179.44
401.286	193.44
401.51	178.44
401.734	171.44
401.958	189.44
402.182	196.44
402.406	188.44
402.63	205.44
402.854	194.44
403.078	199.44
403.302	215.44
403.526	195.44
403.75	206.44
403.974	197.44
404.198	202.44
404.422	203.44
404.645	202.44
404.869	221.44
405.093	213.44
405.317	206.44
405.541	192.44
405.765	199.44
405.988	202.44
406.212	209.44
406.436	199.44
406.66	221.44
406.883	200.44
407.107	196.44
407.331	200.44
407.555	214.44
407.778	217.44
408.002	197.44
408.226	211.44
408.449	224.44
408.673	204.44
408.896	199.44
409.12	199.44
409.344	203.44
409.567	200.44
409.791	205.44
410.014	207.44
410.238	200.44
410.461	201.44
410.685	210.44
410.908	205.44
411.132	206.44
411.355	205.44
411.578	211.44
411.802	201.44
412.025	202.44
412.249	214.44
412.472	191.44
412.695	192.44
412.919	177.44
413.142	189.44
413.365	193.44
413.589	198.44
413.812	197.44
414.035	179.44
414.258	198.44
414.482	212.44
414.705	199.44
414.928	205.44
415.151	190.44
415.374	181.44
415.597	176.44
415.821	198.44
416.044	199.44
416.267	198.44
416.49	174.44
416.713	195.44
416.936	190.44
417.159	187.44
417.382	198.44
417.605	184.44
417.828	216.44
418.051	201.44
418.274	201.44
418.497	208.44
418.72	199.44
418.943	207.44
419.166	200.44
419.389	221.44
419.611	208.44
419.834	208.44
420.057	190.44
420.28	199.44
420.503	192.44
420.726	197.44
420.948	203.44
421.171	192.44
421.394	209.44
421.617	201.44
421.839	198.44
422.062	212.44
422.285	185.44
422.507	198.44
422.73	226.44
422.953	181.44
423.175	191.44
423.398	185.44
423.621	208.44
423.843	225.44
424.066	199.44
424.288	203.44
424.511	198.44
424.733	207.44
424.956	194.44
425.178	184.44
425.401	183.44
425.623	194.44
425.846	197.44
426.068	204.44
426.291	193.44
426.513	196.44
426.735	193.44
426.958	184.44
427.18	181.44
427.402	197.44
427.625	187.44
427.847	183.44
428.069	184.44
428.292	189.44
428.514	185.44
428.736	189.44
428.958	178.44
429.181	184.44
429.403	190.44
429.625	179.44
429.847	181.44
430.069	182.44
430.292	175.44
430.514	200.44
430.736	178.44
430.958	197.44
431.18	169.44
431.402	177.44
431.624	179.44
431.846	169.44
432.068	159.44
432.29	178.44
432.512	184.44
432.734	187.44
432.956	178.44
433.178	195.44
433.4	191.44
433.622	196.44
433.844	193.44
434.066	178.44
434.287	179.44
434.509	159.44
434.731	177.44
434.953	178.44
435.175	187.44
435.397	184.44
435.618	167.44
435.84	176.44
436.062	190.44
436.284	177.44
436.505	189.44
436.727	183.44
436.949	202.44
437.17	175.44
437.392	182.44
437.614	169.44
437.835	175.44
438.057	171.44
438.278	189.44
438.5	175.44
438.721	172.44
438.943	184.44
439.165	184.44
439.386	196.44
439.608	209.44
439.829	188.44
440.05	207.44
440.272	209.44
440.493	199.44
440.715	191.44
440.936	200.44
441.158	210.44
441.379	195.44
441.6	226.44
441.822	207.44
442.043	210.44
442.264	205.44
442.486	205.44
442.707	211.44
442.928	211.44
443.149	209.44
443.371	199.44
443.592	206.44
443.813	197.44
444.034	203.44
444.255	202.44
444.476	207.44
444.698	210.44
444.919	223.44
445.14	469.44
445.361	314.44
445.582	216.44
445.803	203.44
446.024	221.44
446.245	194.44
446.466	219.44
446.687	199.44
446.908	200.44
447.129	193.44
447.35	190.44
447.571	209.44
447.792	192.44
448.013	181.44
448.234	179.44
448.455	176.44
448.675	180.44
448.896	182.44
449.117	190.44
449.338	184.44
449.559	187.44
449.779	191.44
450	185.44
450.221	177.44
450.442	176.44
450.662	180.44
450.883	191.44
451.104	202.44
451.324	182.44
451.545	184.44
451.766	172.44
451.986	170.44
452.207	183.44
452.428	174.44
452.648	194.44
452.869	190.44
453.089	151.44
453.31	162.44
453.53	160.44
453.751	156.44
453.971	154.44
454.192	173.44
454.412	165.44
454.633	172.44
454.853	185.44
455.073	172.44
455.294	162.44
455.514	172.44
455.734	186.44
455.955	174.44
456.175	163.44
456.395	163.44
456.616	150.44
456.836	161.44
457.056	163.44
457.276	162.44
457.497	175.44
457.717	166.44
457.937	173.44
458.157	164.44
458.377	167.44
458.598	154.44
458.818	165.44
459.038	173.44
459.258	163.44
459.478	185.44
459.698	173.44
459.918	173.44
460.138	169.44
460.358	191.44
460.578	200.44
460.798	191.44
461.018	201.44
461.238	180.44
461.458	203.44
461.678	199.44
461.898	213.44
462.118	200.44
462.338	225.44
462.558	200.44
462.777	212.44
462.997	226.44
463.217	245.44
463.437	243.44
463.657	206.44
463.876	199.44
464.096	211.44
464.316	203.44
464.536	205.44
464.755	207.44
464.975	206.44
465.195	206.44
465.414	199.44
465.634	186.44
465.854	184.44
466.073	171.44
466.293	168.44
466.512	199.44
466.732	197.44
466.951	191.44
467.171	180.44
467.391	176.44
467.61	173.44
467.829	186.44
468.049	180.44
468.268	174.44
468.488	170.44
468.707	185.44
468.927	193.44
469.146	173.44
469.365	185.44
469.585	194.44
469.804	186.44
470.023	185.44
470.243	207.44
470.462	192.44
470.681	205.44
470.901	206.44
471.12	192.44
471.339	211.44
471.558	189.44
471.777	189.44
471.997	189.44
472.216	164.44
472.435	161.44
472.654	170.44
472.873	186.44
473.092	169.44
473.311	176.44
473.53	186.44
473.749	196.44
473.968	190.44
474.187	199.44
474.406	163.44
474.625	179.44
474.844	198.44
475.063	192.44
475.282	175.44
475.501	175.44
475.72	175.44
475.939	181.44
476.158	174.44
476.377	179.44
476.596	174.44
476.814	183.44
477.033	178.44
477.252	184.44
477.471	194.44
477.69	184.44
477.908	202.44
478.127	225.44
478.346	208.44
478.564	205.44
478.783	207.44
479.002	216.44
479.22	196.44
479.439	208.44
479.658	191.44
479.876	200.44
480.095	197.44
480.313	199.44
480.532	199.44
480.751	188.44
480.969	198.44
481.188	184.44
481.406	173.44
481.624	171.44
481.843	164.44
482.061	186.44
482.28	179.44
482.498	186.44
482.717	179.44
482.935	185.44
483.153	185.44
483.372	207.44
483.59	205.44
483.808	209.44
484.027	201.44
484.245	213.44
484.463	208.44
484.681	248.44
484.9	196.44
485.118	198.44
485.336	184.44
485.554	175.44
485.772	172.44
485.99	182.44
486.209	195.44
486.427	201.44
486.645	193.44
486.863	198.44
487.081	223.44
487.299	206.44
487.517	213.44
487.735	213.44
487.953	223.44
488.171	229.44
488.389	214.44
488.607	224.44
488.825	203.44
489.043	215.44
489.261	204.44
489.479	210.44
489.696	196.44
489.914	187.44
490.132	215.44
490.35	224.44
490.568	214.44
490.786	222.44
491.003	230.44
491.221	226.44
491.439	220.44
491.657	241.44
491.874	249.44
492.092	234.44
492.31	265.44
492.527	265.44
492.745	243.44
492.963	220.44
493.18	229.44
493.398	238.44
493.615	238.44
493.833	242.44
494.05	223.44
494.268	228.44
494.485	228.44
494.703	250.44
494.92	210.44
495.138	238.44
495.355	241.44
495.573	241.44
495.79	217.44
496.008	223.44
496.225	222.44
496.442	225.44
496.66	258.44
496.877	235.44
497.094	234.44
497.312	233.44
497.529	228.44
497.746	240.44
497.963	226.44
498.181	229.44
498.398	242.44
498.615	239.44
498.832	234.44
499.049	253.44
499.267	277.44
499.484	310.44
499.701	348.44
499.918	358.44
500.135	395.44
500.352	427.44
500.569	426.44
500.786	417.44
501.003	390.44
501.22	373.44
501.437	315.44
501.654	307.44
501.871	275.44
502.088	275.44
502.305	262.44
502.522	257.44
502.739	262.44
502.956	250.44
503.172	218.44
503.389	218.44
503.606	223.44
503.823	224.44
504.04	224.44
504.256	221.44
504.473	211.44
504.69	217.44
504.907	234.44
