Data from SampD_HRD10591_00063.txt Node
Date: Mon Jan 19 11:50:37 EST 2026
User: Yrep
Spectrometer: HR+D1059
Trigger mode: 0
Integration Time (sec): 3.443000E-1
Scans to average: 1
Electric dark correction enabled: true
Nonlinearity correction enabled: false
Boxcar width: 0
XAxis mode: Wavelengths
Number of Pixels in Spectrum: 2048
>>>>>Begin Spectral Data<<<<<
223.165	-32.75
223.4	-32.75
223.635	-32.75
223.869	-21.75
224.104	-28.75
224.338	-0.75
224.573	-11.75
224.808	-12.75
225.042	-14.75
225.277	-12.75
225.511	-1.75
225.746	6.25
225.98	22.25
226.215	2.25
226.449	23.25
226.683	11.25
226.918	27.25
227.152	45.25
227.387	37.25
227.621	44.25
227.856	41.25
228.09	46.25
228.324	51.25
228.559	58.25
228.793	61.25
229.027	58.25
229.262	79.25
229.496	91.25
229.73	70.25
229.964	79.25
230.199	74.25
230.433	70.25
230.667	94.25
230.901	81.25
231.136	81.25
231.37	79.25
231.604	71.25
231.838	85.25
232.072	76.25
232.306	66.25
232.541	77.25
232.775	89.25
233.009	91.25
233.243	89.25
233.477	96.25
233.711	75.25
233.945	87.25
234.179	98.25
234.413	89.25
234.647	83.25
234.881	68.25
235.115	84.25
235.349	83.25
235.583	83.25
235.817	84.25
236.051	80.25
236.285	80.25
236.519	79.25
236.753	68.25
236.987	85.25
237.221	87.25
237.455	77.25
237.689	90.25
237.922	82.25
238.156	76.25
238.39	83.25
238.624	89.25
238.858	80.25
239.091	74.25
239.325	77.25
239.559	86.25
239.793	85.25
240.027	109.25
240.26	82.25
240.494	84.25
240.728	75.25
240.961	71.25
241.195	97.25
241.429	93.25
241.662	82.25
241.896	74.25
242.13	87.25
242.363	89.25
242.597	93.25
242.83	88.25
243.064	86.25
243.298	89.25
243.531	83.25
243.765	87.25
243.998	67.25
244.232	87.25
244.465	99.25
244.699	78.25
244.932	88.25
245.166	82.25
245.399	95.25
245.633	95.25
245.866	71.25
246.099	90.25
246.333	85.25
246.566	94.25
246.8	91.25
247.033	86.25
247.266	76.25
247.5	79.25
247.733	94.25
247.966	85.25
248.2	89.25
248.433	85.25
248.666	89.25
248.899	88.25
249.133	101.25
249.366	107.25
249.599	100.25
249.832	67.25
250.066	85.25
250.299	100.25
250.532	91.25
250.765	97.25
250.998	96.25
251.231	76.25
251.465	81.25
251.698	101.25
251.931	85.25
252.164	98.25
252.397	85.25
252.63	93.25
252.863	99.25
253.096	96.25
253.329	106.25
253.562	103.25
253.795	83.25
254.028	116.25
254.261	99.25
254.494	84.25
254.727	96.25
254.96	88.25
255.193	80.25
255.426	102.25
255.659	96.25
255.892	104.25
256.124	99.25
256.357	87.25
256.59	92.25
256.823	81.25
257.056	91.25
257.289	84.25
257.521	95.25
257.754	81.25
257.987	96.25
258.22	95.25
258.452	79.25
258.685	92.25
258.918	87.25
259.151	87.25
259.383	118.25
259.616	81.25
259.849	84.25
260.081	106.25
260.314	102.25
260.547	88.25
260.779	96.25
261.012	87.25
261.244	92.25
261.477	100.25
261.71	101.25
261.942	87.25
262.175	97.25
262.407	89.25
262.64	107.25
262.872	91.25
263.105	88.25
263.337	108.25
263.57	98.25
263.802	85.25
264.035	92.25
264.267	99.25
264.499	97.25
264.732	98.25
264.964	97.25
265.197	93.25
265.429	96.25
265.661	101.25
265.894	107.25
266.126	98.25
266.358	105.25
266.591	88.25
266.823	85.25
267.055	99.25
267.287	102.25
267.52	101.25
267.752	113.25
267.984	98.25
268.216	97.25
268.448	104.25
268.681	101.25
268.913	111.25
269.145	106.25
269.377	101.25
269.609	101.25
269.841	100.25
270.073	101.25
270.306	101.25
270.538	99.25
270.77	98.25
271.002	104.25
271.234	97.25
271.466	108.25
271.698	108.25
271.93	115.25
272.162	110.25
272.394	97.25
272.626	107.25
272.858	87.25
273.09	102.25
273.322	101.25
273.553	103.25
273.785	118.25
274.017	107.25
274.249	94.25
274.481	91.25
274.713	104.25
274.945	100.25
275.176	110.25
275.408	121.25
275.64	99.25
275.872	100.25
276.104	92.25
276.335	103.25
276.567	105.25
276.799	96.25
277.031	99.25
277.262	120.25
277.494	106.25
277.726	111.25
277.957	112.25
278.189	104.25
278.421	116.25
278.652	97.25
278.884	97.25
279.115	109.25
279.347	114.25
279.579	121.25
279.81	122.25
280.042	101.25
280.273	105.25
280.505	93.25
280.736	106.25
280.968	101.25
281.199	116.25
281.431	114.25
281.662	106.25
281.894	109.25
282.125	107.25
282.356	110.25
282.588	111.25
282.819	117.25
283.051	120.25
283.282	103.25
283.513	116.25
283.745	106.25
283.976	105.25
284.207	106.25
284.439	115.25
284.67	128.25
284.901	113.25
285.132	109.25
285.364	119.25
285.595	122.25
285.826	106.25
286.057	145.25
286.288	107.25
286.52	106.25
286.751	108.25
286.982	120.25
287.213	87.25
287.444	104.25
287.675	121.25
287.906	123.25
288.138	122.25
288.369	121.25
288.6	119.25
288.831	119.25
289.062	109.25
289.293	111.25
289.524	108.25
289.755	114.25
289.986	117.25
290.217	115.25
290.448	83.25
290.679	127.25
290.91	134.25
291.141	113.25
291.371	119.25
291.602	126.25
291.833	126.25
292.064	116.25
292.295	111.25
292.526	128.25
292.757	116.25
292.987	111.25
293.218	114.25
293.449	108.25
293.68	127.25
293.91	125.25
294.141	124.25
294.372	116.25
294.603	125.25
294.833	123.25
295.064	110.25
295.295	111.25
295.525	112.25
295.756	129.25
295.987	141.25
296.217	142.25
296.448	128.25
296.679	122.25
296.909	113.25
297.14	123.25
297.37	129.25
297.601	124.25
297.831	116.25
298.062	120.25
298.292	114.25
298.523	116.25
298.753	113.25
298.984	119.25
299.214	123.25
299.445	113.25
299.675	123.25
299.905	117.25
300.136	135.25
300.366	108.25
300.597	119.25
300.827	107.25
301.057	105.25
301.288	128.25
301.518	131.25
301.748	108.25
301.979	155.25
302.209	122.25
302.439	121.25
302.669	125.25
302.9	127.25
303.13	126.25
303.36	118.25
303.59	120.25
303.82	119.25
304.051	135.25
304.281	129.25
304.511	122.25
304.741	120.25
304.971	125.25
305.201	150.25
305.431	131.25
305.661	116.25
305.891	123.25
306.121	110.25
306.352	128.25
306.582	121.25
306.812	136.25
307.042	123.25
307.272	119.25
307.502	117.25
307.731	138.25
307.961	130.25
308.191	118.25
308.421	127.25
308.651	112.25
308.881	122.25
309.111	130.25
309.341	110.25
309.571	106.25
309.8	118.25
310.03	123.25
310.26	115.25
310.49	122.25
310.72	109.25
310.949	121.25
311.179	132.25
311.409	120.25
311.639	116.25
311.868	124.25
312.098	140.25
312.328	123.25
312.557	116.25
312.787	144.25
313.017	131.25
313.246	132.25
313.476	133.25
313.706	101.25
313.935	129.25
314.165	121.25
314.394	117.25
314.624	131.25
314.853	132.25
315.083	137.25
315.312	128.25
315.542	124.25
315.771	125.25
316.001	137.25
316.23	136.25
316.46	121.25
316.689	120.25
316.919	117.25
317.148	131.25
317.377	119.25
317.607	140.25
317.836	106.25
318.065	112.25
318.295	135.25
318.524	142.25
318.753	113.25
318.983	131.25
319.212	118.25
319.441	113.25
319.67	112.25
319.9	122.25
320.129	128.25
320.358	120.25
320.587	117.25
320.816	127.25
321.046	127.25
321.275	114.25
321.504	115.25
321.733	143.25
321.962	126.25
322.191	133.25
322.42	120.25
322.649	130.25
322.878	121.25
323.108	129.25
323.337	116.25
323.566	131.25
323.795	132.25
324.024	141.25
324.253	122.25
324.482	126.25
324.71	109.25
324.939	138.25
325.168	147.25
325.397	140.25
325.626	129.25
325.855	145.25
326.084	123.25
326.313	130.25
326.542	126.25
326.77	148.25
326.999	115.25
327.228	131.25
327.457	145.25
327.686	139.25
327.914	137.25
328.143	145.25
328.372	133.25
328.6	135.25
328.829	129.25
329.058	126.25
329.287	134.25
329.515	138.25
329.744	142.25
329.972	119.25
330.201	127.25
330.43	141.25
330.658	138.25
330.887	131.25
331.115	131.25
331.344	140.25
331.572	148.25
331.801	122.25
332.03	133.25
332.258	130.25
332.486	124.25
332.715	132.25
332.943	151.25
333.172	161.25
333.4	149.25
333.629	155.25
333.857	142.25
334.085	159.25
334.314	157.25
334.542	145.25
334.771	160.25
334.999	148.25
335.227	130.25
335.455	144.25
335.684	140.25
335.912	136.25
336.14	133.25
336.369	138.25
336.597	138.25
336.825	155.25
337.053	137.25
337.281	132.25
337.51	132.25
337.738	163.25
337.966	132.25
338.194	139.25
338.422	126.25
338.65	144.25
338.878	135.25
339.106	136.25
339.334	156.25
339.562	114.25
339.79	128.25
340.018	134.25
340.246	136.25
340.474	124.25
340.702	136.25
340.93	123.25
341.158	125.25
341.386	144.25
341.614	132.25
341.842	129.25
342.07	132.25
342.298	119.25
342.526	119.25
342.754	144.25
342.981	134.25
343.209	155.25
343.437	177.25
343.665	123.25
343.893	150.25
344.12	148.25
344.348	144.25
344.576	145.25
344.804	125.25
345.031	129.25
345.259	113.25
345.487	146.25
345.714	125.25
345.942	138.25
346.17	131.25
346.397	121.25
346.625	117.25
346.853	128.25
347.08	123.25
347.308	148.25
347.535	136.25
347.763	125.25
347.99	140.25
348.218	129.25
348.445	138.25
348.673	137.25
348.9	143.25
349.128	140.25
349.355	142.25
349.583	145.25
349.81	139.25
350.037	131.25
350.265	118.25
350.492	128.25
350.72	132.25
350.947	125.25
351.174	128.25
351.402	122.25
351.629	131.25
351.856	129.25
352.083	120.25
352.311	144.25
352.538	136.25
352.765	143.25
352.992	141.25
353.22	136.25
353.447	131.25
353.674	121.25
353.901	142.25
354.128	131.25
354.355	121.25
354.583	125.25
354.81	138.25
355.037	149.25
355.264	135.25
355.491	138.25
355.718	148.25
355.945	138.25
356.172	139.25
356.399	131.25
356.626	124.25
356.853	121.25
357.08	136.25
357.307	126.25
357.534	127.25
357.761	133.25
357.988	131.25
358.215	130.25
358.441	126.25
358.668	146.25
358.895	148.25
359.122	132.25
359.349	123.25
359.576	123.25
359.802	140.25
360.029	131.25
360.256	138.25
360.483	131.25
360.709	127.25
360.936	144.25
361.163	139.25
361.39	131.25
361.616	126.25
361.843	131.25
362.07	135.25
362.296	127.25
362.523	122.25
362.749	148.25
362.976	130.25
363.203	132.25
363.429	126.25
363.656	129.25
363.882	126.25
364.109	139.25
364.335	132.25
364.562	133.25
364.788	121.25
365.015	154.25
365.241	130.25
365.468	120.25
365.694	120.25
365.92	121.25
366.147	123.25
366.373	116.25
366.599	120.25
366.826	125.25
367.052	138.25
367.278	135.25
367.505	122.25
367.731	146.25
367.957	131.25
368.184	147.25
368.41	133.25
368.636	147.25
368.862	149.25
369.089	134.25
369.315	140.25
369.541	143.25
369.767	137.25
369.993	129.25
370.219	134.25
370.445	127.25
370.672	145.25
370.898	149.25
371.124	131.25
371.35	136.25
371.576	122.25
371.802	128.25
372.028	136.25
372.254	138.25
372.48	136.25
372.706	144.25
372.932	144.25
373.158	124.25
373.384	140.25
373.61	140.25
373.835	138.25
374.061	138.25
374.287	124.25
374.513	137.25
374.739	128.25
374.965	166.25
375.191	147.25
375.416	159.25
375.642	147.25
375.868	145.25
376.094	139.25
376.319	149.25
376.545	131.25
376.771	142.25
376.997	153.25
377.222	138.25
377.448	147.25
377.674	132.25
377.899	153.25
378.125	153.25
378.35	134.25
378.576	152.25
378.802	140.25
379.027	123.25
379.253	154.25
379.478	153.25
379.704	145.25
379.929	144.25
380.155	124.25
380.38	129.25
380.606	142.25
380.831	143.25
381.057	144.25
381.282	152.25
381.507	137.25
381.733	139.25
381.958	140.25
382.184	128.25
382.409	147.25
382.634	151.25
382.86	149.25
383.085	149.25
383.31	141.25
383.535	147.25
383.761	145.25
383.986	147.25
384.211	141.25
384.436	153.25
384.662	156.25
384.887	153.25
385.112	153.25
385.337	173.25
385.562	156.25
385.787	155.25
386.013	144.25
386.238	165.25
386.463	151.25
386.688	210.25
386.913	162.25
387.138	163.25
387.363	161.25
387.588	177.25
387.813	184.25
388.038	141.25
388.263	163.25
388.488	169.25
388.713	164.25
388.938	153.25
389.163	153.25
389.387	164.25
389.612	145.25
389.837	150.25
390.062	159.25
390.287	151.25
390.512	147.25
390.736	165.25
390.961	170.25
391.186	154.25
391.411	163.25
391.636	179.25
391.86	177.25
392.085	182.25
392.31	181.25
392.534	149.25
392.759	177.25
392.984	174.25
393.208	164.25
393.433	154.25
393.658	173.25
393.882	165.25
394.107	170.25
394.331	185.25
394.556	167.25
394.78	153.25
395.005	186.25
395.229	164.25
395.454	189.25
395.678	157.25
395.903	186.25
396.127	183.25
396.352	184.25
396.576	156.25
396.801	164.25
397.025	163.25
397.249	177.25
397.474	179.25
397.698	184.25
397.922	189.25
398.147	176.25
398.371	183.25
398.595	183.25
398.82	181.25
399.044	214.25
399.268	204.25
399.492	231.25
399.717	244.25
399.941	211.25
400.165	212.25
400.389	188.25
400.613	192.25
400.837	195.25
401.062	190.25
401.286	191.25
401.51	191.25
401.734	178.25
401.958	180.25
402.182	198.25
402.406	212.25
402.63	186.25
402.854	176.25
403.078	215.25
403.302	197.25
403.526	191.25
403.75	204.25
403.974	215.25
404.198	213.25
404.422	206.25
404.645	204.25
404.869	191.25
405.093	207.25
405.317	201.25
405.541	187.25
405.765	203.25
405.988	184.25
406.212	199.25
406.436	187.25
406.66	208.25
406.883	219.25
407.107	209.25
407.331	205.25
407.555	216.25
407.778	225.25
408.002	233.25
408.226	196.25
408.449	201.25
408.673	205.25
408.896	209.25
409.12	204.25
409.344	205.25
409.567	207.25
409.791	204.25
410.014	224.25
410.238	210.25
410.461	198.25
410.685	211.25
410.908	201.25
411.132	208.25
411.355	171.25
411.578	205.25
411.802	193.25
412.025	200.25
412.249	187.25
412.472	191.25
412.695	194.25
412.919	185.25
413.142	188.25
413.365	204.25
413.589	188.25
413.812	199.25
414.035	199.25
414.258	187.25
414.482	178.25
414.705	175.25
414.928	185.25
415.151	178.25
415.374	199.25
415.597	197.25
415.821	196.25
416.044	204.25
416.267	196.25
416.49	188.25
416.713	183.25
416.936	207.25
417.159	195.25
417.382	206.25
417.605	174.25
417.828	204.25
418.051	198.25
418.274	200.25
418.497	193.25
418.72	198.25
418.943	205.25
419.166	204.25
419.389	195.25
419.611	196.25
419.834	188.25
420.057	177.25
420.28	190.25
420.503	201.25
420.726	196.25
420.948	200.25
421.171	213.25
421.394	212.25
421.617	208.25
421.839	201.25
422.062	189.25
422.285	197.25
422.507	194.25
422.73	202.25
422.953	187.25
423.175	199.25
423.398	203.25
423.621	203.25
423.843	195.25
424.066	205.25
424.288	200.25
424.511	191.25
424.733	207.25
424.956	187.25
425.178	211.25
425.401	192.25
425.623	197.25
425.846	193.25
426.068	186.25
426.291	198.25
426.513	194.25
426.735	199.25
426.958	181.25
427.18	180.25
427.402	190.25
427.625	197.25
427.847	183.25
428.069	173.25
428.292	191.25
428.514	186.25
428.736	161.25
428.958	187.25
429.181	189.25
429.403	196.25
429.625	177.25
429.847	168.25
430.069	185.25
430.292	198.25
430.514	168.25
430.736	181.25
430.958	181.25
431.18	166.25
431.402	173.25
431.624	179.25
431.846	164.25
432.068	169.25
432.29	180.25
432.512	197.25
432.734	188.25
432.956	189.25
433.178	189.25
433.4	181.25
433.622	204.25
433.844	180.25
434.066	182.25
434.287	160.25
434.509	180.25
434.731	178.25
434.953	187.25
435.175	178.25
435.397	177.25
435.618	191.25
435.84	174.25
436.062	172.25
436.284	179.25
436.505	177.25
436.727	172.25
436.949	181.25
437.17	181.25
437.392	162.25
437.614	176.25
437.835	160.25
438.057	158.25
438.278	168.25
438.5	162.25
438.721	187.25
438.943	181.25
439.165	193.25
439.386	164.25
439.608	188.25
439.829	186.25
440.05	185.25
440.272	191.25
440.493	189.25
440.715	185.25
440.936	187.25
441.158	196.25
441.379	194.25
441.6	208.25
441.822	202.25
442.043	206.25
442.264	201.25
442.486	204.25
442.707	181.25
442.928	204.25
443.149	204.25
443.371	212.25
443.592	209.25
443.813	204.25
444.034	211.25
444.255	228.25
444.476	219.25
444.698	215.25
444.919	223.25
445.14	452.25
445.361	324.25
445.582	209.25
445.803	195.25
446.024	185.25
446.245	199.25
446.466	193.25
446.687	199.25
446.908	200.25
447.129	194.25
447.35	195.25
447.571	204.25
447.792	182.25
448.013	188.25
448.234	189.25
448.455	184.25
448.675	172.25
448.896	198.25
449.117	202.25
449.338	179.25
449.559	193.25
449.779	182.25
450	173.25
450.221	196.25
450.442	180.25
450.662	174.25
450.883	171.25
451.104	191.25
451.324	193.25
451.545	178.25
451.766	190.25
451.986	172.25
452.207	184.25
452.428	186.25
452.648	188.25
452.869	192.25
453.089	169.25
453.31	168.25
453.53	156.25
453.751	163.25
453.971	171.25
454.192	176.25
454.412	153.25
454.633	169.25
454.853	181.25
455.073	165.25
455.294	168.25
455.514	179.25
455.734	169.25
455.955	167.25
456.175	161.25
456.395	167.25
456.616	151.25
456.836	167.25
457.056	153.25
457.276	157.25
457.497	146.25
457.717	148.25
457.937	166.25
458.157	181.25
458.377	164.25
458.598	169.25
458.818	156.25
459.038	157.25
459.258	158.25
459.478	178.25
459.698	168.25
459.918	179.25
460.138	189.25
460.358	184.25
460.578	183.25
460.798	192.25
461.018	213.25
461.238	181.25
461.458	209.25
461.678	201.25
461.898	230.25
462.118	193.25
462.338	225.25
462.558	226.25
462.777	208.25
462.997	228.25
463.217	223.25
463.437	242.25
463.657	203.25
463.876	204.25
464.096	217.25
464.316	213.25
464.536	195.25
464.755	202.25
464.975	208.25
465.195	209.25
465.414	191.25
465.634	178.25
465.854	179.25
466.073	181.25
466.293	198.25
466.512	187.25
466.732	187.25
466.951	184.25
467.171	181.25
467.391	177.25
467.61	178.25
467.829	184.25
468.049	164.25
468.268	189.25
468.488	173.25
468.707	187.25
468.927	184.25
469.146	184.25
469.365	202.25
469.585	186.25
469.804	189.25
470.023	189.25
470.243	196.25
470.462	204.25
470.681	183.25
470.901	187.25
471.12	191.25
471.339	189.25
471.558	182.25
471.777	175.25
471.997	186.25
472.216	188.25
472.435	168.25
472.654	161.25
472.873	165.25
473.092	166.25
473.311	177.25
473.53	173.25
473.749	178.25
473.968	179.25
474.187	179.25
474.406	168.25
474.625	177.25
474.844	187.25
475.063	175.25
475.282	181.25
475.501	168.25
475.72	206.25
475.939	168.25
476.158	166.25
476.377	173.25
476.596	157.25
476.814	159.25
477.033	167.25
477.252	182.25
477.471	185.25
477.69	189.25
477.908	185.25
478.127	207.25
478.346	200.25
478.564	198.25
478.783	201.25
479.002	197.25
479.22	187.25
479.439	207.25
479.658	192.25
479.876	203.25
480.095	200.25
480.313	207.25
480.532	190.25
480.751	199.25
480.969	180.25
481.188	184.25
481.406	177.25
481.624	160.25
481.843	171.25
482.061	176.25
482.28	173.25
482.498	189.25
482.717	181.25
482.935	190.25
483.153	200.25
483.372	204.25
483.59	188.25
483.808	186.25
484.027	199.25
484.245	200.25
484.463	187.25
484.681	213.25
484.9	217.25
485.118	218.25
485.336	182.25
485.554	185.25
485.772	181.25
485.99	194.25
486.209	192.25
486.427	177.25
486.645	196.25
486.863	203.25
487.081	207.25
487.299	210.25
487.517	204.25
487.735	227.25
487.953	232.25
488.171	230.25
488.389	224.25
488.607	195.25
488.825	181.25
489.043	195.25
489.261	207.25
489.479	188.25
489.696	196.25
489.914	219.25
490.132	201.25
490.35	208.25
490.568	211.25
490.786	201.25
491.003	215.25
491.221	202.25
491.439	237.25
491.657	229.25
491.874	246.25
492.092	266.25
492.31	248.25
492.527	247.25
492.745	213.25
492.963	243.25
493.18	239.25
493.398	241.25
493.615	235.25
493.833	229.25
494.05	223.25
494.268	208.25
494.485	233.25
494.703	225.25
494.92	241.25
495.138	228.25
495.355	235.25
495.573	222.25
495.79	215.25
496.008	241.25
496.225	213.25
496.442	209.25
496.66	240.25
496.877	240.25
497.094	238.25
497.312	226.25
497.529	223.25
497.746	219.25
497.963	217.25
498.181	218.25
498.398	221.25
498.615	229.25
498.832	235.25
499.049	262.25
499.267	276.25
499.484	289.25
499.701	321.25
499.918	348.25
500.135	362.25
500.352	417.25
500.569	423.25
500.786	430.25
501.003	376.25
501.22	354.25
501.437	311.25
501.654	283.25
501.871	261.25
502.088	256.25
502.305	243.25
502.522	243.25
502.739	249.25
502.956	228.25
503.172	225.25
503.389	217.25
503.606	215.25
503.823	217.25
504.04	223.25
504.256	232.25
504.473	213.25
504.69	211.25
504.907	227.25
