Data from SampD_HRD10591_00033.txt Node
Date: Mon Jan 19 11:50:26 EST 2026
User: Yrep
Spectrometer: HR+D1059
Trigger mode: 0
Integration Time (sec): 3.443000E-1
Scans to average: 1
Electric dark correction enabled: true
Nonlinearity correction enabled: false
Boxcar width: 0
XAxis mode: Wavelengths
Number of Pixels in Spectrum: 2048
>>>>>Begin Spectral Data<<<<<
223.165	-42.88
223.4	-42.88
223.635	-42.88
223.869	-26.88
224.104	-23.88
224.338	-12.88
224.573	-26.88
224.808	-24.88
225.042	1.12
225.277	-8.88
225.511	-4.88
225.746	11.12
225.98	14.12
226.215	19.12
226.449	18.12
226.683	24.12
226.918	42.12
227.152	42.12
227.387	34.12
227.621	34.12
227.856	52.12
228.09	30.12
228.324	43.12
228.559	65.12
228.793	67.12
229.027	63.12
229.262	66.12
229.496	69.12
229.73	72.12
229.964	74.12
230.199	73.12
230.433	62.12
230.667	66.12
230.901	63.12
231.136	74.12
231.37	82.12
231.604	81.12
231.838	85.12
232.072	71.12
232.306	72.12
232.541	85.12
232.775	73.12
233.009	81.12
233.243	72.12
233.477	80.12
233.711	82.12
233.945	81.12
234.179	77.12
234.413	71.12
234.647	90.12
234.881	85.12
235.115	85.12
235.349	78.12
235.583	86.12
235.817	72.12
236.051	86.12
236.285	91.12
236.519	71.12
236.753	88.12
236.987	70.12
237.221	74.12
237.455	83.12
237.689	73.12
237.922	67.12
238.156	82.12
238.39	69.12
238.624	70.12
238.858	73.12
239.091	94.12
239.325	66.12
239.559	81.12
239.793	75.12
240.027	99.12
240.26	85.12
240.494	67.12
240.728	74.12
240.961	85.12
241.195	111.12
241.429	80.12
241.662	69.12
241.896	77.12
242.13	67.12
242.363	79.12
242.597	65.12
242.83	80.12
243.064	78.12
243.298	85.12
243.531	67.12
243.765	67.12
243.998	77.12
244.232	89.12
244.465	78.12
244.699	90.12
244.932	86.12
245.166	82.12
245.399	85.12
245.633	83.12
245.866	100.12
246.099	83.12
246.333	81.12
246.566	85.12
246.8	81.12
247.033	78.12
247.266	86.12
247.5	84.12
247.733	79.12
247.966	74.12
248.2	93.12
248.433	74.12
248.666	77.12
248.899	73.12
249.133	61.12
249.366	81.12
249.599	82.12
249.832	102.12
250.066	104.12
250.299	82.12
250.532	75.12
250.765	94.12
250.998	73.12
251.231	83.12
251.465	77.12
251.698	96.12
251.931	87.12
252.164	74.12
252.397	81.12
252.63	81.12
252.863	82.12
253.096	79.12
253.329	80.12
253.562	90.12
253.795	84.12
254.028	82.12
254.261	87.12
254.494	85.12
254.727	85.12
254.96	76.12
255.193	79.12
255.426	81.12
255.659	96.12
255.892	82.12
256.124	80.12
256.357	73.12
256.59	97.12
256.823	74.12
257.056	93.12
257.289	81.12
257.521	81.12
257.754	87.12
257.987	90.12
258.22	89.12
258.452	106.12
258.685	91.12
258.918	89.12
259.151	84.12
259.383	95.12
259.616	94.12
259.849	95.12
260.081	94.12
260.314	95.12
260.547	82.12
260.779	95.12
261.012	95.12
261.244	88.12
261.477	102.12
261.71	87.12
261.942	93.12
262.175	98.12
262.407	76.12
262.64	85.12
262.872	105.12
263.105	94.12
263.337	89.12
263.57	96.12
263.802	77.12
264.035	95.12
264.267	81.12
264.499	95.12
264.732	97.12
264.964	89.12
265.197	83.12
265.429	93.12
265.661	99.12
265.894	93.12
266.126	98.12
266.358	89.12
266.591	94.12
266.823	97.12
267.055	98.12
267.287	89.12
267.52	73.12
267.752	88.12
267.984	87.12
268.216	84.12
268.448	96.12
268.681	93.12
268.913	90.12
269.145	96.12
269.377	100.12
269.609	95.12
269.841	97.12
270.073	95.12
270.306	90.12
270.538	83.12
270.77	106.12
271.002	83.12
271.234	98.12
271.466	105.12
271.698	83.12
271.93	91.12
272.162	93.12
272.394	113.12
272.626	97.12
272.858	94.12
273.09	105.12
273.322	100.12
273.553	98.12
273.785	109.12
274.017	81.12
274.249	102.12
274.481	93.12
274.713	90.12
274.945	109.12
275.176	102.12
275.408	93.12
275.64	98.12
275.872	83.12
276.104	91.12
276.335	106.12
276.567	91.12
276.799	93.12
277.031	91.12
277.262	92.12
277.494	104.12
277.726	95.12
277.957	92.12
278.189	87.12
278.421	86.12
278.652	82.12
278.884	88.12
279.115	91.12
279.347	106.12
279.579	93.12
279.81	96.12
280.042	90.12
280.273	88.12
280.505	85.12
280.736	98.12
280.968	100.12
281.199	103.12
281.431	94.12
281.662	106.12
281.894	104.12
282.125	102.12
282.356	101.12
282.588	89.12
282.819	99.12
283.051	101.12
283.282	99.12
283.513	101.12
283.745	87.12
283.976	94.12
284.207	95.12
284.439	94.12
284.67	92.12
284.901	91.12
285.132	102.12
285.364	89.12
285.595	99.12
285.826	94.12
286.057	93.12
286.288	95.12
286.52	96.12
286.751	105.12
286.982	93.12
287.213	94.12
287.444	113.12
287.675	95.12
287.906	106.12
288.138	102.12
288.369	95.12
288.6	99.12
288.831	99.12
289.062	108.12
289.293	95.12
289.524	87.12
289.755	101.12
289.986	104.12
290.217	107.12
290.448	99.12
290.679	104.12
290.91	113.12
291.141	102.12
291.371	111.12
291.602	106.12
291.833	93.12
292.064	98.12
292.295	84.12
292.526	94.12
292.757	98.12
292.987	84.12
293.218	90.12
293.449	94.12
293.68	104.12
293.91	93.12
294.141	123.12
294.372	91.12
294.603	85.12
294.833	110.12
295.064	93.12
295.295	91.12
295.525	87.12
295.756	100.12
295.987	89.12
296.217	92.12
296.448	101.12
296.679	108.12
296.909	97.12
297.14	93.12
297.37	110.12
297.601	83.12
297.831	110.12
298.062	101.12
298.292	79.12
298.523	109.12
298.753	103.12
298.984	106.12
299.214	90.12
299.445	90.12
299.675	100.12
299.905	106.12
300.136	109.12
300.366	87.12
300.597	110.12
300.827	105.12
301.057	109.12
301.288	88.12
301.518	105.12
301.748	105.12
301.979	134.12
302.209	91.12
302.439	109.12
302.669	107.12
302.9	87.12
303.13	103.12
303.36	91.12
303.59	98.12
303.82	101.12
304.051	91.12
304.281	103.12
304.511	118.12
304.741	106.12
304.971	86.12
305.201	103.12
305.431	101.12
305.661	101.12
305.891	112.12
306.121	113.12
306.352	114.12
306.582	101.12
306.812	97.12
307.042	89.12
307.272	90.12
307.502	110.12
307.731	115.12
307.961	107.12
308.191	101.12
308.421	105.12
308.651	97.12
308.881	105.12
309.111	94.12
309.341	107.12
309.571	105.12
309.8	106.12
310.03	105.12
310.26	99.12
310.49	108.12
310.72	109.12
310.949	105.12
311.179	106.12
311.409	111.12
311.639	95.12
311.868	112.12
312.098	99.12
312.328	97.12
312.557	118.12
312.787	89.12
313.017	99.12
313.246	103.12
313.476	103.12
313.706	106.12
313.935	100.12
314.165	91.12
314.394	97.12
314.624	114.12
314.853	101.12
315.083	96.12
315.312	95.12
315.542	94.12
315.771	96.12
316.001	105.12
316.23	93.12
316.46	81.12
316.689	103.12
316.919	105.12
317.148	103.12
317.377	118.12
317.607	118.12
317.836	98.12
318.065	101.12
318.295	88.12
318.524	103.12
318.753	106.12
318.983	100.12
319.212	99.12
319.441	104.12
319.67	109.12
319.9	94.12
320.129	110.12
320.358	106.12
320.587	102.12
320.816	99.12
321.046	101.12
321.275	114.12
321.504	104.12
321.733	94.12
321.962	91.12
322.191	118.12
322.42	100.12
322.649	110.12
322.878	104.12
323.108	110.12
323.337	102.12
323.566	111.12
323.795	106.12
324.024	106.12
324.253	102.12
324.482	103.12
324.71	105.12
324.939	118.12
325.168	94.12
325.397	106.12
325.626	85.12
325.855	114.12
326.084	106.12
326.313	119.12
326.542	98.12
326.77	93.12
326.999	119.12
327.228	102.12
327.457	112.12
327.686	95.12
327.914	105.12
328.143	117.12
328.372	100.12
328.6	106.12
328.829	104.12
329.058	94.12
329.287	103.12
329.515	101.12
329.744	116.12
329.972	111.12
330.201	90.12
330.43	103.12
330.658	95.12
330.887	120.12
331.115	113.12
331.344	98.12
331.572	120.12
331.801	110.12
332.03	113.12
332.258	115.12
332.486	104.12
332.715	107.12
332.943	110.12
333.172	131.12
333.4	106.12
333.629	122.12
333.857	119.12
334.085	130.12
334.314	124.12
334.542	111.12
334.771	102.12
334.999	105.12
335.227	118.12
335.455	122.12
335.684	123.12
335.912	106.12
336.14	120.12
336.369	120.12
336.597	118.12
336.825	107.12
337.053	112.12
337.281	107.12
337.51	101.12
337.738	126.12
337.966	107.12
338.194	97.12
338.422	103.12
338.65	112.12
338.878	118.12
339.106	110.12
339.334	116.12
339.562	112.12
339.79	114.12
340.018	111.12
340.246	105.12
340.474	104.12
340.702	116.12
340.93	110.12
341.158	94.12
341.386	96.12
341.614	106.12
341.842	111.12
342.07	102.12
342.298	117.12
342.526	109.12
342.754	99.12
342.981	118.12
343.209	116.12
343.437	142.12
343.665	102.12
343.893	110.12
344.12	120.12
344.348	113.12
344.576	104.12
344.804	114.12
345.031	100.12
345.259	104.12
345.487	102.12
345.714	103.12
345.942	106.12
346.17	96.12
346.397	111.12
346.625	95.12
346.853	90.12
347.08	97.12
347.308	87.12
347.535	108.12
347.763	109.12
347.99	120.12
348.218	119.12
348.445	96.12
348.673	111.12
348.9	119.12
349.128	119.12
349.355	102.12
349.583	111.12
349.81	107.12
350.037	104.12
350.265	100.12
350.492	109.12
350.72	91.12
350.947	100.12
351.174	114.12
351.402	94.12
351.629	95.12
351.856	110.12
352.083	112.12
352.311	106.12
352.538	101.12
352.765	105.12
352.992	125.12
353.22	95.12
353.447	100.12
353.674	107.12
353.901	121.12
354.128	127.12
354.355	107.12
354.583	101.12
354.81	116.12
355.037	112.12
355.264	110.12
355.491	113.12
355.718	104.12
355.945	116.12
356.172	93.12
356.399	96.12
356.626	107.12
356.853	107.12
357.08	95.12
357.307	99.12
357.534	83.12
357.761	107.12
357.988	107.12
358.215	119.12
358.441	112.12
358.668	96.12
358.895	93.12
359.122	103.12
359.349	88.12
359.576	99.12
359.802	115.12
360.029	112.12
360.256	115.12
360.483	101.12
360.709	115.12
360.936	112.12
361.163	98.12
361.39	108.12
361.616	105.12
361.843	99.12
362.07	117.12
362.296	97.12
362.523	107.12
362.749	104.12
362.976	85.12
363.203	100.12
363.429	113.12
363.656	116.12
363.882	106.12
364.109	125.12
364.335	126.12
364.562	97.12
364.788	106.12
365.015	122.12
365.241	117.12
365.468	110.12
365.694	103.12
365.92	110.12
366.147	100.12
366.373	101.12
366.599	103.12
366.826	114.12
367.052	107.12
367.278	108.12
367.505	96.12
367.731	125.12
367.957	107.12
368.184	114.12
368.41	114.12
368.636	100.12
368.862	102.12
369.089	106.12
369.315	110.12
369.541	124.12
369.767	115.12
369.993	109.12
370.219	105.12
370.445	95.12
370.672	104.12
370.898	103.12
371.124	109.12
371.35	106.12
371.576	108.12
371.802	97.12
372.028	102.12
372.254	105.12
372.48	103.12
372.706	115.12
372.932	108.12
373.158	118.12
373.384	121.12
373.61	105.12
373.835	124.12
374.061	106.12
374.287	124.12
374.513	136.12
374.739	115.12
374.965	110.12
375.191	110.12
375.416	98.12
375.642	125.12
375.868	125.12
376.094	106.12
376.319	95.12
376.545	116.12
376.771	119.12
376.997	99.12
377.222	125.12
377.448	107.12
377.674	110.12
377.899	98.12
378.125	121.12
378.35	110.12
378.576	109.12
378.802	119.12
379.027	106.12
379.253	112.12
379.478	110.12
379.704	111.12
379.929	110.12
380.155	94.12
380.38	99.12
380.606	110.12
380.831	98.12
381.057	115.12
381.282	106.12
381.507	103.12
381.733	93.12
381.958	106.12
382.184	110.12
382.409	113.12
382.634	124.12
382.86	118.12
383.085	102.12
383.31	124.12
383.535	121.12
383.761	111.12
383.986	113.12
384.211	119.12
384.436	120.12
384.662	112.12
384.887	102.12
385.112	112.12
385.337	120.12
385.562	110.12
385.787	111.12
386.013	105.12
386.238	110.12
386.463	115.12
386.688	155.12
386.913	127.12
387.138	113.12
387.363	127.12
387.588	114.12
387.813	116.12
388.038	120.12
388.263	125.12
388.488	120.12
388.713	113.12
388.938	121.12
389.163	110.12
389.387	106.12
389.612	107.12
389.837	124.12
390.062	121.12
390.287	120.12
390.512	103.12
390.736	128.12
390.961	116.12
391.186	130.12
391.411	118.12
391.636	110.12
391.86	131.12
392.085	132.12
392.31	136.12
392.534	122.12
392.759	128.12
392.984	118.12
393.208	114.12
393.433	122.12
393.658	130.12
393.882	124.12
394.107	131.12
394.331	122.12
394.556	131.12
394.78	136.12
395.005	118.12
395.229	101.12
395.454	131.12
395.678	133.12
395.903	142.12
396.127	132.12
396.352	133.12
396.576	120.12
396.801	126.12
397.025	113.12
397.249	117.12
397.474	143.12
397.698	117.12
397.922	132.12
398.147	123.12
398.371	130.12
398.595	128.12
398.82	127.12
399.044	129.12
399.268	142.12
399.492	155.12
399.717	153.12
399.941	163.12
400.165	150.12
400.389	134.12
400.613	143.12
400.837	135.12
401.062	147.12
401.286	126.12
401.51	133.12
401.734	121.12
401.958	128.12
402.182	137.12
402.406	139.12
402.63	136.12
402.854	134.12
403.078	129.12
403.302	118.12
403.526	144.12
403.75	143.12
403.974	133.12
404.198	131.12
404.422	137.12
404.645	150.12
404.869	134.12
405.093	161.12
405.317	124.12
405.541	130.12
405.765	135.12
405.988	143.12
406.212	135.12
406.436	132.12
406.66	123.12
406.883	145.12
407.107	158.12
407.331	146.12
407.555	133.12
407.778	161.12
408.002	161.12
408.226	135.12
408.449	152.12
408.673	113.12
408.896	123.12
409.12	143.12
409.344	145.12
409.567	130.12
409.791	148.12
410.014	148.12
410.238	133.12
410.461	150.12
410.685	137.12
410.908	127.12
411.132	133.12
411.355	124.12
411.578	125.12
411.802	142.12
412.025	134.12
412.249	124.12
412.472	118.12
412.695	127.12
412.919	130.12
413.142	125.12
413.365	131.12
413.589	128.12
413.812	133.12
414.035	128.12
414.258	143.12
414.482	149.12
414.705	114.12
414.928	131.12
415.151	129.12
415.374	136.12
415.597	126.12
415.821	135.12
416.044	139.12
416.267	139.12
416.49	142.12
416.713	132.12
416.936	143.12
417.159	144.12
417.382	141.12
417.605	132.12
417.828	143.12
418.051	132.12
418.274	131.12
418.497	135.12
418.72	150.12
418.943	136.12
419.166	137.12
419.389	142.12
419.611	138.12
419.834	143.12
420.057	159.12
420.28	126.12
420.503	131.12
420.726	145.12
420.948	136.12
421.171	131.12
421.394	129.12
421.617	143.12
421.839	133.12
422.062	156.12
422.285	134.12
422.507	139.12
422.73	130.12
422.953	126.12
423.175	138.12
423.398	130.12
423.621	135.12
423.843	133.12
424.066	138.12
424.288	137.12
424.511	139.12
424.733	144.12
424.956	125.12
425.178	149.12
425.401	141.12
425.623	137.12
425.846	144.12
426.068	137.12
426.291	140.12
426.513	136.12
426.735	129.12
426.958	125.12
427.18	149.12
427.402	126.12
427.625	139.12
427.847	112.12
428.069	131.12
428.292	142.12
428.514	133.12
428.736	122.12
428.958	117.12
429.181	129.12
429.403	131.12
429.625	123.12
429.847	128.12
430.069	125.12
430.292	133.12
430.514	121.12
430.736	126.12
430.958	140.12
431.18	125.12
431.402	131.12
431.624	113.12
431.846	123.12
432.068	130.12
432.29	119.12
432.512	139.12
432.734	132.12
432.956	124.12
433.178	142.12
433.4	136.12
433.622	145.12
433.844	118.12
434.066	135.12
434.287	110.12
434.509	133.12
434.731	128.12
434.953	137.12
435.175	141.12
435.397	131.12
435.618	131.12
435.84	122.12
436.062	132.12
436.284	131.12
436.505	126.12
436.727	139.12
436.949	121.12
437.17	119.12
437.392	124.12
437.614	122.12
437.835	107.12
438.057	136.12
438.278	143.12
438.5	117.12
438.721	122.12
438.943	143.12
439.165	128.12
439.386	119.12
439.608	141.12
439.829	142.12
440.05	151.12
440.272	131.12
440.493	131.12
440.715	137.12
440.936	138.12
441.158	141.12
441.379	130.12
441.6	151.12
441.822	148.12
442.043	140.12
442.264	155.12
442.486	129.12
442.707	124.12
442.928	128.12
443.149	132.12
443.371	150.12
443.592	151.12
443.813	130.12
444.034	141.12
444.255	144.12
444.476	139.12
444.698	161.12
444.919	141.12
445.14	335.12
445.361	232.12
445.582	155.12
445.803	147.12
446.024	143.12
446.245	157.12
446.466	136.12
446.687	123.12
446.908	133.12
447.129	113.12
447.35	135.12
447.571	140.12
447.792	134.12
448.013	142.12
448.234	138.12
448.455	124.12
448.675	141.12
448.896	138.12
449.117	136.12
449.338	111.12
449.559	122.12
449.779	127.12
450	137.12
450.221	119.12
450.442	130.12
450.662	132.12
450.883	142.12
451.104	130.12
451.324	119.12
451.545	123.12
451.766	125.12
451.986	118.12
452.207	128.12
452.428	112.12
452.648	146.12
452.869	130.12
453.089	138.12
453.31	130.12
453.53	114.12
453.751	132.12
453.971	126.12
454.192	106.12
454.412	108.12
454.633	118.12
454.853	134.12
455.073	118.12
455.294	118.12
455.514	145.12
455.734	114.12
455.955	116.12
456.175	137.12
456.395	120.12
456.616	122.12
456.836	127.12
457.056	123.12
457.276	107.12
457.497	121.12
457.717	122.12
457.937	108.12
458.157	96.12
458.377	106.12
458.598	113.12
458.818	110.12
459.038	124.12
459.258	116.12
459.478	116.12
459.698	111.12
459.918	124.12
460.138	130.12
460.358	138.12
460.578	141.12
460.798	129.12
461.018	139.12
461.238	141.12
461.458	158.12
461.678	135.12
461.898	142.12
462.118	134.12
462.338	148.12
462.558	129.12
462.777	159.12
462.997	167.12
463.217	149.12
463.437	155.12
463.657	144.12
463.876	133.12
464.096	147.12
464.316	127.12
464.536	145.12
464.755	131.12
464.975	137.12
465.195	135.12
465.414	132.12
465.634	111.12
465.854	117.12
466.073	126.12
466.293	128.12
466.512	128.12
466.732	112.12
466.951	126.12
467.171	119.12
467.391	128.12
467.61	121.12
467.829	129.12
468.049	121.12
468.268	125.12
468.488	129.12
468.707	129.12
468.927	135.12
469.146	131.12
469.365	137.12
469.585	141.12
469.804	132.12
470.023	130.12
470.243	136.12
470.462	135.12
470.681	132.12
470.901	129.12
471.12	127.12
471.339	132.12
471.558	133.12
471.777	140.12
471.997	135.12
472.216	122.12
472.435	143.12
472.654	113.12
472.873	127.12
473.092	127.12
473.311	132.12
473.53	136.12
473.749	124.12
473.968	143.12
474.187	134.12
474.406	136.12
474.625	136.12
474.844	130.12
475.063	120.12
475.282	135.12
475.501	119.12
475.72	135.12
475.939	136.12
476.158	134.12
476.377	124.12
476.596	138.12
476.814	124.12
477.033	128.12
477.252	117.12
477.471	131.12
477.69	105.12
477.908	134.12
478.127	158.12
478.346	148.12
478.564	143.12
478.783	137.12
479.002	143.12
479.22	129.12
479.439	149.12
479.658	126.12
479.876	129.12
480.095	134.12
480.313	136.12
480.532	151.12
480.751	135.12
480.969	117.12
481.188	122.12
481.406	123.12
481.624	113.12
481.843	121.12
482.061	114.12
482.28	122.12
482.498	127.12
482.717	127.12
482.935	127.12
483.153	147.12
483.372	139.12
483.59	128.12
483.808	118.12
484.027	138.12
484.245	142.12
484.463	145.12
484.681	153.12
484.9	141.12
485.118	137.12
485.336	128.12
485.554	135.12
485.772	129.12
485.99	129.12
486.209	129.12
486.427	143.12
486.645	134.12
486.863	127.12
487.081	134.12
487.299	138.12
487.517	144.12
487.735	139.12
487.953	159.12
488.171	148.12
488.389	151.12
488.607	142.12
488.825	133.12
489.043	129.12
489.261	139.12
489.479	136.12
489.696	142.12
489.914	123.12
490.132	149.12
490.35	141.12
490.568	148.12
490.786	130.12
491.003	142.12
491.221	148.12
491.439	163.12
491.657	147.12
491.874	166.12
492.092	150.12
492.31	149.12
492.527	164.12
492.745	173.12
492.963	158.12
493.18	165.12
493.398	138.12
493.615	142.12
493.833	133.12
494.05	157.12
494.268	149.12
494.485	159.12
494.703	149.12
494.92	150.12
495.138	141.12
495.355	145.12
495.573	150.12
495.79	142.12
496.008	164.12
496.225	160.12
496.442	155.12
496.66	153.12
496.877	153.12
497.094	175.12
497.312	155.12
497.529	144.12
497.746	146.12
497.963	145.12
498.181	161.12
498.398	149.12
498.615	150.12
498.832	168.12
499.049	174.12
499.267	184.12
499.484	191.12
499.701	196.12
499.918	206.12
500.135	245.12
500.352	264.12
500.569	267.12
500.786	258.12
501.003	235.12
501.22	217.12
501.437	213.12
501.654	182.12
501.871	164.12
502.088	170.12
502.305	181.12
502.522	168.12
502.739	177.12
502.956	153.12
503.172	153.12
503.389	132.12
503.606	159.12
503.823	146.12
504.04	167.12
504.256	156.12
504.473	149.12
504.69	158.12
504.907	161.12
505.123	133.12
505.34	146.12
505.557	137.12
505.773	150.12
505.99	139.12
506.207	142.12
506.423	135.12
506.64	134.12
506.856	129.12
507.073	140.12
507.289	141.12
