Data from SampD_HRD10591_00034.txt Node
Date: Mon Jan 19 11:50:27 EST 2026
User: Yrep
Spectrometer: HR+D1059
Trigger mode: 0
Integration Time (sec): 3.443000E-1
Scans to average: 1
Electric dark correction enabled: true
Nonlinearity correction enabled: false
Boxcar width: 0
XAxis mode: Wavelengths
Number of Pixels in Spectrum: 2048
>>>>>Begin Spectral Data<<<<<
223.165	-33.81
223.4	-33.81
223.635	-33.81
223.869	-27.81
224.104	-26.81
224.338	-11.81
224.573	-6.81
224.808	-14.81
225.042	-2.81
225.277	2.19
225.511	-1.81
225.746	3.19
225.98	7.19
226.215	18.19
226.449	20.19
226.683	22.19
226.918	28.19
227.152	25.19
227.387	39.19
227.621	44.19
227.856	50.19
228.09	43.19
228.324	55.19
228.559	66.19
228.793	66.19
229.027	67.19
229.262	82.19
229.496	72.19
229.73	80.19
229.964	80.19
230.199	81.19
230.433	62.19
230.667	87.19
230.901	72.19
231.136	81.19
231.37	71.19
231.604	88.19
231.838	88.19
232.072	69.19
232.306	75.19
232.541	99.19
232.775	98.19
233.009	76.19
233.243	92.19
233.477	80.19
233.711	82.19
233.945	68.19
234.179	75.19
234.413	83.19
234.647	90.19
234.881	79.19
235.115	82.19
235.349	68.19
235.583	102.19
235.817	85.19
236.051	82.19
236.285	69.19
236.519	76.19
236.753	85.19
236.987	88.19
237.221	76.19
237.455	63.19
237.689	76.19
237.922	86.19
238.156	75.19
238.39	65.19
238.624	78.19
238.858	87.19
239.091	82.19
239.325	82.19
239.559	77.19
239.793	90.19
240.027	80.19
240.26	84.19
240.494	82.19
240.728	72.19
240.961	85.19
241.195	94.19
241.429	106.19
241.662	75.19
241.896	84.19
242.13	84.19
242.363	82.19
242.597	66.19
242.83	96.19
243.064	83.19
243.298	89.19
243.531	75.19
243.765	81.19
243.998	80.19
244.232	100.19
244.465	75.19
244.699	83.19
244.932	79.19
245.166	102.19
245.399	86.19
245.633	94.19
245.866	104.19
246.099	92.19
246.333	85.19
246.566	84.19
246.8	89.19
247.033	102.19
247.266	86.19
247.5	86.19
247.733	82.19
247.966	82.19
248.2	103.19
248.433	81.19
248.666	87.19
248.899	90.19
249.133	82.19
249.366	100.19
249.599	102.19
249.832	76.19
250.066	114.19
250.299	97.19
250.532	94.19
250.765	91.19
250.998	78.19
251.231	84.19
251.465	92.19
251.698	101.19
251.931	85.19
252.164	100.19
252.397	96.19
252.63	100.19
252.863	96.19
253.096	106.19
253.329	86.19
253.562	100.19
253.795	104.19
254.028	95.19
254.261	90.19
254.494	87.19
254.727	82.19
254.96	86.19
255.193	91.19
255.426	94.19
255.659	87.19
255.892	89.19
256.124	92.19
256.357	90.19
256.59	95.19
256.823	82.19
257.056	86.19
257.289	101.19
257.521	88.19
257.754	98.19
257.987	100.19
258.22	89.19
258.452	97.19
258.685	92.19
258.918	95.19
259.151	90.19
259.383	107.19
259.616	94.19
259.849	103.19
260.081	98.19
260.314	83.19
260.547	86.19
260.779	100.19
261.012	104.19
261.244	98.19
261.477	102.19
261.71	88.19
261.942	89.19
262.175	104.19
262.407	94.19
262.64	85.19
262.872	95.19
263.105	83.19
263.337	114.19
263.57	106.19
263.802	112.19
264.035	103.19
264.267	107.19
264.499	93.19
264.732	102.19
264.964	102.19
265.197	107.19
265.429	104.19
265.661	116.19
265.894	99.19
266.126	105.19
266.358	104.19
266.591	89.19
266.823	98.19
267.055	96.19
267.287	102.19
267.52	113.19
267.752	102.19
267.984	100.19
268.216	96.19
268.448	110.19
268.681	103.19
268.913	103.19
269.145	90.19
269.377	90.19
269.609	80.19
269.841	122.19
270.073	103.19
270.306	116.19
270.538	104.19
270.77	98.19
271.002	103.19
271.234	96.19
271.466	105.19
271.698	102.19
271.93	105.19
272.162	112.19
272.394	112.19
272.626	107.19
272.858	99.19
273.09	96.19
273.322	103.19
273.553	93.19
273.785	109.19
274.017	99.19
274.249	104.19
274.481	112.19
274.713	90.19
274.945	115.19
275.176	99.19
275.408	107.19
275.64	112.19
275.872	99.19
276.104	96.19
276.335	107.19
276.567	114.19
276.799	99.19
277.031	116.19
277.262	101.19
277.494	105.19
277.726	102.19
277.957	108.19
278.189	113.19
278.421	106.19
278.652	104.19
278.884	104.19
279.115	108.19
279.347	103.19
279.579	109.19
279.81	110.19
280.042	108.19
280.273	107.19
280.505	123.19
280.736	107.19
280.968	117.19
281.199	107.19
281.431	110.19
281.662	98.19
281.894	107.19
282.125	116.19
282.356	121.19
282.588	112.19
282.819	110.19
283.051	97.19
283.282	109.19
283.513	116.19
283.745	112.19
283.976	108.19
284.207	99.19
284.439	112.19
284.67	116.19
284.901	116.19
285.132	98.19
285.364	114.19
285.595	120.19
285.826	115.19
286.057	123.19
286.288	117.19
286.52	119.19
286.751	116.19
286.982	109.19
287.213	112.19
287.444	107.19
287.675	113.19
287.906	122.19
288.138	106.19
288.369	120.19
288.6	112.19
288.831	123.19
289.062	133.19
289.293	114.19
289.524	110.19
289.755	111.19
289.986	105.19
290.217	114.19
290.448	112.19
290.679	105.19
290.91	120.19
291.141	113.19
291.371	117.19
291.602	123.19
291.833	109.19
292.064	114.19
292.295	111.19
292.526	117.19
292.757	122.19
292.987	121.19
293.218	116.19
293.449	105.19
293.68	115.19
293.91	112.19
294.141	127.19
294.372	125.19
294.603	123.19
294.833	132.19
295.064	113.19
295.295	115.19
295.525	113.19
295.756	109.19
295.987	111.19
296.217	126.19
296.448	122.19
296.679	126.19
296.909	116.19
297.14	129.19
297.37	116.19
297.601	131.19
297.831	100.19
298.062	120.19
298.292	114.19
298.523	117.19
298.753	113.19
298.984	109.19
299.214	132.19
299.445	116.19
299.675	116.19
299.905	122.19
300.136	111.19
300.366	113.19
300.597	114.19
300.827	130.19
301.057	125.19
301.288	124.19
301.518	124.19
301.748	127.19
301.979	161.19
302.209	136.19
302.439	122.19
302.669	106.19
302.9	127.19
303.13	125.19
303.36	135.19
303.59	94.19
303.82	113.19
304.051	113.19
304.281	115.19
304.511	127.19
304.741	128.19
304.971	119.19
305.201	127.19
305.431	146.19
305.661	122.19
305.891	119.19
306.121	119.19
306.352	120.19
306.582	122.19
306.812	128.19
307.042	117.19
307.272	124.19
307.502	133.19
307.731	126.19
307.961	131.19
308.191	116.19
308.421	122.19
308.651	112.19
308.881	113.19
309.111	122.19
309.341	101.19
309.571	119.19
309.8	117.19
310.03	114.19
310.26	104.19
310.49	120.19
310.72	109.19
310.949	146.19
311.179	127.19
311.409	118.19
311.639	120.19
311.868	119.19
312.098	127.19
312.328	118.19
312.557	125.19
312.787	115.19
313.017	138.19
313.246	124.19
313.476	129.19
313.706	125.19
313.935	127.19
314.165	129.19
314.394	128.19
314.624	126.19
314.853	124.19
315.083	125.19
315.312	132.19
315.542	130.19
315.771	126.19
316.001	114.19
316.23	123.19
316.46	122.19
316.689	117.19
316.919	115.19
317.148	132.19
317.377	121.19
317.607	124.19
317.836	130.19
318.065	118.19
318.295	118.19
318.524	119.19
318.753	118.19
318.983	128.19
319.212	131.19
319.441	119.19
319.67	130.19
319.9	113.19
320.129	132.19
320.358	134.19
320.587	116.19
320.816	105.19
321.046	125.19
321.275	115.19
321.504	122.19
321.733	125.19
321.962	114.19
322.191	112.19
322.42	123.19
322.649	124.19
322.878	130.19
323.108	129.19
323.337	127.19
323.566	133.19
323.795	129.19
324.024	116.19
324.253	139.19
324.482	123.19
324.71	120.19
324.939	134.19
325.168	131.19
325.397	118.19
325.626	132.19
325.855	116.19
326.084	112.19
326.313	132.19
326.542	127.19
326.77	139.19
326.999	135.19
327.228	135.19
327.457	115.19
327.686	125.19
327.914	137.19
328.143	143.19
328.372	134.19
328.6	126.19
328.829	127.19
329.058	128.19
329.287	130.19
329.515	134.19
329.744	139.19
329.972	107.19
330.201	127.19
330.43	117.19
330.658	124.19
330.887	139.19
331.115	135.19
331.344	125.19
331.572	142.19
331.801	143.19
332.03	133.19
332.258	130.19
332.486	139.19
332.715	141.19
332.943	136.19
333.172	148.19
333.4	156.19
333.629	150.19
333.857	148.19
334.085	142.19
334.314	147.19
334.542	138.19
334.771	146.19
334.999	140.19
335.227	158.19
335.455	137.19
335.684	156.19
335.912	146.19
336.14	127.19
336.369	141.19
336.597	141.19
336.825	132.19
337.053	136.19
337.281	138.19
337.51	135.19
337.738	145.19
337.966	130.19
338.194	124.19
338.422	143.19
338.65	158.19
338.878	123.19
339.106	129.19
339.334	139.19
339.562	132.19
339.79	129.19
340.018	118.19
340.246	143.19
340.474	135.19
340.702	137.19
340.93	143.19
341.158	123.19
341.386	127.19
341.614	125.19
341.842	138.19
342.07	126.19
342.298	145.19
342.526	128.19
342.754	121.19
342.981	125.19
343.209	137.19
343.437	173.19
343.665	147.19
343.893	136.19
344.12	152.19
344.348	135.19
344.576	144.19
344.804	130.19
345.031	134.19
345.259	140.19
345.487	125.19
345.714	142.19
345.942	126.19
346.17	129.19
346.397	152.19
346.625	122.19
346.853	137.19
347.08	126.19
347.308	145.19
347.535	131.19
347.763	140.19
347.99	138.19
348.218	132.19
348.445	134.19
348.673	117.19
348.9	137.19
349.128	131.19
349.355	136.19
349.583	132.19
349.81	134.19
350.037	124.19
350.265	106.19
350.492	123.19
350.72	129.19
350.947	127.19
351.174	133.19
351.402	130.19
351.629	137.19
351.856	134.19
352.083	120.19
352.311	121.19
352.538	123.19
352.765	122.19
352.992	137.19
353.22	113.19
353.447	140.19
353.674	117.19
353.901	134.19
354.128	142.19
354.355	131.19
354.583	116.19
354.81	126.19
355.037	135.19
355.264	127.19
355.491	137.19
355.718	144.19
355.945	127.19
356.172	130.19
356.399	128.19
356.626	130.19
356.853	133.19
357.08	131.19
357.307	138.19
357.534	139.19
357.761	132.19
357.988	140.19
358.215	118.19
358.441	129.19
358.668	145.19
358.895	131.19
359.122	133.19
359.349	123.19
359.576	125.19
359.802	128.19
360.029	119.19
360.256	126.19
360.483	139.19
360.709	128.19
360.936	134.19
361.163	126.19
361.39	132.19
361.616	113.19
361.843	127.19
362.07	156.19
362.296	140.19
362.523	119.19
362.749	116.19
362.976	133.19
363.203	131.19
363.429	142.19
363.656	122.19
363.882	120.19
364.109	137.19
364.335	136.19
364.562	114.19
364.788	134.19
365.015	126.19
365.241	132.19
365.468	122.19
365.694	133.19
365.92	136.19
366.147	144.19
366.373	143.19
366.599	138.19
366.826	129.19
367.052	129.19
367.278	144.19
367.505	141.19
367.731	144.19
367.957	121.19
368.184	133.19
368.41	135.19
368.636	119.19
368.862	135.19
369.089	132.19
369.315	135.19
369.541	144.19
369.767	132.19
369.993	134.19
370.219	142.19
370.445	136.19
370.672	137.19
370.898	129.19
371.124	143.19
371.35	131.19
371.576	146.19
371.802	128.19
372.028	129.19
372.254	138.19
372.48	148.19
372.706	128.19
372.932	148.19
373.158	142.19
373.384	136.19
373.61	141.19
373.835	142.19
374.061	123.19
374.287	132.19
374.513	121.19
374.739	117.19
374.965	146.19
375.191	154.19
375.416	133.19
375.642	147.19
375.868	154.19
376.094	152.19
376.319	130.19
376.545	157.19
376.771	143.19
376.997	132.19
377.222	132.19
377.448	150.19
377.674	149.19
377.899	140.19
378.125	132.19
378.35	152.19
378.576	137.19
378.802	126.19
379.027	135.19
379.253	135.19
379.478	131.19
379.704	134.19
379.929	146.19
380.155	139.19
380.38	146.19
380.606	127.19
380.831	136.19
381.057	147.19
381.282	135.19
381.507	138.19
381.733	148.19
381.958	163.19
382.184	134.19
382.409	143.19
382.634	151.19
382.86	138.19
383.085	161.19
383.31	157.19
383.535	151.19
383.761	136.19
383.986	162.19
384.211	149.19
384.436	150.19
384.662	139.19
384.887	157.19
385.112	151.19
385.337	159.19
385.562	152.19
385.787	161.19
386.013	156.19
386.238	169.19
386.463	142.19
386.688	172.19
386.913	172.19
387.138	154.19
387.363	165.19
387.588	184.19
387.813	153.19
388.038	162.19
388.263	169.19
388.488	155.19
388.713	147.19
388.938	150.19
389.163	156.19
389.387	139.19
389.612	163.19
389.837	147.19
390.062	168.19
390.287	156.19
390.512	150.19
390.736	167.19
390.961	156.19
391.186	175.19
391.411	169.19
391.636	166.19
391.86	161.19
392.085	177.19
392.31	180.19
392.534	179.19
392.759	170.19
392.984	167.19
393.208	165.19
393.433	166.19
393.658	169.19
393.882	171.19
394.107	175.19
394.331	163.19
394.556	166.19
394.78	180.19
395.005	171.19
395.229	172.19
395.454	171.19
395.678	162.19
395.903	176.19
396.127	180.19
396.352	159.19
396.576	155.19
396.801	166.19
397.025	163.19
397.249	169.19
397.474	194.19
397.698	175.19
397.922	188.19
398.147	178.19
398.371	167.19
398.595	183.19
398.82	189.19
399.044	208.19
399.268	218.19
399.492	232.19
399.717	225.19
399.941	215.19
400.165	214.19
400.389	196.19
400.613	195.19
400.837	182.19
401.062	190.19
401.286	181.19
401.51	174.19
401.734	196.19
401.958	190.19
402.182	181.19
402.406	184.19
402.63	198.19
402.854	186.19
403.078	204.19
403.302	197.19
403.526	201.19
403.75	211.19
403.974	214.19
404.198	192.19
404.422	199.19
404.645	201.19
404.869	225.19
405.093	190.19
405.317	179.19
405.541	201.19
405.765	196.19
405.988	180.19
406.212	192.19
406.436	197.19
406.66	197.19
406.883	201.19
407.107	202.19
407.331	225.19
407.555	232.19
407.778	213.19
408.002	213.19
408.226	222.19
408.449	213.19
408.673	183.19
408.896	198.19
409.12	203.19
409.344	196.19
409.567	224.19
409.791	206.19
410.014	201.19
410.238	202.19
410.461	206.19
410.685	185.19
410.908	181.19
411.132	200.19
411.355	192.19
411.578	196.19
411.802	192.19
412.025	184.19
412.249	187.19
412.472	176.19
412.695	185.19
412.919	194.19
413.142	196.19
413.365	181.19
413.589	180.19
413.812	192.19
414.035	194.19
414.258	195.19
414.482	178.19
414.705	178.19
414.928	202.19
415.151	210.19
415.374	183.19
415.597	186.19
415.821	189.19
416.044	185.19
416.267	183.19
416.49	188.19
416.713	189.19
416.936	190.19
417.159	184.19
417.382	202.19
417.605	170.19
417.828	207.19
418.051	190.19
418.274	198.19
418.497	210.19
418.72	180.19
418.943	190.19
419.166	201.19
419.389	218.19
419.611	194.19
419.834	207.19
420.057	190.19
420.28	201.19
420.503	188.19
420.726	199.19
420.948	200.19
421.171	195.19
421.394	194.19
421.617	206.19
421.839	188.19
422.062	194.19
422.285	194.19
422.507	198.19
422.73	190.19
422.953	191.19
423.175	198.19
423.398	193.19
423.621	186.19
423.843	198.19
424.066	201.19
424.288	201.19
424.511	208.19
424.733	223.19
424.956	201.19
425.178	194.19
425.401	208.19
425.623	181.19
425.846	187.19
426.068	182.19
426.291	182.19
426.513	198.19
426.735	201.19
426.958	194.19
427.18	207.19
427.402	185.19
427.625	184.19
427.847	173.19
428.069	181.19
428.292	179.19
428.514	178.19
428.736	167.19
428.958	166.19
429.181	165.19
429.403	172.19
429.625	175.19
429.847	182.19
430.069	189.19
430.292	192.19
430.514	182.19
430.736	161.19
430.958	174.19
431.18	186.19
431.402	183.19
431.624	171.19
431.846	179.19
432.068	171.19
432.29	171.19
432.512	164.19
432.734	167.19
432.956	180.19
433.178	201.19
433.4	200.19
433.622	194.19
433.844	183.19
434.066	162.19
434.287	171.19
434.509	171.19
434.731	189.19
434.953	186.19
435.175	190.19
435.397	199.19
435.618	194.19
435.84	190.19
436.062	178.19
436.284	168.19
436.505	188.19
436.727	176.19
436.949	182.19
437.17	172.19
437.392	167.19
437.614	180.19
437.835	165.19
438.057	149.19
438.278	157.19
438.5	175.19
438.721	179.19
438.943	185.19
439.165	181.19
439.386	184.19
439.608	187.19
439.829	194.19
440.05	173.19
440.272	194.19
440.493	179.19
440.715	189.19
440.936	204.19
441.158	191.19
441.379	190.19
441.6	195.19
441.822	209.19
442.043	202.19
442.264	180.19
442.486	193.19
442.707	191.19
442.928	198.19
443.149	210.19
443.371	202.19
443.592	185.19
443.813	208.19
444.034	183.19
444.255	200.19
444.476	193.19
444.698	224.19
444.919	215.19
445.14	410.19
445.361	302.19
445.582	222.19
445.803	186.19
446.024	207.19
446.245	202.19
446.466	211.19
446.687	183.19
446.908	192.19
447.129	207.19
447.35	197.19
447.571	186.19
447.792	184.19
448.013	172.19
448.234	175.19
448.455	183.19
448.675	175.19
448.896	183.19
449.117	185.19
449.338	176.19
449.559	185.19
449.779	167.19
450	184.19
450.221	182.19
450.442	179.19
450.662	174.19
450.883	178.19
451.104	185.19
451.324	165.19
451.545	169.19
451.766	188.19
451.986	177.19
452.207	183.19
452.428	165.19
452.648	176.19
452.869	162.19
453.089	176.19
453.31	180.19
453.53	161.19
453.751	167.19
453.971	169.19
454.192	168.19
454.412	161.19
454.633	170.19
454.853	166.19
455.073	158.19
455.294	193.19
455.514	187.19
455.734	170.19
455.955	172.19
456.175	167.19
456.395	163.19
456.616	184.19
456.836	172.19
457.056	165.19
457.276	162.19
457.497	156.19
457.717	158.19
457.937	151.19
458.157	159.19
458.377	158.19
458.598	161.19
458.818	153.19
459.038	166.19
459.258	176.19
459.478	164.19
459.698	163.19
459.918	175.19
460.138	174.19
460.358	184.19
460.578	199.19
460.798	201.19
461.018	213.19
461.238	201.19
461.458	191.19
461.678	188.19
461.898	200.19
462.118	190.19
462.338	206.19
462.558	214.19
462.777	224.19
462.997	230.19
463.217	239.19
463.437	235.19
463.657	218.19
463.876	201.19
464.096	212.19
464.316	190.19
464.536	197.19
464.755	219.19
464.975	202.19
465.195	196.19
465.414	194.19
465.634	179.19
465.854	178.19
466.073	180.19
466.293	165.19
466.512	178.19
466.732	178.19
466.951	195.19
467.171	180.19
467.391	196.19
467.61	182.19
467.829	179.19
468.049	192.19
468.268	158.19
468.488	172.19
468.707	187.19
468.927	171.19
469.146	170.19
469.365	203.19
469.585	180.19
469.804	192.19
470.023	192.19
470.243	206.19
470.462	198.19
470.681	180.19
470.901	186.19
471.12	176.19
471.339	201.19
471.558	199.19
471.777	187.19
471.997	185.19
472.216	185.19
472.435	164.19
472.654	172.19
472.873	179.19
473.092	171.19
473.311	166.19
473.53	180.19
473.749	172.19
473.968	171.19
474.187	159.19
474.406	180.19
474.625	176.19
474.844	177.19
475.063	183.19
475.282	187.19
475.501	165.19
475.72	187.19
475.939	184.19
476.158	178.19
476.377	173.19
476.596	166.19
476.814	163.19
477.033	166.19
477.252	187.19
477.471	199.19
477.69	179.19
477.908	198.19
478.127	210.19
478.346	193.19
478.564	214.19
478.783	189.19
479.002	201.19
479.22	202.19
479.439	191.19
479.658	195.19
479.876	176.19
480.095	194.19
480.313	196.19
480.532	207.19
480.751	198.19
480.969	186.19
481.188	174.19
481.406	165.19
481.624	169.19
481.843	156.19
482.061	178.19
482.28	173.19
482.498	192.19
482.717	178.19
482.935	190.19
483.153	200.19
483.372	191.19
483.59	202.19
483.808	180.19
484.027	207.19
484.245	188.19
484.463	204.19
484.681	220.19
484.9	204.19
485.118	199.19
485.336	184.19
485.554	194.19
485.772	187.19
485.99	194.19
486.209	186.19
486.427	182.19
486.645	195.19
486.863	214.19
487.081	203.19
487.299	210.19
487.517	208.19
487.735	219.19
487.953	236.19
488.171	232.19
488.389	218.19
488.607	213.19
488.825	190.19
489.043	183.19
489.261	202.19
489.479	207.19
489.696	207.19
489.914	209.19
490.132	204.19
490.35	222.19
490.568	214.19
490.786	210.19
491.003	214.19
491.221	210.19
491.439	233.19
491.657	222.19
491.874	223.19
492.092	238.19
492.31	256.19
492.527	250.19
492.745	229.19
492.963	250.19
493.18	226.19
493.398	219.19
493.615	219.19
493.833	244.19
494.05	231.19
494.268	227.19
494.485	233.19
494.703	218.19
494.92	226.19
495.138	225.19
495.355	223.19
495.573	211.19
495.79	238.19
496.008	223.19
496.225	226.19
496.442	220.19
496.66	250.19
496.877	230.19
497.094	239.19
497.312	240.19
497.529	228.19
497.746	229.19
497.963	209.19
498.181	216.19
498.398	244.19
498.615	228.19
498.832	240.19
499.049	250.19
499.267	260.19
499.484	277.19
499.701	320.19
499.918	339.19
500.135	362.19
500.352	406.19
500.569	436.19
500.786	432.19
501.003	379.19
501.22	338.19
501.437	316.19
501.654	288.19
501.871	280.19
502.088	258.19
502.305	263.19
502.522	248.19
502.739	239.19
502.956	248.19
503.172	222.19
503.389	225.19
503.606	218.19
503.823	227.19
504.04	224.19
504.256	224.19
504.473	227.19
504.69	230.19
