Data from SampD_HRD10591_00024.txt Node
Date: Mon Jan 19 11:50:23 EST 2026
User: Yrep
Spectrometer: HR+D1059
Trigger mode: 0
Integration Time (sec): 3.443000E-1
Scans to average: 1
Electric dark correction enabled: true
Nonlinearity correction enabled: false
Boxcar width: 0
XAxis mode: Wavelengths
Number of Pixels in Spectrum: 2048
>>>>>Begin Spectral Data<<<<<
223.165	-24.88
223.4	-24.88
223.635	-24.88
223.869	-19.88
224.104	-31.88
224.338	-7.88
224.573	-20.88
224.808	-13.88
225.042	-12.88
225.277	5.12
225.511	0.12
225.746	16.12
225.98	20.12
226.215	10.12
226.449	18.12
226.683	1.12
226.918	20.12
227.152	41.12
227.387	26.12
227.621	39.12
227.856	44.12
228.09	53.12
228.324	53.12
228.559	67.12
228.793	47.12
229.027	68.12
229.262	65.12
229.496	81.12
229.73	72.12
229.964	76.12
230.199	75.12
230.433	73.12
230.667	87.12
230.901	84.12
231.136	86.12
231.37	88.12
231.604	82.12
231.838	91.12
232.072	93.12
232.306	67.12
232.541	71.12
232.775	78.12
233.009	77.12
233.243	100.12
233.477	93.12
233.711	87.12
233.945	83.12
234.179	75.12
234.413	79.12
234.647	83.12
234.881	84.12
235.115	71.12
235.349	87.12
235.583	81.12
235.817	85.12
236.051	88.12
236.285	86.12
236.519	103.12
236.753	95.12
236.987	86.12
237.221	72.12
237.455	85.12
237.689	95.12
237.922	99.12
238.156	84.12
238.39	71.12
238.624	81.12
238.858	81.12
239.091	96.12
239.325	70.12
239.559	82.12
239.793	94.12
240.027	90.12
240.26	96.12
240.494	74.12
240.728	79.12
240.961	78.12
241.195	92.12
241.429	81.12
241.662	74.12
241.896	75.12
242.13	83.12
242.363	89.12
242.597	85.12
242.83	90.12
243.064	90.12
243.298	82.12
243.531	80.12
243.765	81.12
243.998	84.12
244.232	89.12
244.465	85.12
244.699	86.12
244.932	97.12
245.166	88.12
245.399	95.12
245.633	89.12
245.866	94.12
246.099	90.12
246.333	103.12
246.566	83.12
246.8	82.12
247.033	99.12
247.266	98.12
247.5	94.12
247.733	97.12
247.966	95.12
248.2	89.12
248.433	102.12
248.666	97.12
248.899	102.12
249.133	87.12
249.366	105.12
249.599	99.12
249.832	95.12
250.066	102.12
250.299	100.12
250.532	89.12
250.765	96.12
250.998	96.12
251.231	84.12
251.465	77.12
251.698	90.12
251.931	88.12
252.164	91.12
252.397	77.12
252.63	93.12
252.863	86.12
253.096	89.12
253.329	107.12
253.562	81.12
253.795	104.12
254.028	95.12
254.261	92.12
254.494	100.12
254.727	90.12
254.96	92.12
255.193	97.12
255.426	78.12
255.659	85.12
255.892	101.12
256.124	87.12
256.357	99.12
256.59	88.12
256.823	109.12
257.056	94.12
257.289	87.12
257.521	107.12
257.754	77.12
257.987	101.12
258.22	104.12
258.452	83.12
258.685	87.12
258.918	84.12
259.151	91.12
259.383	103.12
259.616	102.12
259.849	99.12
260.081	100.12
260.314	102.12
260.547	99.12
260.779	95.12
261.012	100.12
261.244	88.12
261.477	109.12
261.71	94.12
261.942	101.12
262.175	89.12
262.407	92.12
262.64	90.12
262.872	87.12
263.105	101.12
263.337	98.12
263.57	91.12
263.802	100.12
264.035	91.12
264.267	99.12
264.499	112.12
264.732	115.12
264.964	108.12
265.197	91.12
265.429	88.12
265.661	106.12
265.894	103.12
266.126	105.12
266.358	109.12
266.591	106.12
266.823	99.12
267.055	93.12
267.287	100.12
267.52	113.12
267.752	111.12
267.984	99.12
268.216	108.12
268.448	105.12
268.681	99.12
268.913	97.12
269.145	103.12
269.377	110.12
269.609	100.12
269.841	101.12
270.073	101.12
270.306	103.12
270.538	113.12
270.77	101.12
271.002	113.12
271.234	102.12
271.466	109.12
271.698	99.12
271.93	94.12
272.162	108.12
272.394	128.12
272.626	107.12
272.858	119.12
273.09	110.12
273.322	108.12
273.553	96.12
273.785	120.12
274.017	106.12
274.249	103.12
274.481	100.12
274.713	105.12
274.945	108.12
275.176	104.12
275.408	113.12
275.64	115.12
275.872	107.12
276.104	126.12
276.335	115.12
276.567	121.12
276.799	108.12
277.031	107.12
277.262	100.12
277.494	118.12
277.726	123.12
277.957	106.12
278.189	111.12
278.421	112.12
278.652	101.12
278.884	103.12
279.115	120.12
279.347	108.12
279.579	110.12
279.81	93.12
280.042	102.12
280.273	103.12
280.505	116.12
280.736	115.12
280.968	122.12
281.199	115.12
281.431	108.12
281.662	109.12
281.894	122.12
282.125	112.12
282.356	117.12
282.588	103.12
282.819	112.12
283.051	125.12
283.282	117.12
283.513	127.12
283.745	114.12
283.976	100.12
284.207	111.12
284.439	119.12
284.67	102.12
284.901	105.12
285.132	122.12
285.364	121.12
285.595	103.12
285.826	119.12
286.057	131.12
286.288	106.12
286.52	120.12
286.751	117.12
286.982	123.12
287.213	130.12
287.444	120.12
287.675	123.12
287.906	128.12
288.138	111.12
288.369	112.12
288.6	119.12
288.831	114.12
289.062	129.12
289.293	113.12
289.524	117.12
289.755	123.12
289.986	108.12
290.217	110.12
290.448	117.12
290.679	102.12
290.91	114.12
291.141	104.12
291.371	125.12
291.602	131.12
291.833	121.12
292.064	122.12
292.295	111.12
292.526	125.12
292.757	117.12
292.987	132.12
293.218	122.12
293.449	124.12
293.68	124.12
293.91	122.12
294.141	121.12
294.372	125.12
294.603	128.12
294.833	119.12
295.064	113.12
295.295	131.12
295.525	127.12
295.756	140.12
295.987	118.12
296.217	117.12
296.448	133.12
296.679	136.12
296.909	111.12
297.14	121.12
297.37	127.12
297.601	107.12
297.831	116.12
298.062	131.12
298.292	109.12
298.523	134.12
298.753	120.12
298.984	118.12
299.214	120.12
299.445	109.12
299.675	117.12
299.905	121.12
300.136	130.12
300.366	116.12
300.597	136.12
300.827	120.12
301.057	131.12
301.288	136.12
301.518	118.12
301.748	121.12
301.979	162.12
302.209	128.12
302.439	114.12
302.669	130.12
302.9	122.12
303.13	131.12
303.36	129.12
303.59	116.12
303.82	117.12
304.051	139.12
304.281	121.12
304.511	140.12
304.741	124.12
304.971	115.12
305.201	131.12
305.431	135.12
305.661	123.12
305.891	131.12
306.121	127.12
306.352	123.12
306.582	132.12
306.812	118.12
307.042	115.12
307.272	122.12
307.502	127.12
307.731	128.12
307.961	113.12
308.191	124.12
308.421	138.12
308.651	117.12
308.881	115.12
309.111	119.12
309.341	106.12
309.571	130.12
309.8	123.12
310.03	117.12
310.26	103.12
310.49	134.12
310.72	118.12
310.949	131.12
311.179	121.12
311.409	124.12
311.639	120.12
311.868	130.12
312.098	118.12
312.328	136.12
312.557	127.12
312.787	125.12
313.017	130.12
313.246	133.12
313.476	145.12
313.706	121.12
313.935	123.12
314.165	134.12
314.394	118.12
314.624	120.12
314.853	125.12
315.083	120.12
315.312	137.12
315.542	119.12
315.771	130.12
316.001	144.12
316.23	136.12
316.46	134.12
316.689	131.12
316.919	123.12
317.148	119.12
317.377	131.12
317.607	129.12
317.836	120.12
318.065	120.12
318.295	113.12
318.524	109.12
318.753	132.12
318.983	139.12
319.212	128.12
319.441	134.12
319.67	131.12
319.9	110.12
320.129	137.12
320.358	128.12
320.587	122.12
320.816	116.12
321.046	134.12
321.275	131.12
321.504	117.12
321.733	145.12
321.962	120.12
322.191	119.12
322.42	138.12
322.649	138.12
322.878	133.12
323.108	132.12
323.337	131.12
323.566	121.12
323.795	130.12
324.024	135.12
324.253	130.12
324.482	143.12
324.71	132.12
324.939	128.12
325.168	131.12
325.397	117.12
325.626	135.12
325.855	132.12
326.084	137.12
326.313	152.12
326.542	119.12
326.77	139.12
326.999	142.12
327.228	135.12
327.457	132.12
327.686	126.12
327.914	136.12
328.143	149.12
328.372	127.12
328.6	140.12
328.829	110.12
329.058	131.12
329.287	130.12
329.515	131.12
329.744	135.12
329.972	129.12
330.201	146.12
330.43	134.12
330.658	105.12
330.887	120.12
331.115	129.12
331.344	130.12
331.572	137.12
331.801	123.12
332.03	152.12
332.258	144.12
332.486	137.12
332.715	148.12
332.943	160.12
333.172	157.12
333.4	159.12
333.629	149.12
333.857	140.12
334.085	159.12
334.314	157.12
334.542	148.12
334.771	156.12
334.999	159.12
335.227	148.12
335.455	159.12
335.684	157.12
335.912	136.12
336.14	139.12
336.369	137.12
336.597	149.12
336.825	143.12
337.053	162.12
337.281	133.12
337.51	134.12
337.738	141.12
337.966	136.12
338.194	142.12
338.422	128.12
338.65	135.12
338.878	143.12
339.106	146.12
339.334	145.12
339.562	120.12
339.79	135.12
340.018	145.12
340.246	124.12
340.474	128.12
340.702	139.12
340.93	124.12
341.158	132.12
341.386	130.12
341.614	148.12
341.842	137.12
342.07	129.12
342.298	123.12
342.526	133.12
342.754	133.12
342.981	143.12
343.209	137.12
343.437	145.12
343.665	143.12
343.893	147.12
344.12	156.12
344.348	151.12
344.576	140.12
344.804	132.12
345.031	125.12
345.259	148.12
345.487	146.12
345.714	135.12
345.942	149.12
346.17	127.12
346.397	149.12
346.625	144.12
346.853	124.12
347.08	135.12
347.308	137.12
347.535	132.12
347.763	132.12
347.99	141.12
348.218	119.12
348.445	113.12
348.673	136.12
348.9	139.12
349.128	149.12
349.355	137.12
349.583	139.12
349.81	139.12
350.037	114.12
350.265	125.12
350.492	126.12
350.72	113.12
350.947	123.12
351.174	141.12
351.402	122.12
351.629	143.12
351.856	123.12
352.083	118.12
352.311	132.12
352.538	131.12
352.765	137.12
352.992	139.12
353.22	146.12
353.447	131.12
353.674	139.12
353.901	137.12
354.128	143.12
354.355	121.12
354.583	138.12
354.81	125.12
355.037	131.12
355.264	113.12
355.491	122.12
355.718	125.12
355.945	128.12
356.172	135.12
356.399	128.12
356.626	131.12
356.853	123.12
357.08	140.12
357.307	151.12
357.534	130.12
357.761	147.12
357.988	138.12
358.215	137.12
358.441	127.12
358.668	141.12
358.895	135.12
359.122	137.12
359.349	133.12
359.576	144.12
359.802	126.12
360.029	130.12
360.256	126.12
360.483	141.12
360.709	148.12
360.936	154.12
361.163	129.12
361.39	138.12
361.616	137.12
361.843	129.12
362.07	127.12
362.296	137.12
362.523	143.12
362.749	133.12
362.976	132.12
363.203	127.12
363.429	122.12
363.656	146.12
363.882	131.12
364.109	134.12
364.335	145.12
364.562	131.12
364.788	120.12
365.015	138.12
365.241	133.12
365.468	153.12
365.694	121.12
365.92	135.12
366.147	139.12
366.373	143.12
366.599	133.12
366.826	134.12
367.052	142.12
367.278	140.12
367.505	139.12
367.731	148.12
367.957	145.12
368.184	126.12
368.41	133.12
368.636	131.12
368.862	132.12
369.089	132.12
369.315	132.12
369.541	151.12
369.767	143.12
369.993	132.12
370.219	134.12
370.445	133.12
370.672	125.12
370.898	121.12
371.124	135.12
371.35	140.12
371.576	152.12
371.802	144.12
372.028	144.12
372.254	139.12
372.48	143.12
372.706	138.12
372.932	137.12
373.158	144.12
373.384	152.12
373.61	138.12
373.835	146.12
374.061	148.12
374.287	146.12
374.513	145.12
374.739	147.12
374.965	147.12
375.191	147.12
375.416	152.12
375.642	144.12
375.868	144.12
376.094	148.12
376.319	138.12
376.545	145.12
376.771	133.12
376.997	137.12
377.222	151.12
377.448	157.12
377.674	129.12
377.899	152.12
378.125	127.12
378.35	156.12
378.576	136.12
378.802	136.12
379.027	136.12
379.253	152.12
379.478	140.12
379.704	135.12
379.929	160.12
380.155	143.12
380.38	136.12
380.606	138.12
380.831	154.12
381.057	150.12
381.282	136.12
381.507	133.12
381.733	160.12
381.958	150.12
382.184	162.12
382.409	149.12
382.634	160.12
382.86	138.12
383.085	146.12
383.31	157.12
383.535	145.12
383.761	144.12
383.986	144.12
384.211	159.12
384.436	155.12
384.662	157.12
384.887	150.12
385.112	162.12
385.337	164.12
385.562	176.12
385.787	165.12
386.013	176.12
386.238	169.12
386.463	156.12
386.688	179.12
386.913	165.12
387.138	165.12
387.363	178.12
387.588	172.12
387.813	161.12
388.038	164.12
388.263	162.12
388.488	172.12
388.713	168.12
388.938	151.12
389.163	167.12
389.387	153.12
389.612	170.12
389.837	156.12
390.062	176.12
390.287	167.12
390.512	174.12
390.736	160.12
390.961	164.12
391.186	176.12
391.411	177.12
391.636	189.12
391.86	156.12
392.085	172.12
392.31	177.12
392.534	167.12
392.759	157.12
392.984	177.12
393.208	163.12
393.433	179.12
393.658	178.12
393.882	166.12
394.107	171.12
394.331	167.12
394.556	163.12
394.78	181.12
395.005	174.12
395.229	173.12
395.454	185.12
395.678	175.12
395.903	159.12
396.127	176.12
396.352	167.12
396.576	164.12
396.801	175.12
397.025	183.12
397.249	186.12
397.474	185.12
397.698	183.12
397.922	183.12
398.147	183.12
398.371	189.12
398.595	189.12
398.82	174.12
399.044	185.12
399.268	214.12
399.492	235.12
399.717	238.12
399.941	219.12
400.165	210.12
400.389	218.12
400.613	201.12
400.837	199.12
401.062	196.12
401.286	183.12
401.51	192.12
401.734	189.12
401.958	191.12
402.182	180.12
402.406	193.12
402.63	189.12
402.854	204.12
403.078	214.12
403.302	207.12
403.526	196.12
403.75	211.12
403.974	205.12
404.198	217.12
404.422	204.12
404.645	197.12
404.869	196.12
405.093	220.12
405.317	200.12
405.541	220.12
405.765	199.12
405.988	191.12
406.212	210.12
406.436	202.12
406.66	212.12
406.883	211.12
407.107	195.12
407.331	207.12
407.555	234.12
407.778	229.12
408.002	211.12
408.226	229.12
408.449	217.12
408.673	209.12
408.896	210.12
409.12	206.12
409.344	219.12
409.567	203.12
409.791	214.12
410.014	201.12
410.238	203.12
410.461	218.12
410.685	212.12
410.908	220.12
411.132	224.12
411.355	199.12
411.578	218.12
411.802	209.12
412.025	189.12
412.249	202.12
412.472	201.12
412.695	192.12
412.919	191.12
413.142	211.12
413.365	181.12
413.589	196.12
413.812	189.12
414.035	199.12
414.258	197.12
414.482	197.12
414.705	197.12
414.928	201.12
415.151	203.12
415.374	213.12
415.597	204.12
415.821	204.12
416.044	198.12
416.267	195.12
416.49	186.12
416.713	188.12
416.936	183.12
417.159	194.12
417.382	191.12
417.605	191.12
417.828	201.12
418.051	200.12
418.274	201.12
418.497	207.12
418.72	195.12
418.943	219.12
419.166	208.12
419.389	215.12
419.611	212.12
419.834	210.12
420.057	220.12
420.28	211.12
420.503	204.12
420.726	205.12
420.948	206.12
421.171	199.12
421.394	200.12
421.617	202.12
421.839	203.12
422.062	208.12
422.285	197.12
422.507	199.12
422.73	209.12
422.953	192.12
423.175	205.12
423.398	193.12
423.621	201.12
423.843	195.12
424.066	213.12
424.288	207.12
424.511	217.12
424.733	208.12
424.956	214.12
425.178	188.12
425.401	202.12
425.623	214.12
425.846	193.12
426.068	208.12
426.291	202.12
426.513	188.12
426.735	197.12
426.958	195.12
427.18	197.12
427.402	191.12
427.625	185.12
427.847	175.12
428.069	193.12
428.292	194.12
428.514	192.12
428.736	190.12
428.958	196.12
429.181	185.12
429.403	190.12
429.625	183.12
429.847	188.12
430.069	173.12
430.292	202.12
430.514	182.12
430.736	186.12
430.958	181.12
431.18	187.12
431.402	184.12
431.624	188.12
431.846	181.12
432.068	180.12
432.29	180.12
432.512	177.12
432.734	192.12
432.956	189.12
433.178	207.12
433.4	185.12
433.622	203.12
433.844	198.12
434.066	178.12
434.287	179.12
434.509	172.12
434.731	174.12
434.953	195.12
435.175	194.12
435.397	189.12
435.618	191.12
435.84	181.12
436.062	191.12
436.284	174.12
436.505	193.12
436.727	200.12
436.949	192.12
437.17	184.12
437.392	178.12
437.614	179.12
437.835	183.12
438.057	180.12
438.278	154.12
438.5	177.12
438.721	200.12
438.943	196.12
439.165	184.12
439.386	187.12
439.608	187.12
439.829	184.12
440.05	204.12
440.272	182.12
440.493	195.12
440.715	199.12
440.936	196.12
441.158	194.12
441.379	201.12
441.6	203.12
441.822	200.12
442.043	211.12
442.264	215.12
442.486	188.12
442.707	217.12
442.928	209.12
443.149	204.12
443.371	205.12
443.592	213.12
443.813	209.12
444.034	210.12
444.255	231.12
444.476	223.12
444.698	216.12
444.919	223.12
445.14	404.12
445.361	323.12
445.582	220.12
445.803	185.12
446.024	195.12
446.245	203.12
446.466	200.12
446.687	203.12
446.908	223.12
447.129	199.12
447.35	197.12
447.571	197.12
447.792	191.12
448.013	179.12
448.234	185.12
448.455	191.12
448.675	181.12
448.896	169.12
449.117	174.12
449.338	179.12
449.559	191.12
449.779	188.12
450	185.12
450.221	191.12
450.442	186.12
450.662	178.12
450.883	170.12
451.104	185.12
451.324	173.12
451.545	176.12
451.766	162.12
451.986	176.12
452.207	184.12
452.428	172.12
452.648	172.12
452.869	169.12
453.089	173.12
453.31	159.12
453.53	175.12
453.751	173.12
453.971	181.12
454.192	160.12
454.412	166.12
454.633	188.12
454.853	172.12
455.073	171.12
455.294	159.12
455.514	180.12
455.734	172.12
455.955	181.12
456.175	161.12
456.395	169.12
456.616	164.12
456.836	161.12
457.056	175.12
457.276	166.12
457.497	155.12
457.717	165.12
457.937	155.12
458.157	159.12
458.377	165.12
458.598	165.12
458.818	170.12
459.038	164.12
459.258	160.12
459.478	157.12
459.698	177.12
459.918	191.12
460.138	175.12
460.358	204.12
460.578	214.12
460.798	197.12
461.018	207.12
461.238	201.12
461.458	203.12
461.678	221.12
461.898	201.12
462.118	208.12
462.338	218.12
462.558	219.12
462.777	208.12
462.997	228.12
463.217	232.12
463.437	234.12
463.657	221.12
463.876	210.12
464.096	201.12
464.316	221.12
464.536	226.12
464.755	216.12
464.975	199.12
465.195	223.12
465.414	210.12
465.634	188.12
465.854	191.12
466.073	199.12
466.293	189.12
466.512	192.12
466.732	180.12
466.951	188.12
467.171	190.12
467.391	172.12
467.61	189.12
467.829	198.12
468.049	185.12
468.268	183.12
468.488	172.12
468.707	180.12
468.927	197.12
469.146	177.12
469.365	189.12
469.585	197.12
469.804	195.12
470.023	204.12
470.243	201.12
470.462	182.12
470.681	204.12
470.901	167.12
471.12	201.12
471.339	213.12
471.558	211.12
471.777	182.12
471.997	187.12
472.216	164.12
472.435	162.12
472.654	169.12
472.873	187.12
473.092	177.12
473.311	203.12
473.53	190.12
473.749	172.12
473.968	185.12
474.187	165.12
474.406	177.12
474.625	178.12
474.844	195.12
475.063	191.12
475.282	183.12
475.501	180.12
475.72	181.12
475.939	192.12
476.158	174.12
476.377	189.12
476.596	189.12
476.814	175.12
477.033	181.12
477.252	172.12
477.471	177.12
477.69	197.12
477.908	191.12
478.127	207.12
478.346	204.12
478.564	189.12
478.783	200.12
479.002	214.12
479.22	206.12
479.439	205.12
479.658	208.12
479.876	219.12
480.095	194.12
480.313	209.12
480.532	204.12
480.751	196.12
480.969	182.12
481.188	173.12
481.406	193.12
481.624	182.12
481.843	171.12
482.061	173.12
482.28	204.12
482.498	185.12
482.717	180.12
482.935	180.12
483.153	213.12
483.372	200.12
483.59	196.12
483.808	192.12
484.027	201.12
484.245	214.12
484.463	216.12
484.681	227.12
484.9	215.12
485.118	206.12
485.336	195.12
485.554	196.12
485.772	188.12
485.99	193.12
486.209	198.12
486.427	183.12
486.645	187.12
486.863	194.12
487.081	205.12
487.299	225.12
487.517	209.12
487.735	233.12
487.953	232.12
488.171	227.12
488.389	239.12
488.607	216.12
488.825	207.12
489.043	198.12
489.261	217.12
489.479	200.12
489.696	201.12
489.914	191.12
490.132	207.12
490.35	225.12
490.568	232.12
490.786	234.12
491.003	211.12
491.221	238.12
491.439	231.12
491.657	242.12
491.874	255.12
492.092	269.12
492.31	271.12
492.527	243.12
492.745	234.12
492.963	248.12
493.18	229.12
493.398	239.12
493.615	241.12
493.833	230.12
494.05	235.12
494.268	229.12
494.485	246.12
494.703	245.12
494.92	223.12
495.138	231.12
495.355	231.12
495.573	226.12
495.79	229.12
496.008	229.12
496.225	233.12
496.442	233.12
496.66	226.12
496.877	226.12
497.094	224.12
497.312	226.12
497.529	247.12
497.746	252.12
497.963	232.12
498.181	233.12
498.398	237.12
498.615	248.12
498.832	242.12
499.049	285.12
499.267	283.12
499.484	319.12
499.701	335.12
499.918	356.12
500.135	386.12
500.352	451.12
500.569	448.12
500.786	450.12
501.003	358.12
501.22	345.12
501.437	328.12
501.654	307.12
501.871	283.12
502.088	245.12
502.305	242.12
502.522	263.12
502.739	256.12
502.956	244.12
503.172	242.12
503.389	202.12
503.606	231.12
503.823	215.12
504.04	234.12
504.256	237.12
504.473	227.12
504.69	235.12
