Data from SampD_HRD10591_00058.txt Node
Date: Mon Jan 19 11:50:35 EST 2026
User: Yrep
Spectrometer: HR+D1059
Trigger mode: 0
Integration Time (sec): 3.443000E-1
Scans to average: 1
Electric dark correction enabled: true
Nonlinearity correction enabled: false
Boxcar width: 0
XAxis mode: Wavelengths
Number of Pixels in Spectrum: 2048
>>>>>Begin Spectral Data<<<<<
223.165	-24.19
223.4	-24.19
223.635	-24.19
223.869	-10.19
224.104	-40.19
224.338	-13.19
224.573	-7.19
224.808	-18.19
225.042	1.81
225.277	-8.19
225.511	8.81
225.746	3.81
225.98	8.81
226.215	8.81
226.449	13.81
226.683	25.81
226.918	19.81
227.152	29.81
227.387	47.81
227.621	51.81
227.856	50.81
228.09	41.81
228.324	55.81
228.559	65.81
228.793	57.81
229.027	53.81
229.262	58.81
229.496	77.81
229.73	69.81
229.964	80.81
230.199	79.81
230.433	85.81
230.667	78.81
230.901	70.81
231.136	76.81
231.37	74.81
231.604	81.81
231.838	90.81
232.072	83.81
232.306	86.81
232.541	71.81
232.775	88.81
233.009	83.81
233.243	88.81
233.477	77.81
233.711	102.81
233.945	82.81
234.179	84.81
234.413	86.81
234.647	87.81
234.881	100.81
235.115	71.81
235.349	81.81
235.583	84.81
235.817	81.81
236.051	84.81
236.285	71.81
236.519	74.81
236.753	83.81
236.987	77.81
237.221	87.81
237.455	85.81
237.689	86.81
237.922	92.81
238.156	78.81
238.39	70.81
238.624	78.81
238.858	90.81
239.091	84.81
239.325	88.81
239.559	81.81
239.793	85.81
240.027	79.81
240.26	73.81
240.494	73.81
240.728	73.81
240.961	67.81
241.195	69.81
241.429	69.81
241.662	85.81
241.896	90.81
242.13	89.81
242.363	76.81
242.597	79.81
242.83	83.81
243.064	83.81
243.298	91.81
243.531	88.81
243.765	87.81
243.998	86.81
244.232	97.81
244.465	91.81
244.699	80.81
244.932	73.81
245.166	69.81
245.399	85.81
245.633	92.81
245.866	81.81
246.099	78.81
246.333	82.81
246.566	74.81
246.8	80.81
247.033	85.81
247.266	78.81
247.5	85.81
247.733	91.81
247.966	80.81
248.2	87.81
248.433	85.81
248.666	83.81
248.899	86.81
249.133	84.81
249.366	90.81
249.599	88.81
249.832	89.81
250.066	87.81
250.299	96.81
250.532	91.81
250.765	89.81
250.998	82.81
251.231	77.81
251.465	81.81
251.698	82.81
251.931	85.81
252.164	84.81
252.397	86.81
252.63	92.81
252.863	90.81
253.096	93.81
253.329	86.81
253.562	94.81
253.795	92.81
254.028	93.81
254.261	76.81
254.494	83.81
254.727	94.81
254.96	89.81
255.193	82.81
255.426	90.81
255.659	99.81
255.892	99.81
256.124	84.81
256.357	105.81
256.59	72.81
256.823	79.81
257.056	95.81
257.289	78.81
257.521	84.81
257.754	96.81
257.987	99.81
258.22	92.81
258.452	99.81
258.685	78.81
258.918	94.81
259.151	98.81
259.383	73.81
259.616	84.81
259.849	83.81
260.081	94.81
260.314	81.81
260.547	86.81
260.779	88.81
261.012	97.81
261.244	93.81
261.477	89.81
261.71	86.81
261.942	87.81
262.175	97.81
262.407	83.81
262.64	94.81
262.872	93.81
263.105	94.81
263.337	104.81
263.57	96.81
263.802	87.81
264.035	77.81
264.267	97.81
264.499	101.81
264.732	86.81
264.964	92.81
265.197	95.81
265.429	93.81
265.661	93.81
265.894	92.81
266.126	90.81
266.358	101.81
266.591	85.81
266.823	77.81
267.055	86.81
267.287	98.81
267.52	72.81
267.752	91.81
267.984	97.81
268.216	91.81
268.448	97.81
268.681	90.81
268.913	87.81
269.145	81.81
269.377	87.81
269.609	97.81
269.841	92.81
270.073	96.81
270.306	93.81
270.538	106.81
270.77	94.81
271.002	92.81
271.234	101.81
271.466	104.81
271.698	93.81
271.93	97.81
272.162	91.81
272.394	103.81
272.626	89.81
272.858	97.81
273.09	102.81
273.322	91.81
273.553	85.81
273.785	97.81
274.017	87.81
274.249	84.81
274.481	87.81
274.713	98.81
274.945	98.81
275.176	96.81
275.408	102.81
275.64	100.81
275.872	87.81
276.104	100.81
276.335	89.81
276.567	102.81
276.799	82.81
277.031	103.81
277.262	98.81
277.494	93.81
277.726	99.81
277.957	103.81
278.189	91.81
278.421	103.81
278.652	87.81
278.884	94.81
279.115	101.81
279.347	102.81
279.579	105.81
279.81	89.81
280.042	84.81
280.273	87.81
280.505	79.81
280.736	85.81
280.968	105.81
281.199	97.81
281.431	93.81
281.662	105.81
281.894	76.81
282.125	97.81
282.356	98.81
282.588	89.81
282.819	97.81
283.051	95.81
283.282	84.81
283.513	99.81
283.745	109.81
283.976	89.81
284.207	102.81
284.439	93.81
284.67	106.81
284.901	108.81
285.132	113.81
285.364	99.81
285.595	109.81
285.826	92.81
286.057	103.81
286.288	92.81
286.52	108.81
286.751	101.81
286.982	106.81
287.213	95.81
287.444	105.81
287.675	105.81
287.906	114.81
288.138	97.81
288.369	83.81
288.6	95.81
288.831	105.81
289.062	100.81
289.293	100.81
289.524	89.81
289.755	105.81
289.986	99.81
290.217	107.81
290.448	98.81
290.679	102.81
290.91	107.81
291.141	102.81
291.371	112.81
291.602	95.81
291.833	97.81
292.064	105.81
292.295	106.81
292.526	94.81
292.757	99.81
292.987	105.81
293.218	95.81
293.449	101.81
293.68	108.81
293.91	91.81
294.141	99.81
294.372	114.81
294.603	103.81
294.833	97.81
295.064	83.81
295.295	113.81
295.525	109.81
295.756	93.81
295.987	101.81
296.217	92.81
296.448	103.81
296.679	97.81
296.909	108.81
297.14	110.81
297.37	112.81
297.601	106.81
297.831	98.81
298.062	101.81
298.292	98.81
298.523	111.81
298.753	102.81
298.984	98.81
299.214	94.81
299.445	107.81
299.675	108.81
299.905	124.81
300.136	105.81
300.366	99.81
300.597	120.81
300.827	116.81
301.057	137.81
301.288	119.81
301.518	96.81
301.748	102.81
301.979	139.81
302.209	115.81
302.439	99.81
302.669	107.81
302.9	108.81
303.13	114.81
303.36	97.81
303.59	98.81
303.82	111.81
304.051	101.81
304.281	107.81
304.511	121.81
304.741	110.81
304.971	106.81
305.201	121.81
305.431	105.81
305.661	114.81
305.891	117.81
306.121	134.81
306.352	103.81
306.582	104.81
306.812	99.81
307.042	103.81
307.272	105.81
307.502	110.81
307.731	107.81
307.961	103.81
308.191	102.81
308.421	111.81
308.651	111.81
308.881	95.81
309.111	91.81
309.341	93.81
309.571	90.81
309.8	113.81
310.03	99.81
310.26	111.81
310.49	109.81
310.72	113.81
310.949	109.81
311.179	89.81
311.409	93.81
311.639	109.81
311.868	109.81
312.098	109.81
312.328	106.81
312.557	97.81
312.787	113.81
313.017	99.81
313.246	113.81
313.476	112.81
313.706	121.81
313.935	109.81
314.165	106.81
314.394	120.81
314.624	118.81
314.853	103.81
315.083	113.81
315.312	99.81
315.542	117.81
315.771	100.81
316.001	111.81
316.23	111.81
316.46	103.81
316.689	116.81
316.919	113.81
317.148	126.81
317.377	94.81
317.607	97.81
317.836	102.81
318.065	100.81
318.295	116.81
318.524	114.81
318.753	102.81
318.983	106.81
319.212	108.81
319.441	98.81
319.67	109.81
319.9	108.81
320.129	106.81
320.358	97.81
320.587	94.81
320.816	107.81
321.046	91.81
321.275	125.81
321.504	105.81
321.733	114.81
321.962	121.81
322.191	111.81
322.42	116.81
322.649	118.81
322.878	119.81
323.108	108.81
323.337	101.81
323.566	107.81
323.795	94.81
324.024	111.81
324.253	110.81
324.482	94.81
324.71	100.81
324.939	112.81
325.168	87.81
325.397	109.81
325.626	117.81
325.855	115.81
326.084	118.81
326.313	96.81
326.542	97.81
326.77	108.81
326.999	94.81
327.228	109.81
327.457	100.81
327.686	110.81
327.914	109.81
328.143	129.81
328.372	118.81
328.6	110.81
328.829	113.81
329.058	99.81
329.287	86.81
329.515	116.81
329.744	120.81
329.972	122.81
330.201	104.81
330.43	91.81
330.658	109.81
330.887	124.81
331.115	126.81
331.344	114.81
331.572	126.81
331.801	102.81
332.03	123.81
332.258	117.81
332.486	107.81
332.715	111.81
332.943	125.81
333.172	122.81
333.4	109.81
333.629	128.81
333.857	122.81
334.085	113.81
334.314	122.81
334.542	109.81
334.771	111.81
334.999	96.81
335.227	123.81
335.455	108.81
335.684	116.81
335.912	115.81
336.14	104.81
336.369	108.81
336.597	127.81
336.825	97.81
337.053	108.81
337.281	119.81
337.51	107.81
337.738	129.81
337.966	102.81
338.194	96.81
338.422	107.81
338.65	119.81
338.878	110.81
339.106	115.81
339.334	121.81
339.562	101.81
339.79	120.81
340.018	126.81
340.246	111.81
340.474	110.81
340.702	96.81
340.93	102.81
341.158	96.81
341.386	116.81
341.614	124.81
341.842	122.81
342.07	110.81
342.298	119.81
342.526	110.81
342.754	111.81
342.981	99.81
343.209	117.81
343.437	137.81
343.665	103.81
343.893	131.81
344.12	134.81
344.348	117.81
344.576	115.81
344.804	120.81
345.031	115.81
345.259	118.81
345.487	116.81
345.714	111.81
345.942	91.81
346.17	120.81
346.397	106.81
346.625	107.81
346.853	117.81
347.08	101.81
347.308	102.81
347.535	100.81
347.763	116.81
347.99	111.81
348.218	117.81
348.445	103.81
348.673	108.81
348.9	113.81
349.128	122.81
349.355	105.81
349.583	109.81
349.81	98.81
350.037	100.81
350.265	108.81
350.492	108.81
350.72	88.81
350.947	121.81
351.174	102.81
351.402	98.81
351.629	112.81
351.856	108.81
352.083	116.81
352.311	119.81
352.538	113.81
352.765	99.81
352.992	131.81
353.22	106.81
353.447	108.81
353.674	110.81
353.901	118.81
354.128	105.81
354.355	108.81
354.583	105.81
354.81	114.81
355.037	101.81
355.264	106.81
355.491	106.81
355.718	104.81
355.945	99.81
356.172	95.81
356.399	115.81
356.626	101.81
356.853	90.81
357.08	107.81
357.307	105.81
357.534	116.81
357.761	114.81
357.988	118.81
358.215	107.81
358.441	107.81
358.668	104.81
358.895	112.81
359.122	101.81
359.349	104.81
359.576	106.81
359.802	82.81
360.029	94.81
360.256	102.81
360.483	107.81
360.709	109.81
360.936	111.81
361.163	109.81
361.39	111.81
361.616	114.81
361.843	109.81
362.07	106.81
362.296	112.81
362.523	111.81
362.749	121.81
362.976	103.81
363.203	123.81
363.429	108.81
363.656	123.81
363.882	126.81
364.109	113.81
364.335	117.81
364.562	121.81
364.788	109.81
365.015	109.81
365.241	109.81
365.468	112.81
365.694	106.81
365.92	113.81
366.147	93.81
366.373	120.81
366.599	107.81
366.826	100.81
367.052	107.81
367.278	99.81
367.505	130.81
367.731	136.81
367.957	112.81
368.184	97.81
368.41	116.81
368.636	105.81
368.862	119.81
369.089	109.81
369.315	94.81
369.541	118.81
369.767	116.81
369.993	114.81
370.219	91.81
370.445	101.81
370.672	111.81
370.898	111.81
371.124	107.81
371.35	124.81
371.576	111.81
371.802	110.81
372.028	126.81
372.254	123.81
372.48	110.81
372.706	108.81
372.932	117.81
373.158	106.81
373.384	105.81
373.61	120.81
373.835	135.81
374.061	123.81
374.287	141.81
374.513	108.81
374.739	116.81
374.965	106.81
375.191	111.81
375.416	128.81
375.642	117.81
375.868	125.81
376.094	111.81
376.319	116.81
376.545	93.81
376.771	113.81
376.997	116.81
377.222	102.81
377.448	113.81
377.674	113.81
377.899	111.81
378.125	103.81
378.35	120.81
378.576	114.81
378.802	122.81
379.027	117.81
379.253	131.81
379.478	108.81
379.704	124.81
379.929	104.81
380.155	116.81
380.38	98.81
380.606	102.81
380.831	117.81
381.057	143.81
381.282	102.81
381.507	99.81
381.733	101.81
381.958	132.81
382.184	113.81
382.409	102.81
382.634	127.81
382.86	124.81
383.085	124.81
383.31	102.81
383.535	118.81
383.761	117.81
383.986	117.81
384.211	109.81
384.436	121.81
384.662	126.81
384.887	124.81
385.112	138.81
385.337	108.81
385.562	117.81
385.787	120.81
386.013	126.81
386.238	125.81
386.463	131.81
386.688	166.81
386.913	121.81
387.138	128.81
387.363	117.81
387.588	137.81
387.813	131.81
388.038	118.81
388.263	113.81
388.488	115.81
388.713	109.81
388.938	116.81
389.163	117.81
389.387	113.81
389.612	118.81
389.837	117.81
390.062	131.81
390.287	128.81
390.512	122.81
390.736	106.81
390.961	114.81
391.186	127.81
391.411	128.81
391.636	125.81
391.86	132.81
392.085	117.81
392.31	121.81
392.534	125.81
392.759	122.81
392.984	122.81
393.208	142.81
393.433	133.81
393.658	122.81
393.882	111.81
394.107	135.81
394.331	133.81
394.556	111.81
394.78	129.81
395.005	124.81
395.229	115.81
395.454	126.81
395.678	123.81
395.903	141.81
396.127	127.81
396.352	109.81
396.576	125.81
396.801	135.81
397.025	113.81
397.249	134.81
397.474	138.81
397.698	132.81
397.922	141.81
398.147	129.81
398.371	136.81
398.595	138.81
398.82	141.81
399.044	115.81
399.268	139.81
399.492	162.81
399.717	165.81
399.941	157.81
400.165	157.81
400.389	150.81
400.613	134.81
400.837	153.81
401.062	137.81
401.286	127.81
401.51	126.81
401.734	127.81
401.958	125.81
402.182	141.81
402.406	136.81
402.63	137.81
402.854	143.81
403.078	131.81
403.302	127.81
403.526	143.81
403.75	139.81
403.974	149.81
404.198	124.81
404.422	145.81
404.645	151.81
404.869	141.81
405.093	129.81
405.317	123.81
405.541	154.81
405.765	136.81
405.988	143.81
406.212	141.81
406.436	122.81
406.66	142.81
406.883	159.81
407.107	145.81
407.331	148.81
407.555	138.81
407.778	146.81
408.002	153.81
408.226	150.81
408.449	152.81
408.673	157.81
408.896	136.81
409.12	135.81
409.344	161.81
409.567	149.81
409.791	148.81
410.014	136.81
410.238	133.81
410.461	148.81
410.685	147.81
410.908	152.81
411.132	147.81
411.355	139.81
411.578	122.81
411.802	119.81
412.025	131.81
412.249	130.81
412.472	131.81
412.695	139.81
412.919	139.81
413.142	137.81
413.365	149.81
413.589	141.81
413.812	145.81
414.035	149.81
414.258	134.81
414.482	137.81
414.705	127.81
414.928	137.81
415.151	142.81
415.374	138.81
415.597	141.81
415.821	160.81
416.044	129.81
416.267	135.81
416.49	141.81
416.713	138.81
416.936	137.81
417.159	145.81
417.382	129.81
417.605	139.81
417.828	135.81
418.051	124.81
418.274	147.81
418.497	150.81
418.72	131.81
418.943	141.81
419.166	150.81
419.389	145.81
419.611	146.81
419.834	135.81
420.057	151.81
420.28	147.81
420.503	145.81
420.726	143.81
420.948	143.81
421.171	136.81
421.394	146.81
421.617	139.81
421.839	138.81
422.062	141.81
422.285	147.81
422.507	140.81
422.73	132.81
422.953	133.81
423.175	147.81
423.398	143.81
423.621	147.81
423.843	125.81
424.066	128.81
424.288	139.81
424.511	136.81
424.733	145.81
424.956	152.81
425.178	153.81
425.401	141.81
425.623	133.81
425.846	139.81
426.068	136.81
426.291	150.81
426.513	134.81
426.735	147.81
426.958	138.81
427.18	134.81
427.402	139.81
427.625	133.81
427.847	132.81
428.069	145.81
428.292	153.81
428.514	135.81
428.736	150.81
428.958	133.81
429.181	123.81
429.403	125.81
429.625	131.81
429.847	140.81
430.069	121.81
430.292	136.81
430.514	127.81
430.736	132.81
430.958	138.81
431.18	124.81
431.402	142.81
431.624	149.81
431.846	130.81
432.068	140.81
432.29	130.81
432.512	145.81
432.734	125.81
432.956	112.81
433.178	126.81
433.4	128.81
433.622	136.81
433.844	138.81
434.066	129.81
434.287	126.81
434.509	131.81
434.731	139.81
434.953	132.81
435.175	135.81
435.397	132.81
435.618	144.81
435.84	134.81
436.062	130.81
436.284	128.81
436.505	136.81
436.727	127.81
436.949	133.81
437.17	136.81
437.392	126.81
437.614	114.81
437.835	121.81
438.057	117.81
438.278	118.81
438.5	125.81
438.721	135.81
438.943	129.81
439.165	147.81
439.386	150.81
439.608	130.81
439.829	139.81
440.05	134.81
440.272	132.81
440.493	138.81
440.715	141.81
440.936	132.81
441.158	134.81
441.379	144.81
441.6	137.81
441.822	157.81
442.043	141.81
442.264	135.81
442.486	138.81
442.707	124.81
442.928	135.81
443.149	147.81
443.371	154.81
443.592	135.81
443.813	140.81
444.034	138.81
444.255	136.81
444.476	148.81
444.698	149.81
444.919	166.81
445.14	422.81
445.361	260.81
445.582	170.81
445.803	148.81
446.024	142.81
446.245	149.81
446.466	140.81
446.687	125.81
446.908	165.81
447.129	134.81
447.35	123.81
447.571	146.81
447.792	129.81
448.013	119.81
448.234	128.81
448.455	142.81
448.675	134.81
448.896	115.81
449.117	134.81
449.338	126.81
449.559	138.81
449.779	147.81
450	111.81
450.221	135.81
450.442	125.81
450.662	131.81
450.883	142.81
451.104	135.81
451.324	134.81
451.545	121.81
451.766	134.81
451.986	122.81
452.207	127.81
452.428	138.81
452.648	119.81
452.869	127.81
453.089	120.81
453.31	117.81
453.53	133.81
453.751	113.81
453.971	125.81
454.192	112.81
454.412	110.81
454.633	115.81
454.853	117.81
455.073	132.81
455.294	131.81
455.514	109.81
455.734	122.81
455.955	130.81
456.175	121.81
456.395	126.81
456.616	120.81
456.836	130.81
457.056	142.81
457.276	118.81
457.497	114.81
457.717	116.81
457.937	125.81
458.157	124.81
458.377	114.81
458.598	125.81
458.818	123.81
459.038	124.81
459.258	126.81
459.478	129.81
459.698	117.81
459.918	139.81
460.138	113.81
460.358	142.81
460.578	149.81
460.798	122.81
461.018	131.81
461.238	138.81
461.458	126.81
461.678	147.81
461.898	116.81
462.118	145.81
462.338	150.81
462.558	149.81
462.777	135.81
462.997	143.81
463.217	156.81
463.437	135.81
463.657	148.81
463.876	151.81
464.096	148.81
464.316	154.81
464.536	141.81
464.755	145.81
464.975	139.81
465.195	139.81
465.414	148.81
465.634	134.81
465.854	136.81
466.073	133.81
466.293	126.81
466.512	117.81
466.732	120.81
466.951	139.81
467.171	134.81
467.391	130.81
467.61	124.81
467.829	132.81
468.049	114.81
468.268	122.81
468.488	123.81
468.707	140.81
468.927	137.81
469.146	131.81
469.365	129.81
469.585	133.81
469.804	134.81
470.023	123.81
470.243	133.81
470.462	134.81
470.681	133.81
470.901	139.81
471.12	139.81
471.339	138.81
471.558	128.81
471.777	132.81
471.997	130.81
472.216	133.81
472.435	122.81
472.654	126.81
472.873	122.81
473.092	146.81
473.311	132.81
473.53	147.81
473.749	135.81
473.968	130.81
474.187	126.81
474.406	113.81
474.625	125.81
474.844	131.81
475.063	133.81
475.282	131.81
475.501	132.81
475.72	130.81
475.939	132.81
476.158	127.81
476.377	123.81
476.596	132.81
476.814	129.81
477.033	120.81
477.252	135.81
477.471	135.81
477.69	137.81
477.908	131.81
478.127	147.81
478.346	142.81
478.564	129.81
478.783	103.81
479.002	128.81
479.22	149.81
479.439	132.81
479.658	132.81
479.876	137.81
480.095	122.81
480.313	148.81
480.532	152.81
480.751	140.81
480.969	129.81
481.188	124.81
481.406	130.81
481.624	114.81
481.843	110.81
482.061	133.81
482.28	130.81
482.498	142.81
482.717	140.81
482.935	136.81
483.153	138.81
483.372	150.81
483.59	150.81
483.808	127.81
484.027	148.81
484.245	153.81
484.463	134.81
484.681	165.81
484.9	147.81
485.118	149.81
485.336	126.81
485.554	139.81
485.772	130.81
485.99	116.81
486.209	135.81
486.427	137.81
486.645	124.81
486.863	143.81
487.081	145.81
487.299	121.81
487.517	139.81
487.735	161.81
487.953	166.81
488.171	148.81
488.389	129.81
488.607	141.81
488.825	125.81
489.043	138.81
489.261	136.81
489.479	142.81
489.696	152.81
489.914	149.81
490.132	134.81
490.35	150.81
490.568	139.81
490.786	138.81
491.003	145.81
491.221	149.81
491.439	166.81
491.657	153.81
491.874	165.81
492.092	167.81
492.31	161.81
492.527	161.81
492.745	176.81
492.963	182.81
493.18	156.81
493.398	165.81
493.615	166.81
493.833	153.81
494.05	152.81
494.268	148.81
494.485	138.81
494.703	161.81
494.92	159.81
495.138	156.81
495.355	160.81
495.573	152.81
495.79	161.81
496.008	141.81
496.225	153.81
496.442	152.81
496.66	173.81
496.877	142.81
497.094	170.81
497.312	161.81
497.529	162.81
497.746	157.81
497.963	167.81
498.181	153.81
498.398	147.81
498.615	151.81
498.832	157.81
499.049	147.81
499.267	185.81
499.484	185.81
499.701	209.81
499.918	215.81
500.135	233.81
500.352	257.81
500.569	251.81
500.786	242.81
501.003	237.81
501.22	201.81
501.437	196.81
501.654	178.81
501.871	174.81
502.088	179.81
502.305	190.81
502.522	167.81
502.739	157.81
502.956	166.81
503.172	151.81
503.389	148.81
503.606	137.81
503.823	162.81
504.04	163.81
504.256	140.81
504.473	157.81
504.69	153.81
504.907	182.81
505.123	163.81
505.34	133.81
505.557	137.81
505.773	149.81
505.99	143.81
506.207	132.81
506.423	137.81
506.64	133.81
506.856	127.81
