Data from SampD_HRD10591_00012.txt Node
Date: Mon Jan 19 11:50:19 EST 2026
User: Yrep
Spectrometer: HR+D1059
Trigger mode: 0
Integration Time (sec): 3.443000E-1
Scans to average: 1
Electric dark correction enabled: true
Nonlinearity correction enabled: false
Boxcar width: 0
XAxis mode: Wavelengths
Number of Pixels in Spectrum: 2048
>>>>>Begin Spectral Data<<<<<
223.165	-16.44
223.4	-16.44
223.635	-16.44
223.869	-28.44
224.104	-17.44
224.338	-23.44
224.573	-20.44
224.808	-8.44
225.042	0.56
225.277	-8.44
225.511	-8.44
225.746	8.56
225.98	11.56
226.215	13.56
226.449	13.56
226.683	16.56
226.918	27.56
227.152	39.56
227.387	24.56
227.621	48.56
227.856	35.56
228.09	36.56
228.324	45.56
228.559	56.56
228.793	64.56
229.027	77.56
229.262	61.56
229.496	66.56
229.73	71.56
229.964	67.56
230.199	68.56
230.433	82.56
230.667	71.56
230.901	81.56
231.136	82.56
231.37	77.56
231.604	75.56
231.838	81.56
232.072	84.56
232.306	78.56
232.541	83.56
232.775	85.56
233.009	82.56
233.243	85.56
233.477	71.56
233.711	99.56
233.945	100.56
234.179	61.56
234.413	77.56
234.647	81.56
234.881	80.56
235.115	78.56
235.349	91.56
235.583	106.56
235.817	77.56
236.051	63.56
236.285	83.56
236.519	77.56
236.753	77.56
236.987	79.56
237.221	62.56
237.455	98.56
237.689	79.56
237.922	81.56
238.156	90.56
238.39	99.56
238.624	78.56
238.858	89.56
239.091	84.56
239.325	75.56
239.559	101.56
239.793	96.56
240.027	83.56
240.26	87.56
240.494	65.56
240.728	68.56
240.961	77.56
241.195	77.56
241.429	76.56
241.662	85.56
241.896	79.56
242.13	84.56
242.363	79.56
242.597	63.56
242.83	71.56
243.064	76.56
243.298	77.56
243.531	71.56
243.765	75.56
243.998	83.56
244.232	84.56
244.465	69.56
244.699	83.56
244.932	71.56
245.166	91.56
245.399	83.56
245.633	87.56
245.866	86.56
246.099	92.56
246.333	77.56
246.566	75.56
246.8	91.56
247.033	80.56
247.266	84.56
247.5	77.56
247.733	89.56
247.966	79.56
248.2	86.56
248.433	75.56
248.666	91.56
248.899	87.56
249.133	80.56
249.366	94.56
249.599	95.56
249.832	85.56
250.066	99.56
250.299	91.56
250.532	91.56
250.765	87.56
250.998	81.56
251.231	88.56
251.465	90.56
251.698	85.56
251.931	63.56
252.164	80.56
252.397	102.56
252.63	80.56
252.863	94.56
253.096	74.56
253.329	95.56
253.562	71.56
253.795	97.56
254.028	93.56
254.261	80.56
254.494	78.56
254.727	88.56
254.96	95.56
255.193	79.56
255.426	89.56
255.659	89.56
255.892	95.56
256.124	93.56
256.357	87.56
256.59	103.56
256.823	91.56
257.056	95.56
257.289	91.56
257.521	102.56
257.754	86.56
257.987	79.56
258.22	111.56
258.452	77.56
258.685	83.56
258.918	88.56
259.151	91.56
259.383	91.56
259.616	88.56
259.849	93.56
260.081	83.56
260.314	101.56
260.547	89.56
260.779	94.56
261.012	79.56
261.244	85.56
261.477	85.56
261.71	85.56
261.942	92.56
262.175	88.56
262.407	92.56
262.64	100.56
262.872	82.56
263.105	102.56
263.337	97.56
263.57	93.56
263.802	101.56
264.035	112.56
264.267	86.56
264.499	102.56
264.732	94.56
264.964	100.56
265.197	99.56
265.429	97.56
265.661	97.56
265.894	93.56
266.126	101.56
266.358	97.56
266.591	96.56
266.823	87.56
267.055	87.56
267.287	105.56
267.52	105.56
267.752	97.56
267.984	91.56
268.216	112.56
268.448	113.56
268.681	106.56
268.913	91.56
269.145	91.56
269.377	88.56
269.609	103.56
269.841	105.56
270.073	96.56
270.306	92.56
270.538	87.56
270.77	97.56
271.002	105.56
271.234	103.56
271.466	101.56
271.698	108.56
271.93	98.56
272.162	110.56
272.394	107.56
272.626	103.56
272.858	99.56
273.09	107.56
273.322	99.56
273.553	107.56
273.785	81.56
274.017	101.56
274.249	108.56
274.481	97.56
274.713	98.56
274.945	102.56
275.176	94.56
275.408	112.56
275.64	97.56
275.872	93.56
276.104	103.56
276.335	92.56
276.567	95.56
276.799	119.56
277.031	109.56
277.262	103.56
277.494	108.56
277.726	90.56
277.957	90.56
278.189	104.56
278.421	97.56
278.652	99.56
278.884	103.56
279.115	103.56
279.347	102.56
279.579	96.56
279.81	95.56
280.042	108.56
280.273	99.56
280.505	113.56
280.736	105.56
280.968	111.56
281.199	125.56
281.431	123.56
281.662	116.56
281.894	114.56
282.125	90.56
282.356	116.56
282.588	107.56
282.819	113.56
283.051	110.56
283.282	86.56
283.513	103.56
283.745	117.56
283.976	103.56
284.207	114.56
284.439	120.56
284.67	111.56
284.901	97.56
285.132	113.56
285.364	95.56
285.595	112.56
285.826	101.56
286.057	103.56
286.288	99.56
286.52	114.56
286.751	98.56
286.982	106.56
287.213	112.56
287.444	107.56
287.675	103.56
287.906	112.56
288.138	102.56
288.369	105.56
288.6	104.56
288.831	95.56
289.062	104.56
289.293	103.56
289.524	103.56
289.755	110.56
289.986	112.56
290.217	120.56
290.448	127.56
290.679	118.56
290.91	110.56
291.141	111.56
291.371	121.56
291.602	109.56
291.833	115.56
292.064	111.56
292.295	104.56
292.526	115.56
292.757	106.56
292.987	101.56
293.218	100.56
293.449	94.56
293.68	100.56
293.91	126.56
294.141	112.56
294.372	109.56
294.603	106.56
294.833	99.56
295.064	108.56
295.295	107.56
295.525	109.56
295.756	124.56
295.987	127.56
296.217	112.56
296.448	120.56
296.679	112.56
296.909	113.56
297.14	119.56
297.37	121.56
297.601	118.56
297.831	100.56
298.062	122.56
298.292	118.56
298.523	121.56
298.753	127.56
298.984	123.56
299.214	104.56
299.445	107.56
299.675	119.56
299.905	126.56
300.136	111.56
300.366	123.56
300.597	114.56
300.827	124.56
301.057	128.56
301.288	117.56
301.518	116.56
301.748	109.56
301.979	163.56
302.209	118.56
302.439	113.56
302.669	125.56
302.9	112.56
303.13	113.56
303.36	124.56
303.59	118.56
303.82	118.56
304.051	123.56
304.281	131.56
304.511	128.56
304.741	123.56
304.971	126.56
305.201	135.56
305.431	119.56
305.661	119.56
305.891	110.56
306.121	125.56
306.352	116.56
306.582	111.56
306.812	125.56
307.042	107.56
307.272	121.56
307.502	124.56
307.731	125.56
307.961	117.56
308.191	109.56
308.421	134.56
308.651	127.56
308.881	117.56
309.111	120.56
309.341	118.56
309.571	113.56
309.8	130.56
310.03	120.56
310.26	98.56
310.49	123.56
310.72	125.56
310.949	111.56
311.179	122.56
311.409	126.56
311.639	120.56
311.868	130.56
312.098	118.56
312.328	125.56
312.557	113.56
312.787	105.56
313.017	110.56
313.246	128.56
313.476	122.56
313.706	108.56
313.935	138.56
314.165	112.56
314.394	101.56
314.624	123.56
314.853	135.56
315.083	116.56
315.312	126.56
315.542	98.56
315.771	114.56
316.001	116.56
316.23	119.56
316.46	127.56
316.689	125.56
316.919	119.56
317.148	120.56
317.377	136.56
317.607	131.56
317.836	123.56
318.065	128.56
318.295	119.56
318.524	115.56
318.753	126.56
318.983	118.56
319.212	131.56
319.441	114.56
319.67	124.56
319.9	117.56
320.129	139.56
320.358	126.56
320.587	112.56
320.816	123.56
321.046	115.56
321.275	111.56
321.504	129.56
321.733	127.56
321.962	127.56
322.191	125.56
322.42	127.56
322.649	120.56
322.878	111.56
323.108	108.56
323.337	120.56
323.566	138.56
323.795	112.56
324.024	114.56
324.253	120.56
324.482	116.56
324.71	132.56
324.939	131.56
325.168	123.56
325.397	119.56
325.626	123.56
325.855	127.56
326.084	129.56
326.313	123.56
326.542	116.56
326.77	129.56
326.999	133.56
327.228	128.56
327.457	125.56
327.686	135.56
327.914	132.56
328.143	131.56
328.372	133.56
328.6	129.56
328.829	124.56
329.058	125.56
329.287	130.56
329.515	126.56
329.744	129.56
329.972	126.56
330.201	125.56
330.43	118.56
330.658	112.56
330.887	132.56
331.115	135.56
331.344	132.56
331.572	136.56
331.801	122.56
332.03	121.56
332.258	139.56
332.486	128.56
332.715	147.56
332.943	148.56
333.172	158.56
333.4	150.56
333.629	148.56
333.857	144.56
334.085	128.56
334.314	155.56
334.542	149.56
334.771	150.56
334.999	148.56
335.227	139.56
335.455	118.56
335.684	146.56
335.912	147.56
336.14	127.56
336.369	132.56
336.597	131.56
336.825	151.56
337.053	124.56
337.281	125.56
337.51	126.56
337.738	146.56
337.966	134.56
338.194	127.56
338.422	115.56
338.65	139.56
338.878	139.56
339.106	130.56
339.334	145.56
339.562	134.56
339.79	130.56
340.018	130.56
340.246	123.56
340.474	134.56
340.702	141.56
340.93	151.56
341.158	121.56
341.386	123.56
341.614	129.56
341.842	113.56
342.07	118.56
342.298	127.56
342.526	126.56
342.754	140.56
342.981	133.56
343.209	143.56
343.437	182.56
343.665	147.56
343.893	159.56
344.12	147.56
344.348	137.56
344.576	151.56
344.804	134.56
345.031	138.56
345.259	126.56
345.487	123.56
345.714	131.56
345.942	129.56
346.17	126.56
346.397	128.56
346.625	131.56
346.853	130.56
347.08	134.56
347.308	130.56
347.535	130.56
347.763	136.56
347.99	137.56
348.218	128.56
348.445	126.56
348.673	114.56
348.9	139.56
349.128	125.56
349.355	117.56
349.583	125.56
349.81	122.56
350.037	128.56
350.265	136.56
350.492	115.56
350.72	131.56
350.947	116.56
351.174	120.56
351.402	111.56
351.629	125.56
351.856	132.56
352.083	125.56
352.311	134.56
352.538	127.56
352.765	115.56
352.992	144.56
353.22	131.56
353.447	127.56
353.674	129.56
353.901	156.56
354.128	136.56
354.355	136.56
354.583	125.56
354.81	120.56
355.037	135.56
355.264	124.56
355.491	121.56
355.718	124.56
355.945	132.56
356.172	128.56
356.399	129.56
356.626	133.56
356.853	122.56
357.08	139.56
357.307	135.56
357.534	123.56
357.761	138.56
357.988	146.56
358.215	142.56
358.441	121.56
358.668	114.56
358.895	131.56
359.122	128.56
359.349	128.56
359.576	135.56
359.802	122.56
360.029	138.56
360.256	135.56
360.483	131.56
360.709	115.56
360.936	135.56
361.163	132.56
361.39	135.56
361.616	126.56
361.843	121.56
362.07	130.56
362.296	139.56
362.523	127.56
362.749	122.56
362.976	133.56
363.203	137.56
363.429	123.56
363.656	128.56
363.882	129.56
364.109	121.56
364.335	127.56
364.562	135.56
364.788	121.56
365.015	132.56
365.241	116.56
365.468	141.56
365.694	117.56
365.92	137.56
366.147	130.56
366.373	115.56
366.599	128.56
366.826	134.56
367.052	135.56
367.278	132.56
367.505	134.56
367.731	143.56
367.957	132.56
368.184	143.56
368.41	116.56
368.636	131.56
368.862	136.56
369.089	127.56
369.315	132.56
369.541	128.56
369.767	116.56
369.993	134.56
370.219	122.56
370.445	136.56
370.672	127.56
370.898	147.56
371.124	127.56
371.35	121.56
371.576	133.56
371.802	146.56
372.028	134.56
372.254	153.56
372.48	124.56
372.706	136.56
372.932	130.56
373.158	145.56
373.384	144.56
373.61	144.56
373.835	152.56
374.061	137.56
374.287	158.56
374.513	135.56
374.739	151.56
374.965	139.56
375.191	136.56
375.416	143.56
375.642	141.56
375.868	151.56
376.094	117.56
376.319	132.56
376.545	141.56
376.771	140.56
376.997	132.56
377.222	133.56
377.448	126.56
377.674	134.56
377.899	132.56
378.125	152.56
378.35	143.56
378.576	140.56
378.802	127.56
379.027	136.56
379.253	155.56
379.478	125.56
379.704	125.56
379.929	157.56
380.155	126.56
380.38	143.56
380.606	143.56
380.831	148.56
381.057	170.56
381.282	150.56
381.507	126.56
381.733	152.56
381.958	131.56
382.184	143.56
382.409	147.56
382.634	162.56
382.86	135.56
383.085	157.56
383.31	152.56
383.535	150.56
383.761	162.56
383.986	163.56
384.211	140.56
384.436	148.56
384.662	154.56
384.887	162.56
385.112	134.56
385.337	154.56
385.562	155.56
385.787	165.56
386.013	162.56
386.238	155.56
386.463	177.56
386.688	187.56
386.913	163.56
387.138	152.56
387.363	155.56
387.588	171.56
387.813	159.56
388.038	177.56
388.263	170.56
388.488	134.56
388.713	156.56
388.938	149.56
389.163	151.56
389.387	164.56
389.612	145.56
389.837	152.56
390.062	156.56
390.287	150.56
390.512	163.56
390.736	157.56
390.961	152.56
391.186	178.56
391.411	168.56
391.636	155.56
391.86	169.56
392.085	159.56
392.31	161.56
392.534	168.56
392.759	175.56
392.984	157.56
393.208	160.56
393.433	154.56
393.658	174.56
393.882	148.56
394.107	173.56
394.331	185.56
394.556	174.56
394.78	182.56
395.005	168.56
395.229	164.56
395.454	167.56
395.678	173.56
395.903	167.56
396.127	191.56
396.352	178.56
396.576	146.56
396.801	149.56
397.025	170.56
397.249	176.56
397.474	177.56
397.698	175.56
397.922	177.56
398.147	167.56
398.371	179.56
398.595	171.56
398.82	190.56
399.044	205.56
399.268	206.56
399.492	231.56
399.717	251.56
399.941	222.56
400.165	223.56
400.389	207.56
400.613	187.56
400.837	185.56
401.062	184.56
401.286	173.56
401.51	189.56
401.734	182.56
401.958	204.56
402.182	181.56
402.406	170.56
402.63	183.56
402.854	200.56
403.078	215.56
403.302	174.56
403.526	201.56
403.75	195.56
403.974	197.56
404.198	218.56
404.422	211.56
404.645	200.56
404.869	190.56
405.093	195.56
405.317	200.56
405.541	208.56
405.765	189.56
405.988	179.56
406.212	194.56
406.436	205.56
406.66	212.56
406.883	225.56
407.107	220.56
407.331	209.56
407.555	211.56
407.778	215.56
408.002	213.56
408.226	209.56
408.449	216.56
408.673	205.56
408.896	198.56
409.12	200.56
409.344	201.56
409.567	214.56
409.791	199.56
410.014	205.56
410.238	206.56
410.461	192.56
410.685	210.56
410.908	205.56
411.132	221.56
411.355	184.56
411.578	193.56
411.802	191.56
412.025	195.56
412.249	202.56
412.472	207.56
412.695	197.56
412.919	165.56
413.142	175.56
413.365	180.56
413.589	176.56
413.812	186.56
414.035	203.56
414.258	190.56
414.482	180.56
414.705	191.56
414.928	194.56
415.151	187.56
415.374	188.56
415.597	187.56
415.821	190.56
416.044	177.56
416.267	183.56
416.49	184.56
416.713	195.56
416.936	205.56
417.159	185.56
417.382	191.56
417.605	180.56
417.828	200.56
418.051	173.56
418.274	207.56
418.497	197.56
418.72	194.56
418.943	203.56
419.166	213.56
419.389	207.56
419.611	188.56
419.834	180.56
420.057	209.56
420.28	192.56
420.503	194.56
420.726	183.56
420.948	177.56
421.171	183.56
421.394	190.56
421.617	188.56
421.839	210.56
422.062	198.56
422.285	187.56
422.507	206.56
422.73	192.56
422.953	189.56
423.175	211.56
423.398	204.56
423.621	205.56
423.843	209.56
424.066	194.56
424.288	196.56
424.511	199.56
424.733	195.56
424.956	211.56
425.178	206.56
425.401	212.56
425.623	212.56
425.846	197.56
426.068	192.56
426.291	194.56
426.513	205.56
426.735	206.56
426.958	185.56
427.18	193.56
427.402	190.56
427.625	175.56
427.847	188.56
428.069	201.56
428.292	179.56
428.514	184.56
428.736	182.56
428.958	189.56
429.181	198.56
429.403	189.56
429.625	168.56
429.847	175.56
430.069	183.56
430.292	169.56
430.514	177.56
430.736	194.56
430.958	175.56
431.18	155.56
431.402	186.56
431.624	177.56
431.846	168.56
432.068	175.56
432.29	177.56
432.512	184.56
432.734	174.56
432.956	190.56
433.178	196.56
433.4	192.56
433.622	177.56
433.844	174.56
434.066	180.56
434.287	176.56
434.509	171.56
434.731	163.56
434.953	180.56
435.175	187.56
435.397	196.56
435.618	170.56
435.84	175.56
436.062	179.56
436.284	189.56
436.505	170.56
436.727	182.56
436.949	180.56
437.17	169.56
437.392	182.56
437.614	177.56
437.835	169.56
438.057	173.56
438.278	165.56
438.5	168.56
438.721	177.56
438.943	192.56
439.165	191.56
439.386	201.56
439.608	216.56
439.829	180.56
440.05	183.56
440.272	210.56
440.493	213.56
440.715	184.56
440.936	189.56
441.158	213.56
441.379	205.56
441.6	215.56
441.822	208.56
442.043	211.56
442.264	196.56
442.486	183.56
442.707	196.56
442.928	199.56
443.149	205.56
443.371	212.56
443.592	178.56
443.813	206.56
444.034	179.56
444.255	214.56
444.476	205.56
444.698	214.56
444.919	225.56
445.14	473.56
445.361	319.56
445.582	211.56
445.803	198.56
446.024	194.56
446.245	217.56
446.466	184.56
446.687	196.56
446.908	193.56
447.129	197.56
447.35	176.56
447.571	201.56
447.792	200.56
448.013	182.56
448.234	182.56
448.455	184.56
448.675	183.56
448.896	172.56
449.117	191.56
449.338	187.56
449.559	176.56
449.779	167.56
450	168.56
450.221	160.56
450.442	168.56
450.662	176.56
450.883	168.56
451.104	177.56
451.324	159.56
451.545	178.56
451.766	189.56
451.986	182.56
452.207	181.56
452.428	170.56
452.648	173.56
452.869	159.56
453.089	156.56
453.31	172.56
453.53	163.56
453.751	163.56
453.971	161.56
454.192	161.56
454.412	148.56
454.633	163.56
454.853	160.56
455.073	180.56
455.294	150.56
455.514	174.56
455.734	177.56
455.955	179.56
456.175	163.56
456.395	182.56
456.616	168.56
456.836	169.56
457.056	150.56
457.276	174.56
457.497	163.56
457.717	171.56
457.937	166.56
458.157	152.56
458.377	160.56
458.598	176.56
458.818	160.56
459.038	161.56
459.258	170.56
459.478	163.56
459.698	167.56
459.918	159.56
460.138	180.56
460.358	201.56
460.578	191.56
460.798	194.56
461.018	208.56
461.238	186.56
461.458	205.56
461.678	195.56
461.898	203.56
462.118	197.56
462.338	181.56
462.558	205.56
462.777	201.56
462.997	205.56
463.217	229.56
463.437	223.56
463.657	213.56
463.876	207.56
464.096	196.56
464.316	209.56
464.536	229.56
464.755	191.56
464.975	213.56
465.195	196.56
465.414	174.56
465.634	193.56
465.854	185.56
466.073	177.56
466.293	163.56
466.512	173.56
466.732	168.56
466.951	198.56
467.171	177.56
467.391	177.56
467.61	188.56
467.829	190.56
468.049	173.56
468.268	182.56
468.488	195.56
468.707	172.56
468.927	169.56
469.146	179.56
469.365	181.56
469.585	185.56
469.804	193.56
470.023	192.56
470.243	187.56
470.462	172.56
470.681	192.56
470.901	187.56
471.12	203.56
471.339	177.56
471.558	197.56
471.777	169.56
471.997	183.56
472.216	175.56
472.435	153.56
472.654	160.56
472.873	171.56
473.092	171.56
473.311	183.56
473.53	177.56
473.749	169.56
473.968	188.56
474.187	165.56
474.406	156.56
474.625	177.56
474.844	191.56
475.063	169.56
475.282	169.56
475.501	166.56
475.72	178.56
475.939	182.56
476.158	173.56
476.377	185.56
476.596	186.56
476.814	184.56
477.033	167.56
477.252	175.56
477.471	175.56
477.69	196.56
477.908	205.56
478.127	222.56
478.346	197.56
478.564	203.56
478.783	196.56
479.002	199.56
479.22	193.56
479.439	216.56
479.658	179.56
479.876	180.56
480.095	177.56
480.313	214.56
480.532	199.56
480.751	184.56
480.969	189.56
481.188	163.56
481.406	165.56
481.624	162.56
481.843	173.56
482.061	164.56
482.28	190.56
482.498	168.56
482.717	176.56
482.935	196.56
483.153	200.56
483.372	217.56
483.59	191.56
483.808	178.56
484.027	182.56
484.245	198.56
484.463	205.56
484.681	216.56
484.9	203.56
485.118	203.56
485.336	184.56
485.554	187.56
485.772	175.56
485.99	182.56
486.209	182.56
486.427	164.56
486.645	209.56
486.863	199.56
487.081	219.56
487.299	198.56
487.517	211.56
487.735	210.56
487.953	218.56
488.171	217.56
488.389	191.56
488.607	204.56
488.825	187.56
489.043	187.56
489.261	196.56
489.479	207.56
489.696	195.56
489.914	179.56
490.132	204.56
490.35	227.56
490.568	215.56
490.786	223.56
491.003	228.56
491.221	224.56
491.439	213.56
491.657	234.56
491.874	253.56
492.092	229.56
492.31	244.56
492.527	233.56
492.745	236.56
492.963	226.56
493.18	231.56
493.398	239.56
493.615	226.56
493.833	211.56
494.05	221.56
494.268	224.56
494.485	236.56
494.703	226.56
494.92	237.56
495.138	223.56
495.355	226.56
495.573	232.56
495.79	205.56
496.008	227.56
496.225	220.56
496.442	240.56
496.66	245.56
496.877	215.56
497.094	243.56
497.312	217.56
497.529	233.56
497.746	204.56
497.963	219.56
498.181	218.56
498.398	225.56
498.615	237.56
498.832	239.56
499.049	245.56
499.267	275.56
499.484	282.56
499.701	332.56
499.918	364.56
500.135	374.56
500.352	421.56
500.569	411.56
500.786	401.56
501.003	375.56
501.22	343.56
501.437	315.56
501.654	291.56
501.871	269.56
502.088	247.56
502.305	243.56
502.522	256.56
502.739	250.56
502.956	222.56
503.172	215.56
503.389	215.56
503.606	197.56
503.823	224.56
504.04	200.56
504.256	209.56
504.473	228.56
504.69	223.56
504.907	218.56
505.123	199.56
505.34	194.56
