Data from SampD_HRD10591_00039.txt Node
Date: Mon Jan 19 11:50:28 EST 2026
User: Yrep
Spectrometer: HR+D1059
Trigger mode: 0
Integration Time (sec): 3.443000E-1
Scans to average: 1
Electric dark correction enabled: true
Nonlinearity correction enabled: false
Boxcar width: 0
XAxis mode: Wavelengths
Number of Pixels in Spectrum: 2048
>>>>>Begin Spectral Data<<<<<
223.165	-26.38
223.4	-26.38
223.635	-26.38
223.869	-24.38
224.104	-21.38
224.338	-22.38
224.573	-18.38
224.808	-22.38
225.042	2.62
225.277	2.62
225.511	-7.38
225.746	0.62
225.98	5.62
226.215	23.62
226.449	14.62
226.683	20.62
226.918	30.62
227.152	41.62
227.387	43.62
227.621	45.62
227.856	39.62
228.09	43.62
228.324	53.62
228.559	59.62
228.793	67.62
229.027	68.62
229.262	83.62
229.496	61.62
229.73	78.62
229.964	71.62
230.199	80.62
230.433	79.62
230.667	81.62
230.901	84.62
231.136	78.62
231.37	97.62
231.604	89.62
231.838	90.62
232.072	81.62
232.306	74.62
232.541	77.62
232.775	72.62
233.009	85.62
233.243	89.62
233.477	85.62
233.711	88.62
233.945	68.62
234.179	92.62
234.413	79.62
234.647	88.62
234.881	81.62
235.115	97.62
235.349	91.62
235.583	88.62
235.817	77.62
236.051	82.62
236.285	87.62
236.519	87.62
236.753	90.62
236.987	77.62
237.221	88.62
237.455	94.62
237.689	77.62
237.922	77.62
238.156	91.62
238.39	78.62
238.624	102.62
238.858	88.62
239.091	91.62
239.325	73.62
239.559	88.62
239.793	96.62
240.027	96.62
240.26	95.62
240.494	77.62
240.728	85.62
240.961	82.62
241.195	82.62
241.429	88.62
241.662	74.62
241.896	85.62
242.13	80.62
242.363	90.62
242.597	88.62
242.83	97.62
243.064	88.62
243.298	90.62
243.531	83.62
243.765	58.62
243.998	84.62
244.232	91.62
244.465	85.62
244.699	78.62
244.932	69.62
245.166	77.62
245.399	95.62
245.633	98.62
245.866	76.62
246.099	96.62
246.333	85.62
246.566	91.62
246.8	92.62
247.033	90.62
247.266	76.62
247.5	90.62
247.733	94.62
247.966	85.62
248.2	85.62
248.433	78.62
248.666	91.62
248.899	71.62
249.133	95.62
249.366	111.62
249.599	104.62
249.832	96.62
250.066	94.62
250.299	88.62
250.532	91.62
250.765	98.62
250.998	91.62
251.231	84.62
251.465	95.62
251.698	94.62
251.931	87.62
252.164	95.62
252.397	90.62
252.63	90.62
252.863	92.62
253.096	101.62
253.329	106.62
253.562	86.62
253.795	86.62
254.028	91.62
254.261	107.62
254.494	83.62
254.727	93.62
254.96	89.62
255.193	98.62
255.426	96.62
255.659	94.62
255.892	111.62
256.124	88.62
256.357	86.62
256.59	90.62
256.823	90.62
257.056	106.62
257.289	96.62
257.521	100.62
257.754	100.62
257.987	91.62
258.22	97.62
258.452	96.62
258.685	87.62
258.918	89.62
259.151	67.62
259.383	104.62
259.616	98.62
259.849	93.62
260.081	114.62
260.314	109.62
260.547	98.62
260.779	104.62
261.012	92.62
261.244	86.62
261.477	115.62
261.71	82.62
261.942	104.62
262.175	99.62
262.407	110.62
262.64	90.62
262.872	94.62
263.105	102.62
263.337	110.62
263.57	110.62
263.802	99.62
264.035	94.62
264.267	102.62
264.499	101.62
264.732	101.62
264.964	104.62
265.197	93.62
265.429	89.62
265.661	94.62
265.894	103.62
266.126	109.62
266.358	99.62
266.591	110.62
266.823	106.62
267.055	101.62
267.287	123.62
267.52	94.62
267.752	89.62
267.984	108.62
268.216	108.62
268.448	121.62
268.681	113.62
268.913	129.62
269.145	95.62
269.377	104.62
269.609	102.62
269.841	112.62
270.073	102.62
270.306	110.62
270.538	113.62
270.77	109.62
271.002	112.62
271.234	118.62
271.466	123.62
271.698	99.62
271.93	104.62
272.162	102.62
272.394	124.62
272.626	95.62
272.858	104.62
273.09	113.62
273.322	116.62
273.553	101.62
273.785	96.62
274.017	114.62
274.249	105.62
274.481	102.62
274.713	98.62
274.945	114.62
275.176	106.62
275.408	102.62
275.64	100.62
275.872	89.62
276.104	122.62
276.335	104.62
276.567	109.62
276.799	100.62
277.031	112.62
277.262	110.62
277.494	95.62
277.726	105.62
277.957	105.62
278.189	91.62
278.421	103.62
278.652	98.62
278.884	110.62
279.115	114.62
279.347	104.62
279.579	112.62
279.81	107.62
280.042	110.62
280.273	110.62
280.505	113.62
280.736	110.62
280.968	113.62
281.199	114.62
281.431	112.62
281.662	104.62
281.894	113.62
282.125	115.62
282.356	106.62
282.588	117.62
282.819	117.62
283.051	105.62
283.282	109.62
283.513	117.62
283.745	108.62
283.976	113.62
284.207	99.62
284.439	104.62
284.67	133.62
284.901	132.62
285.132	107.62
285.364	112.62
285.595	115.62
285.826	115.62
286.057	119.62
286.288	120.62
286.52	113.62
286.751	109.62
286.982	121.62
287.213	123.62
287.444	116.62
287.675	124.62
287.906	113.62
288.138	122.62
288.369	112.62
288.6	140.62
288.831	109.62
289.062	128.62
289.293	113.62
289.524	124.62
289.755	118.62
289.986	110.62
290.217	120.62
290.448	122.62
290.679	119.62
290.91	128.62
291.141	128.62
291.371	135.62
291.602	122.62
291.833	114.62
292.064	140.62
292.295	118.62
292.526	128.62
292.757	119.62
292.987	104.62
293.218	111.62
293.449	123.62
293.68	122.62
293.91	119.62
294.141	100.62
294.372	124.62
294.603	103.62
294.833	121.62
295.064	108.62
295.295	115.62
295.525	119.62
295.756	128.62
295.987	124.62
296.217	123.62
296.448	132.62
296.679	126.62
296.909	116.62
297.14	135.62
297.37	131.62
297.601	128.62
297.831	115.62
298.062	122.62
298.292	124.62
298.523	119.62
298.753	128.62
298.984	125.62
299.214	105.62
299.445	119.62
299.675	135.62
299.905	120.62
300.136	134.62
300.366	130.62
300.597	121.62
300.827	111.62
301.057	134.62
301.288	136.62
301.518	122.62
301.748	122.62
301.979	156.62
302.209	125.62
302.439	111.62
302.669	135.62
302.9	135.62
303.13	128.62
303.36	121.62
303.59	124.62
303.82	118.62
304.051	122.62
304.281	122.62
304.511	134.62
304.741	116.62
304.971	122.62
305.201	137.62
305.431	129.62
305.661	126.62
305.891	127.62
306.121	121.62
306.352	117.62
306.582	129.62
306.812	131.62
307.042	124.62
307.272	124.62
307.502	117.62
307.731	122.62
307.961	109.62
308.191	102.62
308.421	129.62
308.651	128.62
308.881	122.62
309.111	131.62
309.341	133.62
309.571	122.62
309.8	109.62
310.03	121.62
310.26	122.62
310.49	126.62
310.72	116.62
310.949	122.62
311.179	114.62
311.409	131.62
311.639	131.62
311.868	132.62
312.098	109.62
312.328	122.62
312.557	145.62
312.787	123.62
313.017	118.62
313.246	122.62
313.476	123.62
313.706	125.62
313.935	117.62
314.165	121.62
314.394	114.62
314.624	116.62
314.853	137.62
315.083	134.62
315.312	132.62
315.542	132.62
315.771	113.62
316.001	115.62
316.23	129.62
316.46	104.62
316.689	130.62
316.919	113.62
317.148	134.62
317.377	124.62
317.607	124.62
317.836	124.62
318.065	119.62
318.295	124.62
318.524	133.62
318.753	120.62
318.983	121.62
319.212	141.62
319.441	120.62
319.67	108.62
319.9	128.62
320.129	120.62
320.358	135.62
320.587	122.62
320.816	117.62
321.046	125.62
321.275	128.62
321.504	132.62
321.733	137.62
321.962	132.62
322.191	142.62
322.42	126.62
322.649	123.62
322.878	137.62
323.108	130.62
323.337	121.62
323.566	129.62
323.795	136.62
324.024	145.62
324.253	117.62
324.482	132.62
324.71	131.62
324.939	138.62
325.168	127.62
325.397	146.62
325.626	140.62
325.855	127.62
326.084	132.62
326.313	138.62
326.542	116.62
326.77	129.62
326.999	135.62
327.228	128.62
327.457	140.62
327.686	143.62
327.914	131.62
328.143	142.62
328.372	126.62
328.6	131.62
328.829	132.62
329.058	119.62
329.287	126.62
329.515	132.62
329.744	136.62
329.972	128.62
330.201	143.62
330.43	134.62
330.658	128.62
330.887	140.62
331.115	140.62
331.344	127.62
331.572	130.62
331.801	145.62
332.03	144.62
332.258	153.62
332.486	137.62
332.715	144.62
332.943	148.62
333.172	149.62
333.4	140.62
333.629	138.62
333.857	149.62
334.085	158.62
334.314	153.62
334.542	148.62
334.771	136.62
334.999	139.62
335.227	159.62
335.455	144.62
335.684	166.62
335.912	159.62
336.14	144.62
336.369	151.62
336.597	138.62
336.825	128.62
337.053	130.62
337.281	149.62
337.51	135.62
337.738	134.62
337.966	122.62
338.194	143.62
338.422	119.62
338.65	164.62
338.878	148.62
339.106	141.62
339.334	146.62
339.562	130.62
339.79	139.62
340.018	131.62
340.246	129.62
340.474	148.62
340.702	138.62
340.93	125.62
341.158	138.62
341.386	126.62
341.614	137.62
341.842	137.62
342.07	137.62
342.298	134.62
342.526	137.62
342.754	133.62
342.981	135.62
343.209	128.62
343.437	176.62
343.665	147.62
343.893	141.62
344.12	159.62
344.348	133.62
344.576	140.62
344.804	140.62
345.031	136.62
345.259	126.62
345.487	120.62
345.714	122.62
345.942	129.62
346.17	130.62
346.397	137.62
346.625	105.62
346.853	128.62
347.08	146.62
347.308	123.62
347.535	132.62
347.763	131.62
347.99	145.62
348.218	128.62
348.445	134.62
348.673	125.62
348.9	129.62
349.128	138.62
349.355	132.62
349.583	135.62
349.81	133.62
350.037	145.62
350.265	138.62
350.492	128.62
350.72	133.62
350.947	120.62
351.174	146.62
351.402	120.62
351.629	125.62
351.856	125.62
352.083	136.62
352.311	116.62
352.538	124.62
352.765	121.62
352.992	145.62
353.22	132.62
353.447	133.62
353.674	131.62
353.901	121.62
354.128	130.62
354.355	120.62
354.583	140.62
354.81	114.62
355.037	120.62
355.264	129.62
355.491	138.62
355.718	134.62
355.945	142.62
356.172	127.62
356.399	136.62
356.626	135.62
356.853	135.62
357.08	144.62
357.307	139.62
357.534	132.62
357.761	135.62
357.988	140.62
358.215	133.62
358.441	139.62
358.668	122.62
358.895	131.62
359.122	122.62
359.349	117.62
359.576	126.62
359.802	128.62
360.029	120.62
360.256	143.62
360.483	134.62
360.709	128.62
360.936	155.62
361.163	135.62
361.39	130.62
361.616	141.62
361.843	130.62
362.07	151.62
362.296	137.62
362.523	129.62
362.749	136.62
362.976	132.62
363.203	135.62
363.429	128.62
363.656	144.62
363.882	120.62
364.109	129.62
364.335	131.62
364.562	123.62
364.788	134.62
365.015	126.62
365.241	138.62
365.468	137.62
365.694	138.62
365.92	144.62
366.147	144.62
366.373	139.62
366.599	128.62
366.826	136.62
367.052	136.62
367.278	128.62
367.505	148.62
367.731	135.62
367.957	154.62
368.184	134.62
368.41	138.62
368.636	130.62
368.862	131.62
369.089	124.62
369.315	118.62
369.541	130.62
369.767	157.62
369.993	146.62
370.219	136.62
370.445	147.62
370.672	134.62
370.898	139.62
371.124	139.62
371.35	150.62
371.576	124.62
371.802	146.62
372.028	152.62
372.254	137.62
372.48	142.62
372.706	120.62
372.932	137.62
373.158	151.62
373.384	160.62
373.61	144.62
373.835	147.62
374.061	151.62
374.287	151.62
374.513	138.62
374.739	156.62
374.965	145.62
375.191	154.62
375.416	156.62
375.642	135.62
375.868	140.62
376.094	146.62
376.319	148.62
376.545	155.62
376.771	140.62
376.997	148.62
377.222	123.62
377.448	147.62
377.674	150.62
377.899	147.62
378.125	153.62
378.35	145.62
378.576	141.62
378.802	144.62
379.027	147.62
379.253	160.62
379.478	126.62
379.704	148.62
379.929	149.62
380.155	126.62
380.38	142.62
380.606	140.62
380.831	148.62
381.057	164.62
381.282	166.62
381.507	153.62
381.733	155.62
381.958	162.62
382.184	123.62
382.409	133.62
382.634	157.62
382.86	151.62
383.085	157.62
383.31	148.62
383.535	154.62
383.761	150.62
383.986	166.62
384.211	157.62
384.436	161.62
384.662	169.62
384.887	159.62
385.112	152.62
385.337	146.62
385.562	167.62
385.787	164.62
386.013	172.62
386.238	163.62
386.463	161.62
386.688	198.62
386.913	173.62
387.138	153.62
387.363	154.62
387.588	161.62
387.813	163.62
388.038	169.62
388.263	173.62
388.488	158.62
388.713	157.62
388.938	161.62
389.163	162.62
389.387	161.62
389.612	138.62
389.837	156.62
390.062	168.62
390.287	170.62
390.512	163.62
390.736	160.62
390.961	163.62
391.186	169.62
391.411	173.62
391.636	177.62
391.86	170.62
392.085	160.62
392.31	177.62
392.534	169.62
392.759	181.62
392.984	173.62
393.208	178.62
393.433	156.62
393.658	176.62
393.882	162.62
394.107	152.62
394.331	176.62
394.556	174.62
394.78	183.62
395.005	182.62
395.229	170.62
395.454	183.62
395.678	177.62
395.903	177.62
396.127	160.62
396.352	175.62
396.576	171.62
396.801	147.62
397.025	174.62
397.249	182.62
397.474	185.62
397.698	171.62
397.922	174.62
398.147	147.62
398.371	172.62
398.595	192.62
398.82	188.62
399.044	176.62
399.268	206.62
399.492	249.62
399.717	255.62
399.941	226.62
400.165	220.62
400.389	199.62
400.613	212.62
400.837	190.62
401.062	177.62
401.286	183.62
401.51	192.62
401.734	193.62
401.958	198.62
402.182	180.62
402.406	184.62
402.63	180.62
402.854	189.62
403.078	206.62
403.302	191.62
403.526	194.62
403.75	213.62
403.974	230.62
404.198	219.62
404.422	210.62
404.645	205.62
404.869	189.62
405.093	204.62
405.317	216.62
405.541	180.62
405.765	208.62
405.988	211.62
406.212	202.62
406.436	205.62
406.66	200.62
406.883	220.62
407.107	222.62
407.331	209.62
407.555	225.62
407.778	214.62
408.002	222.62
408.226	200.62
408.449	200.62
408.673	205.62
408.896	204.62
409.12	181.62
409.344	201.62
409.567	202.62
409.791	212.62
410.014	210.62
410.238	209.62
410.461	190.62
410.685	193.62
410.908	213.62
411.132	215.62
411.355	194.62
411.578	201.62
411.802	204.62
412.025	184.62
412.249	190.62
412.472	191.62
412.695	181.62
412.919	185.62
413.142	188.62
413.365	201.62
413.589	181.62
413.812	170.62
414.035	197.62
414.258	208.62
414.482	198.62
414.705	187.62
414.928	196.62
415.151	188.62
415.374	190.62
415.597	194.62
415.821	184.62
416.044	188.62
416.267	205.62
416.49	186.62
416.713	193.62
416.936	189.62
417.159	183.62
417.382	189.62
417.605	196.62
417.828	189.62
418.051	200.62
418.274	202.62
418.497	196.62
418.72	197.62
418.943	198.62
419.166	211.62
419.389	216.62
419.611	203.62
419.834	200.62
420.057	206.62
420.28	205.62
420.503	185.62
420.726	184.62
420.948	204.62
421.171	206.62
421.394	209.62
421.617	193.62
421.839	194.62
422.062	213.62
422.285	182.62
422.507	196.62
422.73	204.62
422.953	209.62
423.175	197.62
423.398	200.62
423.621	201.62
423.843	218.62
424.066	218.62
424.288	216.62
424.511	210.62
424.733	198.62
424.956	214.62
425.178	211.62
425.401	209.62
425.623	192.62
425.846	182.62
426.068	186.62
426.291	206.62
426.513	186.62
426.735	184.62
426.958	193.62
427.18	176.62
427.402	193.62
427.625	195.62
427.847	180.62
428.069	200.62
428.292	195.62
428.514	197.62
428.736	185.62
428.958	184.62
429.181	191.62
429.403	192.62
429.625	179.62
429.847	180.62
430.069	181.62
430.292	186.62
430.514	181.62
430.736	198.62
430.958	183.62
431.18	181.62
431.402	169.62
431.624	180.62
431.846	177.62
432.068	183.62
432.29	165.62
432.512	169.62
432.734	183.62
432.956	198.62
433.178	199.62
433.4	188.62
433.622	205.62
433.844	195.62
434.066	185.62
434.287	162.62
434.509	168.62
434.731	171.62
434.953	183.62
435.175	184.62
435.397	203.62
435.618	171.62
435.84	169.62
436.062	188.62
436.284	177.62
436.505	187.62
436.727	195.62
436.949	187.62
437.17	173.62
437.392	188.62
437.614	184.62
437.835	168.62
438.057	168.62
438.278	180.62
438.5	178.62
438.721	183.62
438.943	202.62
439.165	186.62
439.386	209.62
439.608	198.62
439.829	192.62
440.05	192.62
440.272	177.62
440.493	184.62
440.715	179.62
440.936	202.62
441.158	204.62
441.379	199.62
441.6	196.62
441.822	205.62
442.043	197.62
442.264	205.62
442.486	190.62
442.707	198.62
442.928	197.62
443.149	193.62
443.371	210.62
443.592	208.62
443.813	202.62
444.034	201.62
444.255	220.62
444.476	216.62
444.698	227.62
444.919	231.62
445.14	415.62
445.361	306.62
445.582	226.62
445.803	191.62
446.024	205.62
446.245	188.62
446.466	206.62
446.687	188.62
446.908	203.62
447.129	196.62
447.35	194.62
447.571	190.62
447.792	186.62
448.013	182.62
448.234	197.62
448.455	173.62
448.675	179.62
448.896	160.62
449.117	182.62
449.338	187.62
449.559	196.62
449.779	184.62
450	178.62
450.221	180.62
450.442	187.62
450.662	185.62
450.883	175.62
451.104	188.62
451.324	172.62
451.545	173.62
451.766	189.62
451.986	173.62
452.207	178.62
452.428	179.62
452.648	172.62
452.869	177.62
453.089	173.62
453.31	170.62
453.53	169.62
453.751	155.62
453.971	157.62
454.192	171.62
454.412	166.62
454.633	149.62
454.853	182.62
455.073	170.62
455.294	160.62
455.514	159.62
455.734	179.62
455.955	162.62
456.175	161.62
456.395	156.62
456.616	175.62
456.836	170.62
457.056	162.62
457.276	147.62
457.497	162.62
457.717	166.62
457.937	160.62
458.157	140.62
458.377	142.62
458.598	155.62
458.818	156.62
459.038	158.62
459.258	167.62
459.478	149.62
459.698	168.62
459.918	181.62
460.138	182.62
460.358	190.62
460.578	196.62
460.798	211.62
461.018	200.62
461.238	184.62
461.458	193.62
461.678	181.62
461.898	185.62
462.118	210.62
462.338	205.62
462.558	213.62
462.777	217.62
462.997	233.62
463.217	232.62
463.437	232.62
463.657	201.62
463.876	202.62
464.096	204.62
464.316	203.62
464.536	212.62
464.755	213.62
464.975	222.62
465.195	188.62
465.414	177.62
465.634	180.62
465.854	184.62
466.073	195.62
466.293	171.62
466.512	176.62
466.732	174.62
466.951	189.62
467.171	173.62
467.391	181.62
467.61	183.62
467.829	177.62
468.049	192.62
468.268	184.62
468.488	157.62
468.707	188.62
468.927	194.62
469.146	200.62
469.365	200.62
469.585	173.62
469.804	185.62
470.023	196.62
470.243	180.62
470.462	183.62
470.681	203.62
470.901	204.62
471.12	176.62
471.339	200.62
471.558	198.62
471.777	180.62
471.997	177.62
472.216	193.62
472.435	183.62
472.654	168.62
472.873	180.62
473.092	173.62
473.311	164.62
473.53	173.62
473.749	191.62
473.968	188.62
474.187	167.62
474.406	168.62
474.625	182.62
474.844	186.62
475.063	166.62
475.282	185.62
475.501	166.62
475.72	179.62
475.939	178.62
476.158	184.62
476.377	170.62
476.596	192.62
476.814	158.62
477.033	183.62
477.252	173.62
477.471	178.62
477.69	189.62
477.908	197.62
478.127	198.62
478.346	210.62
478.564	211.62
478.783	204.62
479.002	205.62
479.22	185.62
479.439	202.62
479.658	194.62
479.876	185.62
480.095	197.62
480.313	214.62
480.532	205.62
480.751	191.62
480.969	171.62
481.188	173.62
481.406	185.62
481.624	173.62
481.843	153.62
482.061	158.62
482.28	183.62
482.498	191.62
482.717	193.62
482.935	199.62
483.153	190.62
483.372	213.62
483.59	214.62
483.808	199.62
484.027	195.62
484.245	201.62
484.463	205.62
484.681	223.62
484.9	202.62
485.118	188.62
485.336	198.62
485.554	178.62
485.772	184.62
485.99	183.62
486.209	187.62
486.427	196.62
486.645	206.62
486.863	202.62
487.081	198.62
487.299	203.62
487.517	208.62
487.735	222.62
487.953	233.62
488.171	209.62
488.389	213.62
488.607	200.62
488.825	192.62
489.043	183.62
489.261	205.62
489.479	210.62
489.696	205.62
489.914	209.62
490.132	203.62
490.35	211.62
490.568	204.62
490.786	230.62
491.003	221.62
491.221	221.62
491.439	225.62
491.657	231.62
491.874	238.62
492.092	261.62
492.31	251.62
492.527	238.62
492.745	240.62
492.963	236.62
493.18	248.62
493.398	240.62
493.615	231.62
493.833	235.62
494.05	230.62
494.268	231.62
494.485	214.62
494.703	215.62
494.92	226.62
495.138	223.62
495.355	234.62
495.573	224.62
495.79	212.62
496.008	222.62
496.225	228.62
496.442	216.62
496.66	245.62
496.877	217.62
497.094	226.62
497.312	220.62
497.529	228.62
497.746	226.62
497.963	224.62
498.181	227.62
498.398	232.62
498.615	239.62
498.832	239.62
499.049	253.62
499.267	273.62
499.484	283.62
499.701	325.62
499.918	348.62
500.135	363.62
500.352	416.62
500.569	413.62
500.786	392.62
501.003	360.62
501.22	364.62
501.437	316.62
501.654	294.62
501.871	281.62
502.088	263.62
502.305	237.62
502.522	237.62
502.739	224.62
502.956	245.62
503.172	212.62
503.389	222.62
503.606	213.62
503.823	230.62
504.04	224.62
504.256	235.62
504.473	217.62
504.69	221.62
