Data from SampD_HRD10591_00064.txt Node
Date: Mon Jan 19 11:50:37 EST 2026
User: Yrep
Spectrometer: HR+D1059
Trigger mode: 0
Integration Time (sec): 3.443000E-1
Scans to average: 1
Electric dark correction enabled: true
Nonlinearity correction enabled: false
Boxcar width: 0
XAxis mode: Wavelengths
Number of Pixels in Spectrum: 2048
>>>>>Begin Spectral Data<<<<<
223.165	-40.12
223.4	-40.12
223.635	-40.12
223.869	-20.12
224.104	-17.12
224.338	7.88
224.573	-18.12
224.808	-25.12
225.042	4.88
225.277	-13.12
225.511	-7.12
225.746	15.88
225.98	-6.12
226.215	22.88
226.449	21.88
226.683	12.88
226.918	31.88
227.152	28.88
227.387	30.88
227.621	42.88
227.856	62.88
228.09	50.88
228.324	44.88
228.559	67.88
228.793	70.88
229.027	70.88
229.262	87.88
229.496	72.88
229.73	69.88
229.964	79.88
230.199	66.88
230.433	68.88
230.667	85.88
230.901	87.88
231.136	79.88
231.37	94.88
231.604	82.88
231.838	87.88
232.072	81.88
232.306	91.88
232.541	87.88
232.775	100.88
233.009	77.88
233.243	77.88
233.477	92.88
233.711	88.88
233.945	87.88
234.179	90.88
234.413	86.88
234.647	75.88
234.881	82.88
235.115	85.88
235.349	86.88
235.583	87.88
235.817	86.88
236.051	82.88
236.285	78.88
236.519	69.88
236.753	87.88
236.987	93.88
237.221	86.88
237.455	95.88
237.689	84.88
237.922	86.88
238.156	88.88
238.39	68.88
238.624	79.88
238.858	83.88
239.091	73.88
239.325	74.88
239.559	90.88
239.793	87.88
240.027	92.88
240.26	86.88
240.494	74.88
240.728	76.88
240.961	83.88
241.195	94.88
241.429	96.88
241.662	69.88
241.896	87.88
242.13	89.88
242.363	98.88
242.597	83.88
242.83	94.88
243.064	96.88
243.298	91.88
243.531	91.88
243.765	84.88
243.998	88.88
244.232	107.88
244.465	90.88
244.699	76.88
244.932	89.88
245.166	91.88
245.399	73.88
245.633	90.88
245.866	103.88
246.099	82.88
246.333	90.88
246.566	82.88
246.8	79.88
247.033	91.88
247.266	86.88
247.5	93.88
247.733	95.88
247.966	99.88
248.2	77.88
248.433	93.88
248.666	94.88
248.899	100.88
249.133	87.88
249.366	109.88
249.599	79.88
249.832	86.88
250.066	108.88
250.299	85.88
250.532	92.88
250.765	84.88
250.998	76.88
251.231	98.88
251.465	84.88
251.698	91.88
251.931	91.88
252.164	85.88
252.397	84.88
252.63	90.88
252.863	91.88
253.096	94.88
253.329	94.88
253.562	83.88
253.795	95.88
254.028	92.88
254.261	99.88
254.494	102.88
254.727	104.88
254.96	101.88
255.193	87.88
255.426	92.88
255.659	88.88
255.892	105.88
256.124	95.88
256.357	96.88
256.59	93.88
256.823	96.88
257.056	85.88
257.289	89.88
257.521	89.88
257.754	90.88
257.987	84.88
258.22	96.88
258.452	99.88
258.685	104.88
258.918	96.88
259.151	91.88
259.383	98.88
259.616	112.88
259.849	101.88
260.081	106.88
260.314	92.88
260.547	90.88
260.779	102.88
261.012	97.88
261.244	87.88
261.477	90.88
261.71	93.88
261.942	111.88
262.175	88.88
262.407	96.88
262.64	90.88
262.872	88.88
263.105	111.88
263.337	106.88
263.57	82.88
263.802	103.88
264.035	97.88
264.267	99.88
264.499	103.88
264.732	114.88
264.964	103.88
265.197	95.88
265.429	88.88
265.661	79.88
265.894	104.88
266.126	99.88
266.358	92.88
266.591	104.88
266.823	95.88
267.055	95.88
267.287	99.88
267.52	96.88
267.752	98.88
267.984	115.88
268.216	112.88
268.448	118.88
268.681	119.88
268.913	111.88
269.145	93.88
269.377	101.88
269.609	107.88
269.841	110.88
270.073	113.88
270.306	109.88
270.538	104.88
270.77	104.88
271.002	109.88
271.234	101.88
271.466	108.88
271.698	111.88
271.93	116.88
272.162	112.88
272.394	107.88
272.626	110.88
272.858	86.88
273.09	105.88
273.322	104.88
273.553	104.88
273.785	111.88
274.017	94.88
274.249	92.88
274.481	106.88
274.713	106.88
274.945	112.88
275.176	103.88
275.408	110.88
275.64	103.88
275.872	110.88
276.104	116.88
276.335	110.88
276.567	111.88
276.799	95.88
277.031	98.88
277.262	131.88
277.494	106.88
277.726	105.88
277.957	98.88
278.189	86.88
278.421	93.88
278.652	98.88
278.884	116.88
279.115	119.88
279.347	117.88
279.579	111.88
279.81	107.88
280.042	121.88
280.273	105.88
280.505	109.88
280.736	103.88
280.968	104.88
281.199	112.88
281.431	110.88
281.662	115.88
281.894	121.88
282.125	126.88
282.356	119.88
282.588	127.88
282.819	102.88
283.051	116.88
283.282	116.88
283.513	123.88
283.745	120.88
283.976	118.88
284.207	116.88
284.439	130.88
284.67	116.88
284.901	110.88
285.132	113.88
285.364	110.88
285.595	115.88
285.826	100.88
286.057	114.88
286.288	115.88
286.52	123.88
286.751	116.88
286.982	126.88
287.213	120.88
287.444	118.88
287.675	115.88
287.906	134.88
288.138	127.88
288.369	114.88
288.6	125.88
288.831	112.88
289.062	132.88
289.293	127.88
289.524	108.88
289.755	122.88
289.986	109.88
290.217	110.88
290.448	119.88
290.679	111.88
290.91	123.88
291.141	113.88
291.371	136.88
291.602	125.88
291.833	119.88
292.064	133.88
292.295	101.88
292.526	116.88
292.757	124.88
292.987	125.88
293.218	109.88
293.449	120.88
293.68	120.88
293.91	125.88
294.141	122.88
294.372	106.88
294.603	114.88
294.833	128.88
295.064	133.88
295.295	125.88
295.525	130.88
295.756	112.88
295.987	108.88
296.217	125.88
296.448	106.88
296.679	110.88
296.909	134.88
297.14	122.88
297.37	124.88
297.601	125.88
297.831	121.88
298.062	124.88
298.292	125.88
298.523	134.88
298.753	123.88
298.984	132.88
299.214	126.88
299.445	130.88
299.675	117.88
299.905	123.88
300.136	122.88
300.366	124.88
300.597	130.88
300.827	122.88
301.057	127.88
301.288	126.88
301.518	124.88
301.748	129.88
301.979	166.88
302.209	151.88
302.439	130.88
302.669	120.88
302.9	122.88
303.13	133.88
303.36	136.88
303.59	127.88
303.82	131.88
304.051	126.88
304.281	147.88
304.511	123.88
304.741	119.88
304.971	129.88
305.201	123.88
305.431	126.88
305.661	114.88
305.891	116.88
306.121	139.88
306.352	116.88
306.582	146.88
306.812	128.88
307.042	142.88
307.272	136.88
307.502	110.88
307.731	134.88
307.961	137.88
308.191	125.88
308.421	133.88
308.651	123.88
308.881	127.88
309.111	141.88
309.341	113.88
309.571	136.88
309.8	127.88
310.03	130.88
310.26	122.88
310.49	131.88
310.72	122.88
310.949	129.88
311.179	121.88
311.409	130.88
311.639	132.88
311.868	126.88
312.098	142.88
312.328	122.88
312.557	116.88
312.787	122.88
313.017	133.88
313.246	139.88
313.476	135.88
313.706	119.88
313.935	124.88
314.165	139.88
314.394	133.88
314.624	120.88
314.853	137.88
315.083	136.88
315.312	123.88
315.542	130.88
315.771	133.88
316.001	125.88
316.23	122.88
316.46	116.88
316.689	124.88
316.919	123.88
317.148	120.88
317.377	154.88
317.607	152.88
317.836	141.88
318.065	132.88
318.295	129.88
318.524	109.88
318.753	110.88
318.983	116.88
319.212	124.88
319.441	118.88
319.67	119.88
319.9	131.88
320.129	129.88
320.358	124.88
320.587	119.88
320.816	135.88
321.046	132.88
321.275	140.88
321.504	118.88
321.733	127.88
321.962	140.88
322.191	127.88
322.42	115.88
322.649	139.88
322.878	126.88
323.108	123.88
323.337	118.88
323.566	126.88
323.795	144.88
324.024	136.88
324.253	125.88
324.482	125.88
324.71	128.88
324.939	127.88
325.168	132.88
325.397	137.88
325.626	122.88
325.855	132.88
326.084	137.88
326.313	137.88
326.542	133.88
326.77	131.88
326.999	118.88
327.228	142.88
327.457	146.88
327.686	128.88
327.914	145.88
328.143	141.88
328.372	122.88
328.6	154.88
328.829	124.88
329.058	128.88
329.287	127.88
329.515	139.88
329.744	138.88
329.972	136.88
330.201	153.88
330.43	139.88
330.658	140.88
330.887	120.88
331.115	118.88
331.344	139.88
331.572	147.88
331.801	142.88
332.03	155.88
332.258	151.88
332.486	147.88
332.715	150.88
332.943	149.88
333.172	158.88
333.4	151.88
333.629	167.88
333.857	147.88
334.085	155.88
334.314	146.88
334.542	137.88
334.771	135.88
334.999	151.88
335.227	159.88
335.455	139.88
335.684	142.88
335.912	148.88
336.14	142.88
336.369	154.88
336.597	146.88
336.825	135.88
337.053	138.88
337.281	132.88
337.51	141.88
337.738	147.88
337.966	146.88
338.194	147.88
338.422	143.88
338.65	154.88
338.878	146.88
339.106	142.88
339.334	147.88
339.562	134.88
339.79	128.88
340.018	142.88
340.246	138.88
340.474	138.88
340.702	147.88
340.93	133.88
341.158	137.88
341.386	117.88
341.614	142.88
341.842	142.88
342.07	126.88
342.298	129.88
342.526	140.88
342.754	124.88
342.981	143.88
343.209	153.88
343.437	187.88
343.665	139.88
343.893	157.88
344.12	139.88
344.348	146.88
344.576	137.88
344.804	132.88
345.031	134.88
345.259	144.88
345.487	138.88
345.714	121.88
345.942	140.88
346.17	147.88
346.397	132.88
346.625	134.88
346.853	131.88
347.08	138.88
347.308	155.88
347.535	152.88
347.763	130.88
347.99	151.88
348.218	135.88
348.445	138.88
348.673	134.88
348.9	148.88
349.128	151.88
349.355	126.88
349.583	138.88
349.81	137.88
350.037	130.88
350.265	140.88
350.492	133.88
350.72	122.88
350.947	135.88
351.174	136.88
351.402	130.88
351.629	150.88
351.856	127.88
352.083	135.88
352.311	128.88
352.538	147.88
352.765	126.88
352.992	142.88
353.22	129.88
353.447	144.88
353.674	147.88
353.901	132.88
354.128	134.88
354.355	122.88
354.583	121.88
354.81	152.88
355.037	150.88
355.264	123.88
355.491	131.88
355.718	137.88
355.945	128.88
356.172	131.88
356.399	135.88
356.626	137.88
356.853	144.88
357.08	150.88
357.307	129.88
357.534	139.88
357.761	125.88
357.988	138.88
358.215	146.88
358.441	134.88
358.668	141.88
358.895	143.88
359.122	129.88
359.349	128.88
359.576	130.88
359.802	123.88
360.029	131.88
360.256	134.88
360.483	125.88
360.709	142.88
360.936	156.88
361.163	128.88
361.39	124.88
361.616	126.88
361.843	120.88
362.07	143.88
362.296	135.88
362.523	143.88
362.749	127.88
362.976	118.88
363.203	157.88
363.429	136.88
363.656	148.88
363.882	118.88
364.109	135.88
364.335	142.88
364.562	130.88
364.788	142.88
365.015	136.88
365.241	134.88
365.468	132.88
365.694	142.88
365.92	149.88
366.147	127.88
366.373	126.88
366.599	128.88
366.826	124.88
367.052	158.88
367.278	155.88
367.505	132.88
367.731	144.88
367.957	139.88
368.184	140.88
368.41	134.88
368.636	139.88
368.862	133.88
369.089	132.88
369.315	139.88
369.541	149.88
369.767	154.88
369.993	117.88
370.219	143.88
370.445	149.88
370.672	127.88
370.898	162.88
371.124	152.88
371.35	139.88
371.576	131.88
371.802	146.88
372.028	147.88
372.254	126.88
372.48	148.88
372.706	156.88
372.932	151.88
373.158	130.88
373.384	138.88
373.61	146.88
373.835	136.88
374.061	156.88
374.287	136.88
374.513	165.88
374.739	146.88
374.965	175.88
375.191	145.88
375.416	147.88
375.642	148.88
375.868	152.88
376.094	146.88
376.319	128.88
376.545	142.88
376.771	144.88
376.997	140.88
377.222	133.88
377.448	166.88
377.674	132.88
377.899	152.88
378.125	147.88
378.35	141.88
378.576	133.88
378.802	159.88
379.027	141.88
379.253	132.88
379.478	136.88
379.704	140.88
379.929	152.88
380.155	137.88
380.38	141.88
380.606	143.88
380.831	158.88
381.057	168.88
381.282	137.88
381.507	154.88
381.733	133.88
381.958	128.88
382.184	147.88
382.409	150.88
382.634	170.88
382.86	168.88
383.085	154.88
383.31	161.88
383.535	132.88
383.761	141.88
383.986	160.88
384.211	145.88
384.436	158.88
384.662	151.88
384.887	162.88
385.112	162.88
385.337	158.88
385.562	156.88
385.787	162.88
386.013	162.88
386.238	165.88
386.463	150.88
386.688	190.88
386.913	176.88
387.138	163.88
387.363	127.88
387.588	175.88
387.813	155.88
388.038	161.88
388.263	174.88
388.488	165.88
388.713	164.88
388.938	175.88
389.163	185.88
389.387	154.88
389.612	181.88
389.837	158.88
390.062	174.88
390.287	167.88
390.512	175.88
390.736	170.88
390.961	166.88
391.186	179.88
391.411	154.88
391.636	169.88
391.86	173.88
392.085	176.88
392.31	177.88
392.534	166.88
392.759	180.88
392.984	164.88
393.208	158.88
393.433	166.88
393.658	162.88
393.882	173.88
394.107	166.88
394.331	163.88
394.556	168.88
394.78	173.88
395.005	192.88
395.229	182.88
395.454	186.88
395.678	174.88
395.903	160.88
396.127	171.88
396.352	180.88
396.576	176.88
396.801	164.88
397.025	166.88
397.249	170.88
397.474	197.88
397.698	180.88
397.922	190.88
398.147	175.88
398.371	186.88
398.595	190.88
398.82	190.88
399.044	205.88
399.268	215.88
399.492	240.88
399.717	251.88
399.941	234.88
400.165	210.88
400.389	204.88
400.613	199.88
400.837	204.88
401.062	197.88
401.286	187.88
401.51	188.88
401.734	197.88
401.958	194.88
402.182	203.88
402.406	196.88
402.63	192.88
402.854	192.88
403.078	197.88
403.302	198.88
403.526	203.88
403.75	212.88
403.974	198.88
404.198	201.88
404.422	216.88
404.645	204.88
404.869	210.88
405.093	188.88
405.317	212.88
405.541	220.88
405.765	205.88
405.988	212.88
406.212	205.88
406.436	204.88
406.66	221.88
406.883	204.88
407.107	218.88
407.331	221.88
407.555	215.88
407.778	223.88
408.002	220.88
408.226	219.88
408.449	215.88
408.673	218.88
408.896	203.88
409.12	204.88
409.344	214.88
409.567	197.88
409.791	201.88
410.014	204.88
410.238	199.88
410.461	214.88
410.685	206.88
410.908	210.88
411.132	202.88
411.355	182.88
411.578	205.88
411.802	189.88
412.025	199.88
412.249	211.88
412.472	202.88
412.695	198.88
412.919	187.88
413.142	200.88
413.365	192.88
413.589	181.88
413.812	186.88
414.035	207.88
414.258	197.88
414.482	184.88
414.705	207.88
414.928	199.88
415.151	204.88
415.374	191.88
415.597	199.88
415.821	182.88
416.044	199.88
416.267	192.88
416.49	192.88
416.713	194.88
416.936	191.88
417.159	188.88
417.382	197.88
417.605	203.88
417.828	206.88
418.051	198.88
418.274	202.88
418.497	198.88
418.72	190.88
418.943	212.88
419.166	205.88
419.389	228.88
419.611	212.88
419.834	214.88
420.057	217.88
420.28	212.88
420.503	205.88
420.726	188.88
420.948	187.88
421.171	199.88
421.394	183.88
421.617	198.88
421.839	203.88
422.062	202.88
422.285	191.88
422.507	203.88
422.73	198.88
422.953	176.88
423.175	200.88
423.398	202.88
423.621	206.88
423.843	203.88
424.066	223.88
424.288	223.88
424.511	228.88
424.733	207.88
424.956	213.88
425.178	200.88
425.401	198.88
425.623	188.88
425.846	188.88
426.068	206.88
426.291	187.88
426.513	178.88
426.735	183.88
426.958	172.88
427.18	206.88
427.402	187.88
427.625	196.88
427.847	187.88
428.069	178.88
428.292	190.88
428.514	194.88
428.736	178.88
428.958	186.88
429.181	181.88
429.403	189.88
429.625	182.88
429.847	203.88
430.069	184.88
430.292	195.88
430.514	175.88
430.736	182.88
430.958	194.88
431.18	188.88
431.402	189.88
431.624	178.88
431.846	175.88
432.068	176.88
432.29	178.88
432.512	188.88
432.734	182.88
432.956	201.88
433.178	200.88
433.4	189.88
433.622	208.88
433.844	184.88
434.066	173.88
434.287	179.88
434.509	187.88
434.731	198.88
434.953	180.88
435.175	203.88
435.397	198.88
435.618	194.88
435.84	194.88
436.062	204.88
436.284	192.88
436.505	196.88
436.727	201.88
436.949	195.88
437.17	186.88
437.392	174.88
437.614	184.88
437.835	175.88
438.057	185.88
438.278	166.88
438.5	183.88
438.721	177.88
438.943	194.88
439.165	195.88
439.386	183.88
439.608	192.88
439.829	180.88
440.05	199.88
440.272	200.88
440.493	197.88
440.715	182.88
440.936	212.88
441.158	210.88
441.379	203.88
441.6	210.88
441.822	201.88
442.043	208.88
442.264	222.88
442.486	206.88
442.707	187.88
442.928	214.88
443.149	214.88
443.371	201.88
443.592	199.88
443.813	211.88
444.034	199.88
444.255	223.88
444.476	214.88
444.698	224.88
444.919	228.88
445.14	492.88
445.361	330.88
445.582	232.88
445.803	194.88
446.024	194.88
446.245	222.88
446.466	218.88
446.687	201.88
446.908	190.88
447.129	194.88
447.35	201.88
447.571	207.88
447.792	183.88
448.013	190.88
448.234	179.88
448.455	194.88
448.675	167.88
448.896	200.88
449.117	189.88
449.338	175.88
449.559	190.88
449.779	201.88
450	189.88
450.221	182.88
450.442	191.88
450.662	189.88
450.883	178.88
451.104	201.88
451.324	175.88
451.545	195.88
451.766	188.88
451.986	179.88
452.207	200.88
452.428	182.88
452.648	190.88
452.869	177.88
453.089	172.88
453.31	162.88
453.53	186.88
453.751	166.88
453.971	166.88
454.192	168.88
454.412	163.88
454.633	173.88
454.853	164.88
455.073	189.88
455.294	168.88
455.514	194.88
455.734	171.88
455.955	172.88
456.175	157.88
456.395	178.88
456.616	171.88
456.836	166.88
457.056	174.88
457.276	150.88
457.497	166.88
457.717	169.88
457.937	166.88
458.157	174.88
458.377	154.88
458.598	158.88
458.818	157.88
459.038	174.88
459.258	162.88
459.478	174.88
459.698	192.88
459.918	203.88
460.138	191.88
460.358	191.88
460.578	207.88
460.798	184.88
461.018	192.88
461.238	206.88
461.458	212.88
461.678	195.88
461.898	208.88
462.118	203.88
462.338	215.88
462.558	220.88
462.777	226.88
462.997	210.88
463.217	251.88
463.437	227.88
463.657	215.88
463.876	206.88
464.096	205.88
464.316	201.88
464.536	216.88
464.755	218.88
464.975	205.88
465.195	217.88
465.414	200.88
465.634	192.88
465.854	185.88
466.073	189.88
466.293	183.88
466.512	175.88
466.732	183.88
466.951	192.88
467.171	187.88
467.391	197.88
467.61	191.88
467.829	188.88
468.049	179.88
468.268	176.88
468.488	184.88
468.707	194.88
468.927	192.88
469.146	187.88
469.365	178.88
469.585	208.88
469.804	181.88
470.023	179.88
470.243	210.88
470.462	196.88
470.681	196.88
470.901	185.88
471.12	205.88
471.339	199.88
471.558	182.88
471.777	176.88
471.997	191.88
472.216	190.88
472.435	187.88
472.654	173.88
472.873	168.88
473.092	166.88
473.311	172.88
473.53	178.88
473.749	191.88
473.968	182.88
474.187	185.88
474.406	173.88
474.625	184.88
474.844	184.88
475.063	186.88
475.282	184.88
475.501	166.88
475.72	188.88
475.939	181.88
476.158	168.88
476.377	175.88
476.596	176.88
476.814	182.88
477.033	173.88
477.252	186.88
477.471	195.88
477.69	182.88
477.908	194.88
478.127	198.88
478.346	207.88
478.564	197.88
478.783	182.88
479.002	188.88
479.22	203.88
479.439	220.88
479.658	205.88
479.876	175.88
480.095	189.88
480.313	188.88
480.532	196.88
480.751	201.88
480.969	193.88
481.188	183.88
481.406	190.88
481.624	172.88
481.843	172.88
482.061	188.88
482.28	181.88
482.498	173.88
482.717	172.88
482.935	186.88
483.153	198.88
483.372	207.88
483.59	198.88
483.808	187.88
484.027	209.88
484.245	210.88
484.463	196.88
484.681	236.88
484.9	218.88
485.118	208.88
485.336	198.88
485.554	192.88
485.772	182.88
485.99	197.88
486.209	169.88
486.427	192.88
486.645	199.88
486.863	202.88
487.081	206.88
487.299	199.88
487.517	202.88
487.735	222.88
487.953	238.88
488.171	208.88
488.389	223.88
488.607	199.88
488.825	198.88
489.043	178.88
489.261	205.88
489.479	202.88
489.696	214.88
489.914	190.88
490.132	220.88
490.35	206.88
490.568	205.88
490.786	223.88
491.003	214.88
491.221	222.88
491.439	243.88
491.657	232.88
491.874	250.88
492.092	244.88
492.31	245.88
492.527	259.88
492.745	250.88
492.963	260.88
493.18	259.88
493.398	244.88
493.615	241.88
493.833	209.88
494.05	223.88
494.268	233.88
494.485	218.88
494.703	236.88
494.92	227.88
495.138	222.88
495.355	225.88
495.573	226.88
495.79	226.88
496.008	236.88
496.225	229.88
496.442	232.88
496.66	238.88
496.877	231.88
497.094	238.88
497.312	242.88
497.529	233.88
497.746	234.88
497.963	226.88
498.181	224.88
498.398	228.88
498.615	255.88
498.832	239.88
499.049	256.88
499.267	271.88
499.484	304.88
499.701	330.88
499.918	332.88
500.135	400.88
500.352	411.88
500.569	406.88
500.786	438.88
501.003	392.88
501.22	342.88
501.437	318.88
501.654	292.88
501.871	287.88
502.088	247.88
502.305	276.88
502.522	267.88
502.739	252.88
502.956	221.88
503.172	228.88
503.389	216.88
503.606	213.88
503.823	236.88
504.04	231.88
504.256	230.88
504.473	218.88
504.69	220.88
504.907	247.88
