Data from SampD_HRD10591_00005.txt Node
Date: Mon Jan 19 11:50:17 EST 2026
User: Yrep
Spectrometer: HR+D1059
Trigger mode: 0
Integration Time (sec): 3.443000E-1
Scans to average: 1
Electric dark correction enabled: true
Nonlinearity correction enabled: false
Boxcar width: 0
XAxis mode: Wavelengths
Number of Pixels in Spectrum: 2048
>>>>>Begin Spectral Data<<<<<
223.165	-22.06
223.4	-22.06
223.635	-22.06
223.869	-18.06
224.104	-26.06
224.338	-1.06
224.573	-6.06
224.808	-16.06
225.042	-14.06
225.277	-6.06
225.511	-9.06
225.746	-0.06
225.98	9.94
226.215	10.94
226.449	25.94
226.683	25.94
226.918	26.94
227.152	18.94
227.387	46.94
227.621	40.94
227.856	50.94
228.09	43.94
228.324	35.94
228.559	57.94
228.793	60.94
229.027	77.94
229.262	68.94
229.496	66.94
229.73	71.94
229.964	66.94
230.199	71.94
230.433	87.94
230.667	88.94
230.901	73.94
231.136	77.94
231.37	86.94
231.604	104.94
231.838	100.94
232.072	88.94
232.306	97.94
232.541	91.94
232.775	87.94
233.009	100.94
233.243	91.94
233.477	85.94
233.711	85.94
233.945	70.94
234.179	71.94
234.413	87.94
234.647	95.94
234.881	93.94
235.115	83.94
235.349	84.94
235.583	87.94
235.817	89.94
236.051	74.94
236.285	77.94
236.519	74.94
236.753	85.94
236.987	92.94
237.221	90.94
237.455	75.94
237.689	83.94
237.922	108.94
238.156	74.94
238.39	76.94
238.624	88.94
238.858	87.94
239.091	73.94
239.325	73.94
239.559	87.94
239.793	74.94
240.027	79.94
240.26	82.94
240.494	69.94
240.728	81.94
240.961	74.94
241.195	88.94
241.429	101.94
241.662	85.94
241.896	92.94
242.13	87.94
242.363	79.94
242.597	83.94
242.83	86.94
243.064	81.94
243.298	87.94
243.531	84.94
243.765	103.94
243.998	85.94
244.232	82.94
244.465	93.94
244.699	75.94
244.932	93.94
245.166	92.94
245.399	85.94
245.633	95.94
245.866	93.94
246.099	84.94
246.333	90.94
246.566	89.94
246.8	83.94
247.033	71.94
247.266	84.94
247.5	57.94
247.733	77.94
247.966	96.94
248.2	75.94
248.433	86.94
248.666	100.94
248.899	95.94
249.133	81.94
249.366	114.94
249.599	79.94
249.832	94.94
250.066	92.94
250.299	83.94
250.532	91.94
250.765	76.94
250.998	90.94
251.231	81.94
251.465	103.94
251.698	72.94
251.931	100.94
252.164	87.94
252.397	91.94
252.63	93.94
252.863	89.94
253.096	89.94
253.329	80.94
253.562	104.94
253.795	85.94
254.028	98.94
254.261	81.94
254.494	96.94
254.727	86.94
254.96	97.94
255.193	103.94
255.426	99.94
255.659	100.94
255.892	92.94
256.124	95.94
256.357	87.94
256.59	102.94
256.823	103.94
257.056	96.94
257.289	86.94
257.521	96.94
257.754	106.94
257.987	103.94
258.22	104.94
258.452	89.94
258.685	105.94
258.918	76.94
259.151	88.94
259.383	97.94
259.616	98.94
259.849	101.94
260.081	105.94
260.314	107.94
260.547	105.94
260.779	98.94
261.012	89.94
261.244	113.94
261.477	109.94
261.71	100.94
261.942	81.94
262.175	105.94
262.407	92.94
262.64	87.94
262.872	97.94
263.105	100.94
263.337	123.94
263.57	95.94
263.802	103.94
264.035	100.94
264.267	103.94
264.499	95.94
264.732	99.94
264.964	96.94
265.197	101.94
265.429	91.94
265.661	106.94
265.894	96.94
266.126	106.94
266.358	101.94
266.591	96.94
266.823	105.94
267.055	95.94
267.287	117.94
267.52	103.94
267.752	94.94
267.984	116.94
268.216	113.94
268.448	106.94
268.681	92.94
268.913	114.94
269.145	107.94
269.377	111.94
269.609	93.94
269.841	116.94
270.073	93.94
270.306	104.94
270.538	109.94
270.77	105.94
271.002	105.94
271.234	109.94
271.466	115.94
271.698	99.94
271.93	99.94
272.162	102.94
272.394	99.94
272.626	105.94
272.858	109.94
273.09	126.94
273.322	107.94
273.553	114.94
273.785	122.94
274.017	89.94
274.249	105.94
274.481	96.94
274.713	120.94
274.945	100.94
275.176	97.94
275.408	100.94
275.64	109.94
275.872	108.94
276.104	133.94
276.335	114.94
276.567	95.94
276.799	105.94
277.031	108.94
277.262	96.94
277.494	115.94
277.726	103.94
277.957	101.94
278.189	104.94
278.421	101.94
278.652	95.94
278.884	108.94
279.115	113.94
279.347	118.94
279.579	113.94
279.81	112.94
280.042	101.94
280.273	116.94
280.505	104.94
280.736	133.94
280.968	97.94
281.199	104.94
281.431	115.94
281.662	116.94
281.894	118.94
282.125	133.94
282.356	115.94
282.588	104.94
282.819	127.94
283.051	113.94
283.282	120.94
283.513	122.94
283.745	114.94
283.976	117.94
284.207	120.94
284.439	111.94
284.67	118.94
284.901	127.94
285.132	115.94
285.364	121.94
285.595	128.94
285.826	98.94
286.057	130.94
286.288	117.94
286.52	127.94
286.751	103.94
286.982	120.94
287.213	120.94
287.444	118.94
287.675	118.94
287.906	129.94
288.138	121.94
288.369	116.94
288.6	129.94
288.831	126.94
289.062	122.94
289.293	125.94
289.524	117.94
289.755	107.94
289.986	109.94
290.217	112.94
290.448	138.94
290.679	123.94
290.91	133.94
291.141	109.94
291.371	124.94
291.602	120.94
291.833	120.94
292.064	116.94
292.295	123.94
292.526	114.94
292.757	117.94
292.987	123.94
293.218	124.94
293.449	117.94
293.68	125.94
293.91	109.94
294.141	126.94
294.372	121.94
294.603	127.94
294.833	117.94
295.064	110.94
295.295	112.94
295.525	121.94
295.756	125.94
295.987	112.94
296.217	112.94
296.448	127.94
296.679	120.94
296.909	113.94
297.14	135.94
297.37	124.94
297.601	127.94
297.831	111.94
298.062	123.94
298.292	116.94
298.523	130.94
298.753	131.94
298.984	114.94
299.214	134.94
299.445	115.94
299.675	127.94
299.905	115.94
300.136	117.94
300.366	126.94
300.597	133.94
300.827	117.94
301.057	118.94
301.288	130.94
301.518	124.94
301.748	118.94
301.979	150.94
302.209	123.94
302.439	118.94
302.669	131.94
302.9	127.94
303.13	127.94
303.36	135.94
303.59	120.94
303.82	125.94
304.051	131.94
304.281	139.94
304.511	152.94
304.741	118.94
304.971	126.94
305.201	138.94
305.431	132.94
305.661	126.94
305.891	126.94
306.121	128.94
306.352	120.94
306.582	119.94
306.812	133.94
307.042	117.94
307.272	121.94
307.502	124.94
307.731	110.94
307.961	131.94
308.191	117.94
308.421	115.94
308.651	117.94
308.881	128.94
309.111	115.94
309.341	138.94
309.571	134.94
309.8	130.94
310.03	121.94
310.26	113.94
310.49	130.94
310.72	114.94
310.949	122.94
311.179	134.94
311.409	127.94
311.639	131.94
311.868	130.94
312.098	121.94
312.328	127.94
312.557	132.94
312.787	127.94
313.017	126.94
313.246	119.94
313.476	120.94
313.706	140.94
313.935	116.94
314.165	120.94
314.394	119.94
314.624	120.94
314.853	149.94
315.083	136.94
315.312	125.94
315.542	125.94
315.771	122.94
316.001	120.94
316.23	126.94
316.46	114.94
316.689	125.94
316.919	130.94
317.148	117.94
317.377	121.94
317.607	122.94
317.836	122.94
318.065	128.94
318.295	131.94
318.524	132.94
318.753	128.94
318.983	113.94
319.212	135.94
319.441	130.94
319.67	124.94
319.9	116.94
320.129	123.94
320.358	134.94
320.587	124.94
320.816	125.94
321.046	122.94
321.275	130.94
321.504	109.94
321.733	118.94
321.962	121.94
322.191	122.94
322.42	112.94
322.649	133.94
322.878	133.94
323.108	136.94
323.337	128.94
323.566	114.94
323.795	133.94
324.024	129.94
324.253	116.94
324.482	119.94
324.71	130.94
324.939	135.94
325.168	132.94
325.397	123.94
325.626	131.94
325.855	145.94
326.084	131.94
326.313	129.94
326.542	143.94
326.77	138.94
326.999	133.94
327.228	137.94
327.457	121.94
327.686	140.94
327.914	123.94
328.143	132.94
328.372	121.94
328.6	125.94
328.829	111.94
329.058	113.94
329.287	130.94
329.515	119.94
329.744	125.94
329.972	134.94
330.201	132.94
330.43	143.94
330.658	124.94
330.887	132.94
331.115	142.94
331.344	132.94
331.572	136.94
331.801	132.94
332.03	142.94
332.258	142.94
332.486	138.94
332.715	151.94
332.943	147.94
333.172	146.94
333.4	151.94
333.629	140.94
333.857	145.94
334.085	160.94
334.314	159.94
334.542	151.94
334.771	146.94
334.999	148.94
335.227	151.94
335.455	168.94
335.684	159.94
335.912	164.94
336.14	162.94
336.369	139.94
336.597	147.94
336.825	124.94
337.053	132.94
337.281	141.94
337.51	132.94
337.738	145.94
337.966	123.94
338.194	121.94
338.422	135.94
338.65	136.94
338.878	140.94
339.106	127.94
339.334	152.94
339.562	145.94
339.79	135.94
340.018	136.94
340.246	143.94
340.474	155.94
340.702	141.94
340.93	131.94
341.158	154.94
341.386	133.94
341.614	139.94
341.842	141.94
342.07	144.94
342.298	136.94
342.526	140.94
342.754	122.94
342.981	140.94
343.209	132.94
343.437	187.94
343.665	143.94
343.893	156.94
344.12	159.94
344.348	144.94
344.576	149.94
344.804	133.94
345.031	135.94
345.259	130.94
345.487	132.94
345.714	144.94
345.942	151.94
346.17	121.94
346.397	123.94
346.625	120.94
346.853	144.94
347.08	121.94
347.308	130.94
347.535	130.94
347.763	134.94
347.99	131.94
348.218	147.94
348.445	111.94
348.673	123.94
348.9	146.94
349.128	133.94
349.355	116.94
349.583	134.94
349.81	131.94
350.037	137.94
350.265	140.94
350.492	135.94
350.72	114.94
350.947	132.94
351.174	141.94
351.402	119.94
351.629	107.94
351.856	127.94
352.083	124.94
352.311	136.94
352.538	113.94
352.765	138.94
352.992	147.94
353.22	133.94
353.447	136.94
353.674	145.94
353.901	145.94
354.128	128.94
354.355	124.94
354.583	136.94
354.81	115.94
355.037	124.94
355.264	126.94
355.491	126.94
355.718	123.94
355.945	132.94
356.172	129.94
356.399	130.94
356.626	125.94
356.853	120.94
357.08	140.94
357.307	127.94
357.534	138.94
357.761	132.94
357.988	138.94
358.215	140.94
358.441	128.94
358.668	127.94
358.895	116.94
359.122	141.94
359.349	137.94
359.576	142.94
359.802	117.94
360.029	132.94
360.256	126.94
360.483	144.94
360.709	121.94
360.936	138.94
361.163	137.94
361.39	131.94
361.616	142.94
361.843	124.94
362.07	129.94
362.296	131.94
362.523	136.94
362.749	139.94
362.976	135.94
363.203	148.94
363.429	138.94
363.656	116.94
363.882	116.94
364.109	143.94
364.335	139.94
364.562	136.94
364.788	144.94
365.015	138.94
365.241	115.94
365.468	130.94
365.694	124.94
365.92	130.94
366.147	144.94
366.373	126.94
366.599	124.94
366.826	132.94
367.052	127.94
367.278	132.94
367.505	143.94
367.731	146.94
367.957	129.94
368.184	130.94
368.41	144.94
368.636	126.94
368.862	145.94
369.089	141.94
369.315	125.94
369.541	126.94
369.767	144.94
369.993	135.94
370.219	121.94
370.445	131.94
370.672	147.94
370.898	134.94
371.124	149.94
371.35	138.94
371.576	139.94
371.802	143.94
372.028	134.94
372.254	153.94
372.48	135.94
372.706	148.94
372.932	143.94
373.158	153.94
373.384	139.94
373.61	147.94
373.835	140.94
374.061	152.94
374.287	149.94
374.513	140.94
374.739	148.94
374.965	155.94
375.191	146.94
375.416	141.94
375.642	151.94
375.868	156.94
376.094	131.94
376.319	164.94
376.545	139.94
376.771	156.94
376.997	153.94
377.222	129.94
377.448	146.94
377.674	139.94
377.899	144.94
378.125	131.94
378.35	148.94
378.576	153.94
378.802	149.94
379.027	131.94
379.253	147.94
379.478	140.94
379.704	146.94
379.929	153.94
380.155	143.94
380.38	139.94
380.606	145.94
380.831	136.94
381.057	165.94
381.282	151.94
381.507	156.94
381.733	150.94
381.958	155.94
382.184	136.94
382.409	147.94
382.634	153.94
382.86	142.94
383.085	162.94
383.31	151.94
383.535	161.94
383.761	146.94
383.986	135.94
384.211	159.94
384.436	163.94
384.662	156.94
384.887	138.94
385.112	160.94
385.337	173.94
385.562	162.94
385.787	167.94
386.013	177.94
386.238	159.94
386.463	162.94
386.688	185.94
386.913	164.94
387.138	157.94
387.363	131.94
387.588	176.94
387.813	155.94
388.038	145.94
388.263	159.94
388.488	139.94
388.713	157.94
388.938	143.94
389.163	158.94
389.387	142.94
389.612	151.94
389.837	161.94
390.062	169.94
390.287	156.94
390.512	161.94
390.736	157.94
390.961	163.94
391.186	183.94
391.411	174.94
391.636	175.94
391.86	175.94
392.085	177.94
392.31	162.94
392.534	152.94
392.759	167.94
392.984	168.94
393.208	153.94
393.433	152.94
393.658	171.94
393.882	170.94
394.107	167.94
394.331	146.94
394.556	156.94
394.78	169.94
395.005	195.94
395.229	171.94
395.454	175.94
395.678	171.94
395.903	181.94
396.127	176.94
396.352	167.94
396.576	155.94
396.801	170.94
397.025	171.94
397.249	179.94
397.474	180.94
397.698	181.94
397.922	183.94
398.147	175.94
398.371	180.94
398.595	181.94
398.82	196.94
399.044	199.94
399.268	200.94
399.492	236.94
399.717	279.94
399.941	252.94
400.165	232.94
400.389	208.94
400.613	180.94
400.837	191.94
401.062	191.94
401.286	184.94
401.51	179.94
401.734	193.94
401.958	199.94
402.182	183.94
402.406	187.94
402.63	186.94
402.854	196.94
403.078	194.94
403.302	200.94
403.526	210.94
403.75	219.94
403.974	196.94
404.198	198.94
404.422	218.94
404.645	201.94
404.869	204.94
405.093	205.94
405.317	191.94
405.541	216.94
405.765	205.94
405.988	195.94
406.212	196.94
406.436	200.94
406.66	218.94
406.883	203.94
407.107	195.94
407.331	221.94
407.555	235.94
407.778	210.94
408.002	225.94
408.226	223.94
408.449	210.94
408.673	204.94
408.896	210.94
409.12	220.94
409.344	185.94
409.567	208.94
409.791	193.94
410.014	201.94
410.238	215.94
410.461	203.94
410.685	199.94
410.908	219.94
411.132	210.94
411.355	197.94
411.578	209.94
411.802	197.94
412.025	191.94
412.249	203.94
412.472	201.94
412.695	207.94
412.919	199.94
413.142	194.94
413.365	190.94
413.589	202.94
413.812	185.94
414.035	211.94
414.258	197.94
414.482	200.94
414.705	192.94
414.928	187.94
415.151	198.94
415.374	190.94
415.597	184.94
415.821	204.94
416.044	180.94
416.267	203.94
416.49	193.94
416.713	201.94
416.936	184.94
417.159	185.94
417.382	207.94
417.605	187.94
417.828	208.94
418.051	213.94
418.274	207.94
418.497	206.94
418.72	198.94
418.943	195.94
419.166	205.94
419.389	203.94
419.611	196.94
419.834	208.94
420.057	200.94
420.28	211.94
420.503	207.94
420.726	184.94
420.948	204.94
421.171	197.94
421.394	212.94
421.617	211.94
421.839	220.94
422.062	197.94
422.285	198.94
422.507	188.94
422.73	187.94
422.953	207.94
423.175	204.94
423.398	197.94
423.621	200.94
423.843	221.94
424.066	223.94
424.288	217.94
424.511	212.94
424.733	188.94
424.956	195.94
425.178	207.94
425.401	207.94
425.623	213.94
425.846	210.94
426.068	198.94
426.291	207.94
426.513	192.94
426.735	181.94
426.958	200.94
427.18	185.94
427.402	202.94
427.625	180.94
427.847	173.94
428.069	194.94
428.292	212.94
428.514	194.94
428.736	187.94
428.958	204.94
429.181	184.94
429.403	185.94
429.625	197.94
429.847	189.94
430.069	188.94
430.292	200.94
430.514	176.94
430.736	191.94
430.958	167.94
431.18	174.94
431.402	184.94
431.624	178.94
431.846	173.94
432.068	177.94
432.29	180.94
432.512	183.94
432.734	192.94
432.956	211.94
433.178	205.94
433.4	201.94
433.622	209.94
433.844	203.94
434.066	198.94
434.287	172.94
434.509	177.94
434.731	187.94
434.953	189.94
435.175	183.94
435.397	194.94
435.618	199.94
435.84	181.94
436.062	184.94
436.284	199.94
436.505	196.94
436.727	192.94
436.949	182.94
437.17	186.94
437.392	168.94
437.614	185.94
437.835	180.94
438.057	172.94
438.278	155.94
438.5	178.94
438.721	188.94
438.943	180.94
439.165	187.94
439.386	201.94
439.608	210.94
439.829	187.94
440.05	206.94
440.272	187.94
440.493	198.94
440.715	190.94
440.936	201.94
441.158	197.94
441.379	193.94
441.6	226.94
441.822	225.94
442.043	211.94
442.264	201.94
442.486	209.94
442.707	211.94
442.928	197.94
443.149	221.94
443.371	198.94
443.592	209.94
443.813	198.94
444.034	195.94
444.255	202.94
444.476	219.94
444.698	244.94
444.919	221.94
445.14	476.94
445.361	345.94
445.582	209.94
445.803	205.94
446.024	196.94
446.245	203.94
446.466	207.94
446.687	197.94
446.908	211.94
447.129	212.94
447.35	198.94
447.571	200.94
447.792	186.94
448.013	196.94
448.234	202.94
448.455	195.94
448.675	178.94
448.896	184.94
449.117	172.94
449.338	175.94
449.559	185.94
449.779	177.94
450	188.94
450.221	196.94
450.442	190.94
450.662	195.94
450.883	184.94
451.104	198.94
451.324	187.94
451.545	187.94
451.766	179.94
451.986	168.94
452.207	174.94
452.428	172.94
452.648	187.94
452.869	158.94
453.089	176.94
453.31	183.94
453.53	176.94
453.751	179.94
453.971	171.94
454.192	150.94
454.412	171.94
454.633	187.94
454.853	169.94
455.073	167.94
455.294	177.94
455.514	175.94
455.734	170.94
455.955	172.94
456.175	175.94
456.395	162.94
456.616	168.94
456.836	165.94
457.056	166.94
457.276	156.94
457.497	161.94
457.717	164.94
457.937	159.94
458.157	160.94
458.377	165.94
458.598	162.94
458.818	148.94
459.038	171.94
459.258	172.94
459.478	169.94
459.698	164.94
459.918	185.94
460.138	186.94
460.358	193.94
460.578	188.94
460.798	194.94
461.018	192.94
461.238	213.94
461.458	204.94
461.678	204.94
461.898	182.94
462.118	195.94
462.338	211.94
462.558	212.94
462.777	211.94
462.997	219.94
463.217	215.94
463.437	235.94
463.657	226.94
463.876	215.94
464.096	233.94
464.316	225.94
464.536	219.94
464.755	220.94
464.975	207.94
465.195	204.94
465.414	204.94
465.634	178.94
465.854	165.94
466.073	184.94
466.293	174.94
466.512	194.94
466.732	192.94
466.951	188.94
467.171	191.94
467.391	189.94
467.61	176.94
467.829	185.94
468.049	195.94
468.268	189.94
468.488	187.94
468.707	201.94
468.927	181.94
469.146	187.94
469.365	179.94
469.585	189.94
469.804	205.94
470.023	199.94
470.243	192.94
470.462	198.94
470.681	194.94
470.901	183.94
471.12	191.94
471.339	203.94
471.558	198.94
471.777	187.94
471.997	169.94
472.216	182.94
472.435	175.94
472.654	145.94
472.873	176.94
473.092	198.94
473.311	186.94
473.53	173.94
473.749	196.94
473.968	187.94
474.187	190.94
474.406	178.94
474.625	185.94
474.844	191.94
475.063	172.94
475.282	182.94
475.501	162.94
475.72	205.94
475.939	182.94
476.158	176.94
476.377	165.94
476.596	171.94
476.814	179.94
477.033	165.94
477.252	203.94
477.471	184.94
477.69	202.94
477.908	212.94
478.127	211.94
478.346	211.94
478.564	200.94
478.783	205.94
479.002	219.94
479.22	211.94
479.439	197.94
479.658	202.94
479.876	189.94
480.095	194.94
480.313	218.94
480.532	202.94
480.751	201.94
480.969	188.94
481.188	182.94
481.406	166.94
481.624	182.94
481.843	172.94
482.061	180.94
482.28	193.94
482.498	191.94
482.717	191.94
482.935	193.94
483.153	204.94
483.372	208.94
483.59	203.94
483.808	200.94
484.027	195.94
484.245	202.94
484.463	202.94
484.681	223.94
484.9	235.94
485.118	203.94
485.336	189.94
485.554	191.94
485.772	188.94
485.99	186.94
486.209	177.94
486.427	170.94
486.645	192.94
486.863	196.94
487.081	201.94
487.299	199.94
487.517	215.94
487.735	227.94
487.953	242.94
488.171	241.94
488.389	227.94
488.607	219.94
488.825	197.94
489.043	199.94
489.261	199.94
489.479	203.94
489.696	208.94
489.914	189.94
490.132	197.94
490.35	221.94
490.568	220.94
490.786	230.94
491.003	236.94
491.221	233.94
491.439	239.94
491.657	233.94
491.874	253.94
492.092	256.94
492.31	273.94
492.527	258.94
492.745	260.94
492.963	236.94
493.18	242.94
493.398	239.94
493.615	215.94
493.833	230.94
494.05	235.94
494.268	225.94
494.485	239.94
494.703	232.94
494.92	234.94
495.138	234.94
495.355	252.94
495.573	232.94
495.79	245.94
496.008	236.94
496.225	235.94
496.442	235.94
496.66	246.94
496.877	252.94
497.094	258.94
497.312	248.94
497.529	242.94
497.746	243.94
497.963	235.94
498.181	217.94
498.398	236.94
498.615	253.94
498.832	243.94
499.049	254.94
499.267	300.94
499.484	281.94
499.701	304.94
499.918	354.94
500.135	393.94
500.352	435.94
500.569	429.94
500.786	430.94
501.003	387.94
501.22	352.94
501.437	346.94
501.654	291.94
501.871	262.94
502.088	254.94
502.305	258.94
502.522	247.94
502.739	250.94
502.956	242.94
503.172	235.94
503.389	208.94
503.606	221.94
503.823	209.94
504.04	213.94
504.256	219.94
504.473	221.94
504.69	225.94
