Data from SampD_HRD10591_00004.txt Node
Date: Mon Jan 19 11:50:16 EST 2026
User: Yrep
Spectrometer: HR+D1059
Trigger mode: 0
Integration Time (sec): 3.443000E-1
Scans to average: 1
Electric dark correction enabled: true
Nonlinearity correction enabled: false
Boxcar width: 0
XAxis mode: Wavelengths
Number of Pixels in Spectrum: 2048
>>>>>Begin Spectral Data<<<<<
223.165	-25
223.4	-25
223.635	-25
223.869	-33
224.104	-25
224.338	-4
224.573	-10
224.808	-9
225.042	-9
225.277	-1
225.511	-5
225.746	8
225.98	19
226.215	8
226.449	19
226.683	21
226.918	15
227.152	31
227.387	38
227.621	29
227.856	50
228.09	38
228.324	54
228.559	64
228.793	38
229.027	55
229.262	71
229.496	65
229.73	63
229.964	73
230.199	68
230.433	69
230.667	87
230.901	76
231.136	74
231.37	78
231.604	78
231.838	80
232.072	75
232.306	81
232.541	86
232.775	80
233.009	89
233.243	96
233.477	79
233.711	97
233.945	77
234.179	72
234.413	82
234.647	74
234.881	76
235.115	80
235.349	75
235.583	95
235.817	83
236.051	66
236.285	70
236.519	84
236.753	84
236.987	70
237.221	87
237.455	79
237.689	88
237.922	68
238.156	67
238.39	72
238.624	82
238.858	74
239.091	76
239.325	62
239.559	75
239.793	75
240.027	71
240.26	75
240.494	87
240.728	71
240.961	79
241.195	89
241.429	91
241.662	84
241.896	92
242.13	78
242.363	71
242.597	72
242.83	67
243.064	79
243.298	72
243.531	72
243.765	78
243.998	84
244.232	85
244.465	89
244.699	77
244.932	79
245.166	74
245.399	88
245.633	74
245.866	77
246.099	81
246.333	72
246.566	73
246.8	76
247.033	77
247.266	78
247.5	74
247.733	70
247.966	79
248.2	77
248.433	81
248.666	78
248.899	88
249.133	77
249.366	88
249.599	96
249.832	79
250.066	83
250.299	79
250.532	70
250.765	70
250.998	67
251.231	70
251.465	81
251.698	79
251.931	78
252.164	75
252.397	86
252.63	99
252.863	77
253.096	87
253.329	83
253.562	84
253.795	83
254.028	80
254.261	81
254.494	86
254.727	83
254.96	73
255.193	81
255.426	89
255.659	81
255.892	80
256.124	72
256.357	96
256.59	83
256.823	74
257.056	95
257.289	85
257.521	83
257.754	91
257.987	81
258.22	98
258.452	80
258.685	77
258.918	102
259.151	90
259.383	92
259.616	81
259.849	79
260.081	91
260.314	86
260.547	90
260.779	83
261.012	95
261.244	88
261.477	96
261.71	100
261.942	88
262.175	78
262.407	98
262.64	82
262.872	88
263.105	73
263.337	89
263.57	91
263.802	101
264.035	86
264.267	104
264.499	95
264.732	85
264.964	87
265.197	102
265.429	87
265.661	87
265.894	91
266.126	81
266.358	86
266.591	89
266.823	93
267.055	90
267.287	89
267.52	95
267.752	88
267.984	81
268.216	89
268.448	82
268.681	102
268.913	98
269.145	88
269.377	89
269.609	85
269.841	99
270.073	87
270.306	103
270.538	95
270.77	93
271.002	91
271.234	103
271.466	98
271.698	93
271.93	96
272.162	81
272.394	100
272.626	87
272.858	96
273.09	92
273.322	84
273.553	79
273.785	91
274.017	92
274.249	91
274.481	103
274.713	85
274.945	99
275.176	86
275.408	97
275.64	96
275.872	89
276.104	89
276.335	99
276.567	93
276.799	79
277.031	68
277.262	95
277.494	109
277.726	104
277.957	92
278.189	87
278.421	79
278.652	78
278.884	95
279.115	93
279.347	99
279.579	99
279.81	90
280.042	84
280.273	91
280.505	95
280.736	104
280.968	109
281.199	96
281.431	95
281.662	105
281.894	89
282.125	108
282.356	105
282.588	105
282.819	97
283.051	89
283.282	87
283.513	109
283.745	98
283.976	104
284.207	100
284.439	99
284.67	117
284.901	100
285.132	87
285.364	84
285.595	89
285.826	87
286.057	109
286.288	94
286.52	110
286.751	94
286.982	100
287.213	79
287.444	87
287.675	110
287.906	92
288.138	95
288.369	95
288.6	99
288.831	86
289.062	100
289.293	97
289.524	82
289.755	81
289.986	89
290.217	92
290.448	99
290.679	111
290.91	117
291.141	96
291.371	112
291.602	98
291.833	96
292.064	103
292.295	101
292.526	106
292.757	100
292.987	99
293.218	94
293.449	103
293.68	103
293.91	105
294.141	103
294.372	96
294.603	97
294.833	111
295.064	100
295.295	95
295.525	80
295.756	100
295.987	104
296.217	83
296.448	102
296.679	92
296.909	119
297.14	109
297.37	110
297.601	97
297.831	100
298.062	105
298.292	98
298.523	119
298.753	109
298.984	104
299.214	112
299.445	90
299.675	97
299.905	115
300.136	106
300.366	97
300.597	98
300.827	104
301.057	113
301.288	110
301.518	104
301.748	99
301.979	133
302.209	107
302.439	113
302.669	82
302.9	110
303.13	101
303.36	113
303.59	114
303.82	110
304.051	101
304.281	112
304.511	104
304.741	102
304.971	107
305.201	104
305.431	99
305.661	100
305.891	85
306.121	108
306.352	96
306.582	98
306.812	102
307.042	95
307.272	107
307.502	115
307.731	112
307.961	105
308.191	89
308.421	103
308.651	93
308.881	102
309.111	85
309.341	103
309.571	118
309.8	97
310.03	100
310.26	113
310.49	109
310.72	90
310.949	109
311.179	103
311.409	99
311.639	109
311.868	104
312.098	105
312.328	99
312.557	118
312.787	94
313.017	102
313.246	102
313.476	117
313.706	115
313.935	99
314.165	94
314.394	121
314.624	87
314.853	119
315.083	95
315.312	113
315.542	100
315.771	98
316.001	99
316.23	108
316.46	98
316.689	94
316.919	94
317.148	119
317.377	116
317.607	99
317.836	106
318.065	96
318.295	101
318.524	98
318.753	102
318.983	114
319.212	99
319.441	102
319.67	107
319.9	101
320.129	93
320.358	105
320.587	96
320.816	98
321.046	96
321.275	105
321.504	103
321.733	106
321.962	84
322.191	101
322.42	102
322.649	106
322.878	99
323.108	127
323.337	86
323.566	102
323.795	122
324.024	108
324.253	98
324.482	96
324.71	102
324.939	121
325.168	101
325.397	101
325.626	101
325.855	92
326.084	111
326.313	111
326.542	99
326.77	88
326.999	102
327.228	102
327.457	114
327.686	105
327.914	115
328.143	127
328.372	118
328.6	110
328.829	101
329.058	97
329.287	108
329.515	108
329.744	107
329.972	96
330.201	101
330.43	112
330.658	90
330.887	116
331.115	103
331.344	99
331.572	96
331.801	112
332.03	108
332.258	120
332.486	105
332.715	111
332.943	107
333.172	113
333.4	121
333.629	127
333.857	105
334.085	111
334.314	104
334.542	98
334.771	114
334.999	115
335.227	114
335.455	119
335.684	116
335.912	118
336.14	106
336.369	119
336.597	111
336.825	116
337.053	103
337.281	126
337.51	108
337.738	101
337.966	114
338.194	109
338.422	106
338.65	117
338.878	110
339.106	97
339.334	117
339.562	108
339.79	108
340.018	101
340.246	92
340.474	102
340.702	115
340.93	104
341.158	93
341.386	113
341.614	109
341.842	106
342.07	104
342.298	99
342.526	93
342.754	89
342.981	101
343.209	116
343.437	135
343.665	115
343.893	115
344.12	109
344.348	116
344.576	104
344.804	114
345.031	97
345.259	113
345.487	96
345.714	108
345.942	110
346.17	92
346.397	116
346.625	97
346.853	100
347.08	89
347.308	104
347.535	115
347.763	104
347.99	103
348.218	102
348.445	100
348.673	106
348.9	91
349.128	120
349.355	102
349.583	103
349.81	111
350.037	99
350.265	108
350.492	112
350.72	100
350.947	108
351.174	95
351.402	96
351.629	104
351.856	99
352.083	96
352.311	85
352.538	95
352.765	93
352.992	104
353.22	102
353.447	112
353.674	111
353.901	102
354.128	115
354.355	99
354.583	108
354.81	97
355.037	110
355.264	112
355.491	103
355.718	119
355.945	119
356.172	109
356.399	89
356.626	108
356.853	104
357.08	116
357.307	104
357.534	108
357.761	92
357.988	101
358.215	100
358.441	106
358.668	108
358.895	111
359.122	107
359.349	97
359.576	92
359.802	96
360.029	102
360.256	105
360.483	89
360.709	111
360.936	118
361.163	108
361.39	104
361.616	97
361.843	106
362.07	93
362.296	109
362.523	101
362.749	99
362.976	109
363.203	121
363.429	99
363.656	112
363.882	109
364.109	108
364.335	115
364.562	104
364.788	113
365.015	113
365.241	84
365.468	98
365.694	116
365.92	104
366.147	100
366.373	113
366.599	109
366.826	105
367.052	104
367.278	92
367.505	111
367.731	120
367.957	103
368.184	125
368.41	109
368.636	112
368.862	98
369.089	96
369.315	101
369.541	108
369.767	107
369.993	105
370.219	108
370.445	108
370.672	113
370.898	95
371.124	111
371.35	115
371.576	112
371.802	103
372.028	102
372.254	93
372.48	117
372.706	95
372.932	94
373.158	101
373.384	97
373.61	113
373.835	110
374.061	107
374.287	114
374.513	111
374.739	107
374.965	113
375.191	106
375.416	116
375.642	110
375.868	113
376.094	125
376.319	99
376.545	121
376.771	110
376.997	86
377.222	104
377.448	110
377.674	111
377.899	98
378.125	102
378.35	115
378.576	109
378.802	94
379.027	110
379.253	114
379.478	108
379.704	94
379.929	99
380.155	109
380.38	112
380.606	104
380.831	113
381.057	112
381.282	102
381.507	101
381.733	117
381.958	112
382.184	106
382.409	109
382.634	120
382.86	111
383.085	126
383.31	120
383.535	112
383.761	113
383.986	110
384.211	123
384.436	115
384.662	113
384.887	119
385.112	109
385.337	119
385.562	99
385.787	109
386.013	107
386.238	117
386.463	111
386.688	135
386.913	111
387.138	103
387.363	113
387.588	131
387.813	112
388.038	121
388.263	112
388.488	123
388.713	120
388.938	116
389.163	93
389.387	104
389.612	125
389.837	112
390.062	103
390.287	128
390.512	110
390.736	114
390.961	125
391.186	127
391.411	108
391.636	105
391.86	129
392.085	123
392.31	134
392.534	124
392.759	120
392.984	119
393.208	127
393.433	121
393.658	109
393.882	123
394.107	121
394.331	115
394.556	114
394.78	118
395.005	117
395.229	129
395.454	136
395.678	123
395.903	127
396.127	128
396.352	129
396.576	127
396.801	115
397.025	108
397.249	127
397.474	148
397.698	124
397.922	130
398.147	118
398.371	140
398.595	148
398.82	122
399.044	141
399.268	129
399.492	149
399.717	160
399.941	142
400.165	155
400.389	147
400.613	135
400.837	124
401.062	143
401.286	118
401.51	132
401.734	123
401.958	140
402.182	130
402.406	117
402.63	135
402.854	128
403.078	132
403.302	127
403.526	138
403.75	139
403.974	137
404.198	145
404.422	143
404.645	147
404.869	144
405.093	131
405.317	139
405.541	139
405.765	144
405.988	136
406.212	128
406.436	142
406.66	145
406.883	138
407.107	132
407.331	142
407.555	152
407.778	136
408.002	146
408.226	132
408.449	143
408.673	139
408.896	142
409.12	129
409.344	133
409.567	133
409.791	125
410.014	129
410.238	152
410.461	133
410.685	139
410.908	115
411.132	138
411.355	125
411.578	133
411.802	129
412.025	118
412.249	124
412.472	148
412.695	134
412.919	124
413.142	147
413.365	123
413.589	127
413.812	124
414.035	135
414.258	136
414.482	126
414.705	140
414.928	137
415.151	151
415.374	144
415.597	131
415.821	139
416.044	132
416.267	142
416.49	131
416.713	120
416.936	121
417.159	139
417.382	130
417.605	140
417.828	139
418.051	127
418.274	133
418.497	135
418.72	140
418.943	128
419.166	148
419.389	128
419.611	165
419.834	140
420.057	158
420.28	135
420.503	143
420.726	157
420.948	124
421.171	135
421.394	123
421.617	139
421.839	123
422.062	129
422.285	140
422.507	135
422.73	143
422.953	139
423.175	127
423.398	141
423.621	141
423.843	135
424.066	153
424.288	131
424.511	154
424.733	151
424.956	131
425.178	130
425.401	133
425.623	123
425.846	141
426.068	139
426.291	126
426.513	123
426.735	127
426.958	143
427.18	126
427.402	129
427.625	126
427.847	126
428.069	119
428.292	131
428.514	121
428.736	120
428.958	112
429.181	149
429.403	127
429.625	114
429.847	121
430.069	126
430.292	136
430.514	120
430.736	128
430.958	131
431.18	116
431.402	130
431.624	147
431.846	126
432.068	124
432.29	128
432.512	141
432.734	131
432.956	136
433.178	125
433.4	126
433.622	148
433.844	141
434.066	135
434.287	130
434.509	133
434.731	128
434.953	126
435.175	124
435.397	153
435.618	125
435.84	132
436.062	132
436.284	115
436.505	119
436.727	109
436.949	123
437.17	123
437.392	132
437.614	134
437.835	109
438.057	119
438.278	118
438.5	119
438.721	143
438.943	145
439.165	131
439.386	128
439.608	144
439.829	132
440.05	126
440.272	128
440.493	116
440.715	132
440.936	132
441.158	135
441.379	159
441.6	141
441.822	144
442.043	146
442.264	141
442.486	131
442.707	129
442.928	143
443.149	124
443.371	141
443.592	131
443.813	144
444.034	130
444.255	150
444.476	131
444.698	140
444.919	142
445.14	388
445.361	265
445.582	145
445.803	155
446.024	132
446.245	152
446.466	156
446.687	136
446.908	149
447.129	141
447.35	130
447.571	131
447.792	128
448.013	132
448.234	120
448.455	124
448.675	129
448.896	120
449.117	129
449.338	112
449.559	145
449.779	119
450	124
450.221	121
450.442	105
450.662	110
450.883	120
451.104	135
451.324	132
451.545	120
451.766	127
451.986	124
452.207	117
452.428	121
452.648	133
452.869	118
453.089	116
453.31	116
453.53	126
453.751	126
453.971	120
454.192	127
454.412	109
454.633	122
454.853	127
455.073	130
455.294	112
455.514	119
455.734	126
455.955	124
456.175	122
456.395	122
456.616	110
456.836	118
457.056	121
457.276	105
457.497	111
457.717	104
457.937	116
458.157	118
458.377	110
458.598	113
458.818	113
459.038	117
459.258	108
459.478	134
459.698	118
459.918	128
460.138	128
460.358	150
460.578	132
460.798	126
461.018	151
461.238	140
461.458	126
461.678	143
461.898	144
462.118	148
462.338	147
462.558	145
462.777	153
462.997	145
463.217	160
463.437	152
463.657	131
463.876	143
464.096	142
464.316	131
464.536	144
464.755	139
464.975	145
465.195	156
465.414	152
465.634	127
465.854	122
466.073	133
466.293	127
466.512	111
466.732	131
466.951	125
467.171	130
467.391	131
467.61	118
467.829	129
468.049	133
468.268	125
468.488	133
468.707	118
468.927	121
469.146	129
469.365	121
469.585	141
469.804	122
470.023	144
470.243	134
470.462	147
470.681	134
470.901	131
471.12	129
471.339	125
471.558	118
471.777	135
471.997	123
472.216	130
472.435	132
472.654	134
472.873	126
473.092	135
473.311	121
473.53	124
473.749	128
473.968	130
474.187	126
474.406	124
474.625	127
474.844	139
475.063	121
475.282	126
475.501	122
475.72	137
475.939	127
476.158	120
476.377	128
476.596	128
476.814	124
477.033	121
477.252	115
477.471	127
477.69	164
477.908	123
478.127	141
478.346	141
478.564	135
478.783	143
479.002	140
479.22	142
479.439	150
479.658	128
479.876	124
480.095	128
480.313	136
480.532	141
480.751	137
480.969	133
481.188	123
481.406	119
481.624	119
481.843	126
482.061	127
482.28	139
482.498	128
482.717	116
482.935	135
483.153	126
483.372	150
483.59	131
483.808	127
484.027	126
484.245	133
484.463	127
484.681	166
484.9	144
485.118	153
485.336	128
485.554	130
485.772	123
485.99	142
486.209	131
486.427	142
486.645	148
486.863	134
487.081	141
487.299	139
487.517	148
487.735	149
487.953	151
488.171	148
488.389	143
488.607	138
488.825	140
489.043	126
489.261	139
489.479	134
489.696	123
489.914	147
490.132	131
490.35	155
490.568	149
490.786	158
491.003	141
491.221	142
491.439	144
491.657	162
491.874	165
492.092	173
492.31	147
492.527	159
492.745	177
492.963	160
493.18	159
493.398	162
493.615	168
493.833	139
494.05	145
494.268	143
494.485	146
494.703	136
494.92	167
495.138	157
495.355	146
495.573	150
495.79	144
496.008	147
496.225	147
496.442	145
496.66	164
496.877	152
497.094	173
497.312	151
497.529	161
497.746	164
497.963	150
498.181	156
498.398	141
498.615	159
498.832	148
499.049	154
499.267	192
499.484	190
499.701	209
499.918	210
500.135	225
500.352	246
500.569	242
500.786	236
501.003	240
501.22	218
501.437	200
501.654	200
501.871	178
502.088	164
502.305	146
502.522	160
502.739	156
502.956	159
503.172	161
503.389	138
503.606	143
503.823	139
504.04	139
504.256	143
504.473	160
504.69	155
504.907	170
505.123	153
505.34	128
505.557	139
505.773	161
505.99	125
506.207	128
506.423	136
506.64	133
506.856	123
507.073	126
507.289	131
507.506	147
507.722	123
507.939	118
508.155	134
508.372	131
508.588	129
508.805	131
509.021	133
509.238	128
509.454	115
509.67	120
509.887	126
510.103	125
510.319	115
510.536	135
510.752	106
510.968	116
511.184	118
511.401	108
511.617	118
511.833	118
512.049	112
512.265	133
512.481	131
512.698	113
512.914	124
513.13	128
513.346	111
513.562	131
513.778	135
513.994	119
514.21	121
514.426	115
514.642	123
514.858	127
515.074	126
515.29	138
515.506	120
515.721	127
515.937	119
516.153	125
516.369	111
516.585	113
516.801	137
517.016	129
517.232	135
517.448	153
517.664	131
517.879	132
518.095	126
518.311	135
518.527	133
518.742	129
518.958	127
519.173	151
519.389	141
519.605	127
519.82	130
520.036	117
520.251	126
520.467	124
520.682	113
520.898	99
521.113	99
521.329	129
521.544	121
521.76	96
521.975	106
522.19	119
522.406	118
522.621	109
522.836	129
523.052	129
523.267	120
523.482	121
523.698	104
523.913	112
524.128	116
524.343	125
524.559	124
524.774	128
524.989	140
525.204	130
525.419	127
525.634	114
525.849	133
526.064	113
526.28	124
526.495	116
526.71	106
526.925	119
527.14	114
527.355	116
527.57	112
527.785	125
527.999	110
528.214	118
528.429	146
528.644	149
528.859	141
529.074	126
529.289	139
529.503	141
529.718	135
529.933	120
530.148	126
530.363	118
530.577	125
530.792	126
531.007	125
531.221	113
531.436	106
531.651	118
531.865	118
532.08	123
532.295	132
532.509	132
532.724	105
532.938	113
533.153	124
533.367	117
533.582	121
533.796	114
534.011	120
534.225	122
534.44	112
534.654	120
534.868	107
535.083	110
535.297	122
535.511	124
535.726	122
535.94	105
536.154	115
536.369	117
536.583	112
536.797	113
537.011	99
537.225	123
537.44	112
537.654	123
537.868	121
538.082	121
538.296	131
538.51	123
538.724	125
538.938	110
539.153	131
539.367	144
539.581	121
539.795	105
540.009	116
540.222	120
540.436	121
540.65	126
540.864	141
541.078	132
541.292	146
541.506	148
541.72	155
541.934	146
542.147	140
542.361	141
542.575	131
542.789	134
543.002	131
543.216	141
543.43	135
543.644	126
543.857	127
544.071	129
544.285	136
544.498	133
544.712	157
544.925	125
545.139	140
545.352	135
545.566	142
545.779	137
545.993	133
546.206	144
546.42	118
546.633	143
546.847	163
547.06	159
547.274	160
547.487	132
547.7	149
547.914	141
548.127	131
548.34	143
548.554	117
548.767	135
548.98	129
549.193	146
549.407	132
549.62	136
549.833	135
550.046	128
550.259	128
550.473	122
550.686	134
550.899	124
551.112	132
551.325	144
551.538	117
551.751	111
551.964	118
552.177	128
552.39	132
552.603	143
552.816	147
553.029	129
553.242	149
553.455	142
553.667	149
553.88	144
554.093	140
554.306	134
554.519	130
554.732	136
554.944	126
555.157	128
555.37	128
555.583	124
555.795	120
556.008	124
556.221	117
556.433	132
556.646	115
556.859	135
557.071	127
557.284	123
557.496	133
557.709	129
557.921	122
558.134	120
558.346	119
558.559	112
558.771	119
558.984	121
559.196	128
559.409	117
559.621	116
559.833	122
560.046	119
560.258	128
560.47	108
560.683	104
560.895	111
561.107	115
561.32	113
561.532	132
561.744	125
561.956	136
562.168	123
562.381	105
562.593	124
562.805	129
563.017	106
563.229	135
563.441	112
563.653	105
563.865	112
564.077	114
564.289	136
564.501	126
564.713	129
564.925	125
565.137	111
565.349	124
565.561	133
565.773	129
565.985	135
566.197	132
566.408	141
566.62	119
566.832	137
567.044	140
567.255	127
567.467	123
567.679	135
567.891	167
568.102	148
568.314	140
568.526	136
568.737	132
568.949	124
569.161	113
569.372	114
569.584	118
569.795	113
570.007	117
570.218	111
570.43	104
