Data from SampD_HRD10591_00027.txt Node
Date: Mon Jan 19 11:50:24 EST 2026
User: Yrep
Spectrometer: HR+D1059
Trigger mode: 0
Integration Time (sec): 3.443000E-1
Scans to average: 1
Electric dark correction enabled: true
Nonlinearity correction enabled: false
Boxcar width: 0
XAxis mode: Wavelengths
Number of Pixels in Spectrum: 2048
>>>>>Begin Spectral Data<<<<<
223.165	-27.81
223.4	-27.81
223.635	-27.81
223.869	-28.81
224.104	-18.81
224.338	-16.81
224.573	-5.81
224.808	-10.81
225.042	7.19
225.277	-11.81
225.511	-1.81
225.746	19.19
225.98	-1.81
226.215	12.19
226.449	18.19
226.683	15.19
226.918	17.19
227.152	35.19
227.387	47.19
227.621	44.19
227.856	47.19
228.09	55.19
228.324	45.19
228.559	66.19
228.793	56.19
229.027	66.19
229.262	68.19
229.496	67.19
229.73	76.19
229.964	76.19
230.199	85.19
230.433	76.19
230.667	76.19
230.901	75.19
231.136	76.19
231.37	77.19
231.604	84.19
231.838	97.19
232.072	93.19
232.306	97.19
232.541	89.19
232.775	96.19
233.009	91.19
233.243	79.19
233.477	85.19
233.711	89.19
233.945	93.19
234.179	86.19
234.413	83.19
234.647	81.19
234.881	86.19
235.115	74.19
235.349	74.19
235.583	71.19
235.817	85.19
236.051	68.19
236.285	63.19
236.519	83.19
236.753	79.19
236.987	82.19
237.221	75.19
237.455	87.19
237.689	80.19
237.922	88.19
238.156	73.19
238.39	85.19
238.624	85.19
238.858	84.19
239.091	91.19
239.325	97.19
239.559	94.19
239.793	98.19
240.027	93.19
240.26	85.19
240.494	88.19
240.728	91.19
240.961	88.19
241.195	89.19
241.429	77.19
241.662	93.19
241.896	89.19
242.13	95.19
242.363	86.19
242.597	83.19
242.83	89.19
243.064	80.19
243.298	99.19
243.531	82.19
243.765	93.19
243.998	98.19
244.232	90.19
244.465	91.19
244.699	87.19
244.932	86.19
245.166	81.19
245.399	90.19
245.633	85.19
245.866	91.19
246.099	75.19
246.333	85.19
246.566	88.19
246.8	78.19
247.033	97.19
247.266	87.19
247.5	67.19
247.733	77.19
247.966	74.19
248.2	99.19
248.433	73.19
248.666	74.19
248.899	91.19
249.133	90.19
249.366	87.19
249.599	96.19
249.832	89.19
250.066	89.19
250.299	84.19
250.532	85.19
250.765	90.19
250.998	97.19
251.231	93.19
251.465	98.19
251.698	95.19
251.931	95.19
252.164	87.19
252.397	90.19
252.63	108.19
252.863	92.19
253.096	87.19
253.329	100.19
253.562	101.19
253.795	89.19
254.028	98.19
254.261	78.19
254.494	103.19
254.727	84.19
254.96	92.19
255.193	91.19
255.426	99.19
255.659	82.19
255.892	92.19
256.124	85.19
256.357	89.19
256.59	92.19
256.823	106.19
257.056	93.19
257.289	107.19
257.521	98.19
257.754	100.19
257.987	102.19
258.22	107.19
258.452	100.19
258.685	91.19
258.918	97.19
259.151	87.19
259.383	94.19
259.616	97.19
259.849	105.19
260.081	106.19
260.314	104.19
260.547	93.19
260.779	96.19
261.012	97.19
261.244	94.19
261.477	104.19
261.71	93.19
261.942	94.19
262.175	97.19
262.407	112.19
262.64	87.19
262.872	111.19
263.105	92.19
263.337	99.19
263.57	108.19
263.802	99.19
264.035	86.19
264.267	98.19
264.499	116.19
264.732	94.19
264.964	95.19
265.197	99.19
265.429	105.19
265.661	102.19
265.894	101.19
266.126	113.19
266.358	115.19
266.591	101.19
266.823	109.19
267.055	98.19
267.287	111.19
267.52	107.19
267.752	110.19
267.984	100.19
268.216	106.19
268.448	113.19
268.681	105.19
268.913	108.19
269.145	94.19
269.377	110.19
269.609	107.19
269.841	93.19
270.073	103.19
270.306	91.19
270.538	101.19
270.77	101.19
271.002	104.19
271.234	109.19
271.466	108.19
271.698	111.19
271.93	108.19
272.162	115.19
272.394	128.19
272.626	106.19
272.858	104.19
273.09	110.19
273.322	104.19
273.553	98.19
273.785	115.19
274.017	91.19
274.249	119.19
274.481	108.19
274.713	105.19
274.945	101.19
275.176	101.19
275.408	119.19
275.64	126.19
275.872	105.19
276.104	125.19
276.335	108.19
276.567	94.19
276.799	113.19
277.031	109.19
277.262	109.19
277.494	114.19
277.726	95.19
277.957	97.19
278.189	125.19
278.421	111.19
278.652	107.19
278.884	108.19
279.115	108.19
279.347	122.19
279.579	105.19
279.81	119.19
280.042	100.19
280.273	115.19
280.505	103.19
280.736	101.19
280.968	107.19
281.199	116.19
281.431	106.19
281.662	102.19
281.894	115.19
282.125	119.19
282.356	118.19
282.588	105.19
282.819	107.19
283.051	114.19
283.282	114.19
283.513	125.19
283.745	116.19
283.976	110.19
284.207	111.19
284.439	107.19
284.67	118.19
284.901	112.19
285.132	107.19
285.364	128.19
285.595	117.19
285.826	116.19
286.057	109.19
286.288	112.19
286.52	119.19
286.751	107.19
286.982	113.19
287.213	111.19
287.444	117.19
287.675	113.19
287.906	116.19
288.138	127.19
288.369	131.19
288.6	107.19
288.831	115.19
289.062	110.19
289.293	116.19
289.524	122.19
289.755	122.19
289.986	121.19
290.217	116.19
290.448	118.19
290.679	119.19
290.91	125.19
291.141	115.19
291.371	114.19
291.602	110.19
291.833	111.19
292.064	125.19
292.295	122.19
292.526	118.19
292.757	115.19
292.987	115.19
293.218	123.19
293.449	102.19
293.68	130.19
293.91	113.19
294.141	115.19
294.372	108.19
294.603	134.19
294.833	129.19
295.064	116.19
295.295	118.19
295.525	99.19
295.756	137.19
295.987	119.19
296.217	118.19
296.448	110.19
296.679	115.19
296.909	115.19
297.14	118.19
297.37	130.19
297.601	110.19
297.831	127.19
298.062	124.19
298.292	127.19
298.523	131.19
298.753	125.19
298.984	119.19
299.214	122.19
299.445	127.19
299.675	138.19
299.905	115.19
300.136	116.19
300.366	109.19
300.597	126.19
300.827	131.19
301.057	122.19
301.288	111.19
301.518	127.19
301.748	117.19
301.979	159.19
302.209	120.19
302.439	117.19
302.669	129.19
302.9	120.19
303.13	126.19
303.36	124.19
303.59	122.19
303.82	135.19
304.051	128.19
304.281	136.19
304.511	130.19
304.741	121.19
304.971	116.19
305.201	130.19
305.431	132.19
305.661	114.19
305.891	112.19
306.121	134.19
306.352	136.19
306.582	129.19
306.812	118.19
307.042	102.19
307.272	119.19
307.502	116.19
307.731	123.19
307.961	127.19
308.191	130.19
308.421	126.19
308.651	138.19
308.881	127.19
309.111	130.19
309.341	125.19
309.571	95.19
309.8	133.19
310.03	111.19
310.26	118.19
310.49	110.19
310.72	131.19
310.949	136.19
311.179	121.19
311.409	114.19
311.639	120.19
311.868	124.19
312.098	131.19
312.328	115.19
312.557	124.19
312.787	118.19
313.017	107.19
313.246	134.19
313.476	120.19
313.706	121.19
313.935	120.19
314.165	131.19
314.394	130.19
314.624	137.19
314.853	127.19
315.083	135.19
315.312	130.19
315.542	118.19
315.771	132.19
316.001	126.19
316.23	130.19
316.46	120.19
316.689	116.19
316.919	123.19
317.148	136.19
317.377	135.19
317.607	128.19
317.836	123.19
318.065	128.19
318.295	148.19
318.524	115.19
318.753	128.19
318.983	135.19
319.212	149.19
319.441	120.19
319.67	142.19
319.9	124.19
320.129	137.19
320.358	138.19
320.587	130.19
320.816	124.19
321.046	123.19
321.275	142.19
321.504	129.19
321.733	123.19
321.962	131.19
322.191	131.19
322.42	138.19
322.649	143.19
322.878	125.19
323.108	135.19
323.337	121.19
323.566	138.19
323.795	125.19
324.024	131.19
324.253	136.19
324.482	134.19
324.71	118.19
324.939	140.19
325.168	135.19
325.397	119.19
325.626	129.19
325.855	131.19
326.084	120.19
326.313	131.19
326.542	125.19
326.77	135.19
326.999	128.19
327.228	117.19
327.457	121.19
327.686	121.19
327.914	138.19
328.143	139.19
328.372	146.19
328.6	129.19
328.829	122.19
329.058	116.19
329.287	135.19
329.515	138.19
329.744	156.19
329.972	147.19
330.201	123.19
330.43	122.19
330.658	115.19
330.887	119.19
331.115	137.19
331.344	135.19
331.572	144.19
331.801	146.19
332.03	158.19
332.258	136.19
332.486	135.19
332.715	149.19
332.943	146.19
333.172	148.19
333.4	133.19
333.629	162.19
333.857	152.19
334.085	147.19
334.314	165.19
334.542	155.19
334.771	151.19
334.999	150.19
335.227	135.19
335.455	157.19
335.684	150.19
335.912	133.19
336.14	140.19
336.369	150.19
336.597	144.19
336.825	138.19
337.053	163.19
337.281	143.19
337.51	140.19
337.738	149.19
337.966	139.19
338.194	141.19
338.422	130.19
338.65	138.19
338.878	146.19
339.106	125.19
339.334	155.19
339.562	129.19
339.79	133.19
340.018	126.19
340.246	121.19
340.474	137.19
340.702	138.19
340.93	137.19
341.158	137.19
341.386	124.19
341.614	150.19
341.842	151.19
342.07	127.19
342.298	139.19
342.526	130.19
342.754	134.19
342.981	144.19
343.209	130.19
343.437	153.19
343.665	140.19
343.893	137.19
344.12	148.19
344.348	147.19
344.576	138.19
344.804	145.19
345.031	133.19
345.259	139.19
345.487	129.19
345.714	138.19
345.942	146.19
346.17	136.19
346.397	130.19
346.625	136.19
346.853	134.19
347.08	128.19
347.308	149.19
347.535	134.19
347.763	133.19
347.99	136.19
348.218	143.19
348.445	154.19
348.673	122.19
348.9	144.19
349.128	132.19
349.355	117.19
349.583	126.19
349.81	127.19
350.037	127.19
350.265	134.19
350.492	138.19
350.72	135.19
350.947	126.19
351.174	142.19
351.402	140.19
351.629	124.19
351.856	134.19
352.083	137.19
352.311	126.19
352.538	116.19
352.765	137.19
352.992	145.19
353.22	136.19
353.447	135.19
353.674	131.19
353.901	143.19
354.128	128.19
354.355	121.19
354.583	119.19
354.81	136.19
355.037	124.19
355.264	138.19
355.491	127.19
355.718	123.19
355.945	135.19
356.172	130.19
356.399	140.19
356.626	143.19
356.853	140.19
357.08	151.19
357.307	155.19
357.534	128.19
357.761	126.19
357.988	138.19
358.215	129.19
358.441	131.19
358.668	128.19
358.895	141.19
359.122	143.19
359.349	115.19
359.576	131.19
359.802	134.19
360.029	124.19
360.256	126.19
360.483	129.19
360.709	131.19
360.936	161.19
361.163	135.19
361.39	132.19
361.616	125.19
361.843	125.19
362.07	131.19
362.296	154.19
362.523	133.19
362.749	135.19
362.976	118.19
363.203	136.19
363.429	117.19
363.656	138.19
363.882	137.19
364.109	145.19
364.335	143.19
364.562	122.19
364.788	130.19
365.015	138.19
365.241	139.19
365.468	150.19
365.694	134.19
365.92	119.19
366.147	136.19
366.373	127.19
366.599	131.19
366.826	137.19
367.052	138.19
367.278	135.19
367.505	115.19
367.731	154.19
367.957	142.19
368.184	121.19
368.41	131.19
368.636	135.19
368.862	128.19
369.089	149.19
369.315	122.19
369.541	143.19
369.767	143.19
369.993	140.19
370.219	135.19
370.445	135.19
370.672	140.19
370.898	135.19
371.124	146.19
371.35	138.19
371.576	138.19
371.802	136.19
372.028	155.19
372.254	147.19
372.48	142.19
372.706	132.19
372.932	137.19
373.158	122.19
373.384	145.19
373.61	136.19
373.835	149.19
374.061	142.19
374.287	125.19
374.513	127.19
374.739	145.19
374.965	147.19
375.191	131.19
375.416	147.19
375.642	147.19
375.868	175.19
376.094	159.19
376.319	138.19
376.545	151.19
376.771	157.19
376.997	142.19
377.222	139.19
377.448	142.19
377.674	129.19
377.899	153.19
378.125	135.19
378.35	148.19
378.576	142.19
378.802	132.19
379.027	135.19
379.253	144.19
379.478	151.19
379.704	142.19
379.929	149.19
380.155	145.19
380.38	128.19
380.606	144.19
380.831	146.19
381.057	147.19
381.282	147.19
381.507	151.19
381.733	141.19
381.958	151.19
382.184	143.19
382.409	156.19
382.634	140.19
382.86	142.19
383.085	156.19
383.31	148.19
383.535	172.19
383.761	159.19
383.986	151.19
384.211	165.19
384.436	165.19
384.662	167.19
384.887	155.19
385.112	154.19
385.337	160.19
385.562	154.19
385.787	149.19
386.013	175.19
386.238	145.19
386.463	170.19
386.688	173.19
386.913	156.19
387.138	160.19
387.363	155.19
387.588	161.19
387.813	163.19
388.038	156.19
388.263	161.19
388.488	154.19
388.713	170.19
388.938	174.19
389.163	165.19
389.387	160.19
389.612	174.19
389.837	160.19
390.062	152.19
390.287	151.19
390.512	168.19
390.736	148.19
390.961	169.19
391.186	166.19
391.411	168.19
391.636	182.19
391.86	175.19
392.085	169.19
392.31	178.19
392.534	177.19
392.759	194.19
392.984	179.19
393.208	186.19
393.433	166.19
393.658	175.19
393.882	164.19
394.107	169.19
394.331	169.19
394.556	177.19
394.78	174.19
395.005	170.19
395.229	173.19
395.454	175.19
395.678	187.19
395.903	185.19
396.127	165.19
396.352	165.19
396.576	161.19
396.801	181.19
397.025	164.19
397.249	179.19
397.474	181.19
397.698	181.19
397.922	184.19
398.147	183.19
398.371	187.19
398.595	182.19
398.82	197.19
399.044	200.19
399.268	225.19
399.492	234.19
399.717	251.19
399.941	228.19
400.165	205.19
400.389	190.19
400.613	187.19
400.837	182.19
401.062	202.19
401.286	196.19
401.51	183.19
401.734	189.19
401.958	178.19
402.182	187.19
402.406	180.19
402.63	201.19
402.854	199.19
403.078	202.19
403.302	189.19
403.526	196.19
403.75	200.19
403.974	212.19
404.198	203.19
404.422	219.19
404.645	207.19
404.869	206.19
405.093	194.19
405.317	196.19
405.541	196.19
405.765	210.19
405.988	196.19
406.212	185.19
406.436	195.19
406.66	221.19
406.883	226.19
407.107	234.19
407.331	228.19
407.555	220.19
407.778	199.19
408.002	209.19
408.226	193.19
408.449	211.19
408.673	204.19
408.896	206.19
409.12	212.19
409.344	213.19
409.567	202.19
409.791	201.19
410.014	202.19
410.238	204.19
410.461	212.19
410.685	199.19
410.908	197.19
411.132	203.19
411.355	183.19
411.578	198.19
411.802	192.19
412.025	189.19
412.249	189.19
412.472	196.19
412.695	187.19
412.919	195.19
413.142	199.19
413.365	204.19
413.589	193.19
413.812	196.19
414.035	209.19
414.258	190.19
414.482	201.19
414.705	191.19
414.928	194.19
415.151	190.19
415.374	195.19
415.597	197.19
415.821	192.19
416.044	171.19
416.267	192.19
416.49	183.19
416.713	195.19
416.936	203.19
417.159	188.19
417.382	206.19
417.605	191.19
417.828	214.19
418.051	201.19
418.274	199.19
418.497	199.19
418.72	201.19
418.943	196.19
419.166	197.19
419.389	225.19
419.611	217.19
419.834	205.19
420.057	204.19
420.28	198.19
420.503	204.19
420.726	195.19
420.948	189.19
421.171	203.19
421.394	205.19
421.617	204.19
421.839	201.19
422.062	223.19
422.285	213.19
422.507	184.19
422.73	201.19
422.953	203.19
423.175	193.19
423.398	205.19
423.621	221.19
423.843	206.19
424.066	196.19
424.288	192.19
424.511	194.19
424.733	194.19
424.956	230.19
425.178	194.19
425.401	212.19
425.623	202.19
425.846	190.19
426.068	196.19
426.291	197.19
426.513	185.19
426.735	193.19
426.958	200.19
427.18	203.19
427.402	195.19
427.625	195.19
427.847	181.19
428.069	180.19
428.292	194.19
428.514	194.19
428.736	187.19
428.958	187.19
429.181	201.19
429.403	179.19
429.625	174.19
429.847	175.19
430.069	196.19
430.292	204.19
430.514	175.19
430.736	179.19
430.958	189.19
431.18	168.19
431.402	191.19
431.624	164.19
431.846	175.19
432.068	169.19
432.29	190.19
432.512	176.19
432.734	174.19
432.956	195.19
433.178	198.19
433.4	187.19
433.622	206.19
433.844	169.19
434.066	186.19
434.287	180.19
434.509	170.19
434.731	190.19
434.953	201.19
435.175	191.19
435.397	205.19
435.618	186.19
435.84	193.19
436.062	181.19
436.284	191.19
436.505	175.19
436.727	183.19
436.949	189.19
437.17	165.19
437.392	187.19
437.614	186.19
437.835	169.19
438.057	179.19
438.278	174.19
438.5	178.19
438.721	189.19
438.943	190.19
439.165	186.19
439.386	195.19
439.608	201.19
439.829	195.19
440.05	204.19
440.272	179.19
440.493	196.19
440.715	189.19
440.936	199.19
441.158	227.19
441.379	199.19
441.6	202.19
441.822	214.19
442.043	193.19
442.264	206.19
442.486	188.19
442.707	186.19
442.928	208.19
443.149	201.19
443.371	213.19
443.592	216.19
443.813	203.19
444.034	196.19
444.255	212.19
444.476	221.19
444.698	244.19
444.919	231.19
445.14	432.19
445.361	291.19
445.582	211.19
445.803	197.19
446.024	191.19
446.245	217.19
446.466	215.19
446.687	193.19
446.908	203.19
447.129	208.19
447.35	211.19
447.571	197.19
447.792	182.19
448.013	197.19
448.234	196.19
448.455	179.19
448.675	200.19
448.896	185.19
449.117	183.19
449.338	188.19
449.559	197.19
449.779	170.19
450	188.19
450.221	187.19
450.442	184.19
450.662	188.19
450.883	195.19
451.104	185.19
451.324	186.19
451.545	190.19
451.766	189.19
451.986	173.19
452.207	190.19
452.428	191.19
452.648	191.19
452.869	175.19
453.089	167.19
453.31	175.19
453.53	185.19
453.751	183.19
453.971	156.19
454.192	148.19
454.412	170.19
454.633	173.19
454.853	163.19
455.073	175.19
455.294	167.19
455.514	180.19
455.734	161.19
455.955	173.19
456.175	148.19
456.395	164.19
456.616	179.19
456.836	171.19
457.056	171.19
457.276	163.19
457.497	164.19
457.717	162.19
457.937	148.19
458.157	172.19
458.377	150.19
458.598	182.19
458.818	155.19
459.038	165.19
459.258	174.19
459.478	171.19
459.698	152.19
459.918	174.19
460.138	188.19
460.358	206.19
460.578	210.19
460.798	198.19
461.018	196.19
461.238	193.19
461.458	201.19
461.678	194.19
461.898	198.19
462.118	209.19
462.338	209.19
462.558	204.19
462.777	197.19
462.997	221.19
463.217	212.19
463.437	219.19
463.657	226.19
463.876	221.19
464.096	222.19
464.316	219.19
464.536	212.19
464.755	201.19
464.975	216.19
465.195	198.19
465.414	189.19
465.634	193.19
465.854	184.19
466.073	201.19
466.293	180.19
466.512	187.19
466.732	176.19
466.951	204.19
467.171	181.19
467.391	184.19
467.61	207.19
467.829	199.19
468.049	193.19
468.268	193.19
468.488	182.19
468.707	165.19
468.927	166.19
469.146	189.19
469.365	176.19
469.585	187.19
469.804	194.19
470.023	191.19
470.243	201.19
470.462	216.19
470.681	199.19
470.901	209.19
471.12	213.19
471.339	202.19
471.558	194.19
471.777	191.19
471.997	180.19
472.216	193.19
472.435	168.19
472.654	166.19
472.873	167.19
473.092	179.19
473.311	171.19
473.53	172.19
473.749	179.19
473.968	183.19
474.187	178.19
474.406	183.19
474.625	175.19
474.844	187.19
475.063	172.19
475.282	175.19
475.501	174.19
475.72	187.19
475.939	169.19
476.158	185.19
476.377	183.19
476.596	170.19
476.814	173.19
477.033	178.19
477.252	183.19
477.471	193.19
477.69	197.19
477.908	175.19
478.127	215.19
478.346	215.19
478.564	195.19
478.783	197.19
479.002	206.19
479.22	202.19
479.439	221.19
479.658	196.19
479.876	200.19
480.095	188.19
480.313	205.19
480.532	213.19
480.751	195.19
480.969	181.19
481.188	178.19
481.406	195.19
481.624	165.19
481.843	193.19
482.061	182.19
482.28	173.19
482.498	171.19
482.717	173.19
482.935	191.19
483.153	203.19
483.372	209.19
483.59	201.19
483.808	202.19
484.027	204.19
484.245	217.19
484.463	207.19
484.681	222.19
484.9	203.19
485.118	201.19
485.336	186.19
485.554	196.19
485.772	172.19
485.99	194.19
486.209	201.19
486.427	195.19
486.645	199.19
486.863	198.19
487.081	203.19
487.299	202.19
487.517	210.19
487.735	237.19
487.953	234.19
488.171	222.19
488.389	201.19
488.607	202.19
488.825	194.19
489.043	187.19
489.261	207.19
489.479	207.19
489.696	197.19
489.914	211.19
490.132	213.19
490.35	228.19
490.568	228.19
490.786	222.19
491.003	219.19
491.221	218.19
491.439	237.19
491.657	246.19
491.874	249.19
492.092	245.19
492.31	266.19
492.527	231.19
492.745	234.19
492.963	247.19
493.18	238.19
493.398	214.19
493.615	226.19
493.833	235.19
494.05	228.19
494.268	219.19
494.485	225.19
494.703	234.19
494.92	237.19
495.138	220.19
495.355	227.19
495.573	225.19
495.79	213.19
496.008	230.19
496.225	221.19
496.442	229.19
496.66	228.19
496.877	236.19
497.094	245.19
497.312	230.19
497.529	227.19
497.746	230.19
497.963	219.19
498.181	222.19
498.398	218.19
498.615	238.19
498.832	253.19
499.049	265.19
499.267	298.19
499.484	274.19
499.701	321.19
499.918	358.19
500.135	394.19
500.352	406.19
500.569	419.19
500.786	428.19
501.003	379.19
501.22	349.19
501.437	309.19
501.654	299.19
501.871	278.19
502.088	259.19
502.305	262.19
502.522	245.19
502.739	249.19
502.956	237.19
503.172	223.19
503.389	223.19
503.606	205.19
503.823	222.19
504.04	225.19
504.256	206.19
504.473	220.19
504.69	217.19
