Data from SampD_HRD10591_00050.txt Node
Date: Mon Jan 19 11:50:32 EST 2026
User: Yrep
Spectrometer: HR+D1059
Trigger mode: 0
Integration Time (sec): 3.443000E-1
Scans to average: 1
Electric dark correction enabled: true
Nonlinearity correction enabled: false
Boxcar width: 0
XAxis mode: Wavelengths
Number of Pixels in Spectrum: 2048
>>>>>Begin Spectral Data<<<<<
223.165	-23.69
223.4	-23.69
223.635	-23.69
223.869	-29.69
224.104	-28.69
224.338	-21.69
224.573	-12.69
224.808	-10.69
225.042	-17.69
225.277	4.31
225.511	-5.69
225.746	16.31
225.98	0.31
226.215	16.31
226.449	7.31
226.683	31.31
226.918	38.31
227.152	36.31
227.387	33.31
227.621	49.31
227.856	29.31
228.09	37.31
228.324	51.31
228.559	52.31
228.793	50.31
229.027	70.31
229.262	54.31
229.496	79.31
229.73	69.31
229.964	82.31
230.199	67.31
230.433	66.31
230.667	83.31
230.901	68.31
231.136	90.31
231.37	81.31
231.604	77.31
231.838	73.31
232.072	70.31
232.306	84.31
232.541	79.31
232.775	64.31
233.009	79.31
233.243	79.31
233.477	86.31
233.711	99.31
233.945	89.31
234.179	70.31
234.413	94.31
234.647	78.31
234.881	95.31
235.115	80.31
235.349	96.31
235.583	83.31
235.817	73.31
236.051	82.31
236.285	80.31
236.519	79.31
236.753	85.31
236.987	84.31
237.221	75.31
237.455	87.31
237.689	83.31
237.922	83.31
238.156	74.31
238.39	77.31
238.624	83.31
238.858	98.31
239.091	79.31
239.325	92.31
239.559	86.31
239.793	74.31
240.027	81.31
240.26	87.31
240.494	74.31
240.728	72.31
240.961	81.31
241.195	86.31
241.429	75.31
241.662	87.31
241.896	73.31
242.13	77.31
242.363	84.31
242.597	84.31
242.83	75.31
243.064	85.31
243.298	85.31
243.531	83.31
243.765	89.31
243.998	71.31
244.232	98.31
244.465	84.31
244.699	104.31
244.932	83.31
245.166	69.31
245.399	104.31
245.633	89.31
245.866	81.31
246.099	93.31
246.333	92.31
246.566	89.31
246.8	82.31
247.033	86.31
247.266	81.31
247.5	86.31
247.733	85.31
247.966	84.31
248.2	106.31
248.433	96.31
248.666	80.31
248.899	81.31
249.133	83.31
249.366	94.31
249.599	88.31
249.832	80.31
250.066	105.31
250.299	88.31
250.532	89.31
250.765	84.31
250.998	84.31
251.231	80.31
251.465	88.31
251.698	86.31
251.931	92.31
252.164	90.31
252.397	93.31
252.63	97.31
252.863	96.31
253.096	98.31
253.329	97.31
253.562	90.31
253.795	96.31
254.028	92.31
254.261	85.31
254.494	85.31
254.727	103.31
254.96	98.31
255.193	89.31
255.426	79.31
255.659	93.31
255.892	87.31
256.124	92.31
256.357	79.31
256.59	96.31
256.823	92.31
257.056	86.31
257.289	96.31
257.521	85.31
257.754	84.31
257.987	99.31
258.22	104.31
258.452	78.31
258.685	95.31
258.918	100.31
259.151	97.31
259.383	81.31
259.616	81.31
259.849	89.31
260.081	94.31
260.314	105.31
260.547	79.31
260.779	83.31
261.012	69.31
261.244	109.31
261.477	103.31
261.71	105.31
261.942	103.31
262.175	113.31
262.407	87.31
262.64	81.31
262.872	83.31
263.105	99.31
263.337	97.31
263.57	106.31
263.802	88.31
264.035	88.31
264.267	88.31
264.499	105.31
264.732	106.31
264.964	95.31
265.197	97.31
265.429	95.31
265.661	99.31
265.894	95.31
266.126	114.31
266.358	89.31
266.591	105.31
266.823	104.31
267.055	86.31
267.287	101.31
267.52	106.31
267.752	105.31
267.984	110.31
268.216	97.31
268.448	125.31
268.681	97.31
268.913	98.31
269.145	97.31
269.377	105.31
269.609	98.31
269.841	109.31
270.073	101.31
270.306	90.31
270.538	94.31
270.77	107.31
271.002	87.31
271.234	106.31
271.466	101.31
271.698	111.31
271.93	110.31
272.162	105.31
272.394	95.31
272.626	95.31
272.858	95.31
273.09	103.31
273.322	91.31
273.553	106.31
273.785	106.31
274.017	102.31
274.249	101.31
274.481	113.31
274.713	105.31
274.945	91.31
275.176	94.31
275.408	105.31
275.64	110.31
275.872	112.31
276.104	107.31
276.335	102.31
276.567	110.31
276.799	101.31
277.031	93.31
277.262	106.31
277.494	105.31
277.726	110.31
277.957	117.31
278.189	109.31
278.421	102.31
278.652	85.31
278.884	88.31
279.115	92.31
279.347	105.31
279.579	110.31
279.81	97.31
280.042	97.31
280.273	110.31
280.505	96.31
280.736	113.31
280.968	105.31
281.199	105.31
281.431	105.31
281.662	116.31
281.894	115.31
282.125	96.31
282.356	104.31
282.588	102.31
282.819	105.31
283.051	110.31
283.282	113.31
283.513	96.31
283.745	97.31
283.976	121.31
284.207	110.31
284.439	114.31
284.67	118.31
284.901	123.31
285.132	117.31
285.364	102.31
285.595	114.31
285.826	109.31
286.057	111.31
286.288	121.31
286.52	125.31
286.751	112.31
286.982	98.31
287.213	105.31
287.444	106.31
287.675	122.31
287.906	126.31
288.138	100.31
288.369	116.31
288.6	114.31
288.831	115.31
289.062	117.31
289.293	125.31
289.524	110.31
289.755	103.31
289.986	105.31
290.217	107.31
290.448	105.31
290.679	113.31
290.91	123.31
291.141	96.31
291.371	106.31
291.602	112.31
291.833	105.31
292.064	99.31
292.295	100.31
292.526	128.31
292.757	126.31
292.987	123.31
293.218	122.31
293.449	107.31
293.68	113.31
293.91	108.31
294.141	121.31
294.372	125.31
294.603	114.31
294.833	120.31
295.064	114.31
295.295	107.31
295.525	116.31
295.756	122.31
295.987	107.31
296.217	112.31
296.448	112.31
296.679	127.31
296.909	127.31
297.14	118.31
297.37	129.31
297.601	106.31
297.831	119.31
298.062	114.31
298.292	115.31
298.523	125.31
298.753	113.31
298.984	117.31
299.214	117.31
299.445	120.31
299.675	118.31
299.905	116.31
300.136	109.31
300.366	127.31
300.597	129.31
300.827	130.31
301.057	120.31
301.288	113.31
301.518	142.31
301.748	122.31
301.979	140.31
302.209	113.31
302.439	117.31
302.669	124.31
302.9	132.31
303.13	139.31
303.36	134.31
303.59	114.31
303.82	120.31
304.051	114.31
304.281	127.31
304.511	138.31
304.741	122.31
304.971	115.31
305.201	118.31
305.431	131.31
305.661	122.31
305.891	114.31
306.121	132.31
306.352	114.31
306.582	119.31
306.812	118.31
307.042	114.31
307.272	128.31
307.502	117.31
307.731	113.31
307.961	117.31
308.191	119.31
308.421	126.31
308.651	137.31
308.881	118.31
309.111	118.31
309.341	118.31
309.571	124.31
309.8	122.31
310.03	115.31
310.26	115.31
310.49	114.31
310.72	130.31
310.949	125.31
311.179	130.31
311.409	118.31
311.639	115.31
311.868	120.31
312.098	131.31
312.328	129.31
312.557	126.31
312.787	136.31
313.017	129.31
313.246	125.31
313.476	133.31
313.706	104.31
313.935	130.31
314.165	134.31
314.394	131.31
314.624	133.31
314.853	126.31
315.083	107.31
315.312	122.31
315.542	125.31
315.771	130.31
316.001	126.31
316.23	109.31
316.46	106.31
316.689	120.31
316.919	110.31
317.148	119.31
317.377	140.31
317.607	121.31
317.836	122.31
318.065	125.31
318.295	120.31
318.524	121.31
318.753	117.31
318.983	126.31
319.212	138.31
319.441	125.31
319.67	130.31
319.9	115.31
320.129	119.31
320.358	146.31
320.587	133.31
320.816	125.31
321.046	131.31
321.275	123.31
321.504	114.31
321.733	122.31
321.962	123.31
322.191	136.31
322.42	120.31
322.649	125.31
322.878	123.31
323.108	120.31
323.337	110.31
323.566	127.31
323.795	119.31
324.024	130.31
324.253	125.31
324.482	122.31
324.71	129.31
324.939	123.31
325.168	111.31
325.397	122.31
325.626	132.31
325.855	127.31
326.084	138.31
326.313	144.31
326.542	126.31
326.77	133.31
326.999	134.31
327.228	131.31
327.457	133.31
327.686	124.31
327.914	129.31
328.143	124.31
328.372	122.31
328.6	124.31
328.829	134.31
329.058	139.31
329.287	131.31
329.515	118.31
329.744	141.31
329.972	117.31
330.201	130.31
330.43	138.31
330.658	127.31
330.887	122.31
331.115	137.31
331.344	115.31
331.572	135.31
331.801	126.31
332.03	131.31
332.258	143.31
332.486	130.31
332.715	140.31
332.943	155.31
333.172	146.31
333.4	147.31
333.629	152.31
333.857	157.31
334.085	170.31
334.314	142.31
334.542	141.31
334.771	145.31
334.999	145.31
335.227	143.31
335.455	160.31
335.684	133.31
335.912	157.31
336.14	132.31
336.369	145.31
336.597	139.31
336.825	128.31
337.053	126.31
337.281	142.31
337.51	143.31
337.738	146.31
337.966	128.31
338.194	138.31
338.422	122.31
338.65	135.31
338.878	125.31
339.106	129.31
339.334	155.31
339.562	130.31
339.79	125.31
340.018	122.31
340.246	120.31
340.474	124.31
340.702	123.31
340.93	121.31
341.158	126.31
341.386	117.31
341.614	124.31
341.842	133.31
342.07	126.31
342.298	131.31
342.526	138.31
342.754	135.31
342.981	135.31
343.209	128.31
343.437	169.31
343.665	129.31
343.893	147.31
344.12	146.31
344.348	134.31
344.576	142.31
344.804	126.31
345.031	129.31
345.259	135.31
345.487	136.31
345.714	128.31
345.942	139.31
346.17	131.31
346.397	127.31
346.625	144.31
346.853	136.31
347.08	135.31
347.308	119.31
347.535	131.31
347.763	111.31
347.99	131.31
348.218	138.31
348.445	121.31
348.673	125.31
348.9	143.31
349.128	136.31
349.355	145.31
349.583	131.31
349.81	121.31
350.037	138.31
350.265	128.31
350.492	130.31
350.72	133.31
350.947	129.31
351.174	136.31
351.402	121.31
351.629	120.31
351.856	116.31
352.083	121.31
352.311	125.31
352.538	127.31
352.765	123.31
352.992	139.31
353.22	146.31
353.447	124.31
353.674	117.31
353.901	116.31
354.128	122.31
354.355	120.31
354.583	123.31
354.81	141.31
355.037	128.31
355.264	129.31
355.491	134.31
355.718	128.31
355.945	115.31
356.172	112.31
356.399	129.31
356.626	130.31
356.853	138.31
357.08	122.31
357.307	137.31
357.534	126.31
357.761	130.31
357.988	137.31
358.215	137.31
358.441	128.31
358.668	142.31
358.895	135.31
359.122	131.31
359.349	119.31
359.576	121.31
359.802	121.31
360.029	127.31
360.256	126.31
360.483	132.31
360.709	136.31
360.936	133.31
361.163	125.31
361.39	137.31
361.616	113.31
361.843	134.31
362.07	130.31
362.296	124.31
362.523	128.31
362.749	122.31
362.976	122.31
363.203	138.31
363.429	117.31
363.656	123.31
363.882	137.31
364.109	133.31
364.335	125.31
364.562	119.31
364.788	122.31
365.015	123.31
365.241	135.31
365.468	127.31
365.694	133.31
365.92	143.31
366.147	112.31
366.373	114.31
366.599	127.31
366.826	146.31
367.052	115.31
367.278	127.31
367.505	125.31
367.731	133.31
367.957	139.31
368.184	130.31
368.41	127.31
368.636	134.31
368.862	144.31
369.089	122.31
369.315	131.31
369.541	142.31
369.767	131.31
369.993	135.31
370.219	138.31
370.445	130.31
370.672	127.31
370.898	130.31
371.124	131.31
371.35	131.31
371.576	137.31
371.802	130.31
372.028	125.31
372.254	154.31
372.48	156.31
372.706	143.31
372.932	137.31
373.158	139.31
373.384	145.31
373.61	149.31
373.835	132.31
374.061	118.31
374.287	129.31
374.513	121.31
374.739	141.31
374.965	136.31
375.191	149.31
375.416	156.31
375.642	143.31
375.868	164.31
376.094	129.31
376.319	136.31
376.545	149.31
376.771	132.31
376.997	160.31
377.222	129.31
377.448	141.31
377.674	136.31
377.899	125.31
378.125	126.31
378.35	144.31
378.576	125.31
378.802	135.31
379.027	154.31
379.253	150.31
379.478	143.31
379.704	143.31
379.929	136.31
380.155	141.31
380.38	143.31
380.606	137.31
380.831	135.31
381.057	149.31
381.282	115.31
381.507	149.31
381.733	154.31
381.958	152.31
382.184	155.31
382.409	133.31
382.634	138.31
382.86	143.31
383.085	158.31
383.31	146.31
383.535	144.31
383.761	156.31
383.986	150.31
384.211	146.31
384.436	154.31
384.662	154.31
384.887	153.31
385.112	150.31
385.337	168.31
385.562	154.31
385.787	143.31
386.013	155.31
386.238	153.31
386.463	165.31
386.688	170.31
386.913	143.31
387.138	169.31
387.363	150.31
387.588	145.31
387.813	158.31
388.038	162.31
388.263	169.31
388.488	154.31
388.713	155.31
388.938	148.31
389.163	143.31
389.387	148.31
389.612	144.31
389.837	153.31
390.062	174.31
390.287	153.31
390.512	157.31
390.736	141.31
390.961	159.31
391.186	151.31
391.411	161.31
391.636	168.31
391.86	171.31
392.085	172.31
392.31	161.31
392.534	144.31
392.759	165.31
392.984	167.31
393.208	155.31
393.433	175.31
393.658	166.31
393.882	152.31
394.107	158.31
394.331	159.31
394.556	171.31
394.78	169.31
395.005	168.31
395.229	163.31
395.454	181.31
395.678	175.31
395.903	166.31
396.127	181.31
396.352	152.31
396.576	154.31
396.801	161.31
397.025	149.31
397.249	184.31
397.474	195.31
397.698	179.31
397.922	187.31
398.147	166.31
398.371	174.31
398.595	182.31
398.82	169.31
399.044	181.31
399.268	209.31
399.492	233.31
399.717	229.31
399.941	209.31
400.165	212.31
400.389	209.31
400.613	191.31
400.837	176.31
401.062	180.31
401.286	183.31
401.51	173.31
401.734	185.31
401.958	184.31
402.182	183.31
402.406	158.31
402.63	167.31
402.854	191.31
403.078	190.31
403.302	181.31
403.526	197.31
403.75	212.31
403.974	189.31
404.198	211.31
404.422	209.31
404.645	182.31
404.869	202.31
405.093	190.31
405.317	201.31
405.541	178.31
405.765	186.31
405.988	187.31
406.212	214.31
406.436	177.31
406.66	199.31
406.883	210.31
407.107	205.31
407.331	205.31
407.555	214.31
407.778	207.31
408.002	215.31
408.226	195.31
408.449	190.31
408.673	189.31
408.896	195.31
409.12	198.31
409.344	201.31
409.567	207.31
409.791	214.31
410.014	221.31
410.238	184.31
410.461	192.31
410.685	207.31
410.908	202.31
411.132	206.31
411.355	194.31
411.578	210.31
411.802	191.31
412.025	208.31
412.249	194.31
412.472	190.31
412.695	180.31
412.919	194.31
413.142	201.31
413.365	162.31
413.589	183.31
413.812	184.31
414.035	194.31
414.258	203.31
414.482	189.31
414.705	190.31
414.928	191.31
415.151	193.31
415.374	180.31
415.597	181.31
415.821	182.31
416.044	183.31
416.267	208.31
416.49	199.31
416.713	173.31
416.936	179.31
417.159	172.31
417.382	179.31
417.605	198.31
417.828	191.31
418.051	180.31
418.274	189.31
418.497	173.31
418.72	201.31
418.943	192.31
419.166	189.31
419.389	205.31
419.611	191.31
419.834	192.31
420.057	183.31
420.28	209.31
420.503	189.31
420.726	193.31
420.948	181.31
421.171	200.31
421.394	185.31
421.617	196.31
421.839	192.31
422.062	207.31
422.285	205.31
422.507	198.31
422.73	164.31
422.953	187.31
423.175	186.31
423.398	205.31
423.621	197.31
423.843	210.31
424.066	198.31
424.288	202.31
424.511	216.31
424.733	206.31
424.956	214.31
425.178	206.31
425.401	197.31
425.623	197.31
425.846	183.31
426.068	184.31
426.291	186.31
426.513	193.31
426.735	178.31
426.958	179.31
427.18	177.31
427.402	179.31
427.625	184.31
427.847	171.31
428.069	173.31
428.292	184.31
428.514	184.31
428.736	200.31
428.958	179.31
429.181	201.31
429.403	186.31
429.625	180.31
429.847	179.31
430.069	182.31
430.292	178.31
430.514	169.31
430.736	166.31
430.958	170.31
431.18	166.31
431.402	182.31
431.624	171.31
431.846	181.31
432.068	170.31
432.29	166.31
432.512	170.31
432.734	180.31
432.956	185.31
433.178	190.31
433.4	197.31
433.622	190.31
433.844	191.31
434.066	173.31
434.287	174.31
434.509	167.31
434.731	169.31
434.953	178.31
435.175	190.31
435.397	185.31
435.618	182.31
435.84	175.31
436.062	159.31
436.284	177.31
436.505	185.31
436.727	179.31
436.949	189.31
437.17	165.31
437.392	170.31
437.614	174.31
437.835	171.31
438.057	170.31
438.278	166.31
438.5	170.31
438.721	182.31
438.943	169.31
439.165	185.31
439.386	187.31
439.608	185.31
439.829	166.31
440.05	188.31
440.272	185.31
440.493	201.31
440.715	187.31
440.936	186.31
441.158	199.31
441.379	201.31
441.6	193.31
441.822	197.31
442.043	194.31
442.264	201.31
442.486	199.31
442.707	192.31
442.928	191.31
443.149	186.31
443.371	188.31
443.592	193.31
443.813	197.31
444.034	194.31
444.255	201.31
444.476	207.31
444.698	217.31
444.919	227.31
445.14	481.31
445.361	330.31
445.582	215.31
445.803	190.31
446.024	188.31
446.245	187.31
446.466	192.31
446.687	208.31
446.908	187.31
447.129	189.31
447.35	185.31
447.571	184.31
447.792	181.31
448.013	189.31
448.234	172.31
448.455	183.31
448.675	181.31
448.896	184.31
449.117	175.31
449.338	162.31
449.559	195.31
449.779	200.31
450	199.31
450.221	185.31
450.442	171.31
450.662	178.31
450.883	171.31
451.104	186.31
451.324	165.31
451.545	179.31
451.766	175.31
451.986	163.31
452.207	174.31
452.428	169.31
452.648	167.31
452.869	158.31
453.089	161.31
453.31	171.31
453.53	163.31
453.751	168.31
453.971	161.31
454.192	161.31
454.412	174.31
454.633	175.31
454.853	169.31
455.073	172.31
455.294	175.31
455.514	162.31
455.734	159.31
455.955	182.31
456.175	148.31
456.395	163.31
456.616	166.31
456.836	173.31
457.056	166.31
457.276	162.31
457.497	158.31
457.717	162.31
457.937	170.31
458.157	150.31
458.377	149.31
458.598	166.31
458.818	150.31
459.038	166.31
459.258	158.31
459.478	167.31
459.698	161.31
459.918	193.31
460.138	179.31
460.358	181.31
460.578	183.31
460.798	183.31
461.018	199.31
461.238	189.31
461.458	181.31
461.678	184.31
461.898	198.31
462.118	194.31
462.338	213.31
462.558	193.31
462.777	216.31
462.997	211.31
463.217	216.31
463.437	243.31
463.657	216.31
463.876	202.31
464.096	209.31
464.316	208.31
464.536	198.31
464.755	217.31
464.975	183.31
465.195	199.31
465.414	189.31
465.634	164.31
465.854	179.31
466.073	187.31
466.293	166.31
466.512	178.31
466.732	190.31
466.951	184.31
467.171	172.31
467.391	183.31
467.61	172.31
467.829	175.31
468.049	193.31
468.268	178.31
468.488	165.31
468.707	177.31
468.927	195.31
469.146	187.31
469.365	162.31
469.585	183.31
469.804	191.31
470.023	161.31
470.243	208.31
470.462	193.31
470.681	187.31
470.901	203.31
471.12	200.31
471.339	201.31
471.558	183.31
471.777	175.31
471.997	187.31
472.216	186.31
472.435	175.31
472.654	165.31
472.873	175.31
473.092	181.31
473.311	190.31
473.53	181.31
473.749	183.31
473.968	188.31
474.187	183.31
474.406	161.31
474.625	168.31
474.844	184.31
475.063	180.31
475.282	171.31
475.501	157.31
475.72	168.31
475.939	175.31
476.158	192.31
476.377	171.31
476.596	174.31
476.814	171.31
477.033	172.31
477.252	179.31
477.471	167.31
477.69	181.31
477.908	194.31
478.127	211.31
478.346	190.31
478.564	205.31
478.783	191.31
479.002	206.31
479.22	202.31
479.439	191.31
479.658	179.31
479.876	188.31
480.095	183.31
480.313	211.31
480.532	207.31
480.751	211.31
480.969	168.31
481.188	175.31
481.406	187.31
481.624	158.31
481.843	168.31
482.061	186.31
482.28	186.31
482.498	178.31
482.717	184.31
482.935	189.31
483.153	191.31
483.372	190.31
483.59	215.31
483.808	211.31
484.027	189.31
484.245	203.31
484.463	190.31
484.681	213.31
484.9	210.31
485.118	199.31
485.336	185.31
485.554	201.31
485.772	188.31
485.99	162.31
486.209	189.31
486.427	183.31
486.645	183.31
486.863	193.31
487.081	187.31
487.299	195.31
487.517	210.31
487.735	215.31
487.953	226.31
488.171	229.31
488.389	226.31
488.607	187.31
488.825	183.31
489.043	200.31
489.261	179.31
489.479	192.31
489.696	212.31
489.914	192.31
490.132	196.31
490.35	217.31
490.568	232.31
490.786	223.31
491.003	214.31
491.221	234.31
491.439	217.31
491.657	226.31
491.874	224.31
492.092	252.31
492.31	250.31
492.527	235.31
492.745	239.31
492.963	238.31
493.18	233.31
493.398	249.31
493.615	238.31
493.833	238.31
494.05	213.31
494.268	217.31
494.485	225.31
494.703	219.31
494.92	221.31
495.138	242.31
495.355	220.31
495.573	239.31
495.79	209.31
496.008	222.31
496.225	216.31
496.442	206.31
496.66	218.31
496.877	232.31
497.094	245.31
497.312	226.31
497.529	231.31
497.746	232.31
497.963	231.31
498.181	227.31
498.398	213.31
498.615	221.31
498.832	234.31
499.049	260.31
499.267	280.31
499.484	300.31
499.701	310.31
499.918	345.31
500.135	370.31
500.352	422.31
500.569	435.31
500.786	428.31
501.003	363.31
501.22	353.31
501.437	313.31
501.654	300.31
501.871	262.31
502.088	263.31
502.305	263.31
502.522	250.31
502.739	242.31
502.956	233.31
503.172	243.31
503.389	203.31
503.606	211.31
503.823	201.31
504.04	215.31
504.256	223.31
504.473	205.31
504.69	212.31
504.907	227.31
505.123	195.31
