Data from SampD_HRD10591_00071.txt Node
Date: Mon Jan 19 11:50:39 EST 2026
User: Yrep
Spectrometer: HR+D1059
Trigger mode: 0
Integration Time (sec): 3.443000E-1
Scans to average: 1
Electric dark correction enabled: true
Nonlinearity correction enabled: false
Boxcar width: 0
XAxis mode: Wavelengths
Number of Pixels in Spectrum: 2048
>>>>>Begin Spectral Data<<<<<
223.165	-10
223.4	-10
223.635	-10
223.869	-21
224.104	-15
224.338	-16
224.573	-29
224.808	-11
225.042	-9
225.277	-5
225.511	-2
225.746	-4
225.98	-2
226.215	22
226.449	20
226.683	24
226.918	22
227.152	36
227.387	27
227.621	38
227.856	54
228.09	45
228.324	50
228.559	67
228.793	68
229.027	71
229.262	60
229.496	64
229.73	78
229.964	70
230.199	81
230.433	78
230.667	75
230.901	76
231.136	80
231.37	92
231.604	75
231.838	76
232.072	79
232.306	68
232.541	84
232.775	80
233.009	74
233.243	85
233.477	82
233.711	100
233.945	84
234.179	86
234.413	85
234.647	91
234.881	80
235.115	88
235.349	84
235.583	82
235.817	85
236.051	61
236.285	82
236.519	98
236.753	81
236.987	93
237.221	75
237.455	85
237.689	97
237.922	93
238.156	85
238.39	77
238.624	71
238.858	80
239.091	72
239.325	82
239.559	81
239.793	85
240.027	84
240.26	91
240.494	87
240.728	80
240.961	76
241.195	81
241.429	87
241.662	84
241.896	100
242.13	83
242.363	86
242.597	93
242.83	93
243.064	89
243.298	84
243.531	79
243.765	82
243.998	76
244.232	90
244.465	89
244.699	88
244.932	98
245.166	90
245.399	92
245.633	90
245.866	85
246.099	93
246.333	98
246.566	96
246.8	83
247.033	84
247.266	89
247.5	92
247.733	82
247.966	83
248.2	98
248.433	88
248.666	85
248.899	105
249.133	88
249.366	100
249.599	87
249.832	94
250.066	97
250.299	84
250.532	86
250.765	101
250.998	92
251.231	96
251.465	99
251.698	89
251.931	96
252.164	109
252.397	95
252.63	85
252.863	97
253.096	92
253.329	91
253.562	87
253.795	99
254.028	82
254.261	90
254.494	76
254.727	90
254.96	92
255.193	96
255.426	99
255.659	93
255.892	96
256.124	98
256.357	102
256.59	102
256.823	90
257.056	89
257.289	99
257.521	104
257.754	100
257.987	89
258.22	107
258.452	106
258.685	100
258.918	89
259.151	85
259.383	110
259.616	83
259.849	91
260.081	105
260.314	92
260.547	93
260.779	78
261.012	101
261.244	81
261.477	90
261.71	87
261.942	100
262.175	100
262.407	97
262.64	96
262.872	91
263.105	87
263.337	97
263.57	96
263.802	87
264.035	103
264.267	109
264.499	106
264.732	106
264.964	105
265.197	108
265.429	77
265.661	98
265.894	108
266.126	108
266.358	104
266.591	105
266.823	100
267.055	104
267.287	116
267.52	93
267.752	100
267.984	89
268.216	107
268.448	111
268.681	102
268.913	99
269.145	118
269.377	98
269.609	104
269.841	108
270.073	99
270.306	117
270.538	106
270.77	105
271.002	106
271.234	108
271.466	118
271.698	102
271.93	110
272.162	108
272.394	113
272.626	107
272.858	106
273.09	101
273.322	119
273.553	95
273.785	115
274.017	108
274.249	98
274.481	100
274.713	112
274.945	110
275.176	103
275.408	116
275.64	96
275.872	107
276.104	105
276.335	98
276.567	108
276.799	104
277.031	103
277.262	101
277.494	96
277.726	116
277.957	96
278.189	99
278.421	113
278.652	110
278.884	109
279.115	100
279.347	117
279.579	121
279.81	112
280.042	115
280.273	104
280.505	103
280.736	99
280.968	108
281.199	123
281.431	101
281.662	101
281.894	110
282.125	108
282.356	102
282.588	101
282.819	105
283.051	119
283.282	108
283.513	124
283.745	108
283.976	120
284.207	109
284.439	109
284.67	107
284.901	107
285.132	104
285.364	113
285.595	107
285.826	116
286.057	123
286.288	108
286.52	122
286.751	125
286.982	107
287.213	113
287.444	127
287.675	124
287.906	108
288.138	100
288.369	123
288.6	112
288.831	117
289.062	107
289.293	114
289.524	118
289.755	117
289.986	122
290.217	117
290.448	89
290.679	134
290.91	115
291.141	115
291.371	108
291.602	130
291.833	114
292.064	109
292.295	113
292.526	116
292.757	114
292.987	105
293.218	119
293.449	110
293.68	115
293.91	129
294.141	134
294.372	130
294.603	111
294.833	121
295.064	109
295.295	113
295.525	112
295.756	136
295.987	124
296.217	116
296.448	115
296.679	125
296.909	116
297.14	129
297.37	126
297.601	105
297.831	107
298.062	132
298.292	106
298.523	133
298.753	112
298.984	133
299.214	110
299.445	115
299.675	124
299.905	129
300.136	127
300.366	115
300.597	116
300.827	115
301.057	122
301.288	119
301.518	115
301.748	123
301.979	161
302.209	123
302.439	125
302.669	128
302.9	134
303.13	127
303.36	122
303.59	115
303.82	123
304.051	124
304.281	105
304.511	133
304.741	121
304.971	113
305.201	120
305.431	121
305.661	110
305.891	103
306.121	131
306.352	119
306.582	125
306.812	118
307.042	116
307.272	119
307.502	121
307.731	124
307.961	104
308.191	122
308.421	121
308.651	108
308.881	104
309.111	113
309.341	115
309.571	126
309.8	118
310.03	125
310.26	119
310.49	113
310.72	127
310.949	120
311.179	108
311.409	114
311.639	135
311.868	110
312.098	137
312.328	117
312.557	122
312.787	114
313.017	133
313.246	129
313.476	120
313.706	132
313.935	136
314.165	126
314.394	135
314.624	152
314.853	140
315.083	130
315.312	141
315.542	116
315.771	132
316.001	125
316.23	139
316.46	94
316.689	127
316.919	107
317.148	122
317.377	119
317.607	129
317.836	113
318.065	135
318.295	128
318.524	118
318.753	123
318.983	125
319.212	125
319.441	133
319.67	139
319.9	131
320.129	122
320.358	130
320.587	134
320.816	134
321.046	105
321.275	124
321.504	112
321.733	120
321.962	116
322.191	136
322.42	108
322.649	121
322.878	132
323.108	118
323.337	113
323.566	129
323.795	125
324.024	121
324.253	139
324.482	126
324.71	129
324.939	141
325.168	128
325.397	130
325.626	130
325.855	136
326.084	116
326.313	114
326.542	151
326.77	141
326.999	128
327.228	131
327.457	133
327.686	145
327.914	126
328.143	141
328.372	132
328.6	133
328.829	141
329.058	119
329.287	135
329.515	125
329.744	144
329.972	128
330.201	140
330.43	126
330.658	125
330.887	137
331.115	130
331.344	121
331.572	121
331.801	129
332.03	129
332.258	138
332.486	147
332.715	152
332.943	144
333.172	138
333.4	153
333.629	157
333.857	153
334.085	164
334.314	151
334.542	134
334.771	134
334.999	137
335.227	128
335.455	132
335.684	147
335.912	147
336.14	147
336.369	140
336.597	141
336.825	146
337.053	129
337.281	131
337.51	127
337.738	146
337.966	135
338.194	141
338.422	147
338.65	147
338.878	133
339.106	124
339.334	152
339.562	129
339.79	136
340.018	131
340.246	129
340.474	117
340.702	129
340.93	147
341.158	134
341.386	142
341.614	116
341.842	145
342.07	128
342.298	137
342.526	155
342.754	118
342.981	135
343.209	159
343.437	178
343.665	133
343.893	142
344.12	172
344.348	157
344.576	141
344.804	138
345.031	138
345.259	141
345.487	129
345.714	118
345.942	131
346.17	134
346.397	135
346.625	126
346.853	125
347.08	132
347.308	123
347.535	129
347.763	129
347.99	139
348.218	134
348.445	136
348.673	134
348.9	126
349.128	159
349.355	133
349.583	117
349.81	132
350.037	118
350.265	113
350.492	127
350.72	125
350.947	132
351.174	122
351.402	112
351.629	111
351.856	114
352.083	131
352.311	136
352.538	117
352.765	134
352.992	144
353.22	137
353.447	134
353.674	122
353.901	130
354.128	146
354.355	110
354.583	131
354.81	145
355.037	122
355.264	126
355.491	116
355.718	135
355.945	120
356.172	132
356.399	129
356.626	135
356.853	132
357.08	137
357.307	135
357.534	118
357.761	128
357.988	141
358.215	140
358.441	133
358.668	121
358.895	135
359.122	134
359.349	140
359.576	131
359.802	124
360.029	112
360.256	125
360.483	128
360.709	123
360.936	147
361.163	152
361.39	120
361.616	133
361.843	131
362.07	138
362.296	135
362.523	140
362.749	142
362.976	126
363.203	137
363.429	120
363.656	128
363.882	119
364.109	116
364.335	124
364.562	131
364.788	117
365.015	130
365.241	123
365.468	140
365.694	147
365.92	146
366.147	137
366.373	123
366.599	125
366.826	117
367.052	105
367.278	121
367.505	130
367.731	147
367.957	124
368.184	129
368.41	124
368.636	123
368.862	133
369.089	134
369.315	129
369.541	134
369.767	136
369.993	142
370.219	125
370.445	131
370.672	140
370.898	137
371.124	157
371.35	149
371.576	154
371.802	123
372.028	140
372.254	140
372.48	138
372.706	145
372.932	129
373.158	131
373.384	148
373.61	164
373.835	123
374.061	140
374.287	138
374.513	152
374.739	150
374.965	143
375.191	162
375.416	156
375.642	152
375.868	160
376.094	132
376.319	133
376.545	127
376.771	146
376.997	150
377.222	134
377.448	138
377.674	133
377.899	138
378.125	137
378.35	147
378.576	159
378.802	145
379.027	148
379.253	132
379.478	128
379.704	137
379.929	130
380.155	151
380.38	124
380.606	149
380.831	137
381.057	161
381.282	140
381.507	154
381.733	140
381.958	136
382.184	153
382.409	133
382.634	158
382.86	152
383.085	137
383.31	147
383.535	144
383.761	170
383.986	148
384.211	156
384.436	152
384.662	148
384.887	144
385.112	145
385.337	165
385.562	132
385.787	158
386.013	166
386.238	154
386.463	151
386.688	197
386.913	163
387.138	172
387.363	154
387.588	167
387.813	165
388.038	142
388.263	151
388.488	159
388.713	151
388.938	164
389.163	149
389.387	153
389.612	142
389.837	176
390.062	157
390.287	160
390.512	144
390.736	157
390.961	166
391.186	158
391.411	162
391.636	168
391.86	162
392.085	156
392.31	160
392.534	161
392.759	187
392.984	175
393.208	180
393.433	175
393.658	177
393.882	161
394.107	152
394.331	167
394.556	160
394.78	174
395.005	160
395.229	161
395.454	167
395.678	175
395.903	178
396.127	181
396.352	166
396.576	163
396.801	166
397.025	174
397.249	180
397.474	183
397.698	172
397.922	162
398.147	173
398.371	182
398.595	186
398.82	189
399.044	182
399.268	197
399.492	216
399.717	224
399.941	222
400.165	215
400.389	202
400.613	186
400.837	184
401.062	193
401.286	181
401.51	186
401.734	169
401.958	178
402.182	179
402.406	188
402.63	187
402.854	199
403.078	198
403.302	195
403.526	188
403.75	209
403.974	200
404.198	205
404.422	197
404.645	197
404.869	208
405.093	192
405.317	193
405.541	198
405.765	204
405.988	192
406.212	208
406.436	195
406.66	210
406.883	197
407.107	203
407.331	202
407.555	215
407.778	224
408.002	199
408.226	228
408.449	200
408.673	193
408.896	198
409.12	197
409.344	193
409.567	187
409.791	213
410.014	190
410.238	199
410.461	207
410.685	193
410.908	180
411.132	200
411.355	182
411.578	196
411.802	176
412.025	193
412.249	182
412.472	193
412.695	186
412.919	194
413.142	176
413.365	187
413.589	190
413.812	183
414.035	192
414.258	193
414.482	182
414.705	179
414.928	184
415.151	195
415.374	192
415.597	197
415.821	180
416.044	196
416.267	187
416.49	194
416.713	181
416.936	199
417.159	196
417.382	174
417.605	181
417.828	185
418.051	190
418.274	204
418.497	175
418.72	186
418.943	174
419.166	211
419.389	206
419.611	189
419.834	190
420.057	205
420.28	199
420.503	202
420.726	183
420.948	203
421.171	185
421.394	188
421.617	205
421.839	182
422.062	198
422.285	223
422.507	203
422.73	203
422.953	179
423.175	195
423.398	197
423.621	201
423.843	212
424.066	216
424.288	206
424.511	208
424.733	211
424.956	210
425.178	203
425.401	189
425.623	203
425.846	171
426.068	188
426.291	192
426.513	181
426.735	189
426.958	198
427.18	184
427.402	191
427.625	173
427.847	180
428.069	192
428.292	186
428.514	183
428.736	180
428.958	168
429.181	168
429.403	180
429.625	174
429.847	188
430.069	188
430.292	173
430.514	161
430.736	179
430.958	183
431.18	170
431.402	172
431.624	169
431.846	173
432.068	185
432.29	164
432.512	182
432.734	174
432.956	169
433.178	185
433.4	178
433.622	193
433.844	184
434.066	182
434.287	160
434.509	161
434.731	177
434.953	185
435.175	190
435.397	190
435.618	179
435.84	183
436.062	166
436.284	180
436.505	162
436.727	166
436.949	187
437.17	168
437.392	176
437.614	173
437.835	174
438.057	164
438.278	176
438.5	184
438.721	181
438.943	193
439.165	192
439.386	197
439.608	195
439.829	183
440.05	181
440.272	177
440.493	202
440.715	185
440.936	186
441.158	196
441.379	181
441.6	209
441.822	216
442.043	195
442.264	189
442.486	195
442.707	198
442.928	198
443.149	200
443.371	202
443.592	189
443.813	202
444.034	206
444.255	221
444.476	208
444.698	216
444.919	202
445.14	452
445.361	338
445.582	212
445.803	196
446.024	209
446.245	219
446.466	188
446.687	184
446.908	193
447.129	188
447.35	191
447.571	188
447.792	176
448.013	176
448.234	193
448.455	183
448.675	182
448.896	171
449.117	163
449.338	164
449.559	171
449.779	180
450	174
450.221	166
450.442	181
450.662	180
450.883	187
451.104	189
451.324	179
451.545	168
451.766	184
451.986	164
452.207	172
452.428	178
452.648	184
452.869	173
453.089	181
453.31	161
453.53	160
453.751	170
453.971	164
454.192	148
454.412	144
454.633	178
454.853	155
455.073	165
455.294	159
455.514	192
455.734	152
455.955	150
456.175	159
456.395	164
456.616	165
456.836	165
457.056	140
457.276	148
457.497	149
457.717	153
457.937	150
458.157	165
458.377	160
458.598	162
458.818	153
459.038	144
459.258	160
459.478	153
459.698	166
459.918	184
460.138	175
460.358	195
460.578	203
460.798	189
461.018	193
461.238	184
461.458	186
461.678	189
461.898	188
462.118	170
462.338	208
462.558	210
462.777	212
462.997	212
463.217	226
463.437	215
463.657	187
463.876	195
464.096	210
464.316	204
464.536	222
464.755	206
464.975	183
465.195	201
465.414	192
465.634	180
465.854	189
466.073	181
466.293	175
466.512	171
466.732	185
466.951	187
467.171	167
467.391	165
467.61	179
467.829	191
468.049	189
468.268	165
468.488	187
468.707	172
468.927	174
469.146	188
469.365	176
469.585	186
469.804	192
470.023	183
470.243	191
470.462	189
470.681	186
470.901	186
471.12	197
471.339	186
471.558	177
471.777	182
471.997	175
472.216	173
472.435	179
472.654	169
472.873	168
473.092	165
473.311	177
473.53	186
473.749	180
473.968	192
474.187	160
474.406	167
474.625	177
474.844	166
475.063	180
475.282	181
475.501	169
475.72	182
475.939	188
476.158	164
476.377	171
476.596	170
476.814	170
477.033	167
477.252	178
477.471	182
477.69	190
477.908	200
478.127	196
478.346	192
478.564	188
478.783	192
479.002	200
479.22	196
479.439	200
479.658	182
479.876	189
480.095	185
480.313	209
480.532	208
480.751	205
480.969	162
481.188	170
481.406	167
481.624	150
481.843	164
482.061	173
482.28	170
482.498	158
482.717	182
482.935	194
483.153	203
483.372	206
483.59	205
483.808	189
484.027	192
484.245	208
484.463	204
484.681	209
484.9	197
485.118	198
485.336	192
485.554	197
485.772	182
485.99	180
486.209	183
486.427	194
486.645	197
486.863	198
487.081	195
487.299	183
487.517	190
487.735	212
487.953	220
488.171	226
488.389	209
488.607	204
488.825	186
489.043	191
489.261	203
489.479	195
489.696	206
489.914	184
490.132	195
490.35	205
490.568	224
490.786	218
491.003	222
491.221	226
491.439	223
491.657	228
491.874	229
492.092	237
492.31	264
492.527	241
492.745	219
492.963	230
493.18	224
493.398	223
493.615	234
493.833	217
494.05	230
494.268	226
494.485	229
494.703	232
494.92	219
495.138	221
495.355	215
495.573	233
495.79	215
496.008	236
496.225	215
496.442	215
496.66	233
496.877	228
497.094	218
497.312	224
497.529	219
497.746	230
497.963	213
498.181	244
498.398	231
498.615	221
498.832	231
499.049	250
499.267	263
499.484	299
499.701	312
499.918	338
500.135	377
500.352	395
500.569	395
500.786	409
501.003	377
501.22	345
501.437	324
501.654	304
501.871	253
502.088	248
502.305	249
502.522	239
502.739	242
502.956	236
503.172	214
503.389	210
503.606	196
503.823	202
504.04	213
504.256	200
504.473	206
504.69	211
504.907	229
505.123	197
505.34	200
505.557	193
505.773	200
505.99	195
506.207	178
506.423	197
506.64	173
506.856	194
507.073	172
507.289	192
507.506	182
507.722	177
507.939	184
508.155	194
508.372	178
508.588	169
508.805	194
509.021	162
509.238	166
509.454	162
509.67	169
509.887	158
510.103	148
510.319	164
510.536	174
510.752	153
510.968	145
511.184	166
511.401	158
511.617	148
511.833	161
512.049	181
512.265	166
512.481	171
512.698	163
512.914	168
513.13	161
513.346	171
513.562	163
513.778	173
513.994	164
514.21	157
514.426	170
514.642	172
514.858	157
515.074	166
515.29	171
515.506	161
515.721	182
515.937	176
516.153	162
516.369	160
516.585	161
516.801	187
517.016	186
517.232	186
517.448	202
517.664	198
517.879	195
518.095	198
518.311	211
518.527	182
518.742	199
518.958	192
519.173	180
519.389	172
519.605	170
519.82	179
520.036	156
520.251	161
520.467	150
520.682	172
520.898	163
521.113	149
521.329	167
521.544	160
521.76	165
521.975	144
522.19	162
522.406	164
522.621	164
522.836	165
523.052	153
523.267	186
523.482	186
523.698	165
523.913	178
524.128	167
524.343	171
524.559	172
524.774	157
524.989	178
525.204	168
525.419	171
525.634	153
525.849	168
526.064	155
526.28	163
526.495	154
526.71	146
526.925	140
527.14	157
527.355	156
527.57	153
527.785	150
527.999	142
528.214	168
528.429	166
528.644	179
528.859	191
529.074	182
529.289	185
529.503	185
529.718	184
529.933	168
530.148	148
530.363	175
530.577	148
530.792	152
531.007	161
531.221	169
531.436	150
531.651	149
531.865	148
532.08	136
532.295	135
532.509	149
532.724	150
532.938	151
533.153	145
533.367	176
533.582	169
533.796	177
534.011	180
534.225	147
534.44	137
534.654	151
534.868	146
535.083	160
535.297	151
535.511	164
535.726	158
535.94	152
536.154	162
536.369	153
536.583	136
536.797	138
537.011	141
537.225	144
537.44	144
537.654	146
537.868	138
538.082	145
538.296	160
538.51	145
538.724	165
538.938	154
539.153	166
539.367	174
539.581	140
539.795	149
540.009	162
540.222	166
540.436	162
540.65	155
540.864	179
541.078	188
541.292	186
541.506	173
541.72	204
541.934	197
542.147	208
542.361	205
542.575	184
542.789	187
543.002	164
543.216	170
543.43	169
543.644	164
543.857	177
544.071	184
544.285	183
544.498	182
544.712	185
544.925	185
545.139	178
545.352	189
545.566	198
545.779	180
545.993	192
546.206	199
546.42	193
546.633	190
546.847	199
547.06	192
547.274	198
547.487	202
547.7	186
547.914	194
548.127	182
548.34	192
548.554	186
548.767	180
548.98	200
549.193	168
549.407	195
549.62	176
549.833	194
550.046	187
550.259	188
550.473	173
550.686	195
550.899	174
551.112	181
551.325	174
551.538	174
551.751	162
551.964	157
552.177	173
552.39	182
552.603	188
552.816	198
553.029	182
553.242	189
553.455	192
553.667	212
553.88	204
554.093	198
554.306	189
554.519	176
554.732	185
554.944	183
555.157	183
555.37	167
555.583	185
555.795	194
556.008	173
556.221	166
556.433	172
556.646	164
556.859	153
557.071	166
557.284	152
557.496	195
557.709	164
557.921	176
558.134	150
558.346	169
558.559	168
558.771	153
558.984	150
559.196	165
559.409	154
559.621	162
559.833	169
560.046	168
560.258	154
560.47	169
560.683	174
560.895	161
561.107	176
561.32	161
561.532	136
561.744	164
561.956	164
562.168	161
562.381	161
562.593	165
562.805	148
563.017	176
563.229	161
563.441	169
563.653	161
563.865	154
564.077	175
564.289	159
564.501	156
564.713	167
564.925	167
565.137	161
565.349	168
565.561	165
565.773	163
565.985	178
566.197	180
566.408	188
566.62	183
566.832	201
567.044	184
