Data from SampD_HRD10591_00040.txt Node
Date: Mon Jan 19 11:50:29 EST 2026
User: Yrep
Spectrometer: HR+D1059
Trigger mode: 0
Integration Time (sec): 3.443000E-1
Scans to average: 1
Electric dark correction enabled: true
Nonlinearity correction enabled: false
Boxcar width: 0
XAxis mode: Wavelengths
Number of Pixels in Spectrum: 2048
>>>>>Begin Spectral Data<<<<<
223.165	-21.5
223.4	-21.5
223.635	-21.5
223.869	-18.5
224.104	-23.5
224.338	-13.5
224.573	-18.5
224.808	-18.5
225.042	-15.5
225.277	-4.5
225.511	-7.5
225.746	15.5
225.98	-0.5
226.215	16.5
226.449	19.5
226.683	19.5
226.918	36.5
227.152	34.5
227.387	39.5
227.621	39.5
227.856	40.5
228.09	34.5
228.324	43.5
228.559	52.5
228.793	69.5
229.027	65.5
229.262	83.5
229.496	68.5
229.73	60.5
229.964	73.5
230.199	72.5
230.433	68.5
230.667	82.5
230.901	83.5
231.136	90.5
231.37	89.5
231.604	99.5
231.838	92.5
232.072	104.5
232.306	103.5
232.541	86.5
232.775	75.5
233.009	70.5
233.243	85.5
233.477	89.5
233.711	87.5
233.945	88.5
234.179	79.5
234.413	96.5
234.647	68.5
234.881	91.5
235.115	70.5
235.349	81.5
235.583	103.5
235.817	79.5
236.051	67.5
236.285	84.5
236.519	67.5
236.753	71.5
236.987	79.5
237.221	74.5
237.455	81.5
237.689	82.5
237.922	73.5
238.156	70.5
238.39	81.5
238.624	81.5
238.858	100.5
239.091	88.5
239.325	84.5
239.559	82.5
239.793	85.5
240.027	81.5
240.26	84.5
240.494	97.5
240.728	70.5
240.961	73.5
241.195	97.5
241.429	82.5
241.662	77.5
241.896	89.5
242.13	66.5
242.363	67.5
242.597	82.5
242.83	68.5
243.064	71.5
243.298	85.5
243.531	89.5
243.765	75.5
243.998	79.5
244.232	76.5
244.465	79.5
244.699	88.5
244.932	78.5
245.166	87.5
245.399	76.5
245.633	79.5
245.866	76.5
246.099	87.5
246.333	80.5
246.566	84.5
246.8	91.5
247.033	85.5
247.266	79.5
247.5	96.5
247.733	73.5
247.966	84.5
248.2	85.5
248.433	75.5
248.666	85.5
248.899	93.5
249.133	85.5
249.366	84.5
249.599	101.5
249.832	92.5
250.066	105.5
250.299	84.5
250.532	81.5
250.765	66.5
250.998	76.5
251.231	96.5
251.465	75.5
251.698	105.5
251.931	79.5
252.164	73.5
252.397	90.5
252.63	70.5
252.863	89.5
253.096	88.5
253.329	89.5
253.562	85.5
253.795	98.5
254.028	89.5
254.261	79.5
254.494	76.5
254.727	87.5
254.96	83.5
255.193	77.5
255.426	88.5
255.659	70.5
255.892	79.5
256.124	81.5
256.357	89.5
256.59	91.5
256.823	97.5
257.056	84.5
257.289	91.5
257.521	77.5
257.754	79.5
257.987	81.5
258.22	92.5
258.452	106.5
258.685	91.5
258.918	91.5
259.151	81.5
259.383	83.5
259.616	74.5
259.849	97.5
260.081	88.5
260.314	91.5
260.547	75.5
260.779	104.5
261.012	97.5
261.244	68.5
261.477	106.5
261.71	86.5
261.942	93.5
262.175	92.5
262.407	92.5
262.64	88.5
262.872	101.5
263.105	91.5
263.337	97.5
263.57	76.5
263.802	85.5
264.035	98.5
264.267	99.5
264.499	85.5
264.732	97.5
264.964	95.5
265.197	100.5
265.429	81.5
265.661	96.5
265.894	100.5
266.126	115.5
266.358	94.5
266.591	77.5
266.823	82.5
267.055	85.5
267.287	89.5
267.52	88.5
267.752	93.5
267.984	100.5
268.216	79.5
268.448	100.5
268.681	91.5
268.913	111.5
269.145	87.5
269.377	86.5
269.609	87.5
269.841	90.5
270.073	87.5
270.306	96.5
270.538	83.5
270.77	82.5
271.002	101.5
271.234	88.5
271.466	96.5
271.698	87.5
271.93	83.5
272.162	88.5
272.394	95.5
272.626	97.5
272.858	93.5
273.09	86.5
273.322	88.5
273.553	96.5
273.785	99.5
274.017	100.5
274.249	90.5
274.481	91.5
274.713	92.5
274.945	110.5
275.176	100.5
275.408	93.5
275.64	95.5
275.872	87.5
276.104	97.5
276.335	87.5
276.567	92.5
276.799	86.5
277.031	89.5
277.262	90.5
277.494	90.5
277.726	83.5
277.957	108.5
278.189	92.5
278.421	103.5
278.652	95.5
278.884	82.5
279.115	116.5
279.347	96.5
279.579	97.5
279.81	100.5
280.042	87.5
280.273	103.5
280.505	94.5
280.736	95.5
280.968	97.5
281.199	101.5
281.431	87.5
281.662	113.5
281.894	99.5
282.125	92.5
282.356	95.5
282.588	99.5
282.819	94.5
283.051	85.5
283.282	88.5
283.513	89.5
283.745	88.5
283.976	99.5
284.207	81.5
284.439	90.5
284.67	102.5
284.901	90.5
285.132	94.5
285.364	120.5
285.595	110.5
285.826	101.5
286.057	116.5
286.288	88.5
286.52	117.5
286.751	81.5
286.982	105.5
287.213	100.5
287.444	96.5
287.675	100.5
287.906	94.5
288.138	113.5
288.369	99.5
288.6	103.5
288.831	105.5
289.062	92.5
289.293	95.5
289.524	101.5
289.755	113.5
289.986	89.5
290.217	99.5
290.448	99.5
290.679	91.5
290.91	107.5
291.141	99.5
291.371	106.5
291.602	107.5
291.833	94.5
292.064	100.5
292.295	96.5
292.526	97.5
292.757	92.5
292.987	111.5
293.218	116.5
293.449	92.5
293.68	93.5
293.91	96.5
294.141	97.5
294.372	86.5
294.603	107.5
294.833	100.5
295.064	104.5
295.295	93.5
295.525	103.5
295.756	99.5
295.987	98.5
296.217	95.5
296.448	89.5
296.679	99.5
296.909	104.5
297.14	103.5
297.37	115.5
297.601	99.5
297.831	97.5
298.062	120.5
298.292	105.5
298.523	116.5
298.753	103.5
298.984	102.5
299.214	97.5
299.445	104.5
299.675	95.5
299.905	102.5
300.136	100.5
300.366	99.5
300.597	104.5
300.827	99.5
301.057	100.5
301.288	116.5
301.518	106.5
301.748	110.5
301.979	147.5
302.209	102.5
302.439	97.5
302.669	89.5
302.9	99.5
303.13	106.5
303.36	103.5
303.59	104.5
303.82	118.5
304.051	110.5
304.281	113.5
304.511	106.5
304.741	108.5
304.971	113.5
305.201	99.5
305.431	87.5
305.661	110.5
305.891	104.5
306.121	99.5
306.352	93.5
306.582	75.5
306.812	81.5
307.042	111.5
307.272	104.5
307.502	106.5
307.731	118.5
307.961	95.5
308.191	94.5
308.421	101.5
308.651	113.5
308.881	94.5
309.111	87.5
309.341	98.5
309.571	104.5
309.8	110.5
310.03	107.5
310.26	104.5
310.49	110.5
310.72	116.5
310.949	108.5
311.179	102.5
311.409	90.5
311.639	102.5
311.868	96.5
312.098	109.5
312.328	97.5
312.557	94.5
312.787	92.5
313.017	104.5
313.246	101.5
313.476	101.5
313.706	108.5
313.935	107.5
314.165	102.5
314.394	111.5
314.624	90.5
314.853	93.5
315.083	105.5
315.312	117.5
315.542	106.5
315.771	109.5
316.001	98.5
316.23	104.5
316.46	97.5
316.689	109.5
316.919	95.5
317.148	90.5
317.377	104.5
317.607	112.5
317.836	100.5
318.065	103.5
318.295	107.5
318.524	98.5
318.753	100.5
318.983	94.5
319.212	93.5
319.441	106.5
319.67	96.5
319.9	107.5
320.129	106.5
320.358	96.5
320.587	103.5
320.816	108.5
321.046	114.5
321.275	121.5
321.504	91.5
321.733	100.5
321.962	105.5
322.191	116.5
322.42	89.5
322.649	95.5
322.878	108.5
323.108	106.5
323.337	107.5
323.566	110.5
323.795	111.5
324.024	110.5
324.253	109.5
324.482	108.5
324.71	106.5
324.939	118.5
325.168	100.5
325.397	108.5
325.626	110.5
325.855	99.5
326.084	108.5
326.313	107.5
326.542	107.5
326.77	97.5
326.999	103.5
327.228	98.5
327.457	116.5
327.686	125.5
327.914	117.5
328.143	109.5
328.372	116.5
328.6	111.5
328.829	101.5
329.058	111.5
329.287	104.5
329.515	111.5
329.744	117.5
329.972	105.5
330.201	116.5
330.43	105.5
330.658	101.5
330.887	123.5
331.115	107.5
331.344	108.5
331.572	112.5
331.801	115.5
332.03	109.5
332.258	117.5
332.486	119.5
332.715	107.5
332.943	101.5
333.172	108.5
333.4	116.5
333.629	120.5
333.857	105.5
334.085	109.5
334.314	114.5
334.542	109.5
334.771	122.5
334.999	108.5
335.227	104.5
335.455	109.5
335.684	116.5
335.912	116.5
336.14	104.5
336.369	108.5
336.597	112.5
336.825	112.5
337.053	92.5
337.281	99.5
337.51	116.5
337.738	118.5
337.966	109.5
338.194	105.5
338.422	107.5
338.65	119.5
338.878	109.5
339.106	106.5
339.334	92.5
339.562	109.5
339.79	104.5
340.018	109.5
340.246	123.5
340.474	90.5
340.702	117.5
340.93	120.5
341.158	100.5
341.386	105.5
341.614	101.5
341.842	108.5
342.07	85.5
342.298	99.5
342.526	102.5
342.754	106.5
342.981	108.5
343.209	107.5
343.437	154.5
343.665	124.5
343.893	122.5
344.12	125.5
344.348	110.5
344.576	94.5
344.804	109.5
345.031	132.5
345.259	103.5
345.487	110.5
345.714	120.5
345.942	103.5
346.17	105.5
346.397	110.5
346.625	95.5
346.853	101.5
347.08	107.5
347.308	105.5
347.535	115.5
347.763	101.5
347.99	102.5
348.218	121.5
348.445	109.5
348.673	109.5
348.9	105.5
349.128	130.5
349.355	103.5
349.583	119.5
349.81	116.5
350.037	101.5
350.265	109.5
350.492	103.5
350.72	100.5
350.947	100.5
351.174	123.5
351.402	100.5
351.629	99.5
351.856	87.5
352.083	111.5
352.311	113.5
352.538	102.5
352.765	117.5
352.992	108.5
353.22	117.5
353.447	106.5
353.674	106.5
353.901	102.5
354.128	101.5
354.355	111.5
354.583	106.5
354.81	106.5
355.037	106.5
355.264	113.5
355.491	104.5
355.718	99.5
355.945	120.5
356.172	106.5
356.399	87.5
356.626	114.5
356.853	103.5
357.08	115.5
357.307	97.5
357.534	106.5
357.761	109.5
357.988	110.5
358.215	111.5
358.441	109.5
358.668	112.5
358.895	98.5
359.122	105.5
359.349	102.5
359.576	98.5
359.802	108.5
360.029	123.5
360.256	109.5
360.483	88.5
360.709	107.5
360.936	118.5
361.163	110.5
361.39	111.5
361.616	105.5
361.843	115.5
362.07	114.5
362.296	110.5
362.523	101.5
362.749	115.5
362.976	106.5
363.203	112.5
363.429	104.5
363.656	98.5
363.882	103.5
364.109	115.5
364.335	114.5
364.562	101.5
364.788	111.5
365.015	109.5
365.241	117.5
365.468	108.5
365.694	94.5
365.92	115.5
366.147	107.5
366.373	108.5
366.599	110.5
366.826	101.5
367.052	95.5
367.278	105.5
367.505	119.5
367.731	122.5
367.957	105.5
368.184	106.5
368.41	122.5
368.636	125.5
368.862	112.5
369.089	104.5
369.315	107.5
369.541	123.5
369.767	97.5
369.993	100.5
370.219	116.5
370.445	111.5
370.672	103.5
370.898	109.5
371.124	119.5
371.35	111.5
371.576	118.5
371.802	121.5
372.028	98.5
372.254	117.5
372.48	114.5
372.706	118.5
372.932	118.5
373.158	98.5
373.384	120.5
373.61	123.5
373.835	121.5
374.061	98.5
374.287	111.5
374.513	111.5
374.739	107.5
374.965	109.5
375.191	133.5
375.416	106.5
375.642	112.5
375.868	124.5
376.094	107.5
376.319	103.5
376.545	119.5
376.771	105.5
376.997	104.5
377.222	104.5
377.448	114.5
377.674	110.5
377.899	112.5
378.125	119.5
378.35	114.5
378.576	118.5
378.802	114.5
379.027	115.5
379.253	123.5
379.478	109.5
379.704	112.5
379.929	117.5
380.155	93.5
380.38	131.5
380.606	101.5
380.831	131.5
381.057	126.5
381.282	108.5
381.507	100.5
381.733	119.5
381.958	117.5
382.184	121.5
382.409	107.5
382.634	123.5
382.86	116.5
383.085	121.5
383.31	115.5
383.535	116.5
383.761	116.5
383.986	143.5
384.211	110.5
384.436	132.5
384.662	118.5
384.887	120.5
385.112	108.5
385.337	114.5
385.562	114.5
385.787	118.5
386.013	133.5
386.238	113.5
386.463	109.5
386.688	143.5
386.913	116.5
387.138	112.5
387.363	129.5
387.588	119.5
387.813	115.5
388.038	121.5
388.263	117.5
388.488	117.5
388.713	112.5
388.938	127.5
389.163	122.5
389.387	113.5
389.612	118.5
389.837	122.5
390.062	111.5
390.287	123.5
390.512	116.5
390.736	120.5
390.961	132.5
391.186	108.5
391.411	117.5
391.636	126.5
391.86	123.5
392.085	123.5
392.31	147.5
392.534	143.5
392.759	132.5
392.984	123.5
393.208	130.5
393.433	109.5
393.658	119.5
393.882	119.5
394.107	132.5
394.331	128.5
394.556	128.5
394.78	133.5
395.005	135.5
395.229	149.5
395.454	137.5
395.678	113.5
395.903	117.5
396.127	124.5
396.352	120.5
396.576	134.5
396.801	128.5
397.025	120.5
397.249	124.5
397.474	141.5
397.698	125.5
397.922	106.5
398.147	127.5
398.371	131.5
398.595	130.5
398.82	141.5
399.044	139.5
399.268	137.5
399.492	166.5
399.717	161.5
399.941	153.5
400.165	146.5
400.389	160.5
400.613	128.5
400.837	156.5
401.062	136.5
401.286	119.5
401.51	135.5
401.734	130.5
401.958	156.5
402.182	134.5
402.406	127.5
402.63	133.5
402.854	136.5
403.078	139.5
403.302	123.5
403.526	151.5
403.75	136.5
403.974	123.5
404.198	144.5
404.422	135.5
404.645	145.5
404.869	143.5
405.093	135.5
405.317	132.5
405.541	121.5
405.765	116.5
405.988	139.5
406.212	147.5
406.436	147.5
406.66	135.5
406.883	128.5
407.107	133.5
407.331	146.5
407.555	139.5
407.778	155.5
408.002	137.5
408.226	126.5
408.449	148.5
408.673	145.5
408.896	151.5
409.12	137.5
409.344	145.5
409.567	133.5
409.791	142.5
410.014	134.5
410.238	136.5
410.461	143.5
410.685	135.5
410.908	135.5
411.132	122.5
411.355	144.5
411.578	157.5
411.802	137.5
412.025	146.5
412.249	131.5
412.472	133.5
412.695	139.5
412.919	128.5
413.142	136.5
413.365	140.5
413.589	120.5
413.812	136.5
414.035	154.5
414.258	145.5
414.482	125.5
414.705	126.5
414.928	137.5
415.151	129.5
415.374	131.5
415.597	135.5
415.821	136.5
416.044	131.5
416.267	131.5
416.49	134.5
416.713	139.5
416.936	145.5
417.159	129.5
417.382	130.5
417.605	127.5
417.828	139.5
418.051	137.5
418.274	135.5
418.497	130.5
418.72	141.5
418.943	138.5
419.166	135.5
419.389	146.5
419.611	134.5
419.834	140.5
420.057	144.5
420.28	129.5
420.503	140.5
420.726	124.5
420.948	132.5
421.171	150.5
421.394	141.5
421.617	140.5
421.839	132.5
422.062	130.5
422.285	130.5
422.507	140.5
422.73	140.5
422.953	109.5
423.175	121.5
423.398	146.5
423.621	143.5
423.843	148.5
424.066	129.5
424.288	137.5
424.511	151.5
424.733	152.5
424.956	133.5
425.178	134.5
425.401	139.5
425.623	117.5
425.846	145.5
426.068	137.5
426.291	136.5
426.513	120.5
426.735	132.5
426.958	149.5
427.18	124.5
427.402	120.5
427.625	136.5
427.847	133.5
428.069	128.5
428.292	128.5
428.514	142.5
428.736	144.5
428.958	133.5
429.181	120.5
429.403	125.5
429.625	114.5
429.847	119.5
430.069	135.5
430.292	136.5
430.514	137.5
430.736	138.5
430.958	124.5
431.18	131.5
431.402	120.5
431.624	125.5
431.846	121.5
432.068	124.5
432.29	129.5
432.512	152.5
432.734	130.5
432.956	121.5
433.178	132.5
433.4	135.5
433.622	137.5
433.844	128.5
434.066	127.5
434.287	136.5
434.509	122.5
434.731	121.5
434.953	105.5
435.175	163.5
435.397	140.5
435.618	123.5
435.84	139.5
436.062	124.5
436.284	130.5
436.505	115.5
436.727	125.5
436.949	130.5
437.17	123.5
437.392	122.5
437.614	115.5
437.835	112.5
438.057	131.5
438.278	128.5
438.5	120.5
438.721	133.5
438.943	132.5
439.165	126.5
439.386	126.5
439.608	136.5
439.829	129.5
440.05	134.5
440.272	121.5
440.493	133.5
440.715	136.5
440.936	140.5
441.158	138.5
441.379	146.5
441.6	132.5
441.822	133.5
442.043	140.5
442.264	138.5
442.486	135.5
442.707	124.5
442.928	131.5
443.149	144.5
443.371	145.5
443.592	128.5
443.813	151.5
444.034	140.5
444.255	150.5
444.476	128.5
444.698	134.5
444.919	142.5
445.14	363.5
445.361	247.5
445.582	144.5
445.803	130.5
446.024	145.5
446.245	155.5
446.466	139.5
446.687	152.5
446.908	153.5
447.129	137.5
447.35	136.5
447.571	145.5
447.792	135.5
448.013	129.5
448.234	136.5
448.455	123.5
448.675	112.5
448.896	130.5
449.117	133.5
449.338	133.5
449.559	138.5
449.779	113.5
450	129.5
450.221	126.5
450.442	125.5
450.662	145.5
450.883	123.5
451.104	131.5
451.324	119.5
451.545	132.5
451.766	138.5
451.986	137.5
452.207	119.5
452.428	118.5
452.648	143.5
452.869	115.5
453.089	120.5
453.31	115.5
453.53	139.5
453.751	120.5
453.971	125.5
454.192	125.5
454.412	112.5
454.633	119.5
454.853	123.5
455.073	124.5
455.294	125.5
455.514	119.5
455.734	105.5
455.955	124.5
456.175	126.5
456.395	130.5
456.616	115.5
456.836	128.5
457.056	136.5
457.276	126.5
457.497	133.5
457.717	102.5
457.937	102.5
458.157	106.5
458.377	110.5
458.598	112.5
458.818	116.5
459.038	122.5
459.258	131.5
459.478	118.5
459.698	127.5
459.918	127.5
460.138	119.5
460.358	120.5
460.578	144.5
460.798	132.5
461.018	144.5
461.238	147.5
461.458	149.5
461.678	136.5
461.898	138.5
462.118	138.5
462.338	135.5
462.558	144.5
462.777	146.5
462.997	165.5
463.217	141.5
463.437	159.5
463.657	144.5
463.876	138.5
464.096	136.5
464.316	139.5
464.536	159.5
464.755	151.5
464.975	133.5
465.195	144.5
465.414	138.5
465.634	136.5
465.854	117.5
466.073	134.5
466.293	143.5
466.512	114.5
466.732	132.5
466.951	138.5
467.171	123.5
467.391	119.5
467.61	139.5
467.829	125.5
468.049	144.5
468.268	127.5
468.488	137.5
468.707	129.5
468.927	130.5
469.146	134.5
469.365	134.5
469.585	131.5
469.804	129.5
470.023	146.5
470.243	137.5
470.462	135.5
470.681	134.5
470.901	132.5
471.12	131.5
471.339	133.5
471.558	135.5
471.777	126.5
471.997	141.5
472.216	141.5
472.435	118.5
472.654	117.5
472.873	130.5
473.092	130.5
473.311	128.5
473.53	116.5
473.749	128.5
473.968	132.5
474.187	119.5
474.406	114.5
474.625	139.5
474.844	140.5
475.063	143.5
475.282	147.5
475.501	136.5
475.72	135.5
475.939	134.5
476.158	114.5
476.377	129.5
476.596	129.5
476.814	129.5
477.033	135.5
477.252	124.5
477.471	124.5
477.69	133.5
477.908	135.5
478.127	140.5
478.346	127.5
478.564	116.5
478.783	135.5
479.002	130.5
479.22	140.5
479.439	149.5
479.658	118.5
479.876	123.5
480.095	147.5
480.313	148.5
480.532	138.5
480.751	149.5
480.969	120.5
481.188	132.5
481.406	137.5
481.624	145.5
481.843	137.5
482.061	121.5
482.28	123.5
482.498	136.5
482.717	129.5
482.935	134.5
483.153	134.5
483.372	148.5
483.59	144.5
483.808	126.5
484.027	139.5
484.245	129.5
484.463	144.5
484.681	144.5
484.9	134.5
485.118	139.5
485.336	137.5
485.554	138.5
485.772	134.5
485.99	130.5
486.209	124.5
486.427	122.5
486.645	135.5
486.863	136.5
487.081	125.5
487.299	142.5
487.517	132.5
487.735	155.5
487.953	155.5
488.171	155.5
488.389	137.5
488.607	139.5
488.825	133.5
489.043	129.5
489.261	161.5
489.479	128.5
489.696	133.5
489.914	136.5
490.132	155.5
490.35	155.5
490.568	154.5
490.786	132.5
491.003	138.5
491.221	148.5
491.439	163.5
491.657	162.5
491.874	151.5
492.092	155.5
492.31	166.5
492.527	153.5
492.745	164.5
492.963	167.5
493.18	147.5
493.398	161.5
493.615	144.5
493.833	139.5
494.05	150.5
494.268	161.5
494.485	148.5
494.703	164.5
494.92	156.5
495.138	152.5
495.355	143.5
495.573	182.5
495.79	167.5
496.008	165.5
496.225	145.5
496.442	146.5
496.66	147.5
496.877	159.5
497.094	148.5
497.312	147.5
497.529	159.5
497.746	151.5
497.963	143.5
498.181	150.5
498.398	160.5
498.615	156.5
498.832	146.5
499.049	166.5
499.267	179.5
499.484	178.5
499.701	200.5
499.918	204.5
500.135	227.5
500.352	244.5
500.569	243.5
500.786	234.5
501.003	242.5
501.22	196.5
501.437	187.5
501.654	193.5
501.871	177.5
502.088	160.5
502.305	172.5
502.522	161.5
502.739	170.5
502.956	150.5
503.172	146.5
503.389	145.5
503.606	120.5
503.823	149.5
504.04	157.5
504.256	158.5
504.473	140.5
504.69	145.5
504.907	152.5
505.123	144.5
505.34	141.5
505.557	130.5
505.773	126.5
505.99	121.5
506.207	139.5
506.423	129.5
506.64	132.5
506.856	132.5
507.073	132.5
507.289	127.5
507.506	142.5
507.722	117.5
507.939	131.5
508.155	132.5
508.372	119.5
508.588	136.5
508.805	131.5
509.021	126.5
509.238	112.5
509.454	132.5
509.67	120.5
509.887	115.5
510.103	123.5
510.319	107.5
510.536	110.5
510.752	107.5
510.968	123.5
511.184	106.5
511.401	107.5
511.617	137.5
511.833	116.5
512.049	110.5
512.265	114.5
512.481	94.5
512.698	120.5
512.914	113.5
513.13	122.5
513.346	109.5
513.562	121.5
513.778	139.5
513.994	116.5
514.21	120.5
514.426	126.5
514.642	125.5
514.858	129.5
515.074	113.5
515.29	136.5
515.506	131.5
515.721	116.5
515.937	138.5
516.153	132.5
516.369	120.5
516.585	132.5
516.801	134.5
517.016	146.5
517.232	113.5
517.448	128.5
517.664	146.5
517.879	140.5
518.095	146.5
518.311	131.5
518.527	136.5
518.742	135.5
518.958	114.5
519.173	138.5
519.389	138.5
519.605	127.5
519.82	144.5
520.036	119.5
520.251	121.5
520.467	134.5
520.682	131.5
520.898	117.5
521.113	109.5
521.329	128.5
521.544	116.5
521.76	115.5
521.975	129.5
522.19	111.5
522.406	127.5
522.621	123.5
522.836	115.5
523.052	130.5
523.267	130.5
523.482	110.5
523.698	135.5
523.913	120.5
524.128	114.5
524.343	113.5
524.559	133.5
524.774	122.5
524.989	137.5
