Data from SampD_HRD10591_00096.txt Node
Date: Mon Jan 19 11:50:48 EST 2026
User: Yrep
Spectrometer: HR+D1059
Trigger mode: 0
Integration Time (sec): 3.443000E-1
Scans to average: 1
Electric dark correction enabled: true
Nonlinearity correction enabled: false
Boxcar width: 0
XAxis mode: Wavelengths
Number of Pixels in Spectrum: 2048
>>>>>Begin Spectral Data<<<<<
223.165	-33.25
223.4	-33.25
223.635	-33.25
223.869	-22.25
224.104	-23.25
224.338	-0.25
224.573	-11.25
224.808	-18.25
225.042	-17.25
225.277	-1.25
225.511	-1.25
225.746	11.75
225.98	17.75
226.215	5.75
226.449	18.75
226.683	15.75
226.918	23.75
227.152	34.75
227.387	36.75
227.621	38.75
227.856	52.75
228.09	40.75
228.324	46.75
228.559	67.75
228.793	48.75
229.027	72.75
229.262	53.75
229.496	83.75
229.73	70.75
229.964	84.75
230.199	75.75
230.433	94.75
230.667	68.75
230.901	85.75
231.136	82.75
231.37	80.75
231.604	82.75
231.838	82.75
232.072	74.75
232.306	81.75
232.541	102.75
232.775	80.75
233.009	81.75
233.243	87.75
233.477	86.75
233.711	88.75
233.945	74.75
234.179	84.75
234.413	86.75
234.647	78.75
234.881	74.75
235.115	94.75
235.349	88.75
235.583	71.75
235.817	83.75
236.051	91.75
236.285	86.75
236.519	73.75
236.753	66.75
236.987	72.75
237.221	87.75
237.455	80.75
237.689	88.75
237.922	83.75
238.156	65.75
238.39	73.75
238.624	86.75
238.858	74.75
239.091	62.75
239.325	59.75
239.559	74.75
239.793	86.75
240.027	82.75
240.26	80.75
240.494	81.75
240.728	70.75
240.961	78.75
241.195	76.75
241.429	88.75
241.662	69.75
241.896	80.75
242.13	86.75
242.363	73.75
242.597	78.75
242.83	78.75
243.064	84.75
243.298	87.75
243.531	86.75
243.765	85.75
243.998	94.75
244.232	98.75
244.465	80.75
244.699	80.75
244.932	79.75
245.166	91.75
245.399	88.75
245.633	98.75
245.866	79.75
246.099	98.75
246.333	94.75
246.566	94.75
246.8	94.75
247.033	65.75
247.266	81.75
247.5	89.75
247.733	107.75
247.966	83.75
248.2	94.75
248.433	84.75
248.666	94.75
248.899	102.75
249.133	91.75
249.366	83.75
249.599	86.75
249.832	80.75
250.066	101.75
250.299	88.75
250.532	92.75
250.765	92.75
250.998	91.75
251.231	92.75
251.465	87.75
251.698	81.75
251.931	86.75
252.164	90.75
252.397	78.75
252.63	99.75
252.863	96.75
253.096	95.75
253.329	100.75
253.562	97.75
253.795	91.75
254.028	98.75
254.261	97.75
254.494	103.75
254.727	91.75
254.96	78.75
255.193	90.75
255.426	97.75
255.659	100.75
255.892	81.75
256.124	85.75
256.357	102.75
256.59	89.75
256.823	90.75
257.056	114.75
257.289	106.75
257.521	83.75
257.754	94.75
257.987	82.75
258.22	93.75
258.452	71.75
258.685	78.75
258.918	102.75
259.151	91.75
259.383	102.75
259.616	95.75
259.849	79.75
260.081	90.75
260.314	95.75
260.547	94.75
260.779	114.75
261.012	94.75
261.244	74.75
261.477	116.75
261.71	69.75
261.942	112.75
262.175	90.75
262.407	112.75
262.64	91.75
262.872	81.75
263.105	89.75
263.337	108.75
263.57	99.75
263.802	88.75
264.035	90.75
264.267	105.75
264.499	106.75
264.732	109.75
264.964	106.75
265.197	101.75
265.429	105.75
265.661	105.75
265.894	99.75
266.126	107.75
266.358	97.75
266.591	106.75
266.823	89.75
267.055	94.75
267.287	90.75
267.52	88.75
267.752	113.75
267.984	104.75
268.216	116.75
268.448	98.75
268.681	104.75
268.913	113.75
269.145	118.75
269.377	97.75
269.609	100.75
269.841	101.75
270.073	96.75
270.306	100.75
270.538	96.75
270.77	99.75
271.002	112.75
271.234	106.75
271.466	113.75
271.698	105.75
271.93	89.75
272.162	106.75
272.394	101.75
272.626	109.75
272.858	100.75
273.09	103.75
273.322	109.75
273.553	95.75
273.785	96.75
274.017	97.75
274.249	90.75
274.481	108.75
274.713	86.75
274.945	102.75
275.176	105.75
275.408	125.75
275.64	98.75
275.872	90.75
276.104	108.75
276.335	114.75
276.567	103.75
276.799	99.75
277.031	101.75
277.262	102.75
277.494	111.75
277.726	122.75
277.957	114.75
278.189	111.75
278.421	112.75
278.652	116.75
278.884	114.75
279.115	121.75
279.347	110.75
279.579	108.75
279.81	107.75
280.042	104.75
280.273	118.75
280.505	112.75
280.736	99.75
280.968	108.75
281.199	104.75
281.431	120.75
281.662	110.75
281.894	113.75
282.125	103.75
282.356	112.75
282.588	112.75
282.819	107.75
283.051	120.75
283.282	102.75
283.513	131.75
283.745	115.75
283.976	115.75
284.207	115.75
284.439	115.75
284.67	109.75
284.901	113.75
285.132	123.75
285.364	117.75
285.595	113.75
285.826	110.75
286.057	113.75
286.288	124.75
286.52	117.75
286.751	116.75
286.982	108.75
287.213	118.75
287.444	120.75
287.675	114.75
287.906	140.75
288.138	121.75
288.369	115.75
288.6	112.75
288.831	120.75
289.062	114.75
289.293	121.75
289.524	117.75
289.755	113.75
289.986	102.75
290.217	107.75
290.448	110.75
290.679	114.75
290.91	141.75
291.141	108.75
291.371	130.75
291.602	104.75
291.833	126.75
292.064	119.75
292.295	113.75
292.526	92.75
292.757	112.75
292.987	106.75
293.218	127.75
293.449	118.75
293.68	126.75
293.91	103.75
294.141	133.75
294.372	125.75
294.603	123.75
294.833	130.75
295.064	129.75
295.295	120.75
295.525	112.75
295.756	126.75
295.987	132.75
296.217	119.75
296.448	128.75
296.679	125.75
296.909	130.75
297.14	125.75
297.37	130.75
297.601	116.75
297.831	131.75
298.062	111.75
298.292	124.75
298.523	115.75
298.753	133.75
298.984	119.75
299.214	129.75
299.445	110.75
299.675	115.75
299.905	135.75
300.136	117.75
300.366	117.75
300.597	122.75
300.827	95.75
301.057	120.75
301.288	126.75
301.518	132.75
301.748	123.75
301.979	146.75
302.209	142.75
302.439	131.75
302.669	120.75
302.9	114.75
303.13	132.75
303.36	128.75
303.59	116.75
303.82	127.75
304.051	133.75
304.281	134.75
304.511	133.75
304.741	128.75
304.971	120.75
305.201	126.75
305.431	118.75
305.661	125.75
305.891	126.75
306.121	120.75
306.352	116.75
306.582	114.75
306.812	134.75
307.042	125.75
307.272	121.75
307.502	122.75
307.731	122.75
307.961	115.75
308.191	116.75
308.421	131.75
308.651	132.75
308.881	126.75
309.111	123.75
309.341	114.75
309.571	120.75
309.8	128.75
310.03	119.75
310.26	122.75
310.49	122.75
310.72	141.75
310.949	114.75
311.179	122.75
311.409	127.75
311.639	131.75
311.868	138.75
312.098	111.75
312.328	142.75
312.557	129.75
312.787	132.75
313.017	128.75
313.246	135.75
313.476	126.75
313.706	124.75
313.935	129.75
314.165	133.75
314.394	135.75
314.624	112.75
314.853	136.75
315.083	125.75
315.312	118.75
315.542	122.75
315.771	130.75
316.001	133.75
316.23	122.75
316.46	121.75
316.689	129.75
316.919	127.75
317.148	116.75
317.377	119.75
317.607	130.75
317.836	118.75
318.065	123.75
318.295	128.75
318.524	135.75
318.753	139.75
318.983	114.75
319.212	126.75
319.441	119.75
319.67	130.75
319.9	134.75
320.129	131.75
320.358	127.75
320.587	138.75
320.816	129.75
321.046	110.75
321.275	138.75
321.504	118.75
321.733	121.75
321.962	156.75
322.191	129.75
322.42	116.75
322.649	136.75
322.878	155.75
323.108	116.75
323.337	130.75
323.566	127.75
323.795	130.75
324.024	130.75
324.253	132.75
324.482	112.75
324.71	128.75
324.939	142.75
325.168	139.75
325.397	130.75
325.626	155.75
325.855	122.75
326.084	115.75
326.313	143.75
326.542	120.75
326.77	147.75
326.999	133.75
327.228	118.75
327.457	125.75
327.686	131.75
327.914	124.75
328.143	147.75
328.372	131.75
328.6	144.75
328.829	135.75
329.058	130.75
329.287	136.75
329.515	120.75
329.744	129.75
329.972	126.75
330.201	131.75
330.43	152.75
330.658	122.75
330.887	119.75
331.115	132.75
331.344	142.75
331.572	139.75
331.801	137.75
332.03	146.75
332.258	154.75
332.486	143.75
332.715	144.75
332.943	161.75
333.172	142.75
333.4	144.75
333.629	162.75
333.857	143.75
334.085	142.75
334.314	159.75
334.542	153.75
334.771	139.75
334.999	147.75
335.227	153.75
335.455	148.75
335.684	139.75
335.912	147.75
336.14	148.75
336.369	129.75
336.597	139.75
336.825	138.75
337.053	144.75
337.281	137.75
337.51	135.75
337.738	147.75
337.966	145.75
338.194	128.75
338.422	136.75
338.65	133.75
338.878	144.75
339.106	115.75
339.334	136.75
339.562	136.75
339.79	134.75
340.018	117.75
340.246	129.75
340.474	137.75
340.702	149.75
340.93	134.75
341.158	127.75
341.386	134.75
341.614	136.75
341.842	118.75
342.07	139.75
342.298	120.75
342.526	123.75
342.754	139.75
342.981	124.75
343.209	152.75
343.437	187.75
343.665	145.75
343.893	131.75
344.12	168.75
344.348	144.75
344.576	144.75
344.804	139.75
345.031	131.75
345.259	131.75
345.487	129.75
345.714	134.75
345.942	133.75
346.17	143.75
346.397	137.75
346.625	145.75
346.853	132.75
347.08	126.75
347.308	136.75
347.535	154.75
347.763	123.75
347.99	143.75
348.218	144.75
348.445	116.75
348.673	112.75
348.9	134.75
349.128	132.75
349.355	127.75
349.583	134.75
349.81	129.75
350.037	119.75
350.265	139.75
350.492	133.75
350.72	127.75
350.947	133.75
351.174	136.75
351.402	136.75
351.629	123.75
351.856	116.75
352.083	121.75
352.311	134.75
352.538	139.75
352.765	142.75
352.992	145.75
353.22	121.75
353.447	127.75
353.674	133.75
353.901	132.75
354.128	146.75
354.355	136.75
354.583	128.75
354.81	134.75
355.037	139.75
355.264	144.75
355.491	122.75
355.718	141.75
355.945	137.75
356.172	144.75
356.399	134.75
356.626	122.75
356.853	127.75
357.08	131.75
357.307	136.75
357.534	138.75
357.761	158.75
357.988	135.75
358.215	132.75
358.441	137.75
358.668	118.75
358.895	130.75
359.122	128.75
359.349	123.75
359.576	121.75
359.802	136.75
360.029	136.75
360.256	139.75
360.483	119.75
360.709	115.75
360.936	152.75
361.163	135.75
361.39	150.75
361.616	125.75
361.843	126.75
362.07	143.75
362.296	127.75
362.523	130.75
362.749	128.75
362.976	131.75
363.203	139.75
363.429	134.75
363.656	139.75
363.882	130.75
364.109	124.75
364.335	127.75
364.562	121.75
364.788	123.75
365.015	136.75
365.241	136.75
365.468	143.75
365.694	130.75
365.92	125.75
366.147	133.75
366.373	140.75
366.599	138.75
366.826	136.75
367.052	144.75
367.278	136.75
367.505	130.75
367.731	151.75
367.957	124.75
368.184	127.75
368.41	120.75
368.636	137.75
368.862	147.75
369.089	134.75
369.315	137.75
369.541	143.75
369.767	128.75
369.993	152.75
370.219	118.75
370.445	121.75
370.672	127.75
370.898	135.75
371.124	136.75
371.35	127.75
371.576	136.75
371.802	140.75
372.028	152.75
372.254	142.75
372.48	145.75
372.706	130.75
372.932	158.75
373.158	153.75
373.384	146.75
373.61	148.75
373.835	147.75
374.061	131.75
374.287	130.75
374.513	134.75
374.739	135.75
374.965	140.75
375.191	150.75
375.416	158.75
375.642	144.75
375.868	131.75
376.094	142.75
376.319	160.75
376.545	130.75
376.771	139.75
376.997	153.75
377.222	151.75
377.448	155.75
377.674	137.75
377.899	148.75
378.125	134.75
378.35	144.75
378.576	146.75
378.802	132.75
379.027	130.75
379.253	151.75
379.478	134.75
379.704	130.75
379.929	146.75
380.155	152.75
380.38	159.75
380.606	141.75
380.831	158.75
381.057	168.75
381.282	150.75
381.507	141.75
381.733	143.75
381.958	139.75
382.184	146.75
382.409	162.75
382.634	139.75
382.86	161.75
383.085	166.75
383.31	149.75
383.535	166.75
383.761	148.75
383.986	142.75
384.211	151.75
384.436	151.75
384.662	164.75
384.887	156.75
385.112	160.75
385.337	169.75
385.562	152.75
385.787	148.75
386.013	161.75
386.238	160.75
386.463	162.75
386.688	196.75
386.913	151.75
387.138	152.75
387.363	169.75
387.588	176.75
387.813	171.75
388.038	172.75
388.263	172.75
388.488	159.75
388.713	168.75
388.938	142.75
389.163	166.75
389.387	156.75
389.612	160.75
389.837	164.75
390.062	154.75
390.287	158.75
390.512	161.75
390.736	158.75
390.961	164.75
391.186	169.75
391.411	151.75
391.636	161.75
391.86	180.75
392.085	171.75
392.31	183.75
392.534	171.75
392.759	171.75
392.984	172.75
393.208	161.75
393.433	176.75
393.658	163.75
393.882	166.75
394.107	170.75
394.331	149.75
394.556	169.75
394.78	175.75
395.005	166.75
395.229	173.75
395.454	191.75
395.678	162.75
395.903	162.75
396.127	175.75
396.352	174.75
396.576	183.75
396.801	170.75
397.025	170.75
397.249	183.75
397.474	191.75
397.698	164.75
397.922	190.75
398.147	174.75
398.371	175.75
398.595	198.75
398.82	198.75
399.044	195.75
399.268	196.75
399.492	243.75
399.717	263.75
399.941	201.75
400.165	217.75
400.389	200.75
400.613	196.75
400.837	184.75
401.062	171.75
401.286	178.75
401.51	187.75
401.734	183.75
401.958	188.75
402.182	196.75
402.406	191.75
402.63	197.75
402.854	203.75
403.078	198.75
403.302	189.75
403.526	191.75
403.75	213.75
403.974	196.75
404.198	206.75
404.422	202.75
404.645	211.75
404.869	199.75
405.093	201.75
405.317	191.75
405.541	190.75
405.765	200.75
405.988	199.75
406.212	207.75
406.436	206.75
406.66	221.75
406.883	213.75
407.107	228.75
407.331	203.75
407.555	210.75
407.778	219.75
408.002	207.75
408.226	206.75
408.449	220.75
408.673	214.75
408.896	184.75
409.12	203.75
409.344	216.75
409.567	187.75
409.791	194.75
410.014	214.75
410.238	210.75
410.461	192.75
410.685	212.75
410.908	208.75
411.132	197.75
411.355	185.75
411.578	209.75
411.802	194.75
412.025	217.75
412.249	185.75
412.472	191.75
412.695	185.75
412.919	186.75
413.142	188.75
413.365	192.75
413.589	172.75
413.812	185.75
414.035	199.75
414.258	206.75
414.482	184.75
414.705	181.75
414.928	195.75
415.151	182.75
415.374	192.75
415.597	173.75
415.821	198.75
416.044	193.75
416.267	194.75
416.49	186.75
416.713	182.75
416.936	188.75
417.159	202.75
417.382	177.75
417.605	181.75
417.828	196.75
418.051	190.75
418.274	206.75
418.497	192.75
418.72	190.75
418.943	202.75
419.166	196.75
419.389	206.75
419.611	206.75
419.834	178.75
420.057	184.75
420.28	193.75
420.503	201.75
420.726	203.75
420.948	184.75
421.171	195.75
421.394	196.75
421.617	201.75
421.839	190.75
422.062	208.75
422.285	194.75
422.507	200.75
422.73	194.75
422.953	214.75
423.175	194.75
423.398	213.75
423.621	210.75
423.843	206.75
424.066	215.75
424.288	196.75
424.511	224.75
424.733	208.75
424.956	211.75
425.178	202.75
425.401	188.75
425.623	198.75
425.846	186.75
426.068	172.75
426.291	191.75
426.513	175.75
426.735	187.75
426.958	177.75
427.18	171.75
427.402	185.75
427.625	191.75
427.847	176.75
428.069	204.75
428.292	176.75
428.514	192.75
428.736	181.75
428.958	186.75
429.181	179.75
429.403	174.75
429.625	164.75
429.847	160.75
430.069	202.75
430.292	186.75
430.514	188.75
430.736	181.75
430.958	169.75
431.18	164.75
431.402	183.75
431.624	161.75
431.846	164.75
432.068	174.75
432.29	165.75
432.512	181.75
432.734	199.75
432.956	200.75
433.178	181.75
433.4	189.75
433.622	180.75
433.844	183.75
434.066	170.75
434.287	190.75
434.509	164.75
434.731	184.75
434.953	180.75
435.175	184.75
435.397	198.75
435.618	190.75
435.84	167.75
436.062	181.75
436.284	199.75
436.505	185.75
436.727	190.75
436.949	175.75
437.17	192.75
437.392	166.75
437.614	187.75
437.835	167.75
438.057	158.75
438.278	185.75
438.5	186.75
438.721	180.75
438.943	185.75
439.165	182.75
439.386	196.75
439.608	179.75
439.829	184.75
440.05	190.75
440.272	192.75
440.493	202.75
440.715	187.75
440.936	194.75
441.158	199.75
441.379	190.75
441.6	216.75
441.822	199.75
442.043	199.75
442.264	210.75
442.486	204.75
442.707	185.75
442.928	198.75
443.149	207.75
443.371	200.75
443.592	201.75
443.813	184.75
444.034	195.75
444.255	197.75
444.476	210.75
444.698	201.75
444.919	231.75
445.14	460.75
445.361	328.75
445.582	213.75
445.803	187.75
446.024	184.75
446.245	219.75
446.466	208.75
446.687	194.75
446.908	194.75
447.129	215.75
447.35	179.75
447.571	170.75
447.792	198.75
448.013	184.75
448.234	181.75
448.455	170.75
448.675	169.75
448.896	166.75
449.117	179.75
449.338	198.75
449.559	175.75
449.779	176.75
450	165.75
450.221	186.75
450.442	193.75
450.662	182.75
450.883	168.75
451.104	186.75
451.324	181.75
451.545	175.75
451.766	186.75
451.986	184.75
452.207	168.75
452.428	183.75
452.648	181.75
452.869	170.75
453.089	150.75
453.31	155.75
453.53	158.75
453.751	168.75
453.971	166.75
454.192	159.75
454.412	147.75
454.633	171.75
454.853	147.75
455.073	170.75
455.294	157.75
455.514	180.75
455.734	163.75
455.955	167.75
456.175	155.75
456.395	149.75
456.616	164.75
456.836	140.75
457.056	168.75
457.276	157.75
457.497	163.75
457.717	160.75
457.937	176.75
458.157	152.75
458.377	158.75
458.598	155.75
458.818	141.75
459.038	158.75
459.258	153.75
459.478	162.75
459.698	169.75
459.918	185.75
460.138	201.75
460.358	198.75
460.578	201.75
460.798	218.75
461.018	190.75
461.238	203.75
461.458	187.75
461.678	180.75
461.898	204.75
462.118	195.75
462.338	192.75
462.558	218.75
462.777	212.75
462.997	228.75
463.217	235.75
463.437	222.75
463.657	209.75
463.876	217.75
464.096	209.75
464.316	192.75
464.536	218.75
464.755	219.75
464.975	200.75
465.195	193.75
465.414	202.75
465.634	190.75
465.854	188.75
466.073	195.75
466.293	173.75
466.512	170.75
466.732	172.75
466.951	180.75
467.171	193.75
467.391	198.75
467.61	194.75
467.829	198.75
468.049	175.75
468.268	176.75
468.488	191.75
468.707	179.75
468.927	166.75
469.146	189.75
469.365	174.75
469.585	176.75
469.804	178.75
470.023	178.75
470.243	196.75
470.462	189.75
470.681	204.75
470.901	192.75
471.12	194.75
471.339	192.75
471.558	190.75
471.777	197.75
471.997	171.75
472.216	179.75
472.435	175.75
472.654	159.75
472.873	165.75
473.092	180.75
473.311	168.75
473.53	170.75
473.749	168.75
473.968	192.75
474.187	159.75
474.406	170.75
474.625	177.75
474.844	161.75
475.063	174.75
475.282	187.75
475.501	167.75
475.72	192.75
475.939	189.75
476.158	182.75
476.377	183.75
476.596	170.75
476.814	174.75
477.033	182.75
477.252	180.75
477.471	166.75
477.69	194.75
477.908	195.75
478.127	198.75
478.346	200.75
478.564	206.75
478.783	197.75
479.002	208.75
479.22	204.75
479.439	201.75
479.658	202.75
479.876	194.75
480.095	182.75
480.313	207.75
480.532	214.75
480.751	198.75
480.969	182.75
481.188	170.75
481.406	173.75
481.624	175.75
481.843	146.75
482.061	159.75
482.28	187.75
482.498	181.75
482.717	188.75
482.935	187.75
483.153	204.75
483.372	215.75
483.59	215.75
483.808	194.75
484.027	196.75
484.245	206.75
484.463	209.75
484.681	224.75
484.9	221.75
485.118	199.75
485.336	172.75
485.554	176.75
485.772	193.75
485.99	169.75
486.209	188.75
486.427	196.75
486.645	200.75
486.863	201.75
487.081	206.75
487.299	209.75
487.517	225.75
487.735	200.75
487.953	218.75
488.171	203.75
488.389	215.75
488.607	202.75
488.825	195.75
489.043	191.75
489.261	201.75
489.479	201.75
489.696	195.75
489.914	211.75
490.132	186.75
490.35	220.75
490.568	220.75
490.786	219.75
491.003	232.75
491.221	213.75
491.439	197.75
491.657	226.75
491.874	238.75
492.092	235.75
492.31	260.75
492.527	244.75
492.745	227.75
492.963	236.75
493.18	233.75
493.398	212.75
493.615	211.75
493.833	236.75
494.05	220.75
494.268	222.75
494.485	224.75
494.703	206.75
494.92	215.75
495.138	206.75
495.355	216.75
495.573	230.75
495.79	211.75
496.008	223.75
496.225	231.75
496.442	212.75
496.66	226.75
496.877	235.75
497.094	229.75
497.312	228.75
497.529	218.75
497.746	214.75
497.963	229.75
498.181	223.75
498.398	208.75
498.615	239.75
498.832	243.75
499.049	282.75
499.267	278.75
499.484	279.75
499.701	304.75
499.918	364.75
500.135	378.75
500.352	418.75
500.569	420.75
500.786	437.75
501.003	376.75
501.22	350.75
501.437	315.75
501.654	301.75
501.871	274.75
502.088	262.75
502.305	259.75
502.522	241.75
502.739	235.75
502.956	240.75
503.172	235.75
503.389	230.75
503.606	204.75
503.823	213.75
504.04	238.75
504.256	220.75
504.473	231.75
504.69	226.75
504.907	234.75
