Data from SampD_HRD10591_00083.txt Node
Date: Mon Jan 19 11:50:44 EST 2026
User: Yrep
Spectrometer: HR+D1059
Trigger mode: 0
Integration Time (sec): 3.443000E-1
Scans to average: 1
Electric dark correction enabled: true
Nonlinearity correction enabled: false
Boxcar width: 0
XAxis mode: Wavelengths
Number of Pixels in Spectrum: 2048
>>>>>Begin Spectral Data<<<<<
223.165	-29.5
223.4	-29.5
223.635	-29.5
223.869	-16.5
224.104	-19.5
224.338	-21.5
224.573	-20.5
224.808	-9.5
225.042	4.5
225.277	-2.5
225.511	-9.5
225.746	-6.5
225.98	3.5
226.215	14.5
226.449	19.5
226.683	25.5
226.918	34.5
227.152	33.5
227.387	23.5
227.621	32.5
227.856	37.5
228.09	29.5
228.324	49.5
228.559	67.5
228.793	59.5
229.027	67.5
229.262	58.5
229.496	65.5
229.73	69.5
229.964	73.5
230.199	97.5
230.433	71.5
230.667	84.5
230.901	66.5
231.136	71.5
231.37	74.5
231.604	72.5
231.838	78.5
232.072	69.5
232.306	79.5
232.541	82.5
232.775	78.5
233.009	89.5
233.243	74.5
233.477	87.5
233.711	77.5
233.945	65.5
234.179	84.5
234.413	68.5
234.647	91.5
234.881	74.5
235.115	88.5
235.349	79.5
235.583	69.5
235.817	63.5
236.051	63.5
236.285	75.5
236.519	74.5
236.753	98.5
236.987	85.5
237.221	75.5
237.455	83.5
237.689	72.5
237.922	71.5
238.156	83.5
238.39	77.5
238.624	69.5
238.858	72.5
239.091	84.5
239.325	83.5
239.559	81.5
239.793	97.5
240.027	83.5
240.26	73.5
240.494	77.5
240.728	83.5
240.961	57.5
241.195	79.5
241.429	80.5
241.662	80.5
241.896	69.5
242.13	71.5
242.363	73.5
242.597	87.5
242.83	90.5
243.064	69.5
243.298	87.5
243.531	60.5
243.765	84.5
243.998	97.5
244.232	86.5
244.465	87.5
244.699	83.5
244.932	72.5
245.166	66.5
245.399	80.5
245.633	90.5
245.866	85.5
246.099	72.5
246.333	67.5
246.566	83.5
246.8	84.5
247.033	72.5
247.266	78.5
247.5	98.5
247.733	78.5
247.966	86.5
248.2	82.5
248.433	86.5
248.666	85.5
248.899	97.5
249.133	73.5
249.366	89.5
249.599	87.5
249.832	83.5
250.066	70.5
250.299	84.5
250.532	66.5
250.765	92.5
250.998	81.5
251.231	69.5
251.465	92.5
251.698	77.5
251.931	79.5
252.164	91.5
252.397	67.5
252.63	81.5
252.863	73.5
253.096	74.5
253.329	85.5
253.562	90.5
253.795	97.5
254.028	90.5
254.261	79.5
254.494	81.5
254.727	88.5
254.96	80.5
255.193	89.5
255.426	80.5
255.659	73.5
255.892	86.5
256.124	71.5
256.357	85.5
256.59	98.5
256.823	86.5
257.056	105.5
257.289	67.5
257.521	89.5
257.754	80.5
257.987	79.5
258.22	88.5
258.452	85.5
258.685	88.5
258.918	87.5
259.151	81.5
259.383	106.5
259.616	100.5
259.849	83.5
260.081	89.5
260.314	88.5
260.547	93.5
260.779	72.5
261.012	91.5
261.244	85.5
261.477	102.5
261.71	85.5
261.942	92.5
262.175	88.5
262.407	85.5
262.64	88.5
262.872	93.5
263.105	103.5
263.337	96.5
263.57	81.5
263.802	96.5
264.035	91.5
264.267	94.5
264.499	94.5
264.732	82.5
264.964	98.5
265.197	95.5
265.429	85.5
265.661	74.5
265.894	95.5
266.126	93.5
266.358	99.5
266.591	98.5
266.823	98.5
267.055	90.5
267.287	85.5
267.52	82.5
267.752	98.5
267.984	106.5
268.216	95.5
268.448	110.5
268.681	87.5
268.913	93.5
269.145	95.5
269.377	85.5
269.609	94.5
269.841	73.5
270.073	94.5
270.306	90.5
270.538	80.5
270.77	88.5
271.002	96.5
271.234	84.5
271.466	98.5
271.698	104.5
271.93	110.5
272.162	106.5
272.394	100.5
272.626	85.5
272.858	106.5
273.09	83.5
273.322	89.5
273.553	94.5
273.785	95.5
274.017	89.5
274.249	89.5
274.481	82.5
274.713	100.5
274.945	88.5
275.176	85.5
275.408	88.5
275.64	102.5
275.872	105.5
276.104	101.5
276.335	107.5
276.567	95.5
276.799	84.5
277.031	89.5
277.262	98.5
277.494	103.5
277.726	101.5
277.957	104.5
278.189	91.5
278.421	93.5
278.652	87.5
278.884	91.5
279.115	96.5
279.347	94.5
279.579	103.5
279.81	106.5
280.042	86.5
280.273	92.5
280.505	94.5
280.736	96.5
280.968	93.5
281.199	98.5
281.431	89.5
281.662	88.5
281.894	103.5
282.125	98.5
282.356	88.5
282.588	89.5
282.819	87.5
283.051	96.5
283.282	78.5
283.513	101.5
283.745	94.5
283.976	126.5
284.207	91.5
284.439	105.5
284.67	114.5
284.901	96.5
285.132	90.5
285.364	96.5
285.595	106.5
285.826	107.5
286.057	108.5
286.288	101.5
286.52	101.5
286.751	93.5
286.982	108.5
287.213	97.5
287.444	122.5
287.675	93.5
287.906	102.5
288.138	89.5
288.369	105.5
288.6	84.5
288.831	85.5
289.062	94.5
289.293	79.5
289.524	110.5
289.755	97.5
289.986	105.5
290.217	105.5
290.448	102.5
290.679	108.5
290.91	110.5
291.141	101.5
291.371	109.5
291.602	88.5
291.833	92.5
292.064	89.5
292.295	92.5
292.526	89.5
292.757	102.5
292.987	98.5
293.218	96.5
293.449	105.5
293.68	98.5
293.91	100.5
294.141	108.5
294.372	97.5
294.603	95.5
294.833	85.5
295.064	93.5
295.295	94.5
295.525	100.5
295.756	109.5
295.987	89.5
296.217	106.5
296.448	104.5
296.679	82.5
296.909	110.5
297.14	113.5
297.37	97.5
297.601	100.5
297.831	95.5
298.062	94.5
298.292	97.5
298.523	120.5
298.753	107.5
298.984	93.5
299.214	89.5
299.445	82.5
299.675	103.5
299.905	102.5
300.136	103.5
300.366	102.5
300.597	97.5
300.827	109.5
301.057	97.5
301.288	92.5
301.518	107.5
301.748	103.5
301.979	133.5
302.209	101.5
302.439	94.5
302.669	101.5
302.9	99.5
303.13	104.5
303.36	97.5
303.59	97.5
303.82	95.5
304.051	115.5
304.281	101.5
304.511	115.5
304.741	100.5
304.971	96.5
305.201	98.5
305.431	111.5
305.661	94.5
305.891	86.5
306.121	101.5
306.352	91.5
306.582	97.5
306.812	109.5
307.042	106.5
307.272	103.5
307.502	98.5
307.731	93.5
307.961	93.5
308.191	85.5
308.421	97.5
308.651	90.5
308.881	74.5
309.111	97.5
309.341	98.5
309.571	90.5
309.8	106.5
310.03	97.5
310.26	101.5
310.49	101.5
310.72	101.5
310.949	93.5
311.179	114.5
311.409	95.5
311.639	101.5
311.868	110.5
312.098	109.5
312.328	102.5
312.557	112.5
312.787	95.5
313.017	104.5
313.246	105.5
313.476	97.5
313.706	85.5
313.935	110.5
314.165	116.5
314.394	106.5
314.624	109.5
314.853	105.5
315.083	105.5
315.312	101.5
315.542	103.5
315.771	111.5
316.001	103.5
316.23	110.5
316.46	101.5
316.689	96.5
316.919	99.5
317.148	82.5
317.377	103.5
317.607	104.5
317.836	100.5
318.065	100.5
318.295	93.5
318.524	98.5
318.753	107.5
318.983	100.5
319.212	107.5
319.441	102.5
319.67	100.5
319.9	92.5
320.129	118.5
320.358	99.5
320.587	102.5
320.816	101.5
321.046	108.5
321.275	116.5
321.504	106.5
321.733	89.5
321.962	110.5
322.191	105.5
322.42	87.5
322.649	104.5
322.878	105.5
323.108	107.5
323.337	98.5
323.566	100.5
323.795	100.5
324.024	94.5
324.253	94.5
324.482	88.5
324.71	109.5
324.939	102.5
325.168	105.5
325.397	100.5
325.626	88.5
325.855	96.5
326.084	96.5
326.313	103.5
326.542	106.5
326.77	95.5
326.999	105.5
327.228	101.5
327.457	115.5
327.686	109.5
327.914	115.5
328.143	97.5
328.372	111.5
328.6	95.5
328.829	102.5
329.058	106.5
329.287	103.5
329.515	112.5
329.744	113.5
329.972	97.5
330.201	98.5
330.43	120.5
330.658	113.5
330.887	101.5
331.115	113.5
331.344	115.5
331.572	122.5
331.801	103.5
332.03	101.5
332.258	101.5
332.486	101.5
332.715	105.5
332.943	113.5
333.172	107.5
333.4	113.5
333.629	111.5
333.857	115.5
334.085	117.5
334.314	97.5
334.542	118.5
334.771	116.5
334.999	107.5
335.227	101.5
335.455	110.5
335.684	98.5
335.912	113.5
336.14	106.5
336.369	99.5
336.597	105.5
336.825	109.5
337.053	109.5
337.281	103.5
337.51	113.5
337.738	112.5
337.966	107.5
338.194	115.5
338.422	110.5
338.65	121.5
338.878	118.5
339.106	97.5
339.334	101.5
339.562	107.5
339.79	109.5
340.018	113.5
340.246	102.5
340.474	115.5
340.702	118.5
340.93	94.5
341.158	93.5
341.386	113.5
341.614	104.5
341.842	116.5
342.07	93.5
342.298	109.5
342.526	104.5
342.754	110.5
342.981	78.5
343.209	103.5
343.437	142.5
343.665	110.5
343.893	119.5
344.12	112.5
344.348	114.5
344.576	104.5
344.804	112.5
345.031	101.5
345.259	110.5
345.487	108.5
345.714	106.5
345.942	93.5
346.17	101.5
346.397	111.5
346.625	118.5
346.853	103.5
347.08	103.5
347.308	110.5
347.535	97.5
347.763	113.5
347.99	96.5
348.218	107.5
348.445	95.5
348.673	118.5
348.9	92.5
349.128	111.5
349.355	90.5
349.583	107.5
349.81	105.5
350.037	98.5
350.265	99.5
350.492	93.5
350.72	84.5
350.947	101.5
351.174	114.5
351.402	100.5
351.629	104.5
351.856	122.5
352.083	103.5
352.311	99.5
352.538	93.5
352.765	115.5
352.992	127.5
353.22	97.5
353.447	102.5
353.674	101.5
353.901	123.5
354.128	123.5
354.355	110.5
354.583	110.5
354.81	114.5
355.037	114.5
355.264	104.5
355.491	107.5
355.718	104.5
355.945	107.5
356.172	99.5
356.399	130.5
356.626	97.5
356.853	107.5
357.08	104.5
357.307	108.5
357.534	93.5
357.761	106.5
357.988	112.5
358.215	104.5
358.441	83.5
358.668	103.5
358.895	107.5
359.122	104.5
359.349	114.5
359.576	96.5
359.802	90.5
360.029	106.5
360.256	120.5
360.483	89.5
360.709	79.5
360.936	118.5
361.163	106.5
361.39	99.5
361.616	103.5
361.843	109.5
362.07	119.5
362.296	102.5
362.523	97.5
362.749	101.5
362.976	97.5
363.203	118.5
363.429	90.5
363.656	111.5
363.882	103.5
364.109	106.5
364.335	105.5
364.562	89.5
364.788	102.5
365.015	112.5
365.241	111.5
365.468	104.5
365.694	106.5
365.92	105.5
366.147	104.5
366.373	98.5
366.599	105.5
366.826	97.5
367.052	96.5
367.278	112.5
367.505	105.5
367.731	115.5
367.957	107.5
368.184	89.5
368.41	109.5
368.636	106.5
368.862	113.5
369.089	99.5
369.315	113.5
369.541	113.5
369.767	122.5
369.993	94.5
370.219	97.5
370.445	98.5
370.672	104.5
370.898	90.5
371.124	105.5
371.35	106.5
371.576	113.5
371.802	119.5
372.028	95.5
372.254	106.5
372.48	107.5
372.706	125.5
372.932	94.5
373.158	111.5
373.384	126.5
373.61	112.5
373.835	111.5
374.061	102.5
374.287	101.5
374.513	107.5
374.739	104.5
374.965	106.5
375.191	106.5
375.416	116.5
375.642	107.5
375.868	132.5
376.094	109.5
376.319	85.5
376.545	113.5
376.771	96.5
376.997	114.5
377.222	105.5
377.448	123.5
377.674	109.5
377.899	116.5
378.125	106.5
378.35	113.5
378.576	103.5
378.802	95.5
379.027	115.5
379.253	119.5
379.478	102.5
379.704	102.5
379.929	105.5
380.155	107.5
380.38	101.5
380.606	116.5
380.831	108.5
381.057	124.5
381.282	115.5
381.507	92.5
381.733	109.5
381.958	115.5
382.184	111.5
382.409	94.5
382.634	125.5
382.86	107.5
383.085	122.5
383.31	113.5
383.535	123.5
383.761	109.5
383.986	117.5
384.211	104.5
384.436	107.5
384.662	101.5
384.887	110.5
385.112	102.5
385.337	106.5
385.562	126.5
385.787	119.5
386.013	114.5
386.238	134.5
386.463	118.5
386.688	149.5
386.913	113.5
387.138	98.5
387.363	122.5
387.588	132.5
387.813	107.5
388.038	141.5
388.263	128.5
388.488	118.5
388.713	102.5
388.938	117.5
389.163	118.5
389.387	109.5
389.612	127.5
389.837	107.5
390.062	118.5
390.287	116.5
390.512	122.5
390.736	105.5
390.961	121.5
391.186	110.5
391.411	126.5
391.636	117.5
391.86	120.5
392.085	125.5
392.31	121.5
392.534	120.5
392.759	110.5
392.984	117.5
393.208	122.5
393.433	112.5
393.658	115.5
393.882	102.5
394.107	112.5
394.331	128.5
394.556	105.5
394.78	113.5
395.005	128.5
395.229	118.5
395.454	133.5
395.678	126.5
395.903	121.5
396.127	137.5
396.352	118.5
396.576	98.5
396.801	109.5
397.025	117.5
397.249	125.5
397.474	113.5
397.698	114.5
397.922	126.5
398.147	117.5
398.371	116.5
398.595	128.5
398.82	126.5
399.044	128.5
399.268	129.5
399.492	149.5
399.717	163.5
399.941	147.5
400.165	154.5
400.389	132.5
400.613	135.5
400.837	132.5
401.062	122.5
401.286	118.5
401.51	128.5
401.734	122.5
401.958	121.5
402.182	124.5
402.406	138.5
402.63	135.5
402.854	145.5
403.078	122.5
403.302	126.5
403.526	146.5
403.75	140.5
403.974	141.5
404.198	125.5
404.422	140.5
404.645	137.5
404.869	134.5
405.093	127.5
405.317	149.5
405.541	127.5
405.765	133.5
405.988	132.5
406.212	131.5
406.436	132.5
406.66	134.5
406.883	131.5
407.107	131.5
407.331	134.5
407.555	157.5
407.778	158.5
408.002	143.5
408.226	142.5
408.449	133.5
408.673	136.5
408.896	143.5
409.12	139.5
409.344	146.5
409.567	131.5
409.791	136.5
410.014	127.5
410.238	137.5
410.461	132.5
410.685	128.5
410.908	142.5
411.132	146.5
411.355	125.5
411.578	132.5
411.802	121.5
412.025	132.5
412.249	144.5
412.472	126.5
412.695	127.5
412.919	121.5
413.142	139.5
413.365	124.5
413.589	136.5
413.812	141.5
414.035	143.5
414.258	136.5
414.482	119.5
414.705	133.5
414.928	142.5
415.151	153.5
415.374	135.5
415.597	123.5
415.821	152.5
416.044	127.5
416.267	124.5
416.49	119.5
416.713	133.5
416.936	126.5
417.159	134.5
417.382	136.5
417.605	126.5
417.828	134.5
418.051	127.5
418.274	126.5
418.497	117.5
418.72	112.5
418.943	138.5
419.166	139.5
419.389	147.5
419.611	133.5
419.834	131.5
420.057	144.5
420.28	134.5
420.503	125.5
420.726	135.5
420.948	136.5
421.171	123.5
421.394	146.5
421.617	137.5
421.839	131.5
422.062	130.5
422.285	144.5
422.507	117.5
422.73	142.5
422.953	119.5
423.175	123.5
423.398	123.5
423.621	132.5
423.843	129.5
424.066	129.5
424.288	126.5
424.511	142.5
424.733	137.5
424.956	139.5
425.178	122.5
425.401	147.5
425.623	126.5
425.846	125.5
426.068	126.5
426.291	130.5
426.513	153.5
426.735	129.5
426.958	136.5
427.18	127.5
427.402	145.5
427.625	126.5
427.847	125.5
428.069	119.5
428.292	135.5
428.514	120.5
428.736	114.5
428.958	137.5
429.181	139.5
429.403	115.5
429.625	118.5
429.847	123.5
430.069	114.5
430.292	126.5
430.514	109.5
430.736	120.5
430.958	129.5
431.18	135.5
431.402	127.5
431.624	118.5
431.846	118.5
432.068	112.5
432.29	113.5
432.512	133.5
432.734	117.5
432.956	134.5
433.178	133.5
433.4	124.5
433.622	128.5
433.844	138.5
434.066	128.5
434.287	113.5
434.509	117.5
434.731	115.5
434.953	125.5
435.175	137.5
435.397	132.5
435.618	121.5
435.84	113.5
436.062	121.5
436.284	107.5
436.505	119.5
436.727	127.5
436.949	126.5
437.17	122.5
437.392	126.5
437.614	113.5
437.835	106.5
438.057	122.5
438.278	128.5
438.5	124.5
438.721	141.5
438.943	127.5
439.165	141.5
439.386	124.5
439.608	138.5
439.829	121.5
440.05	135.5
440.272	134.5
440.493	144.5
440.715	141.5
440.936	120.5
441.158	122.5
441.379	141.5
441.6	113.5
441.822	116.5
442.043	141.5
442.264	137.5
442.486	125.5
442.707	130.5
442.928	128.5
443.149	142.5
443.371	135.5
443.592	131.5
443.813	125.5
444.034	143.5
444.255	149.5
444.476	127.5
444.698	142.5
444.919	156.5
445.14	371.5
445.361	247.5
445.582	143.5
445.803	139.5
446.024	141.5
446.245	136.5
446.466	143.5
446.687	142.5
446.908	121.5
447.129	125.5
447.35	138.5
447.571	127.5
447.792	111.5
448.013	123.5
448.234	121.5
448.455	134.5
448.675	120.5
448.896	130.5
449.117	116.5
449.338	118.5
449.559	130.5
449.779	125.5
450	115.5
450.221	119.5
450.442	129.5
450.662	112.5
450.883	130.5
451.104	123.5
451.324	121.5
451.545	131.5
451.766	109.5
451.986	129.5
452.207	125.5
452.428	128.5
452.648	113.5
452.869	128.5
453.089	118.5
453.31	103.5
453.53	125.5
453.751	109.5
453.971	103.5
454.192	100.5
454.412	106.5
454.633	119.5
454.853	131.5
455.073	113.5
455.294	121.5
455.514	135.5
455.734	131.5
455.955	114.5
456.175	115.5
456.395	119.5
456.616	117.5
456.836	113.5
457.056	99.5
457.276	102.5
457.497	112.5
457.717	119.5
457.937	113.5
458.157	120.5
458.377	107.5
458.598	106.5
458.818	113.5
459.038	121.5
459.258	108.5
459.478	125.5
459.698	107.5
459.918	129.5
460.138	136.5
460.358	112.5
460.578	132.5
460.798	130.5
461.018	134.5
461.238	122.5
461.458	139.5
461.678	137.5
461.898	135.5
462.118	135.5
462.338	124.5
462.558	139.5
462.777	120.5
462.997	138.5
463.217	138.5
463.437	157.5
463.657	150.5
463.876	135.5
464.096	137.5
464.316	121.5
464.536	137.5
464.755	140.5
464.975	138.5
465.195	150.5
465.414	127.5
465.634	133.5
465.854	121.5
466.073	112.5
466.293	119.5
466.512	119.5
466.732	128.5
466.951	124.5
467.171	128.5
467.391	117.5
467.61	116.5
467.829	127.5
468.049	132.5
468.268	108.5
468.488	137.5
468.707	130.5
468.927	130.5
469.146	130.5
469.365	139.5
469.585	118.5
469.804	138.5
470.023	137.5
470.243	126.5
470.462	131.5
470.681	131.5
470.901	115.5
471.12	146.5
471.339	128.5
471.558	127.5
471.777	131.5
471.997	132.5
472.216	133.5
472.435	106.5
472.654	124.5
472.873	115.5
473.092	127.5
473.311	111.5
473.53	121.5
473.749	123.5
473.968	136.5
474.187	134.5
474.406	117.5
474.625	126.5
474.844	120.5
475.063	115.5
475.282	127.5
475.501	124.5
475.72	138.5
475.939	123.5
476.158	122.5
476.377	127.5
476.596	134.5
476.814	118.5
477.033	94.5
477.252	130.5
477.471	114.5
477.69	139.5
477.908	135.5
478.127	137.5
478.346	142.5
478.564	131.5
478.783	139.5
479.002	148.5
479.22	130.5
479.439	124.5
479.658	130.5
479.876	117.5
480.095	153.5
480.313	145.5
480.532	143.5
480.751	122.5
480.969	106.5
481.188	137.5
481.406	137.5
481.624	120.5
481.843	116.5
482.061	119.5
482.28	119.5
482.498	117.5
482.717	124.5
482.935	117.5
483.153	137.5
483.372	144.5
483.59	138.5
483.808	122.5
484.027	133.5
484.245	143.5
484.463	118.5
484.681	145.5
484.9	135.5
485.118	138.5
485.336	120.5
485.554	122.5
485.772	132.5
485.99	135.5
486.209	115.5
486.427	134.5
486.645	145.5
486.863	136.5
487.081	143.5
487.299	149.5
487.517	149.5
487.735	141.5
487.953	173.5
488.171	143.5
488.389	156.5
488.607	126.5
488.825	134.5
489.043	141.5
489.261	141.5
489.479	155.5
489.696	136.5
489.914	133.5
490.132	131.5
490.35	141.5
490.568	127.5
490.786	148.5
491.003	144.5
491.221	138.5
491.439	147.5
491.657	149.5
491.874	165.5
492.092	164.5
492.31	166.5
492.527	170.5
492.745	146.5
492.963	155.5
493.18	149.5
493.398	137.5
493.615	138.5
493.833	134.5
494.05	153.5
494.268	154.5
494.485	148.5
494.703	146.5
494.92	141.5
495.138	143.5
495.355	134.5
495.573	144.5
495.79	147.5
496.008	150.5
496.225	159.5
496.442	143.5
496.66	143.5
496.877	147.5
497.094	160.5
497.312	162.5
497.529	142.5
497.746	144.5
497.963	133.5
498.181	131.5
498.398	142.5
498.615	159.5
498.832	162.5
499.049	155.5
499.267	151.5
499.484	173.5
499.701	197.5
499.918	194.5
500.135	224.5
500.352	245.5
500.569	245.5
500.786	240.5
501.003	217.5
501.22	210.5
501.437	203.5
501.654	183.5
501.871	165.5
502.088	170.5
502.305	181.5
502.522	144.5
502.739	155.5
502.956	154.5
503.172	150.5
503.389	144.5
503.606	136.5
503.823	132.5
504.04	131.5
504.256	142.5
504.473	136.5
504.69	153.5
504.907	170.5
505.123	133.5
505.34	148.5
505.557	126.5
505.773	141.5
505.99	132.5
506.207	129.5
506.423	121.5
506.64	127.5
506.856	158.5
507.073	131.5
507.289	118.5
507.506	120.5
507.722	135.5
507.939	123.5
508.155	128.5
508.372	125.5
508.588	128.5
508.805	125.5
509.021	137.5
509.238	116.5
509.454	126.5
509.67	121.5
509.887	95.5
510.103	116.5
510.319	117.5
510.536	139.5
510.752	106.5
510.968	122.5
511.184	116.5
511.401	105.5
511.617	118.5
511.833	120.5
512.049	127.5
512.265	128.5
512.481	112.5
512.698	110.5
512.914	131.5
513.13	115.5
513.346	118.5
513.562	122.5
513.778	104.5
513.994	115.5
514.21	127.5
514.426	130.5
514.642	116.5
514.858	126.5
515.074	119.5
515.29	121.5
515.506	134.5
515.721	111.5
515.937	134.5
516.153	125.5
516.369	116.5
516.585	121.5
516.801	114.5
517.016	131.5
517.232	125.5
517.448	142.5
517.664	137.5
517.879	140.5
518.095	138.5
518.311	131.5
518.527	128.5
518.742	121.5
518.958	120.5
519.173	123.5
519.389	133.5
519.605	131.5
519.82	116.5
520.036	122.5
520.251	106.5
520.467	117.5
520.682	122.5
520.898	118.5
521.113	102.5
521.329	118.5
521.544	109.5
521.76	118.5
521.975	118.5
522.19	122.5
522.406	117.5
522.621	122.5
522.836	116.5
523.052	133.5
523.267	113.5
523.482	117.5
523.698	112.5
523.913	121.5
524.128	129.5
524.343	128.5
524.559	132.5
524.774	127.5
524.989	116.5
525.204	111.5
525.419	114.5
525.634	114.5
525.849	120.5
