Data from 2145_3_HRD10591_00020.txt Node
Date: Mon Jan 19 14:23:17 EST 2026
User: Yrep
Spectrometer: HR+D1059
Trigger mode: 1
Integration Time (sec): 1.000000E-1
Scans to average: 1
Electric dark correction enabled: true
Nonlinearity correction enabled: false
Boxcar width: 0
XAxis mode: Wavelengths
Number of Pixels in Spectrum: 2048
>>>>>Begin Spectral Data<<<<<
223.165	-20.56
223.4	-20.56
223.635	-20.56
223.869	-13.56
224.104	-8.56
224.338	-27.56
224.573	-16.56
224.808	-7.56
225.042	-21.56
225.277	2.44
225.511	11.44
225.746	6.44
225.98	8.44
226.215	18.44
226.449	12.44
226.683	20.44
226.918	20.44
227.152	15.44
227.387	34.44
227.621	42.44
227.856	54.44
228.09	44.44
228.324	44.44
228.559	47.44
228.793	61.44
229.027	62.44
229.262	64.44
229.496	71.44
229.73	64.44
229.964	72.44
230.199	65.44
230.433	70.44
230.667	74.44
230.901	86.44
231.136	78.44
231.37	76.44
231.604	82.44
231.838	83.44
232.072	78.44
232.306	68.44
232.541	73.44
232.775	84.44
233.009	76.44
233.243	88.44
233.477	69.44
233.711	72.44
233.945	87.44
234.179	88.44
234.413	79.44
234.647	92.44
234.881	86.44
235.115	80.44
235.349	65.44
235.583	71.44
235.817	76.44
236.051	74.44
236.285	67.44
236.519	58.44
236.753	86.44
236.987	58.44
237.221	62.44
237.455	79.44
237.689	83.44
237.922	84.44
238.156	80.44
238.39	76.44
238.624	85.44
238.858	88.44
239.091	84.44
239.325	65.44
239.559	78.44
239.793	67.44
240.027	78.44
240.26	76.44
240.494	80.44
240.728	80.44
240.961	73.44
241.195	84.44
241.429	83.44
241.662	72.44
241.896	72.44
242.13	87.44
242.363	80.44
242.597	86.44
242.83	80.44
243.064	66.44
243.298	72.44
243.531	66.44
243.765	81.44
243.998	84.44
244.232	78.44
244.465	82.44
244.699	73.44
244.932	86.44
245.166	70.44
245.399	83.44
245.633	91.44
245.866	63.44
246.099	60.44
246.333	75.44
246.566	81.44
246.8	96.44
247.033	77.44
247.266	73.44
247.5	62.44
247.733	78.44
247.966	90.44
248.2	75.44
248.433	78.44
248.666	74.44
248.899	75.44
249.133	78.44
249.366	94.44
249.599	76.44
249.832	69.44
250.066	80.44
250.299	82.44
250.532	76.44
250.765	74.44
250.998	77.44
251.231	81.44
251.465	80.44
251.698	72.44
251.931	78.44
252.164	78.44
252.397	82.44
252.63	90.44
252.863	90.44
253.096	78.44
253.329	83.44
253.562	80.44
253.795	72.44
254.028	80.44
254.261	96.44
254.494	70.44
254.727	78.44
254.96	85.44
255.193	86.44
255.426	79.44
255.659	74.44
255.892	74.44
256.124	96.44
256.357	76.44
256.59	86.44
256.823	80.44
257.056	84.44
257.289	77.44
257.521	79.44
257.754	86.44
257.987	87.44
258.22	83.44
258.452	78.44
258.685	86.44
258.918	96.44
259.151	80.44
259.383	88.44
259.616	84.44
259.849	76.44
260.081	89.44
260.314	86.44
260.547	86.44
260.779	88.44
261.012	83.44
261.244	84.44
261.477	84.44
261.71	78.44
261.942	86.44
262.175	95.44
262.407	102.44
262.64	90.44
262.872	90.44
263.105	89.44
263.337	91.44
263.57	82.44
263.802	80.44
264.035	79.44
264.267	84.44
264.499	78.44
264.732	92.44
264.964	77.44
265.197	92.44
265.429	82.44
265.661	83.44
265.894	80.44
266.126	80.44
266.358	86.44
266.591	84.44
266.823	73.44
267.055	84.44
267.287	75.44
267.52	69.44
267.752	81.44
267.984	68.44
268.216	76.44
268.448	84.44
268.681	82.44
268.913	86.44
269.145	91.44
269.377	90.44
269.609	71.44
269.841	95.44
270.073	95.44
270.306	80.44
270.538	89.44
270.77	78.44
271.002	80.44
271.234	89.44
271.466	90.44
271.698	91.44
271.93	89.44
272.162	95.44
272.394	90.44
272.626	76.44
272.858	91.44
273.09	89.44
273.322	91.44
273.553	87.44
273.785	85.44
274.017	94.44
274.249	88.44
274.481	88.44
274.713	104.44
274.945	92.44
275.176	69.44
275.408	92.44
275.64	89.44
275.872	91.44
276.104	80.44
276.335	78.44
276.567	92.44
276.799	103.44
277.031	84.44
277.262	89.44
277.494	87.44
277.726	87.44
277.957	74.44
278.189	84.44
278.421	88.44
278.652	91.44
278.884	76.44
279.115	80.44
279.347	83.44
279.579	94.44
279.81	87.44
280.042	83.44
280.273	88.44
280.505	81.44
280.736	75.44
280.968	83.44
281.199	80.44
281.431	76.44
281.662	90.44
281.894	83.44
282.125	78.44
282.356	74.44
282.588	86.44
282.819	91.44
283.051	83.44
283.282	89.44
283.513	89.44
283.745	90.44
283.976	91.44
284.207	90.44
284.439	82.44
284.67	87.44
284.901	83.44
285.132	87.44
285.364	101.44
285.595	88.44
285.826	87.44
286.057	93.44
286.288	94.44
286.52	91.44
286.751	90.44
286.982	78.44
287.213	76.44
287.444	87.44
287.675	81.44
287.906	91.44
288.138	91.44
288.369	100.44
288.6	93.44
288.831	78.44
289.062	84.44
289.293	84.44
289.524	73.44
289.755	90.44
289.986	85.44
290.217	92.44
290.448	99.44
290.679	87.44
290.91	72.44
291.141	80.44
291.371	88.44
291.602	93.44
291.833	83.44
292.064	98.44
292.295	86.44
292.526	93.44
292.757	83.44
292.987	84.44
293.218	94.44
293.449	90.44
293.68	82.44
293.91	80.44
294.141	81.44
294.372	88.44
294.603	88.44
294.833	74.44
295.064	98.44
295.295	95.44
295.525	94.44
295.756	91.44
295.987	84.44
296.217	84.44
296.448	83.44
296.679	95.44
296.909	88.44
297.14	72.44
297.37	91.44
297.601	86.44
297.831	95.44
298.062	91.44
298.292	84.44
298.523	90.44
298.753	85.44
298.984	84.44
299.214	74.44
299.445	102.44
299.675	107.44
299.905	85.44
300.136	89.44
300.366	92.44
300.597	99.44
300.827	96.44
301.057	92.44
301.288	102.44
301.518	88.44
301.748	80.44
301.979	102.44
302.209	92.44
302.439	91.44
302.669	87.44
302.9	82.44
303.13	75.44
303.36	86.44
303.59	99.44
303.82	89.44
304.051	81.44
304.281	95.44
304.511	93.44
304.741	83.44
304.971	87.44
305.201	78.44
305.431	86.44
305.661	82.44
305.891	89.44
306.121	90.44
306.352	88.44
306.582	96.44
306.812	81.44
307.042	86.44
307.272	93.44
307.502	104.44
307.731	92.44
307.961	87.44
308.191	100.44
308.421	109.44
308.651	88.44
308.881	94.44
309.111	110.44
309.341	101.44
309.571	105.44
309.8	78.44
310.03	84.44
310.26	98.44
310.49	93.44
310.72	88.44
310.949	99.44
311.179	96.44
311.409	75.44
311.639	83.44
311.868	91.44
312.098	79.44
312.328	72.44
312.557	86.44
312.787	82.44
313.017	92.44
313.246	87.44
313.476	80.44
313.706	91.44
313.935	90.44
314.165	88.44
314.394	89.44
314.624	83.44
314.853	85.44
315.083	94.44
315.312	82.44
315.542	96.44
315.771	106.44
316.001	100.44
316.23	88.44
316.46	89.44
316.689	79.44
316.919	90.44
317.148	90.44
317.377	105.44
317.607	76.44
317.836	89.44
318.065	88.44
318.295	87.44
318.524	98.44
318.753	81.44
318.983	100.44
319.212	91.44
319.441	88.44
319.67	95.44
319.9	91.44
320.129	91.44
320.358	104.44
320.587	86.44
320.816	81.44
321.046	91.44
321.275	87.44
321.504	91.44
321.733	88.44
321.962	102.44
322.191	98.44
322.42	100.44
322.649	108.44
322.878	87.44
323.108	85.44
323.337	97.44
323.566	91.44
323.795	95.44
324.024	98.44
324.253	86.44
324.482	80.44
324.71	94.44
324.939	84.44
325.168	91.44
325.397	84.44
325.626	103.44
325.855	84.44
326.084	86.44
326.313	106.44
326.542	75.44
326.77	93.44
326.999	86.44
327.228	97.44
327.457	104.44
327.686	98.44
327.914	99.44
328.143	100.44
328.372	88.44
328.6	79.44
328.829	100.44
329.058	81.44
329.287	105.44
329.515	99.44
329.744	85.44
329.972	91.44
330.201	88.44
330.43	95.44
330.658	103.44
330.887	87.44
331.115	71.44
331.344	92.44
331.572	101.44
331.801	90.44
332.03	90.44
332.258	88.44
332.486	94.44
332.715	90.44
332.943	80.44
333.172	96.44
333.4	94.44
333.629	90.44
333.857	99.44
334.085	97.44
334.314	101.44
334.542	105.44
334.771	96.44
334.999	99.44
335.227	92.44
335.455	98.44
335.684	95.44
335.912	94.44
336.14	108.44
336.369	106.44
336.597	80.44
336.825	94.44
337.053	105.44
337.281	86.44
337.51	98.44
337.738	83.44
337.966	88.44
338.194	81.44
338.422	94.44
338.65	93.44
338.878	94.44
339.106	88.44
339.334	102.44
339.562	90.44
339.79	84.44
340.018	86.44
340.246	90.44
340.474	85.44
340.702	97.44
340.93	94.44
341.158	93.44
341.386	89.44
341.614	96.44
341.842	86.44
342.07	80.44
342.298	90.44
342.526	103.44
342.754	102.44
342.981	91.44
343.209	90.44
343.437	91.44
343.665	91.44
343.893	83.44
344.12	108.44
344.348	104.44
344.576	98.44
344.804	121.44
345.031	111.44
345.259	102.44
345.487	83.44
345.714	92.44
345.942	87.44
346.17	87.44
346.397	88.44
346.625	90.44
346.853	94.44
347.08	87.44
347.308	89.44
347.535	86.44
347.763	95.44
347.99	94.44
348.218	102.44
348.445	94.44
348.673	98.44
348.9	104.44
349.128	91.44
349.355	96.44
349.583	101.44
349.81	94.44
350.037	87.44
350.265	70.44
350.492	86.44
350.72	78.44
350.947	109.44
351.174	95.44
351.402	99.44
351.629	80.44
351.856	84.44
352.083	78.44
352.311	97.44
352.538	90.44
352.765	89.44
352.992	90.44
353.22	84.44
353.447	89.44
353.674	88.44
353.901	94.44
354.128	93.44
354.355	95.44
354.583	95.44
354.81	91.44
355.037	102.44
355.264	85.44
355.491	92.44
355.718	101.44
355.945	86.44
356.172	91.44
356.399	93.44
356.626	101.44
356.853	105.44
357.08	106.44
357.307	109.44
357.534	93.44
357.761	83.44
357.988	94.44
358.215	95.44
358.441	99.44
358.668	90.44
358.895	102.44
359.122	93.44
359.349	105.44
359.576	96.44
359.802	87.44
360.029	82.44
360.256	84.44
360.483	93.44
360.709	94.44
360.936	111.44
361.163	94.44
361.39	92.44
361.616	106.44
361.843	90.44
362.07	107.44
362.296	118.44
362.523	123.44
362.749	140.44
362.976	143.44
363.203	139.44
363.429	106.44
363.656	115.44
363.882	123.44
364.109	144.44
364.335	151.44
364.562	156.44
364.788	125.44
365.015	117.44
365.241	102.44
365.468	107.44
365.694	87.44
365.92	96.44
366.147	89.44
366.373	92.44
366.599	87.44
366.826	84.44
367.052	97.44
367.278	98.44
367.505	93.44
367.731	92.44
367.957	98.44
368.184	97.44
368.41	95.44
368.636	95.44
368.862	90.44
369.089	86.44
369.315	92.44
369.541	84.44
369.767	84.44
369.993	91.44
370.219	98.44
370.445	84.44
370.672	86.44
370.898	92.44
371.124	99.44
371.35	90.44
371.576	94.44
371.802	96.44
372.028	95.44
372.254	106.44
372.48	100.44
372.706	96.44
372.932	99.44
373.158	96.44
373.384	107.44
373.61	117.44
373.835	109.44
374.061	95.44
374.287	104.44
374.513	103.44
374.739	107.44
374.965	84.44
375.191	103.44
375.416	98.44
375.642	92.44
375.868	117.44
376.094	98.44
376.319	103.44
376.545	99.44
376.771	99.44
376.997	85.44
377.222	75.44
377.448	77.44
377.674	88.44
377.899	89.44
378.125	97.44
378.35	76.44
378.576	87.44
378.802	93.44
379.027	79.44
379.253	91.44
379.478	85.44
379.704	104.44
379.929	89.44
380.155	102.44
380.38	96.44
380.606	98.44
380.831	85.44
381.057	99.44
381.282	94.44
381.507	75.44
381.733	92.44
381.958	97.44
382.184	109.44
382.409	89.44
382.634	93.44
382.86	107.44
383.085	97.44
383.31	103.44
383.535	93.44
383.761	93.44
383.986	111.44
384.211	100.44
384.436	83.44
384.662	107.44
384.887	104.44
385.112	103.44
385.337	90.44
385.562	94.44
385.787	100.44
386.013	104.44
386.238	110.44
386.463	106.44
386.688	99.44
386.913	79.44
387.138	92.44
387.363	97.44
387.588	106.44
387.813	105.44
388.038	118.44
388.263	101.44
388.488	87.44
388.713	92.44
388.938	101.44
389.163	107.44
389.387	98.44
389.612	102.44
389.837	118.44
390.062	99.44
390.287	95.44
390.512	96.44
390.736	92.44
390.961	90.44
391.186	106.44
391.411	99.44
391.636	95.44
391.86	107.44
392.085	110.44
392.31	116.44
392.534	115.44
392.759	134.44
392.984	196.44
393.208	341.44
393.433	462.44
393.658	357.44
393.882	196.44
394.107	142.44
394.331	150.44
394.556	166.44
394.78	135.44
395.005	114.44
395.229	111.44
395.454	102.44
395.678	137.44
395.903	148.44
396.127	194.44
396.352	216.44
396.576	231.44
396.801	340.44
397.025	381.44
397.249	219.44
397.474	132.44
397.698	118.44
397.922	95.44
398.147	101.44
398.371	92.44
398.595	94.44
398.82	85.44
399.044	94.44
399.268	81.44
399.492	83.44
399.717	88.44
399.941	88.44
400.165	100.44
400.389	93.44
400.613	108.44
400.837	94.44
401.062	106.44
401.286	100.44
401.51	115.44
401.734	90.44
401.958	87.44
402.182	87.44
402.406	92.44
402.63	97.44
402.854	106.44
403.078	101.44
403.302	101.44
403.526	96.44
403.75	127.44
403.974	133.44
404.198	188.44
404.422	278.44
404.645	348.44
404.869	287.44
405.093	180.44
405.317	117.44
405.541	102.44
405.765	118.44
405.988	115.44
406.212	103.44
406.436	84.44
406.66	114.44
406.883	99.44
407.107	103.44
407.331	104.44
407.555	119.44
407.778	115.44
408.002	133.44
408.226	90.44
408.449	107.44
408.673	96.44
408.896	107.44
409.12	106.44
409.344	96.44
409.567	98.44
409.791	128.44
410.014	128.44
410.238	115.44
410.461	111.44
410.685	104.44
410.908	101.44
411.132	107.44
411.355	93.44
411.578	102.44
411.802	83.44
412.025	93.44
412.249	92.44
412.472	94.44
412.695	91.44
412.919	88.44
413.142	104.44
413.365	90.44
413.589	99.44
413.812	79.44
414.035	90.44
414.258	92.44
414.482	89.44
414.705	88.44
414.928	101.44
415.151	95.44
415.374	88.44
415.597	91.44
415.821	104.44
416.044	94.44
416.267	95.44
416.49	91.44
416.713	99.44
416.936	114.44
417.159	92.44
417.382	81.44
417.605	83.44
417.828	88.44
418.051	99.44
418.274	99.44
418.497	103.44
418.72	87.44
418.943	99.44
419.166	89.44
419.389	87.44
419.611	92.44
419.834	87.44
420.057	104.44
420.28	104.44
420.503	111.44
420.726	107.44
420.948	94.44
421.171	103.44
421.394	123.44
421.617	147.44
421.839	165.44
422.062	188.44
422.285	263.44
422.507	472.44
422.73	698.44
422.953	596.44
423.175	374.44
423.398	202.44
423.621	154.44
423.843	132.44
424.066	130.44
424.288	112.44
424.511	128.44
424.733	116.44
424.956	115.44
425.178	98.44
425.401	78.44
425.623	106.44
425.846	98.44
426.068	103.44
426.291	100.44
426.513	103.44
426.735	109.44
426.958	99.44
427.18	102.44
427.402	103.44
427.625	104.44
427.847	117.44
428.069	123.44
428.292	196.44
428.514	238.44
428.736	168.44
428.958	222.44
429.181	199.44
429.403	130.44
429.625	120.44
429.847	179.44
430.069	279.44
430.292	335.44
430.514	306.44
430.736	206.44
430.958	214.44
431.18	132.44
431.402	118.44
431.624	128.44
431.846	198.44
432.068	223.44
432.29	134.44
432.512	104.44
432.734	96.44
432.956	94.44
433.178	87.44
433.4	91.44
433.622	92.44
433.844	101.44
434.066	92.44
434.287	83.44
434.509	88.44
434.731	87.44
434.953	87.44
435.175	96.44
435.397	99.44
435.618	86.44
435.84	81.44
436.062	99.44
436.284	92.44
436.505	83.44
436.727	90.44
436.949	89.44
437.17	97.44
437.392	91.44
437.614	83.44
437.835	83.44
438.057	87.44
438.278	99.44
438.5	102.44
438.721	100.44
438.943	101.44
439.165	103.44
439.386	100.44
439.608	103.44
439.829	96.44
440.05	84.44
440.272	93.44
440.493	93.44
440.715	87.44
440.936	81.44
441.158	91.44
441.379	89.44
441.6	95.44
441.822	107.44
442.043	114.44
442.264	145.44
442.486	203.44
442.707	291.44
442.928	202.44
443.149	167.44
443.371	284.44
443.592	464.44
443.813	359.44
444.034	165.44
444.255	119.44
444.476	123.44
444.698	116.44
444.919	145.44
445.14	278.44
445.361	375.44
445.582	582.44
445.803	476.44
446.024	200.44
446.245	130.44
446.466	101.44
446.687	96.44
446.908	102.44
447.129	88.44
447.35	85.44
447.571	106.44
447.792	77.44
448.013	86.44
448.234	98.44
448.455	89.44
448.675	101.44
448.896	109.44
449.117	96.44
449.338	80.44
449.559	93.44
449.779	92.44
450	92.44
450.221	99.44
450.442	91.44
450.662	95.44
450.883	88.44
451.104	89.44
451.324	100.44
451.545	93.44
451.766	98.44
451.986	87.44
452.207	95.44
452.428	97.44
452.648	92.44
452.869	108.44
453.089	108.44
453.31	95.44
453.53	100.44
453.751	93.44
453.971	88.44
454.192	86.44
454.412	79.44
454.633	100.44
454.853	90.44
455.073	91.44
455.294	93.44
455.514	104.44
455.734	86.44
455.955	93.44
456.175	75.44
456.395	103.44
456.616	106.44
456.836	98.44
457.056	86.44
457.276	72.44
457.497	95.44
457.717	107.44
457.937	126.44
458.157	148.44
458.377	135.44
458.598	152.44
458.818	174.44
459.038	116.44
459.258	100.44
459.478	95.44
459.698	86.44
459.918	99.44
460.138	90.44
460.358	98.44
460.578	118.44
460.798	172.44
461.018	159.44
461.238	112.44
461.458	97.44
461.678	79.44
461.898	95.44
462.118	91.44
462.338	96.44
462.558	86.44
462.777	96.44
462.997	114.44
463.217	98.44
463.437	77.44
463.657	94.44
463.876	86.44
464.096	85.44
464.316	77.44
464.536	81.44
464.755	98.44
464.975	100.44
465.195	97.44
465.414	83.44
465.634	78.44
465.854	78.44
466.073	86.44
466.293	81.44
466.512	104.44
466.732	88.44
466.951	92.44
467.171	95.44
467.391	96.44
467.61	89.44
467.829	88.44
468.049	114.44
468.268	92.44
468.488	85.44
468.707	91.44
468.927	102.44
469.146	91.44
469.365	90.44
469.585	94.44
469.804	92.44
470.023	86.44
470.243	94.44
470.462	82.44
470.681	110.44
470.901	81.44
471.12	100.44
471.339	94.44
471.558	80.44
471.777	90.44
471.997	95.44
472.216	92.44
472.435	94.44
472.654	88.44
472.873	96.44
473.092	89.44
473.311	98.44
473.53	99.44
473.749	106.44
473.968	91.44
474.187	103.44
474.406	90.44
474.625	104.44
474.844	106.44
475.063	90.44
475.282	97.44
475.501	99.44
475.72	96.44
475.939	95.44
476.158	97.44
476.377	100.44
476.596	88.44
476.814	85.44
477.033	99.44
477.252	88.44
477.471	100.44
477.69	78.44
477.908	90.44
478.127	95.44
478.346	98.44
478.564	96.44
478.783	93.44
479.002	85.44
479.22	96.44
479.439	96.44
479.658	101.44
479.876	88.44
480.095	95.44
480.313	86.44
480.532	91.44
480.751	105.44
480.969	98.44
481.188	92.44
481.406	100.44
481.624	110.44
481.843	87.44
482.061	92.44
482.28	95.44
482.498	102.44
482.717	91.44
482.935	101.44
483.153	90.44
483.372	99.44
483.59	100.44
483.808	91.44
484.027	86.44
484.245	100.44
484.463	98.44
484.681	91.44
484.9	103.44
485.118	95.44
485.336	109.44
485.554	94.44
485.772	102.44
485.99	115.44
486.209	99.44
486.427	104.44
486.645	103.44
486.863	104.44
487.081	92.44
487.299	111.44
487.517	121.44
487.735	157.44
487.953	211.44
488.171	216.44
488.389	135.44
488.607	102.44
488.825	108.44
489.043	106.44
489.261	116.44
489.479	104.44
489.696	100.44
489.914	107.44
490.132	96.44
490.35	111.44
490.568	95.44
490.786	87.44
491.003	119.44
491.221	94.44
491.439	98.44
491.657	107.44
491.874	102.44
492.092	98.44
492.31	106.44
492.527	98.44
492.745	106.44
492.963	102.44
493.18	103.44
493.398	95.44
493.615	93.44
493.833	91.44
494.05	97.44
494.268	114.44
494.485	111.44
494.703	94.44
494.92	103.44
495.138	104.44
495.355	103.44
495.573	99.44
495.79	103.44
496.008	98.44
496.225	119.44
496.442	102.44
496.66	102.44
496.877	109.44
497.094	106.44
497.312	105.44
497.529	87.44
497.746	98.44
497.963	100.44
498.181	99.44
498.398	124.44
498.615	88.44
498.832	93.44
499.049	101.44
499.267	110.44
499.484	107.44
499.701	97.44
499.918	98.44
500.135	107.44
500.352	92.44
500.569	99.44
500.786	94.44
501.003	90.44
501.22	106.44
501.437	92.44
501.654	103.44
501.871	101.44
502.088	103.44
502.305	111.44
502.522	94.44
502.739	108.44
502.956	98.44
503.172	106.44
503.389	91.44
503.606	102.44
503.823	100.44
504.04	109.44
504.256	150.44
504.473	188.44
504.69	118.44
504.907	97.44
505.123	94.44
505.34	106.44
505.557	87.44
505.773	100.44
505.99	110.44
506.207	100.44
506.423	91.44
506.64	101.44
506.856	101.44
507.073	107.44
507.289	88.44
507.506	100.44
507.722	101.44
507.939	93.44
508.155	95.44
508.372	108.44
508.588	115.44
508.805	110.44
509.021	93.44
509.238	92.44
509.454	109.44
509.67	103.44
509.887	110.44
510.103	107.44
510.319	100.44
510.536	110.44
510.752	110.44
510.968	104.44
511.184	99.44
511.401	117.44
511.617	101.44
511.833	102.44
512.049	104.44
512.265	101.44
512.481	104.44
512.698	103.44
512.914	91.44
513.13	103.44
513.346	109.44
513.562	100.44
513.778	115.44
513.994	93.44
514.21	98.44
514.426	94.44
514.642	99.44
