Data from 2145_3_HRD10591_00032.txt Node
Date: Mon Jan 19 14:23:23 EST 2026
User: Yrep
Spectrometer: HR+D1059
Trigger mode: 1
Integration Time (sec): 1.000000E-1
Scans to average: 1
Electric dark correction enabled: true
Nonlinearity correction enabled: false
Boxcar width: 0
XAxis mode: Wavelengths
Number of Pixels in Spectrum: 2048
>>>>>Begin Spectral Data<<<<<
223.165	-8.56
223.4	-8.56
223.635	-8.56
223.869	-18.56
224.104	-26.56
224.338	-21.56
224.573	-16.56
224.808	-13.56
225.042	-4.56
225.277	-3.56
225.511	2.44
225.746	1.44
225.98	19.44
226.215	1.44
226.449	20.44
226.683	19.44
226.918	14.44
227.152	34.44
227.387	26.44
227.621	32.44
227.856	48.44
228.09	41.44
228.324	42.44
228.559	51.44
228.793	59.44
229.027	66.44
229.262	57.44
229.496	67.44
229.73	65.44
229.964	71.44
230.199	77.44
230.433	75.44
230.667	85.44
230.901	68.44
231.136	67.44
231.37	60.44
231.604	82.44
231.838	73.44
232.072	77.44
232.306	89.44
232.541	77.44
232.775	81.44
233.009	79.44
233.243	83.44
233.477	83.44
233.711	83.44
233.945	90.44
234.179	75.44
234.413	93.44
234.647	92.44
234.881	84.44
235.115	77.44
235.349	73.44
235.583	77.44
235.817	68.44
236.051	81.44
236.285	75.44
236.519	86.44
236.753	76.44
236.987	83.44
237.221	67.44
237.455	74.44
237.689	86.44
237.922	95.44
238.156	78.44
238.39	79.44
238.624	78.44
238.858	71.44
239.091	76.44
239.325	78.44
239.559	83.44
239.793	61.44
240.027	85.44
240.26	88.44
240.494	74.44
240.728	82.44
240.961	67.44
241.195	71.44
241.429	69.44
241.662	74.44
241.896	67.44
242.13	83.44
242.363	89.44
242.597	67.44
242.83	88.44
243.064	74.44
243.298	95.44
243.531	63.44
243.765	85.44
243.998	62.44
244.232	75.44
244.465	69.44
244.699	95.44
244.932	78.44
245.166	83.44
245.399	92.44
245.633	84.44
245.866	76.44
246.099	68.44
246.333	76.44
246.566	78.44
246.8	70.44
247.033	71.44
247.266	72.44
247.5	71.44
247.733	77.44
247.966	85.44
248.2	78.44
248.433	73.44
248.666	83.44
248.899	69.44
249.133	79.44
249.366	87.44
249.599	81.44
249.832	89.44
250.066	76.44
250.299	79.44
250.532	83.44
250.765	77.44
250.998	68.44
251.231	81.44
251.465	67.44
251.698	58.44
251.931	73.44
252.164	89.44
252.397	85.44
252.63	87.44
252.863	85.44
253.096	76.44
253.329	82.44
253.562	91.44
253.795	85.44
254.028	92.44
254.261	75.44
254.494	81.44
254.727	88.44
254.96	87.44
255.193	67.44
255.426	70.44
255.659	81.44
255.892	83.44
256.124	86.44
256.357	82.44
256.59	104.44
256.823	68.44
257.056	77.44
257.289	66.44
257.521	80.44
257.754	78.44
257.987	85.44
258.22	82.44
258.452	76.44
258.685	91.44
258.918	67.44
259.151	88.44
259.383	84.44
259.616	77.44
259.849	91.44
260.081	85.44
260.314	61.44
260.547	67.44
260.779	79.44
261.012	77.44
261.244	83.44
261.477	88.44
261.71	85.44
261.942	81.44
262.175	84.44
262.407	81.44
262.64	81.44
262.872	97.44
263.105	72.44
263.337	89.44
263.57	87.44
263.802	73.44
264.035	99.44
264.267	72.44
264.499	65.44
264.732	81.44
264.964	79.44
265.197	73.44
265.429	84.44
265.661	90.44
265.894	92.44
266.126	93.44
266.358	99.44
266.591	85.44
266.823	80.44
267.055	96.44
267.287	80.44
267.52	85.44
267.752	87.44
267.984	84.44
268.216	81.44
268.448	87.44
268.681	88.44
268.913	104.44
269.145	75.44
269.377	77.44
269.609	85.44
269.841	76.44
270.073	86.44
270.306	81.44
270.538	90.44
270.77	80.44
271.002	71.44
271.234	88.44
271.466	70.44
271.698	89.44
271.93	84.44
272.162	80.44
272.394	76.44
272.626	94.44
272.858	87.44
273.09	77.44
273.322	78.44
273.553	74.44
273.785	88.44
274.017	77.44
274.249	87.44
274.481	86.44
274.713	92.44
274.945	95.44
275.176	85.44
275.408	78.44
275.64	90.44
275.872	76.44
276.104	76.44
276.335	83.44
276.567	103.44
276.799	83.44
277.031	81.44
277.262	93.44
277.494	71.44
277.726	89.44
277.957	90.44
278.189	85.44
278.421	87.44
278.652	85.44
278.884	84.44
279.115	73.44
279.347	87.44
279.579	84.44
279.81	85.44
280.042	81.44
280.273	71.44
280.505	71.44
280.736	97.44
280.968	76.44
281.199	87.44
281.431	85.44
281.662	88.44
281.894	88.44
282.125	68.44
282.356	81.44
282.588	80.44
282.819	99.44
283.051	72.44
283.282	73.44
283.513	90.44
283.745	84.44
283.976	93.44
284.207	77.44
284.439	83.44
284.67	77.44
284.901	83.44
285.132	91.44
285.364	87.44
285.595	92.44
285.826	100.44
286.057	86.44
286.288	91.44
286.52	77.44
286.751	91.44
286.982	77.44
287.213	69.44
287.444	88.44
287.675	86.44
287.906	88.44
288.138	92.44
288.369	87.44
288.6	86.44
288.831	85.44
289.062	90.44
289.293	68.44
289.524	85.44
289.755	81.44
289.986	88.44
290.217	91.44
290.448	81.44
290.679	69.44
290.91	81.44
291.141	87.44
291.371	78.44
291.602	76.44
291.833	96.44
292.064	94.44
292.295	85.44
292.526	94.44
292.757	77.44
292.987	81.44
293.218	86.44
293.449	67.44
293.68	88.44
293.91	72.44
294.141	102.44
294.372	89.44
294.603	97.44
294.833	107.44
295.064	84.44
295.295	90.44
295.525	90.44
295.756	76.44
295.987	93.44
296.217	94.44
296.448	101.44
296.679	86.44
296.909	98.44
297.14	91.44
297.37	85.44
297.601	91.44
297.831	95.44
298.062	84.44
298.292	97.44
298.523	83.44
298.753	86.44
298.984	79.44
299.214	90.44
299.445	94.44
299.675	105.44
299.905	103.44
300.136	92.44
300.366	87.44
300.597	93.44
300.827	83.44
301.057	87.44
301.288	95.44
301.518	92.44
301.748	78.44
301.979	103.44
302.209	91.44
302.439	68.44
302.669	83.44
302.9	81.44
303.13	84.44
303.36	98.44
303.59	92.44
303.82	77.44
304.051	94.44
304.281	88.44
304.511	89.44
304.741	80.44
304.971	83.44
305.201	87.44
305.431	96.44
305.661	93.44
305.891	76.44
306.121	81.44
306.352	77.44
306.582	87.44
306.812	95.44
307.042	93.44
307.272	91.44
307.502	108.44
307.731	76.44
307.961	96.44
308.191	93.44
308.421	104.44
308.651	88.44
308.881	84.44
309.111	97.44
309.341	101.44
309.571	101.44
309.8	93.44
310.03	88.44
310.26	79.44
310.49	92.44
310.72	93.44
310.949	76.44
311.179	74.44
311.409	82.44
311.639	83.44
311.868	85.44
312.098	92.44
312.328	89.44
312.557	91.44
312.787	83.44
313.017	75.44
313.246	67.44
313.476	98.44
313.706	75.44
313.935	77.44
314.165	101.44
314.394	81.44
314.624	83.44
314.853	93.44
315.083	86.44
315.312	83.44
315.542	86.44
315.771	70.44
316.001	97.44
316.23	95.44
316.46	88.44
316.689	92.44
316.919	84.44
317.148	82.44
317.377	87.44
317.607	82.44
317.836	101.44
318.065	95.44
318.295	100.44
318.524	91.44
318.753	87.44
318.983	80.44
319.212	92.44
319.441	84.44
319.67	74.44
319.9	88.44
320.129	71.44
320.358	90.44
320.587	94.44
320.816	77.44
321.046	95.44
321.275	81.44
321.504	87.44
321.733	94.44
321.962	87.44
322.191	94.44
322.42	83.44
322.649	81.44
322.878	80.44
323.108	76.44
323.337	75.44
323.566	103.44
323.795	88.44
324.024	81.44
324.253	86.44
324.482	86.44
324.71	83.44
324.939	81.44
325.168	97.44
325.397	90.44
325.626	99.44
325.855	89.44
326.084	100.44
326.313	86.44
326.542	89.44
326.77	77.44
326.999	101.44
327.228	95.44
327.457	91.44
327.686	84.44
327.914	103.44
328.143	85.44
328.372	95.44
328.6	81.44
328.829	95.44
329.058	81.44
329.287	68.44
329.515	91.44
329.744	90.44
329.972	95.44
330.201	99.44
330.43	72.44
330.658	77.44
330.887	76.44
331.115	79.44
331.344	99.44
331.572	75.44
331.801	77.44
332.03	85.44
332.258	75.44
332.486	65.44
332.715	67.44
332.943	81.44
333.172	93.44
333.4	83.44
333.629	84.44
333.857	84.44
334.085	101.44
334.314	101.44
334.542	87.44
334.771	95.44
334.999	86.44
335.227	85.44
335.455	84.44
335.684	81.44
335.912	93.44
336.14	100.44
336.369	78.44
336.597	70.44
336.825	73.44
337.053	95.44
337.281	86.44
337.51	95.44
337.738	87.44
337.966	97.44
338.194	83.44
338.422	87.44
338.65	90.44
338.878	85.44
339.106	75.44
339.334	93.44
339.562	103.44
339.79	93.44
340.018	97.44
340.246	93.44
340.474	81.44
340.702	97.44
340.93	101.44
341.158	87.44
341.386	80.44
341.614	75.44
341.842	81.44
342.07	97.44
342.298	92.44
342.526	90.44
342.754	101.44
342.981	89.44
343.209	99.44
343.437	97.44
343.665	97.44
343.893	88.44
344.12	104.44
344.348	96.44
344.576	102.44
344.804	102.44
345.031	109.44
345.259	101.44
345.487	94.44
345.714	85.44
345.942	103.44
346.17	93.44
346.397	73.44
346.625	84.44
346.853	91.44
347.08	81.44
347.308	77.44
347.535	88.44
347.763	69.44
347.99	87.44
348.218	75.44
348.445	90.44
348.673	75.44
348.9	94.44
349.128	94.44
349.355	93.44
349.583	83.44
349.81	75.44
350.037	87.44
350.265	90.44
350.492	90.44
350.72	95.44
350.947	98.44
351.174	86.44
351.402	82.44
351.629	84.44
351.856	92.44
352.083	73.44
352.311	71.44
352.538	82.44
352.765	87.44
352.992	108.44
353.22	81.44
353.447	85.44
353.674	84.44
353.901	78.44
354.128	68.44
354.355	105.44
354.583	76.44
354.81	101.44
355.037	98.44
355.264	97.44
355.491	97.44
355.718	95.44
355.945	77.44
356.172	92.44
356.399	95.44
356.626	104.44
356.853	103.44
357.08	103.44
357.307	98.44
357.534	88.44
357.761	105.44
357.988	107.44
358.215	92.44
358.441	90.44
358.668	95.44
358.895	89.44
359.122	98.44
359.349	88.44
359.576	87.44
359.802	88.44
360.029	94.44
360.256	82.44
360.483	89.44
360.709	94.44
360.936	97.44
361.163	87.44
361.39	93.44
361.616	107.44
361.843	96.44
362.07	96.44
362.296	108.44
362.523	112.44
362.749	118.44
362.976	121.44
363.203	139.44
363.429	119.44
363.656	119.44
363.882	110.44
364.109	107.44
364.335	149.44
364.562	157.44
364.788	117.44
365.015	103.44
365.241	106.44
365.468	99.44
365.694	89.44
365.92	75.44
366.147	87.44
366.373	79.44
366.599	97.44
366.826	85.44
367.052	102.44
367.278	95.44
367.505	85.44
367.731	81.44
367.957	85.44
368.184	82.44
368.41	82.44
368.636	93.44
368.862	80.44
369.089	97.44
369.315	99.44
369.541	87.44
369.767	87.44
369.993	92.44
370.219	88.44
370.445	100.44
370.672	106.44
370.898	108.44
371.124	84.44
371.35	79.44
371.576	95.44
371.802	100.44
372.028	93.44
372.254	93.44
372.48	95.44
372.706	95.44
372.932	91.44
373.158	98.44
373.384	108.44
373.61	103.44
373.835	107.44
374.061	88.44
374.287	100.44
374.513	87.44
374.739	95.44
374.965	99.44
375.191	100.44
375.416	95.44
375.642	95.44
375.868	103.44
376.094	109.44
376.319	82.44
376.545	89.44
376.771	88.44
376.997	82.44
377.222	77.44
377.448	73.44
377.674	88.44
377.899	98.44
378.125	93.44
378.35	96.44
378.576	93.44
378.802	67.44
379.027	88.44
379.253	91.44
379.478	79.44
379.704	65.44
379.929	100.44
380.155	73.44
380.38	89.44
380.606	85.44
380.831	98.44
381.057	81.44
381.282	88.44
381.507	91.44
381.733	90.44
381.958	99.44
382.184	107.44
382.409	105.44
382.634	91.44
382.86	104.44
383.085	89.44
383.31	109.44
383.535	100.44
383.761	100.44
383.986	91.44
384.211	95.44
384.436	88.44
384.662	86.44
384.887	91.44
385.112	108.44
385.337	93.44
385.562	89.44
385.787	94.44
386.013	119.44
386.238	105.44
386.463	87.44
386.688	105.44
386.913	86.44
387.138	85.44
387.363	89.44
387.588	95.44
387.813	102.44
388.038	115.44
388.263	111.44
388.488	95.44
388.713	88.44
388.938	90.44
389.163	91.44
389.387	88.44
389.612	89.44
389.837	106.44
390.062	109.44
390.287	95.44
390.512	83.44
390.736	92.44
390.961	98.44
391.186	101.44
391.411	91.44
391.636	108.44
391.86	95.44
392.085	95.44
392.31	110.44
392.534	104.44
392.759	141.44
392.984	197.44
393.208	360.44
393.433	509.44
393.658	365.44
393.882	180.44
394.107	138.44
394.331	139.44
394.556	161.44
394.78	134.44
395.005	104.44
395.229	100.44
395.454	96.44
395.678	117.44
395.903	153.44
396.127	182.44
396.352	209.44
396.576	247.44
396.801	341.44
397.025	372.44
397.249	205.44
397.474	152.44
397.698	119.44
397.922	102.44
398.147	94.44
398.371	98.44
398.595	86.44
398.82	97.44
399.044	93.44
399.268	94.44
399.492	80.44
399.717	70.44
399.941	89.44
400.165	89.44
400.389	82.44
400.613	95.44
400.837	92.44
401.062	89.44
401.286	91.44
401.51	89.44
401.734	81.44
401.958	94.44
402.182	77.44
402.406	95.44
402.63	88.44
402.854	90.44
403.078	99.44
403.302	104.44
403.526	93.44
403.75	91.44
403.974	119.44
404.198	164.44
404.422	285.44
404.645	329.44
404.869	266.44
405.093	164.44
405.317	100.44
405.541	88.44
405.765	90.44
405.988	97.44
406.212	88.44
406.436	87.44
406.66	84.44
406.883	106.44
407.107	84.44
407.331	93.44
407.555	111.44
407.778	127.44
408.002	115.44
408.226	105.44
408.449	87.44
408.673	92.44
408.896	101.44
409.12	79.44
409.344	90.44
409.567	92.44
409.791	102.44
410.014	99.44
410.238	96.44
410.461	91.44
410.685	103.44
410.908	90.44
411.132	98.44
411.355	79.44
411.578	87.44
411.802	89.44
412.025	93.44
412.249	100.44
412.472	92.44
412.695	79.44
412.919	87.44
413.142	87.44
413.365	84.44
413.589	104.44
413.812	83.44
414.035	79.44
414.258	90.44
414.482	83.44
414.705	108.44
414.928	98.44
415.151	87.44
415.374	89.44
415.597	75.44
415.821	90.44
416.044	89.44
416.267	82.44
416.49	83.44
416.713	88.44
416.936	74.44
417.159	97.44
417.382	95.44
417.605	79.44
417.828	91.44
418.051	98.44
418.274	89.44
418.497	101.44
418.72	91.44
418.943	84.44
419.166	86.44
419.389	93.44
419.611	87.44
419.834	87.44
420.057	104.44
420.28	83.44
420.503	104.44
420.726	113.44
420.948	99.44
421.171	115.44
421.394	123.44
421.617	141.44
421.839	145.44
422.062	179.44
422.285	265.44
422.507	498.44
422.73	756.44
422.953	634.44
423.175	343.44
423.398	172.44
423.621	143.44
423.843	111.44
424.066	106.44
424.288	104.44
424.511	97.44
424.733	97.44
424.956	99.44
425.178	107.44
425.401	93.44
425.623	99.44
425.846	91.44
426.068	81.44
426.291	97.44
426.513	100.44
426.735	93.44
426.958	104.44
427.18	92.44
427.402	91.44
427.625	97.44
427.847	95.44
428.069	117.44
428.292	186.44
428.514	216.44
428.736	152.44
428.958	196.44
429.181	193.44
429.403	107.44
429.625	130.44
429.847	189.44
430.069	277.44
430.292	324.44
430.514	292.44
430.736	207.44
430.958	222.44
431.18	134.44
431.402	109.44
431.624	135.44
431.846	172.44
432.068	225.44
432.29	121.44
432.512	90.44
432.734	99.44
432.956	95.44
433.178	90.44
433.4	85.44
433.622	91.44
433.844	93.44
434.066	98.44
434.287	88.44
434.509	95.44
434.731	89.44
434.953	104.44
435.175	86.44
435.397	93.44
435.618	91.44
435.84	97.44
436.062	78.44
436.284	82.44
436.505	84.44
436.727	91.44
436.949	90.44
437.17	92.44
437.392	90.44
437.614	88.44
437.835	83.44
438.057	83.44
438.278	89.44
438.5	83.44
438.721	79.44
438.943	97.44
439.165	85.44
439.386	82.44
439.608	82.44
439.829	94.44
440.05	92.44
440.272	82.44
440.493	107.44
440.715	75.44
440.936	84.44
441.158	92.44
441.379	99.44
441.6	68.44
441.822	95.44
442.043	96.44
442.264	120.44
442.486	200.44
442.707	265.44
442.928	179.44
443.149	164.44
443.371	258.44
443.592	450.44
443.813	371.44
444.034	161.44
444.255	126.44
444.476	102.44
444.698	116.44
444.919	129.44
445.14	232.44
445.361	374.44
445.582	606.44
445.803	472.44
446.024	189.44
446.245	115.44
446.466	115.44
446.687	102.44
446.908	100.44
447.129	86.44
447.35	90.44
447.571	91.44
447.792	90.44
448.013	75.44
448.234	91.44
448.455	87.44
448.675	87.44
448.896	90.44
449.117	96.44
449.338	89.44
449.559	109.44
449.779	85.44
450	80.44
450.221	92.44
450.442	96.44
450.662	95.44
450.883	84.44
451.104	86.44
451.324	79.44
451.545	96.44
451.766	83.44
451.986	83.44
452.207	88.44
452.428	93.44
452.648	108.44
452.869	107.44
453.089	111.44
453.31	103.44
453.53	104.44
453.751	108.44
453.971	93.44
454.192	73.44
454.412	79.44
454.633	85.44
454.853	93.44
455.073	86.44
455.294	99.44
455.514	101.44
455.734	99.44
455.955	92.44
456.175	83.44
456.395	102.44
456.616	90.44
456.836	76.44
457.056	87.44
457.276	89.44
457.497	128.44
457.717	109.44
457.937	110.44
458.157	129.44
458.377	144.44
458.598	149.44
458.818	165.44
459.038	120.44
459.258	101.44
459.478	97.44
459.698	94.44
459.918	73.44
460.138	91.44
460.358	95.44
460.578	123.44
460.798	175.44
461.018	162.44
461.238	115.44
461.458	91.44
461.678	73.44
461.898	85.44
462.118	95.44
462.338	97.44
462.558	93.44
462.777	81.44
462.997	112.44
463.217	83.44
463.437	91.44
463.657	103.44
463.876	103.44
464.096	91.44
464.316	77.44
464.536	84.44
464.755	87.44
464.975	85.44
465.195	90.44
465.414	78.44
465.634	88.44
465.854	82.44
466.073	75.44
466.293	95.44
466.512	76.44
466.732	89.44
466.951	78.44
467.171	83.44
467.391	83.44
467.61	84.44
467.829	91.44
468.049	82.44
468.268	76.44
468.488	95.44
468.707	89.44
468.927	73.44
469.146	94.44
469.365	88.44
469.585	77.44
469.804	96.44
470.023	92.44
470.243	93.44
470.462	82.44
470.681	88.44
470.901	88.44
471.12	90.44
471.339	83.44
471.558	98.44
471.777	93.44
471.997	83.44
472.216	85.44
472.435	92.44
472.654	81.44
472.873	92.44
473.092	74.44
473.311	78.44
473.53	90.44
473.749	93.44
473.968	79.44
474.187	83.44
474.406	80.44
474.625	85.44
474.844	95.44
475.063	86.44
475.282	89.44
475.501	100.44
475.72	101.44
475.939	85.44
476.158	86.44
476.377	84.44
476.596	79.44
476.814	83.44
477.033	97.44
477.252	89.44
477.471	92.44
477.69	79.44
477.908	89.44
478.127	100.44
478.346	86.44
478.564	91.44
478.783	87.44
479.002	104.44
479.22	91.44
479.439	85.44
479.658	94.44
479.876	88.44
480.095	87.44
480.313	105.44
480.532	85.44
480.751	92.44
480.969	95.44
481.188	98.44
481.406	97.44
481.624	90.44
481.843	87.44
482.061	88.44
482.28	89.44
482.498	96.44
482.717	84.44
482.935	98.44
483.153	84.44
483.372	120.44
483.59	91.44
483.808	103.44
484.027	90.44
484.245	84.44
484.463	105.44
484.681	98.44
484.9	90.44
485.118	95.44
485.336	96.44
485.554	92.44
485.772	80.44
485.99	99.44
486.209	98.44
486.427	85.44
486.645	96.44
486.863	93.44
487.081	108.44
487.299	104.44
487.517	89.44
487.735	136.44
487.953	199.44
488.171	187.44
488.389	126.44
488.607	108.44
488.825	105.44
489.043	91.44
489.261	85.44
489.479	99.44
489.696	91.44
489.914	93.44
490.132	91.44
490.35	101.44
490.568	88.44
490.786	85.44
491.003	86.44
491.221	91.44
491.439	106.44
491.657	90.44
491.874	95.44
492.092	97.44
492.31	93.44
492.527	92.44
492.745	83.44
492.963	90.44
493.18	97.44
493.398	107.44
493.615	88.44
493.833	86.44
494.05	106.44
494.268	91.44
494.485	101.44
494.703	103.44
494.92	85.44
495.138	89.44
495.355	97.44
495.573	70.44
495.79	92.44
496.008	101.44
496.225	95.44
496.442	98.44
496.66	99.44
496.877	80.44
497.094	109.44
497.312	85.44
497.529	105.44
497.746	96.44
497.963	91.44
498.181	98.44
498.398	101.44
498.615	103.44
498.832	91.44
499.049	97.44
499.267	99.44
499.484	100.44
499.701	100.44
499.918	105.44
500.135	101.44
500.352	102.44
500.569	117.44
500.786	95.44
501.003	93.44
501.22	82.44
501.437	96.44
501.654	108.44
501.871	109.44
502.088	86.44
502.305	89.44
502.522	84.44
502.739	105.44
502.956	90.44
503.172	92.44
503.389	92.44
503.606	103.44
503.823	99.44
504.04	121.44
504.256	143.44
504.473	163.44
504.69	100.44
504.907	115.44
505.123	103.44
505.34	84.44
505.557	111.44
505.773	92.44
505.99	100.44
506.207	87.44
506.423	85.44
506.64	103.44
506.856	98.44
507.073	87.44
507.289	83.44
507.506	94.44
507.722	87.44
507.939	95.44
508.155	102.44
508.372	91.44
508.588	101.44
508.805	90.44
509.021	79.44
509.238	90.44
509.454	111.44
509.67	84.44
509.887	95.44
510.103	104.44
510.319	87.44
510.536	100.44
510.752	90.44
510.968	93.44
511.184	89.44
511.401	107.44
511.617	109.44
511.833	101.44
512.049	92.44
512.265	102.44
512.481	83.44
512.698	88.44
512.914	76.44
513.13	105.44
513.346	95.44
513.562	106.44
513.778	91.44
513.994	99.44
514.21	83.44
514.426	98.44
514.642	94.44
514.858	87.44
515.074	92.44
515.29	88.44
515.506	78.44
515.721	88.44
515.937	91.44
516.153	83.44
516.369	85.44
