Data from 2145_3_HRD10591_00004.txt Node
Date: Mon Jan 19 14:23:12 EST 2026
User: Yrep
Spectrometer: HR+D1059
Trigger mode: 1
Integration Time (sec): 1.000000E-1
Scans to average: 1
Electric dark correction enabled: true
Nonlinearity correction enabled: false
Boxcar width: 0
XAxis mode: Wavelengths
Number of Pixels in Spectrum: 2048
>>>>>Begin Spectral Data<<<<<
223.165	-10.31
223.4	-10.31
223.635	-10.31
223.869	-17.31
224.104	-16.31
224.338	-18.31
224.573	-14.31
224.808	-22.31
225.042	-7.31
225.277	-21.31
225.511	-11.31
225.746	0.69
225.98	1.69
226.215	6.69
226.449	21.69
226.683	36.69
226.918	33.69
227.152	37.69
227.387	43.69
227.621	31.69
227.856	39.69
228.09	46.69
228.324	37.69
228.559	64.69
228.793	55.69
229.027	58.69
229.262	68.69
229.496	66.69
229.73	65.69
229.964	71.69
230.199	68.69
230.433	67.69
230.667	71.69
230.901	83.69
231.136	78.69
231.37	82.69
231.604	67.69
231.838	83.69
232.072	99.69
232.306	88.69
232.541	83.69
232.775	76.69
233.009	69.69
233.243	73.69
233.477	83.69
233.711	90.69
233.945	77.69
234.179	76.69
234.413	102.69
234.647	79.69
234.881	85.69
235.115	88.69
235.349	74.69
235.583	73.69
235.817	89.69
236.051	66.69
236.285	93.69
236.519	79.69
236.753	86.69
236.987	95.69
237.221	84.69
237.455	80.69
237.689	79.69
237.922	65.69
238.156	76.69
238.39	74.69
238.624	63.69
238.858	91.69
239.091	70.69
239.325	81.69
239.559	74.69
239.793	64.69
240.027	75.69
240.26	69.69
240.494	75.69
240.728	74.69
240.961	73.69
241.195	90.69
241.429	76.69
241.662	71.69
241.896	64.69
242.13	61.69
242.363	67.69
242.597	77.69
242.83	71.69
243.064	79.69
243.298	78.69
243.531	75.69
243.765	73.69
243.998	76.69
244.232	75.69
244.465	85.69
244.699	65.69
244.932	75.69
245.166	75.69
245.399	82.69
245.633	78.69
245.866	80.69
246.099	83.69
246.333	71.69
246.566	83.69
246.8	85.69
247.033	73.69
247.266	73.69
247.5	76.69
247.733	84.69
247.966	74.69
248.2	75.69
248.433	84.69
248.666	77.69
248.899	84.69
249.133	89.69
249.366	81.69
249.599	83.69
249.832	70.69
250.066	84.69
250.299	87.69
250.532	93.69
250.765	79.69
250.998	68.69
251.231	76.69
251.465	72.69
251.698	76.69
251.931	93.69
252.164	82.69
252.397	81.69
252.63	72.69
252.863	85.69
253.096	77.69
253.329	75.69
253.562	74.69
253.795	75.69
254.028	86.69
254.261	91.69
254.494	84.69
254.727	76.69
254.96	75.69
255.193	85.69
255.426	79.69
255.659	89.69
255.892	79.69
256.124	71.69
256.357	78.69
256.59	73.69
256.823	65.69
257.056	73.69
257.289	80.69
257.521	93.69
257.754	66.69
257.987	88.69
258.22	83.69
258.452	83.69
258.685	82.69
258.918	77.69
259.151	86.69
259.383	75.69
259.616	79.69
259.849	66.69
260.081	71.69
260.314	79.69
260.547	69.69
260.779	84.69
261.012	73.69
261.244	83.69
261.477	79.69
261.71	98.69
261.942	97.69
262.175	94.69
262.407	94.69
262.64	90.69
262.872	99.69
263.105	84.69
263.337	79.69
263.57	62.69
263.802	79.69
264.035	94.69
264.267	80.69
264.499	89.69
264.732	100.69
264.964	81.69
265.197	79.69
265.429	60.69
265.661	82.69
265.894	79.69
266.126	91.69
266.358	83.69
266.591	80.69
266.823	86.69
267.055	83.69
267.287	92.69
267.52	93.69
267.752	74.69
267.984	67.69
268.216	87.69
268.448	77.69
268.681	98.69
268.913	90.69
269.145	94.69
269.377	91.69
269.609	88.69
269.841	89.69
270.073	77.69
270.306	79.69
270.538	73.69
270.77	83.69
271.002	82.69
271.234	82.69
271.466	99.69
271.698	89.69
271.93	91.69
272.162	85.69
272.394	83.69
272.626	81.69
272.858	71.69
273.09	75.69
273.322	79.69
273.553	70.69
273.785	78.69
274.017	86.69
274.249	92.69
274.481	90.69
274.713	75.69
274.945	85.69
275.176	87.69
275.408	85.69
275.64	76.69
275.872	86.69
276.104	91.69
276.335	81.69
276.567	80.69
276.799	85.69
277.031	80.69
277.262	95.69
277.494	71.69
277.726	86.69
277.957	84.69
278.189	80.69
278.421	96.69
278.652	80.69
278.884	83.69
279.115	98.69
279.347	88.69
279.579	86.69
279.81	89.69
280.042	80.69
280.273	70.69
280.505	91.69
280.736	91.69
280.968	86.69
281.199	88.69
281.431	93.69
281.662	78.69
281.894	97.69
282.125	93.69
282.356	95.69
282.588	83.69
282.819	87.69
283.051	67.69
283.282	106.69
283.513	74.69
283.745	66.69
283.976	92.69
284.207	87.69
284.439	91.69
284.67	87.69
284.901	92.69
285.132	75.69
285.364	89.69
285.595	98.69
285.826	87.69
286.057	85.69
286.288	77.69
286.52	79.69
286.751	95.69
286.982	73.69
287.213	65.69
287.444	87.69
287.675	79.69
287.906	77.69
288.138	96.69
288.369	93.69
288.6	91.69
288.831	85.69
289.062	87.69
289.293	85.69
289.524	85.69
289.755	73.69
289.986	88.69
290.217	88.69
290.448	86.69
290.679	97.69
290.91	86.69
291.141	92.69
291.371	89.69
291.602	100.69
291.833	73.69
292.064	93.69
292.295	95.69
292.526	83.69
292.757	100.69
292.987	96.69
293.218	93.69
293.449	79.69
293.68	86.69
293.91	72.69
294.141	86.69
294.372	90.69
294.603	83.69
294.833	77.69
295.064	97.69
295.295	91.69
295.525	92.69
295.756	79.69
295.987	85.69
296.217	83.69
296.448	82.69
296.679	84.69
296.909	89.69
297.14	92.69
297.37	92.69
297.601	83.69
297.831	82.69
298.062	77.69
298.292	97.69
298.523	84.69
298.753	88.69
298.984	83.69
299.214	91.69
299.445	86.69
299.675	95.69
299.905	75.69
300.136	94.69
300.366	95.69
300.597	104.69
300.827	94.69
301.057	89.69
301.288	85.69
301.518	90.69
301.748	81.69
301.979	93.69
302.209	95.69
302.439	88.69
302.669	85.69
302.9	97.69
303.13	78.69
303.36	77.69
303.59	91.69
303.82	91.69
304.051	95.69
304.281	89.69
304.511	99.69
304.741	99.69
304.971	78.69
305.201	91.69
305.431	91.69
305.661	83.69
305.891	92.69
306.121	88.69
306.352	98.69
306.582	82.69
306.812	86.69
307.042	86.69
307.272	70.69
307.502	81.69
307.731	89.69
307.961	101.69
308.191	108.69
308.421	113.69
308.651	90.69
308.881	95.69
309.111	106.69
309.341	111.69
309.571	119.69
309.8	86.69
310.03	83.69
310.26	90.69
310.49	86.69
310.72	77.69
310.949	83.69
311.179	92.69
311.409	105.69
311.639	97.69
311.868	95.69
312.098	90.69
312.328	90.69
312.557	103.69
312.787	88.69
313.017	94.69
313.246	90.69
313.476	77.69
313.706	99.69
313.935	93.69
314.165	89.69
314.394	89.69
314.624	77.69
314.853	86.69
315.083	86.69
315.312	102.69
315.542	106.69
315.771	98.69
316.001	102.69
316.23	107.69
316.46	98.69
316.689	89.69
316.919	82.69
317.148	88.69
317.377	97.69
317.607	92.69
317.836	98.69
318.065	97.69
318.295	95.69
318.524	93.69
318.753	92.69
318.983	114.69
319.212	94.69
319.441	91.69
319.67	94.69
319.9	81.69
320.129	92.69
320.358	101.69
320.587	85.69
320.816	92.69
321.046	95.69
321.275	97.69
321.504	83.69
321.733	92.69
321.962	101.69
322.191	94.69
322.42	106.69
322.649	88.69
322.878	96.69
323.108	100.69
323.337	95.69
323.566	75.69
323.795	87.69
324.024	93.69
324.253	86.69
324.482	89.69
324.71	91.69
324.939	100.69
325.168	92.69
325.397	85.69
325.626	93.69
325.855	78.69
326.084	78.69
326.313	100.69
326.542	85.69
326.77	87.69
326.999	89.69
327.228	85.69
327.457	94.69
327.686	91.69
327.914	89.69
328.143	104.69
328.372	95.69
328.6	107.69
328.829	92.69
329.058	95.69
329.287	72.69
329.515	73.69
329.744	84.69
329.972	90.69
330.201	98.69
330.43	93.69
330.658	88.69
330.887	82.69
331.115	94.69
331.344	97.69
331.572	87.69
331.801	83.69
332.03	78.69
332.258	97.69
332.486	89.69
332.715	86.69
332.943	95.69
333.172	93.69
333.4	86.69
333.629	76.69
333.857	92.69
334.085	94.69
334.314	85.69
334.542	93.69
334.771	100.69
334.999	101.69
335.227	96.69
335.455	107.69
335.684	104.69
335.912	102.69
336.14	102.69
336.369	95.69
336.597	93.69
336.825	102.69
337.053	102.69
337.281	104.69
337.51	91.69
337.738	79.69
337.966	84.69
338.194	98.69
338.422	88.69
338.65	108.69
338.878	89.69
339.106	92.69
339.334	101.69
339.562	94.69
339.79	85.69
340.018	87.69
340.246	95.69
340.474	78.69
340.702	93.69
340.93	96.69
341.158	89.69
341.386	81.69
341.614	78.69
341.842	89.69
342.07	98.69
342.298	89.69
342.526	97.69
342.754	91.69
342.981	97.69
343.209	91.69
343.437	107.69
343.665	97.69
343.893	100.69
344.12	111.69
344.348	97.69
344.576	98.69
344.804	115.69
345.031	98.69
345.259	94.69
345.487	83.69
345.714	89.69
345.942	102.69
346.17	100.69
346.397	88.69
346.625	95.69
346.853	88.69
347.08	79.69
347.308	101.69
347.535	98.69
347.763	100.69
347.99	91.69
348.218	85.69
348.445	82.69
348.673	79.69
348.9	96.69
349.128	97.69
349.355	97.69
349.583	84.69
349.81	89.69
350.037	86.69
350.265	81.69
350.492	95.69
350.72	80.69
350.947	91.69
351.174	91.69
351.402	81.69
351.629	92.69
351.856	91.69
352.083	79.69
352.311	76.69
352.538	86.69
352.765	80.69
352.992	99.69
353.22	97.69
353.447	98.69
353.674	105.69
353.901	92.69
354.128	102.69
354.355	95.69
354.583	96.69
354.81	87.69
355.037	90.69
355.264	89.69
355.491	68.69
355.718	87.69
355.945	85.69
356.172	86.69
356.399	84.69
356.626	91.69
356.853	97.69
357.08	92.69
357.307	88.69
357.534	95.69
357.761	100.69
357.988	116.69
358.215	100.69
358.441	99.69
358.668	103.69
358.895	90.69
359.122	86.69
359.349	95.69
359.576	97.69
359.802	85.69
360.029	88.69
360.256	84.69
360.483	102.69
360.709	89.69
360.936	97.69
361.163	95.69
361.39	92.69
361.616	94.69
361.843	89.69
362.07	112.69
362.296	111.69
362.523	126.69
362.749	112.69
362.976	128.69
363.203	134.69
363.429	118.69
363.656	104.69
363.882	108.69
364.109	153.69
364.335	153.69
364.562	135.69
364.788	123.69
365.015	109.69
365.241	76.69
365.468	102.69
365.694	97.69
365.92	98.69
366.147	94.69
366.373	99.69
366.599	93.69
366.826	86.69
367.052	94.69
367.278	97.69
367.505	98.69
367.731	106.69
367.957	78.69
368.184	103.69
368.41	86.69
368.636	71.69
368.862	94.69
369.089	91.69
369.315	89.69
369.541	93.69
369.767	89.69
369.993	86.69
370.219	105.69
370.445	108.69
370.672	102.69
370.898	95.69
371.124	94.69
371.35	85.69
371.576	87.69
371.802	94.69
372.028	106.69
372.254	98.69
372.48	104.69
372.706	97.69
372.932	87.69
373.158	104.69
373.384	111.69
373.61	117.69
373.835	121.69
374.061	107.69
374.287	108.69
374.513	106.69
374.739	107.69
374.965	126.69
375.191	105.69
375.416	104.69
375.642	91.69
375.868	111.69
376.094	108.69
376.319	104.69
376.545	83.69
376.771	103.69
376.997	93.69
377.222	78.69
377.448	86.69
377.674	97.69
377.899	94.69
378.125	91.69
378.35	83.69
378.576	99.69
378.802	83.69
379.027	85.69
379.253	94.69
379.478	84.69
379.704	85.69
379.929	93.69
380.155	90.69
380.38	102.69
380.606	88.69
380.831	95.69
381.057	97.69
381.282	84.69
381.507	105.69
381.733	93.69
381.958	105.69
382.184	111.69
382.409	97.69
382.634	111.69
382.86	100.69
383.085	108.69
383.31	115.69
383.535	89.69
383.761	108.69
383.986	104.69
384.211	100.69
384.436	98.69
384.662	90.69
384.887	103.69
385.112	102.69
385.337	95.69
385.562	108.69
385.787	110.69
386.013	126.69
386.238	110.69
386.463	95.69
386.688	105.69
386.913	97.69
387.138	105.69
387.363	100.69
387.588	101.69
387.813	95.69
388.038	108.69
388.263	110.69
388.488	102.69
388.713	95.69
388.938	85.69
389.163	98.69
389.387	85.69
389.612	91.69
389.837	101.69
390.062	103.69
390.287	101.69
390.512	100.69
390.736	92.69
390.961	88.69
391.186	93.69
391.411	97.69
391.636	92.69
391.86	111.69
392.085	102.69
392.31	118.69
392.534	122.69
392.759	154.69
392.984	225.69
393.208	366.69
393.433	511.69
393.658	384.69
393.882	177.69
394.107	163.69
394.331	161.69
394.556	184.69
394.78	139.69
395.005	107.69
395.229	120.69
395.454	105.69
395.678	111.69
395.903	174.69
396.127	208.69
396.352	250.69
396.576	251.69
396.801	351.69
397.025	392.69
397.249	217.69
397.474	155.69
397.698	113.69
397.922	102.69
398.147	86.69
398.371	96.69
398.595	90.69
398.82	105.69
399.044	98.69
399.268	99.69
399.492	91.69
399.717	98.69
399.941	93.69
400.165	109.69
400.389	94.69
400.613	99.69
400.837	90.69
401.062	94.69
401.286	86.69
401.51	91.69
401.734	92.69
401.958	87.69
402.182	87.69
402.406	82.69
402.63	96.69
402.854	92.69
403.078	92.69
403.302	108.69
403.526	103.69
403.75	97.69
403.974	105.69
404.198	159.69
404.422	225.69
404.645	287.69
404.869	232.69
405.093	143.69
405.317	115.69
405.541	113.69
405.765	98.69
405.988	87.69
406.212	107.69
406.436	89.69
406.66	107.69
406.883	94.69
407.107	91.69
407.331	107.69
407.555	122.69
407.778	113.69
408.002	133.69
408.226	87.69
408.449	80.69
408.673	79.69
408.896	103.69
409.12	102.69
409.344	110.69
409.567	97.69
409.791	108.69
410.014	127.69
410.238	113.69
410.461	104.69
410.685	113.69
410.908	99.69
411.132	91.69
411.355	87.69
411.578	92.69
411.802	85.69
412.025	81.69
412.249	86.69
412.472	86.69
412.695	92.69
412.919	83.69
413.142	99.69
413.365	93.69
413.589	87.69
413.812	89.69
414.035	107.69
414.258	82.69
414.482	94.69
414.705	87.69
414.928	96.69
415.151	90.69
415.374	84.69
415.597	77.69
415.821	88.69
416.044	89.69
416.267	103.69
416.49	71.69
416.713	91.69
416.936	83.69
417.159	108.69
417.382	90.69
417.605	98.69
417.828	90.69
418.051	77.69
418.274	81.69
418.497	79.69
418.72	85.69
418.943	94.69
419.166	80.69
419.389	101.69
419.611	86.69
419.834	116.69
420.057	98.69
420.28	115.69
420.503	102.69
420.726	100.69
420.948	101.69
421.171	119.69
421.394	127.69
421.617	161.69
421.839	154.69
422.062	177.69
422.285	256.69
422.507	462.69
422.73	637.69
422.953	589.69
423.175	344.69
423.398	193.69
423.621	133.69
423.843	117.69
424.066	119.69
424.288	99.69
424.511	112.69
424.733	103.69
424.956	106.69
425.178	98.69
425.401	108.69
425.623	105.69
425.846	86.69
426.068	86.69
426.291	85.69
426.513	93.69
426.735	88.69
426.958	100.69
427.18	106.69
427.402	103.69
427.625	99.69
427.847	107.69
428.069	123.69
428.292	191.69
428.514	198.69
428.736	147.69
428.958	179.69
429.181	194.69
429.403	121.69
429.625	126.69
429.847	175.69
430.069	275.69
430.292	307.69
430.514	283.69
430.736	196.69
430.958	232.69
431.18	131.69
431.402	101.69
431.624	121.69
431.846	169.69
432.068	205.69
432.29	122.69
432.512	107.69
432.734	108.69
432.956	89.69
433.178	93.69
433.4	91.69
433.622	95.69
433.844	92.69
434.066	94.69
434.287	83.69
434.509	91.69
434.731	87.69
434.953	80.69
435.175	85.69
435.397	97.69
435.618	98.69
435.84	83.69
436.062	93.69
436.284	97.69
436.505	94.69
436.727	74.69
436.949	83.69
437.17	90.69
437.392	86.69
437.614	95.69
437.835	85.69
438.057	89.69
438.278	98.69
438.5	111.69
438.721	87.69
438.943	85.69
439.165	91.69
439.386	89.69
439.608	87.69
439.829	90.69
440.05	97.69
440.272	80.69
440.493	94.69
440.715	92.69
440.936	83.69
441.158	87.69
441.379	98.69
441.6	89.69
441.822	105.69
442.043	100.69
442.264	129.69
442.486	187.69
442.707	277.69
442.928	185.69
443.149	159.69
443.371	260.69
443.592	450.69
443.813	376.69
444.034	163.69
444.255	125.69
444.476	116.69
444.698	93.69
444.919	120.69
445.14	282.69
445.361	361.69
445.582	573.69
445.803	437.69
446.024	191.69
446.245	115.69
446.466	110.69
446.687	87.69
446.908	93.69
447.129	95.69
447.35	94.69
447.571	95.69
447.792	89.69
448.013	85.69
448.234	94.69
448.455	85.69
448.675	79.69
448.896	98.69
449.117	86.69
449.338	89.69
449.559	99.69
449.779	94.69
450	110.69
450.221	92.69
450.442	90.69
450.662	91.69
450.883	91.69
451.104	102.69
451.324	96.69
451.545	86.69
451.766	91.69
451.986	85.69
452.207	99.69
452.428	103.69
452.648	109.69
452.869	111.69
453.089	105.69
453.31	99.69
453.53	105.69
453.751	102.69
453.971	81.69
454.192	74.69
454.412	95.69
454.633	92.69
454.853	101.69
455.073	86.69
455.294	101.69
455.514	98.69
455.734	101.69
455.955	86.69
456.175	93.69
456.395	86.69
456.616	95.69
456.836	102.69
457.056	93.69
457.276	102.69
457.497	95.69
457.717	100.69
457.937	115.69
458.157	149.69
458.377	169.69
458.598	153.69
458.818	161.69
459.038	117.69
459.258	94.69
459.478	95.69
459.698	99.69
459.918	101.69
460.138	100.69
460.358	90.69
460.578	142.69
460.798	183.69
461.018	174.69
461.238	87.69
461.458	97.69
461.678	85.69
461.898	83.69
462.118	87.69
462.338	92.69
462.558	89.69
462.777	95.69
462.997	91.69
463.217	72.69
463.437	84.69
463.657	83.69
463.876	79.69
464.096	89.69
464.316	91.69
464.536	104.69
464.755	71.69
464.975	88.69
465.195	89.69
465.414	99.69
465.634	85.69
465.854	81.69
466.073	72.69
466.293	85.69
466.512	84.69
466.732	91.69
466.951	81.69
467.171	97.69
467.391	103.69
467.61	84.69
467.829	95.69
468.049	97.69
468.268	106.69
468.488	93.69
468.707	89.69
468.927	88.69
469.146	91.69
469.365	98.69
469.585	87.69
469.804	99.69
470.023	90.69
470.243	85.69
470.462	77.69
470.681	92.69
470.901	89.69
471.12	79.69
471.339	92.69
471.558	94.69
471.777	96.69
471.997	95.69
472.216	82.69
472.435	97.69
472.654	97.69
472.873	101.69
473.092	94.69
473.311	98.69
473.53	87.69
473.749	93.69
473.968	93.69
474.187	101.69
474.406	103.69
474.625	83.69
474.844	86.69
475.063	96.69
475.282	93.69
475.501	89.69
475.72	94.69
475.939	93.69
476.158	90.69
476.377	84.69
476.596	88.69
476.814	102.69
477.033	83.69
477.252	80.69
477.471	97.69
477.69	97.69
477.908	79.69
478.127	99.69
478.346	95.69
478.564	92.69
478.783	89.69
479.002	99.69
479.22	88.69
479.439	83.69
479.658	90.69
479.876	100.69
480.095	94.69
480.313	100.69
480.532	91.69
480.751	100.69
480.969	87.69
481.188	107.69
481.406	94.69
481.624	89.69
481.843	89.69
482.061	101.69
482.28	103.69
482.498	104.69
482.717	99.69
482.935	108.69
483.153	94.69
483.372	104.69
483.59	97.69
483.808	100.69
484.027	101.69
484.245	93.69
484.463	80.69
484.681	107.69
484.9	98.69
485.118	94.69
485.336	87.69
485.554	105.69
485.772	94.69
485.99	90.69
486.209	92.69
486.427	105.69
486.645	119.69
486.863	110.69
487.081	101.69
487.299	95.69
487.517	118.69
487.735	137.69
487.953	216.69
488.171	215.69
488.389	126.69
488.607	106.69
488.825	99.69
489.043	93.69
489.261	94.69
489.479	118.69
489.696	97.69
489.914	104.69
490.132	115.69
490.35	104.69
490.568	102.69
490.786	111.69
491.003	96.69
491.221	93.69
491.439	101.69
491.657	105.69
491.874	94.69
492.092	101.69
492.31	101.69
492.527	103.69
492.745	98.69
492.963	100.69
493.18	76.69
493.398	89.69
493.615	101.69
493.833	108.69
494.05	110.69
494.268	90.69
494.485	84.69
494.703	115.69
494.92	110.69
495.138	90.69
495.355	100.69
495.573	84.69
495.79	109.69
496.008	106.69
496.225	100.69
496.442	104.69
496.66	117.69
496.877	93.69
497.094	88.69
497.312	86.69
497.529	94.69
497.746	105.69
497.963	108.69
498.181	119.69
498.398	136.69
498.615	114.69
498.832	92.69
499.049	91.69
499.267	113.69
499.484	99.69
499.701	101.69
499.918	114.69
500.135	107.69
500.352	123.69
500.569	97.69
500.786	105.69
501.003	111.69
501.22	95.69
501.437	101.69
501.654	98.69
501.871	88.69
502.088	108.69
502.305	99.69
502.522	105.69
502.739	84.69
502.956	106.69
503.172	107.69
503.389	99.69
503.606	108.69
503.823	108.69
504.04	123.69
504.256	168.69
504.473	171.69
504.69	115.69
504.907	117.69
505.123	108.69
505.34	100.69
505.557	110.69
505.773	95.69
505.99	110.69
506.207	95.69
506.423	100.69
506.64	89.69
506.856	89.69
507.073	93.69
507.289	100.69
507.506	105.69
507.722	99.69
507.939	93.69
508.155	109.69
508.372	110.69
508.588	97.69
508.805	89.69
509.021	90.69
509.238	93.69
509.454	93.69
509.67	96.69
509.887	90.69
510.103	103.69
510.319	104.69
510.536	106.69
510.752	102.69
510.968	93.69
511.184	90.69
511.401	103.69
511.617	98.69
511.833	96.69
512.049	111.69
512.265	94.69
512.481	100.69
512.698	113.69
512.914	99.69
513.13	90.69
513.346	102.69
513.562	97.69
513.778	87.69
513.994	101.69
514.21	103.69
514.426	85.69
514.642	99.69
514.858	109.69
