Data from 2145_3_HRD10591_00017.txt Node
Date: Mon Jan 19 14:23:15 EST 2026
User: Yrep
Spectrometer: HR+D1059
Trigger mode: 1
Integration Time (sec): 1.000000E-1
Scans to average: 1
Electric dark correction enabled: true
Nonlinearity correction enabled: false
Boxcar width: 0
XAxis mode: Wavelengths
Number of Pixels in Spectrum: 2048
>>>>>Begin Spectral Data<<<<<
223.165	-22.12
223.4	-22.12
223.635	-22.12
223.869	-6.12
224.104	-23.12
224.338	-21.12
224.573	-15.12
224.808	-12.12
225.042	-3.12
225.277	-5.12
225.511	-9.12
225.746	4.88
225.98	-0.12
226.215	16.88
226.449	12.88
226.683	15.88
226.918	34.88
227.152	31.88
227.387	29.88
227.621	33.88
227.856	44.88
228.09	46.88
228.324	40.88
228.559	56.88
228.793	56.88
229.027	59.88
229.262	68.88
229.496	68.88
229.73	57.88
229.964	60.88
230.199	71.88
230.433	67.88
230.667	66.88
230.901	66.88
231.136	75.88
231.37	64.88
231.604	85.88
231.838	75.88
232.072	71.88
232.306	82.88
232.541	68.88
232.775	87.88
233.009	81.88
233.243	83.88
233.477	96.88
233.711	91.88
233.945	80.88
234.179	68.88
234.413	81.88
234.647	77.88
234.881	80.88
235.115	62.88
235.349	73.88
235.583	73.88
235.817	70.88
236.051	72.88
236.285	72.88
236.519	83.88
236.753	76.88
236.987	84.88
237.221	84.88
237.455	78.88
237.689	75.88
237.922	80.88
238.156	52.88
238.39	84.88
238.624	71.88
238.858	75.88
239.091	62.88
239.325	73.88
239.559	66.88
239.793	77.88
240.027	70.88
240.26	85.88
240.494	67.88
240.728	62.88
240.961	76.88
241.195	75.88
241.429	85.88
241.662	58.88
241.896	72.88
242.13	63.88
242.363	70.88
242.597	66.88
242.83	60.88
243.064	76.88
243.298	80.88
243.531	73.88
243.765	76.88
243.998	72.88
244.232	74.88
244.465	71.88
244.699	71.88
244.932	82.88
245.166	79.88
245.399	78.88
245.633	64.88
245.866	66.88
246.099	73.88
246.333	72.88
246.566	77.88
246.8	70.88
247.033	77.88
247.266	81.88
247.5	87.88
247.733	78.88
247.966	65.88
248.2	77.88
248.433	77.88
248.666	73.88
248.899	76.88
249.133	77.88
249.366	73.88
249.599	74.88
249.832	73.88
250.066	76.88
250.299	88.88
250.532	60.88
250.765	76.88
250.998	79.88
251.231	66.88
251.465	82.88
251.698	70.88
251.931	70.88
252.164	69.88
252.397	88.88
252.63	68.88
252.863	94.88
253.096	79.88
253.329	71.88
253.562	83.88
253.795	78.88
254.028	77.88
254.261	87.88
254.494	81.88
254.727	69.88
254.96	73.88
255.193	84.88
255.426	77.88
255.659	76.88
255.892	81.88
256.124	76.88
256.357	98.88
256.59	81.88
256.823	67.88
257.056	77.88
257.289	75.88
257.521	70.88
257.754	70.88
257.987	79.88
258.22	90.88
258.452	77.88
258.685	76.88
258.918	73.88
259.151	87.88
259.383	86.88
259.616	79.88
259.849	82.88
260.081	78.88
260.314	75.88
260.547	84.88
260.779	70.88
261.012	78.88
261.244	80.88
261.477	83.88
261.71	88.88
261.942	83.88
262.175	74.88
262.407	62.88
262.64	74.88
262.872	74.88
263.105	74.88
263.337	86.88
263.57	84.88
263.802	74.88
264.035	78.88
264.267	71.88
264.499	70.88
264.732	96.88
264.964	82.88
265.197	91.88
265.429	90.88
265.661	85.88
265.894	87.88
266.126	83.88
266.358	79.88
266.591	79.88
266.823	79.88
267.055	80.88
267.287	88.88
267.52	89.88
267.752	78.88
267.984	85.88
268.216	84.88
268.448	76.88
268.681	82.88
268.913	98.88
269.145	83.88
269.377	83.88
269.609	79.88
269.841	77.88
270.073	88.88
270.306	76.88
270.538	81.88
270.77	75.88
271.002	90.88
271.234	84.88
271.466	79.88
271.698	62.88
271.93	83.88
272.162	77.88
272.394	76.88
272.626	76.88
272.858	72.88
273.09	82.88
273.322	62.88
273.553	83.88
273.785	74.88
274.017	74.88
274.249	86.88
274.481	86.88
274.713	82.88
274.945	80.88
275.176	87.88
275.408	81.88
275.64	86.88
275.872	91.88
276.104	80.88
276.335	86.88
276.567	76.88
276.799	80.88
277.031	82.88
277.262	76.88
277.494	82.88
277.726	81.88
277.957	77.88
278.189	65.88
278.421	91.88
278.652	84.88
278.884	75.88
279.115	73.88
279.347	79.88
279.579	76.88
279.81	86.88
280.042	85.88
280.273	70.88
280.505	66.88
280.736	79.88
280.968	65.88
281.199	70.88
281.431	85.88
281.662	80.88
281.894	91.88
282.125	89.88
282.356	71.88
282.588	75.88
282.819	84.88
283.051	73.88
283.282	89.88
283.513	76.88
283.745	92.88
283.976	76.88
284.207	85.88
284.439	67.88
284.67	89.88
284.901	75.88
285.132	78.88
285.364	80.88
285.595	94.88
285.826	92.88
286.057	91.88
286.288	91.88
286.52	70.88
286.751	83.88
286.982	82.88
287.213	72.88
287.444	76.88
287.675	71.88
287.906	104.88
288.138	89.88
288.369	86.88
288.6	77.88
288.831	73.88
289.062	74.88
289.293	97.88
289.524	82.88
289.755	84.88
289.986	71.88
290.217	100.88
290.448	75.88
290.679	75.88
290.91	82.88
291.141	84.88
291.371	75.88
291.602	86.88
291.833	94.88
292.064	66.88
292.295	83.88
292.526	74.88
292.757	78.88
292.987	85.88
293.218	86.88
293.449	90.88
293.68	81.88
293.91	91.88
294.141	86.88
294.372	78.88
294.603	81.88
294.833	94.88
295.064	77.88
295.295	91.88
295.525	78.88
295.756	86.88
295.987	91.88
296.217	77.88
296.448	75.88
296.679	76.88
296.909	83.88
297.14	80.88
297.37	74.88
297.601	88.88
297.831	86.88
298.062	89.88
298.292	91.88
298.523	110.88
298.753	90.88
298.984	83.88
299.214	87.88
299.445	74.88
299.675	78.88
299.905	89.88
300.136	76.88
300.366	90.88
300.597	77.88
300.827	78.88
301.057	85.88
301.288	90.88
301.518	90.88
301.748	87.88
301.979	98.88
302.209	82.88
302.439	66.88
302.669	90.88
302.9	83.88
303.13	82.88
303.36	102.88
303.59	88.88
303.82	91.88
304.051	87.88
304.281	76.88
304.511	69.88
304.741	90.88
304.971	82.88
305.201	74.88
305.431	83.88
305.661	73.88
305.891	85.88
306.121	87.88
306.352	83.88
306.582	87.88
306.812	82.88
307.042	84.88
307.272	85.88
307.502	99.88
307.731	92.88
307.961	92.88
308.191	98.88
308.421	94.88
308.651	102.88
308.881	82.88
309.111	86.88
309.341	97.88
309.571	80.88
309.8	89.88
310.03	95.88
310.26	80.88
310.49	90.88
310.72	84.88
310.949	81.88
311.179	79.88
311.409	77.88
311.639	90.88
311.868	86.88
312.098	79.88
312.328	91.88
312.557	73.88
312.787	83.88
313.017	90.88
313.246	91.88
313.476	71.88
313.706	89.88
313.935	86.88
314.165	71.88
314.394	79.88
314.624	80.88
314.853	89.88
315.083	77.88
315.312	92.88
315.542	87.88
315.771	79.88
316.001	96.88
316.23	70.88
316.46	71.88
316.689	90.88
316.919	96.88
317.148	75.88
317.377	72.88
317.607	90.88
317.836	75.88
318.065	89.88
318.295	99.88
318.524	86.88
318.753	100.88
318.983	78.88
319.212	85.88
319.441	81.88
319.67	83.88
319.9	92.88
320.129	78.88
320.358	97.88
320.587	88.88
320.816	89.88
321.046	82.88
321.275	87.88
321.504	84.88
321.733	82.88
321.962	81.88
322.191	76.88
322.42	80.88
322.649	76.88
322.878	82.88
323.108	84.88
323.337	87.88
323.566	83.88
323.795	86.88
324.024	80.88
324.253	91.88
324.482	85.88
324.71	101.88
324.939	84.88
325.168	88.88
325.397	83.88
325.626	84.88
325.855	88.88
326.084	76.88
326.313	84.88
326.542	104.88
326.77	71.88
326.999	89.88
327.228	81.88
327.457	81.88
327.686	74.88
327.914	77.88
328.143	102.88
328.372	89.88
328.6	87.88
328.829	86.88
329.058	96.88
329.287	93.88
329.515	74.88
329.744	96.88
329.972	82.88
330.201	86.88
330.43	84.88
330.658	100.88
330.887	90.88
331.115	79.88
331.344	79.88
331.572	99.88
331.801	90.88
332.03	95.88
332.258	80.88
332.486	104.88
332.715	92.88
332.943	78.88
333.172	87.88
333.4	82.88
333.629	73.88
333.857	77.88
334.085	86.88
334.314	84.88
334.542	84.88
334.771	85.88
334.999	100.88
335.227	80.88
335.455	87.88
335.684	88.88
335.912	86.88
336.14	100.88
336.369	91.88
336.597	86.88
336.825	88.88
337.053	80.88
337.281	92.88
337.51	72.88
337.738	86.88
337.966	103.88
338.194	87.88
338.422	76.88
338.65	86.88
338.878	89.88
339.106	90.88
339.334	90.88
339.562	81.88
339.79	81.88
340.018	83.88
340.246	92.88
340.474	104.88
340.702	78.88
340.93	95.88
341.158	75.88
341.386	106.88
341.614	85.88
341.842	68.88
342.07	88.88
342.298	90.88
342.526	96.88
342.754	89.88
342.981	86.88
343.209	102.88
343.437	76.88
343.665	85.88
343.893	84.88
344.12	81.88
344.348	91.88
344.576	103.88
344.804	111.88
345.031	101.88
345.259	89.88
345.487	80.88
345.714	60.88
345.942	84.88
346.17	87.88
346.397	85.88
346.625	77.88
346.853	84.88
347.08	93.88
347.308	83.88
347.535	81.88
347.763	86.88
347.99	84.88
348.218	87.88
348.445	80.88
348.673	91.88
348.9	86.88
349.128	78.88
349.355	86.88
349.583	92.88
349.81	86.88
350.037	86.88
350.265	88.88
350.492	69.88
350.72	83.88
350.947	84.88
351.174	82.88
351.402	91.88
351.629	90.88
351.856	80.88
352.083	81.88
352.311	81.88
352.538	92.88
352.765	89.88
352.992	105.88
353.22	99.88
353.447	88.88
353.674	85.88
353.901	84.88
354.128	81.88
354.355	96.88
354.583	83.88
354.81	90.88
355.037	83.88
355.264	86.88
355.491	92.88
355.718	77.88
355.945	95.88
356.172	86.88
356.399	80.88
356.626	96.88
356.853	94.88
357.08	87.88
357.307	82.88
357.534	82.88
357.761	92.88
357.988	97.88
358.215	98.88
358.441	81.88
358.668	89.88
358.895	68.88
359.122	77.88
359.349	90.88
359.576	79.88
359.802	84.88
360.029	98.88
360.256	95.88
360.483	103.88
360.709	90.88
360.936	101.88
361.163	90.88
361.39	75.88
361.616	86.88
361.843	88.88
362.07	94.88
362.296	115.88
362.523	107.88
362.749	92.88
362.976	122.88
363.203	130.88
363.429	121.88
363.656	92.88
363.882	117.88
364.109	107.88
364.335	131.88
364.562	144.88
364.788	102.88
365.015	90.88
365.241	103.88
365.468	91.88
365.694	89.88
365.92	88.88
366.147	90.88
366.373	90.88
366.599	106.88
366.826	88.88
367.052	77.88
367.278	89.88
367.505	82.88
367.731	84.88
367.957	79.88
368.184	80.88
368.41	91.88
368.636	89.88
368.862	82.88
369.089	96.88
369.315	84.88
369.541	84.88
369.767	95.88
369.993	82.88
370.219	90.88
370.445	87.88
370.672	82.88
370.898	90.88
371.124	103.88
371.35	84.88
371.576	83.88
371.802	89.88
372.028	92.88
372.254	86.88
372.48	80.88
372.706	91.88
372.932	91.88
373.158	94.88
373.384	115.88
373.61	114.88
373.835	97.88
374.061	92.88
374.287	88.88
374.513	96.88
374.739	114.88
374.965	99.88
375.191	94.88
375.416	95.88
375.642	95.88
375.868	90.88
376.094	99.88
376.319	78.88
376.545	90.88
376.771	87.88
376.997	94.88
377.222	86.88
377.448	80.88
377.674	84.88
377.899	86.88
378.125	89.88
378.35	94.88
378.576	86.88
378.802	87.88
379.027	81.88
379.253	79.88
379.478	86.88
379.704	87.88
379.929	94.88
380.155	88.88
380.38	86.88
380.606	92.88
380.831	86.88
381.057	88.88
381.282	85.88
381.507	97.88
381.733	95.88
381.958	93.88
382.184	90.88
382.409	89.88
382.634	110.88
382.86	91.88
383.085	86.88
383.31	90.88
383.535	92.88
383.761	98.88
383.986	96.88
384.211	104.88
384.436	95.88
384.662	92.88
384.887	88.88
385.112	98.88
385.337	96.88
385.562	94.88
385.787	102.88
386.013	86.88
386.238	103.88
386.463	83.88
386.688	112.88
386.913	101.88
387.138	86.88
387.363	102.88
387.588	95.88
387.813	104.88
388.038	99.88
388.263	84.88
388.488	102.88
388.713	92.88
388.938	88.88
389.163	92.88
389.387	102.88
389.612	99.88
389.837	95.88
390.062	94.88
390.287	99.88
390.512	84.88
390.736	91.88
390.961	95.88
391.186	92.88
391.411	89.88
391.636	85.88
391.86	97.88
392.085	98.88
392.31	102.88
392.534	107.88
392.759	124.88
392.984	152.88
393.208	274.88
393.433	369.88
393.658	265.88
393.882	135.88
394.107	103.88
394.331	122.88
394.556	136.88
394.78	110.88
395.005	104.88
395.229	97.88
395.454	107.88
395.678	117.88
395.903	130.88
396.127	139.88
396.352	167.88
396.576	179.88
396.801	276.88
397.025	309.88
397.249	170.88
397.474	133.88
397.698	112.88
397.922	89.88
398.147	96.88
398.371	115.88
398.595	100.88
398.82	98.88
399.044	74.88
399.268	88.88
399.492	74.88
399.717	94.88
399.941	72.88
400.165	100.88
400.389	84.88
400.613	81.88
400.837	95.88
401.062	92.88
401.286	82.88
401.51	88.88
401.734	89.88
401.958	86.88
402.182	85.88
402.406	88.88
402.63	88.88
402.854	94.88
403.078	88.88
403.302	90.88
403.526	101.88
403.75	114.88
403.974	115.88
404.198	148.88
404.422	218.88
404.645	264.88
404.869	226.88
405.093	161.88
405.317	122.88
405.541	106.88
405.765	102.88
405.988	102.88
406.212	93.88
406.436	101.88
406.66	98.88
406.883	96.88
407.107	94.88
407.331	89.88
407.555	100.88
407.778	117.88
408.002	106.88
408.226	97.88
408.449	82.88
408.673	98.88
408.896	93.88
409.12	76.88
409.344	87.88
409.567	88.88
409.791	83.88
410.014	105.88
410.238	106.88
410.461	105.88
410.685	89.88
410.908	87.88
411.132	102.88
411.355	89.88
411.578	86.88
411.802	84.88
412.025	91.88
412.249	94.88
412.472	96.88
412.695	94.88
412.919	83.88
413.142	112.88
413.365	94.88
413.589	91.88
413.812	90.88
414.035	84.88
414.258	91.88
414.482	77.88
414.705	112.88
414.928	104.88
415.151	91.88
415.374	78.88
415.597	88.88
415.821	86.88
416.044	89.88
416.267	91.88
416.49	90.88
416.713	83.88
416.936	80.88
417.159	82.88
417.382	86.88
417.605	87.88
417.828	78.88
418.051	90.88
418.274	90.88
418.497	95.88
418.72	86.88
418.943	86.88
419.166	97.88
419.389	96.88
419.611	89.88
419.834	100.88
420.057	89.88
420.28	89.88
420.503	94.88
420.726	95.88
420.948	106.88
421.171	98.88
421.394	107.88
421.617	113.88
421.839	130.88
422.062	153.88
422.285	225.88
422.507	363.88
422.73	510.88
422.953	453.88
423.175	285.88
423.398	174.88
423.621	129.88
423.843	112.88
424.066	99.88
424.288	118.88
424.511	100.88
424.733	102.88
424.956	97.88
425.178	97.88
425.401	83.88
425.623	98.88
425.846	88.88
426.068	92.88
426.291	92.88
426.513	87.88
426.735	84.88
426.958	95.88
427.18	79.88
427.402	96.88
427.625	96.88
427.847	88.88
428.069	121.88
428.292	154.88
428.514	173.88
428.736	132.88
428.958	165.88
429.181	175.88
429.403	106.88
429.625	114.88
429.847	161.88
430.069	231.88
430.292	264.88
430.514	251.88
430.736	190.88
430.958	181.88
431.18	123.88
431.402	94.88
431.624	102.88
431.846	148.88
432.068	169.88
432.29	105.88
432.512	91.88
432.734	89.88
432.956	85.88
433.178	90.88
433.4	101.88
433.622	94.88
433.844	80.88
434.066	85.88
434.287	80.88
434.509	84.88
434.731	84.88
434.953	87.88
435.175	91.88
435.397	84.88
435.618	91.88
435.84	99.88
436.062	106.88
436.284	100.88
436.505	70.88
436.727	87.88
436.949	85.88
437.17	94.88
437.392	95.88
437.614	94.88
437.835	103.88
438.057	96.88
438.278	82.88
438.5	84.88
438.721	91.88
438.943	86.88
439.165	88.88
439.386	83.88
439.608	90.88
439.829	81.88
440.05	94.88
440.272	94.88
440.493	90.88
440.715	88.88
440.936	99.88
441.158	93.88
441.379	92.88
441.6	98.88
441.822	91.88
442.043	100.88
442.264	133.88
442.486	166.88
442.707	217.88
442.928	173.88
443.149	128.88
443.371	222.88
443.592	370.88
443.813	303.88
444.034	141.88
444.255	122.88
444.476	96.88
444.698	102.88
444.919	110.88
445.14	236.88
445.361	304.88
445.582	444.88
445.803	366.88
446.024	149.88
446.245	106.88
446.466	106.88
446.687	87.88
446.908	85.88
447.129	95.88
447.35	90.88
447.571	82.88
447.792	78.88
448.013	85.88
448.234	80.88
448.455	81.88
448.675	91.88
448.896	83.88
449.117	87.88
449.338	80.88
449.559	93.88
449.779	72.88
450	95.88
450.221	84.88
450.442	82.88
450.662	90.88
450.883	90.88
451.104	102.88
451.324	88.88
451.545	91.88
451.766	94.88
451.986	80.88
452.207	88.88
452.428	91.88
452.648	79.88
452.869	90.88
453.089	91.88
453.31	87.88
453.53	91.88
453.751	97.88
453.971	90.88
454.192	76.88
454.412	86.88
454.633	75.88
454.853	71.88
455.073	102.88
455.294	88.88
455.514	90.88
455.734	84.88
455.955	72.88
456.175	70.88
456.395	85.88
456.616	87.88
456.836	78.88
457.056	86.88
457.276	82.88
457.497	101.88
457.717	82.88
457.937	120.88
458.157	117.88
458.377	135.88
458.598	130.88
458.818	155.88
459.038	106.88
459.258	103.88
459.478	100.88
459.698	82.88
459.918	85.88
460.138	102.88
460.358	90.88
460.578	102.88
460.798	141.88
461.018	144.88
461.238	94.88
461.458	86.88
461.678	74.88
461.898	84.88
462.118	88.88
462.338	83.88
462.558	86.88
462.777	90.88
462.997	77.88
463.217	95.88
463.437	104.88
463.657	89.88
463.876	76.88
464.096	80.88
464.316	87.88
464.536	73.88
464.755	78.88
464.975	75.88
465.195	94.88
465.414	91.88
465.634	84.88
465.854	91.88
466.073	85.88
466.293	83.88
466.512	93.88
466.732	83.88
466.951	94.88
467.171	89.88
467.391	95.88
467.61	92.88
467.829	88.88
468.049	90.88
468.268	84.88
468.488	87.88
468.707	88.88
468.927	90.88
469.146	73.88
469.365	86.88
469.585	95.88
469.804	89.88
470.023	87.88
470.243	76.88
470.462	103.88
470.681	96.88
470.901	70.88
471.12	79.88
471.339	89.88
471.558	93.88
471.777	80.88
471.997	78.88
472.216	76.88
472.435	82.88
472.654	92.88
472.873	98.88
473.092	94.88
473.311	94.88
473.53	100.88
473.749	84.88
473.968	97.88
474.187	91.88
474.406	83.88
474.625	110.88
474.844	90.88
475.063	90.88
475.282	94.88
475.501	82.88
475.72	92.88
475.939	88.88
476.158	96.88
476.377	93.88
476.596	93.88
476.814	94.88
477.033	98.88
477.252	84.88
477.471	79.88
477.69	88.88
477.908	94.88
478.127	88.88
478.346	78.88
478.564	88.88
478.783	85.88
479.002	86.88
479.22	99.88
479.439	80.88
479.658	92.88
479.876	90.88
480.095	89.88
480.313	90.88
480.532	91.88
480.751	88.88
480.969	90.88
481.188	92.88
481.406	97.88
481.624	110.88
481.843	89.88
482.061	80.88
482.28	91.88
482.498	99.88
482.717	90.88
482.935	103.88
483.153	105.88
483.372	100.88
483.59	95.88
483.808	92.88
484.027	90.88
484.245	104.88
484.463	83.88
484.681	92.88
484.9	90.88
485.118	92.88
485.336	90.88
485.554	98.88
485.772	88.88
485.99	95.88
486.209	86.88
486.427	102.88
486.645	106.88
486.863	92.88
487.081	101.88
487.299	98.88
487.517	106.88
487.735	120.88
487.953	169.88
488.171	181.88
488.389	124.88
488.607	86.88
488.825	101.88
489.043	89.88
489.261	90.88
489.479	100.88
489.696	99.88
489.914	85.88
490.132	90.88
490.35	95.88
490.568	96.88
490.786	93.88
491.003	99.88
491.221	82.88
491.439	89.88
491.657	101.88
491.874	93.88
492.092	97.88
492.31	97.88
492.527	78.88
492.745	84.88
492.963	95.88
493.18	92.88
493.398	86.88
493.615	85.88
493.833	93.88
494.05	89.88
494.268	94.88
494.485	78.88
494.703	96.88
494.92	104.88
495.138	90.88
495.355	85.88
495.573	99.88
495.79	88.88
496.008	100.88
496.225	100.88
496.442	105.88
496.66	89.88
496.877	87.88
497.094	95.88
497.312	99.88
497.529	97.88
497.746	94.88
497.963	81.88
498.181	96.88
498.398	104.88
498.615	98.88
498.832	89.88
499.049	92.88
499.267	104.88
499.484	87.88
499.701	94.88
499.918	105.88
500.135	102.88
500.352	105.88
500.569	89.88
500.786	105.88
501.003	95.88
501.22	104.88
501.437	88.88
501.654	88.88
501.871	105.88
502.088	87.88
502.305	98.88
502.522	96.88
502.739	87.88
502.956	101.88
503.172	85.88
503.389	83.88
503.606	93.88
503.823	101.88
504.04	115.88
504.256	130.88
504.473	154.88
504.69	99.88
504.907	102.88
505.123	88.88
505.34	97.88
505.557	100.88
505.773	89.88
505.99	91.88
506.207	78.88
506.423	99.88
506.64	85.88
506.856	88.88
507.073	97.88
507.289	95.88
507.506	98.88
507.722	90.88
507.939	74.88
508.155	79.88
508.372	88.88
508.588	87.88
508.805	90.88
509.021	78.88
509.238	99.88
509.454	90.88
509.67	103.88
509.887	98.88
510.103	90.88
510.319	111.88
510.536	98.88
510.752	82.88
510.968	101.88
511.184	103.88
511.401	94.88
511.617	91.88
511.833	83.88
512.049	90.88
512.265	106.88
512.481	86.88
512.698	103.88
512.914	115.88
513.13	95.88
513.346	92.88
513.562	95.88
513.778	87.88
513.994	84.88
514.21	82.88
514.426	86.88
514.642	95.88
514.858	98.88
515.074	89.88
515.29	105.88
515.506	97.88
515.721	102.88
515.937	82.88
516.153	97.88
516.369	85.88
516.585	104.88
516.801	88.88
517.016	99.88
