Data from 2145_3_HRD10591_00039.txt Node
Date: Mon Jan 19 14:23:26 EST 2026
User: Yrep
Spectrometer: HR+D1059
Trigger mode: 1
Integration Time (sec): 1.000000E-1
Scans to average: 1
Electric dark correction enabled: true
Nonlinearity correction enabled: false
Boxcar width: 0
XAxis mode: Wavelengths
Number of Pixels in Spectrum: 2048
>>>>>Begin Spectral Data<<<<<
223.165	-27.81
223.4	-27.81
223.635	-27.81
223.869	-26.81
224.104	-28.81
224.338	-8.81
224.573	-7.81
224.808	-5.81
225.042	-16.81
225.277	-7.81
225.511	-5.81
225.746	4.19
225.98	16.19
226.215	11.19
226.449	10.19
226.683	26.19
226.918	41.19
227.152	27.19
227.387	40.19
227.621	51.19
227.856	33.19
228.09	44.19
228.324	56.19
228.559	54.19
228.793	72.19
229.027	61.19
229.262	69.19
229.496	62.19
229.73	69.19
229.964	84.19
230.199	80.19
230.433	62.19
230.667	61.19
230.901	76.19
231.136	80.19
231.37	79.19
231.604	96.19
231.838	74.19
232.072	97.19
232.306	88.19
232.541	77.19
232.775	93.19
233.009	84.19
233.243	82.19
233.477	83.19
233.711	82.19
233.945	82.19
234.179	88.19
234.413	92.19
234.647	75.19
234.881	76.19
235.115	81.19
235.349	80.19
235.583	78.19
235.817	84.19
236.051	86.19
236.285	76.19
236.519	83.19
236.753	68.19
236.987	79.19
237.221	77.19
237.455	59.19
237.689	78.19
237.922	78.19
238.156	69.19
238.39	78.19
238.624	72.19
238.858	74.19
239.091	75.19
239.325	71.19
239.559	79.19
239.793	81.19
240.027	90.19
240.26	82.19
240.494	68.19
240.728	80.19
240.961	78.19
241.195	86.19
241.429	75.19
241.662	78.19
241.896	75.19
242.13	70.19
242.363	86.19
242.597	81.19
242.83	71.19
243.064	82.19
243.298	71.19
243.531	82.19
243.765	73.19
243.998	74.19
244.232	77.19
244.465	71.19
244.699	82.19
244.932	89.19
245.166	65.19
245.399	72.19
245.633	82.19
245.866	85.19
246.099	84.19
246.333	60.19
246.566	86.19
246.8	77.19
247.033	74.19
247.266	76.19
247.5	69.19
247.733	79.19
247.966	80.19
248.2	86.19
248.433	69.19
248.666	92.19
248.899	78.19
249.133	75.19
249.366	71.19
249.599	90.19
249.832	85.19
250.066	85.19
250.299	81.19
250.532	85.19
250.765	89.19
250.998	77.19
251.231	79.19
251.465	79.19
251.698	78.19
251.931	86.19
252.164	78.19
252.397	80.19
252.63	80.19
252.863	79.19
253.096	81.19
253.329	84.19
253.562	82.19
253.795	78.19
254.028	104.19
254.261	77.19
254.494	98.19
254.727	73.19
254.96	80.19
255.193	80.19
255.426	90.19
255.659	79.19
255.892	92.19
256.124	77.19
256.357	88.19
256.59	90.19
256.823	77.19
257.056	101.19
257.289	85.19
257.521	100.19
257.754	76.19
257.987	82.19
258.22	76.19
258.452	82.19
258.685	89.19
258.918	72.19
259.151	85.19
259.383	64.19
259.616	79.19
259.849	82.19
260.081	80.19
260.314	84.19
260.547	90.19
260.779	62.19
261.012	71.19
261.244	70.19
261.477	88.19
261.71	84.19
261.942	84.19
262.175	77.19
262.407	88.19
262.64	75.19
262.872	101.19
263.105	91.19
263.337	74.19
263.57	92.19
263.802	90.19
264.035	84.19
264.267	88.19
264.499	92.19
264.732	80.19
264.964	89.19
265.197	94.19
265.429	87.19
265.661	72.19
265.894	69.19
266.126	92.19
266.358	80.19
266.591	72.19
266.823	82.19
267.055	78.19
267.287	81.19
267.52	88.19
267.752	84.19
267.984	85.19
268.216	78.19
268.448	84.19
268.681	80.19
268.913	84.19
269.145	88.19
269.377	83.19
269.609	85.19
269.841	98.19
270.073	102.19
270.306	97.19
270.538	86.19
270.77	89.19
271.002	97.19
271.234	86.19
271.466	80.19
271.698	85.19
271.93	84.19
272.162	77.19
272.394	78.19
272.626	91.19
272.858	73.19
273.09	103.19
273.322	90.19
273.553	71.19
273.785	96.19
274.017	87.19
274.249	83.19
274.481	83.19
274.713	74.19
274.945	97.19
275.176	86.19
275.408	92.19
275.64	97.19
275.872	84.19
276.104	92.19
276.335	98.19
276.567	82.19
276.799	81.19
277.031	66.19
277.262	77.19
277.494	80.19
277.726	87.19
277.957	87.19
278.189	79.19
278.421	76.19
278.652	86.19
278.884	84.19
279.115	88.19
279.347	87.19
279.579	84.19
279.81	76.19
280.042	93.19
280.273	95.19
280.505	83.19
280.736	82.19
280.968	78.19
281.199	84.19
281.431	92.19
281.662	81.19
281.894	102.19
282.125	86.19
282.356	83.19
282.588	80.19
282.819	72.19
283.051	88.19
283.282	75.19
283.513	90.19
283.745	86.19
283.976	76.19
284.207	89.19
284.439	88.19
284.67	86.19
284.901	83.19
285.132	94.19
285.364	95.19
285.595	96.19
285.826	81.19
286.057	88.19
286.288	98.19
286.52	92.19
286.751	67.19
286.982	96.19
287.213	94.19
287.444	84.19
287.675	88.19
287.906	83.19
288.138	78.19
288.369	101.19
288.6	77.19
288.831	91.19
289.062	82.19
289.293	84.19
289.524	82.19
289.755	81.19
289.986	84.19
290.217	92.19
290.448	88.19
290.679	76.19
290.91	105.19
291.141	84.19
291.371	75.19
291.602	75.19
291.833	91.19
292.064	84.19
292.295	100.19
292.526	79.19
292.757	85.19
292.987	93.19
293.218	82.19
293.449	91.19
293.68	100.19
293.91	91.19
294.141	90.19
294.372	78.19
294.603	95.19
294.833	88.19
295.064	88.19
295.295	94.19
295.525	96.19
295.756	88.19
295.987	86.19
296.217	77.19
296.448	84.19
296.679	88.19
296.909	86.19
297.14	105.19
297.37	89.19
297.601	81.19
297.831	89.19
298.062	101.19
298.292	78.19
298.523	94.19
298.753	78.19
298.984	85.19
299.214	100.19
299.445	94.19
299.675	88.19
299.905	96.19
300.136	97.19
300.366	90.19
300.597	103.19
300.827	90.19
301.057	105.19
301.288	103.19
301.518	92.19
301.748	89.19
301.979	105.19
302.209	97.19
302.439	97.19
302.669	95.19
302.9	103.19
303.13	94.19
303.36	86.19
303.59	89.19
303.82	90.19
304.051	99.19
304.281	72.19
304.511	75.19
304.741	84.19
304.971	85.19
305.201	81.19
305.431	76.19
305.661	84.19
305.891	93.19
306.121	93.19
306.352	107.19
306.582	84.19
306.812	81.19
307.042	91.19
307.272	90.19
307.502	83.19
307.731	98.19
307.961	100.19
308.191	96.19
308.421	107.19
308.651	90.19
308.881	97.19
309.111	99.19
309.341	98.19
309.571	103.19
309.8	102.19
310.03	97.19
310.26	101.19
310.49	97.19
310.72	90.19
310.949	94.19
311.179	91.19
311.409	89.19
311.639	93.19
311.868	93.19
312.098	82.19
312.328	86.19
312.557	95.19
312.787	92.19
313.017	88.19
313.246	83.19
313.476	88.19
313.706	81.19
313.935	78.19
314.165	91.19
314.394	81.19
314.624	94.19
314.853	93.19
315.083	94.19
315.312	92.19
315.542	92.19
315.771	86.19
316.001	91.19
316.23	98.19
316.46	86.19
316.689	79.19
316.919	99.19
317.148	93.19
317.377	82.19
317.607	88.19
317.836	100.19
318.065	91.19
318.295	97.19
318.524	94.19
318.753	103.19
318.983	101.19
319.212	96.19
319.441	88.19
319.67	89.19
319.9	85.19
320.129	101.19
320.358	100.19
320.587	93.19
320.816	96.19
321.046	108.19
321.275	100.19
321.504	84.19
321.733	92.19
321.962	102.19
322.191	104.19
322.42	69.19
322.649	92.19
322.878	98.19
323.108	88.19
323.337	104.19
323.566	86.19
323.795	91.19
324.024	85.19
324.253	80.19
324.482	100.19
324.71	88.19
324.939	84.19
325.168	86.19
325.397	89.19
325.626	88.19
325.855	98.19
326.084	84.19
326.313	81.19
326.542	88.19
326.77	85.19
326.999	87.19
327.228	80.19
327.457	90.19
327.686	87.19
327.914	103.19
328.143	87.19
328.372	83.19
328.6	82.19
328.829	102.19
329.058	94.19
329.287	96.19
329.515	98.19
329.744	80.19
329.972	95.19
330.201	96.19
330.43	109.19
330.658	103.19
330.887	80.19
331.115	99.19
331.344	99.19
331.572	94.19
331.801	89.19
332.03	89.19
332.258	97.19
332.486	85.19
332.715	93.19
332.943	85.19
333.172	96.19
333.4	87.19
333.629	87.19
333.857	81.19
334.085	96.19
334.314	97.19
334.542	92.19
334.771	101.19
334.999	116.19
335.227	105.19
335.455	89.19
335.684	97.19
335.912	97.19
336.14	109.19
336.369	101.19
336.597	79.19
336.825	99.19
337.053	98.19
337.281	83.19
337.51	90.19
337.738	76.19
337.966	81.19
338.194	92.19
338.422	89.19
338.65	92.19
338.878	77.19
339.106	97.19
339.334	91.19
339.562	89.19
339.79	73.19
340.018	78.19
340.246	89.19
340.474	89.19
340.702	99.19
340.93	87.19
341.158	77.19
341.386	75.19
341.614	83.19
341.842	96.19
342.07	95.19
342.298	104.19
342.526	82.19
342.754	89.19
342.981	93.19
343.209	75.19
343.437	104.19
343.665	76.19
343.893	100.19
344.12	94.19
344.348	102.19
344.576	96.19
344.804	88.19
345.031	103.19
345.259	89.19
345.487	97.19
345.714	97.19
345.942	86.19
346.17	103.19
346.397	92.19
346.625	81.19
346.853	97.19
347.08	97.19
347.308	99.19
347.535	91.19
347.763	93.19
347.99	95.19
348.218	75.19
348.445	70.19
348.673	90.19
348.9	96.19
349.128	84.19
349.355	96.19
349.583	92.19
349.81	91.19
350.037	82.19
350.265	86.19
350.492	92.19
350.72	93.19
350.947	84.19
351.174	94.19
351.402	82.19
351.629	99.19
351.856	92.19
352.083	99.19
352.311	93.19
352.538	93.19
352.765	85.19
352.992	105.19
353.22	96.19
353.447	96.19
353.674	79.19
353.901	85.19
354.128	85.19
354.355	81.19
354.583	87.19
354.81	89.19
355.037	80.19
355.264	92.19
355.491	94.19
355.718	96.19
355.945	63.19
356.172	86.19
356.399	90.19
356.626	107.19
356.853	89.19
357.08	100.19
357.307	90.19
357.534	85.19
357.761	89.19
357.988	114.19
358.215	78.19
358.441	82.19
358.668	98.19
358.895	88.19
359.122	89.19
359.349	95.19
359.576	79.19
359.802	102.19
360.029	101.19
360.256	88.19
360.483	102.19
360.709	96.19
360.936	103.19
361.163	94.19
361.39	96.19
361.616	90.19
361.843	119.19
362.07	109.19
362.296	121.19
362.523	130.19
362.749	133.19
362.976	165.19
363.203	174.19
363.429	133.19
363.656	116.19
363.882	120.19
364.109	150.19
364.335	173.19
364.562	195.19
364.788	140.19
365.015	109.19
365.241	116.19
365.468	102.19
365.694	104.19
365.92	94.19
366.147	92.19
366.373	99.19
366.599	96.19
366.826	90.19
367.052	92.19
367.278	118.19
367.505	100.19
367.731	100.19
367.957	92.19
368.184	88.19
368.41	76.19
368.636	93.19
368.862	89.19
369.089	88.19
369.315	85.19
369.541	89.19
369.767	93.19
369.993	84.19
370.219	86.19
370.445	83.19
370.672	85.19
370.898	93.19
371.124	84.19
371.35	90.19
371.576	93.19
371.802	107.19
372.028	89.19
372.254	93.19
372.48	100.19
372.706	102.19
372.932	103.19
373.158	98.19
373.384	110.19
373.61	130.19
373.835	114.19
374.061	109.19
374.287	106.19
374.513	115.19
374.739	109.19
374.965	104.19
375.191	100.19
375.416	102.19
375.642	102.19
375.868	114.19
376.094	94.19
376.319	88.19
376.545	92.19
376.771	95.19
376.997	96.19
377.222	86.19
377.448	101.19
377.674	109.19
377.899	95.19
378.125	78.19
378.35	100.19
378.576	101.19
378.802	79.19
379.027	89.19
379.253	79.19
379.478	85.19
379.704	91.19
379.929	97.19
380.155	101.19
380.38	98.19
380.606	92.19
380.831	91.19
381.057	96.19
381.282	93.19
381.507	98.19
381.733	94.19
381.958	96.19
382.184	112.19
382.409	107.19
382.634	114.19
382.86	110.19
383.085	90.19
383.31	104.19
383.535	114.19
383.761	98.19
383.986	113.19
384.211	92.19
384.436	90.19
384.662	94.19
384.887	94.19
385.112	99.19
385.337	97.19
385.562	91.19
385.787	126.19
386.013	112.19
386.238	109.19
386.463	100.19
386.688	101.19
386.913	109.19
387.138	106.19
387.363	100.19
387.588	117.19
387.813	92.19
388.038	101.19
388.263	108.19
388.488	98.19
388.713	87.19
388.938	107.19
389.163	111.19
389.387	76.19
389.612	99.19
389.837	100.19
390.062	88.19
390.287	103.19
390.512	100.19
390.736	97.19
390.961	89.19
391.186	97.19
391.411	98.19
391.636	84.19
391.86	98.19
392.085	109.19
392.31	104.19
392.534	124.19
392.759	135.19
392.984	215.19
393.208	352.19
393.433	483.19
393.658	365.19
393.882	159.19
394.107	127.19
394.331	150.19
394.556	164.19
394.78	139.19
395.005	118.19
395.229	106.19
395.454	102.19
395.678	142.19
395.903	173.19
396.127	207.19
396.352	226.19
396.576	244.19
396.801	349.19
397.025	380.19
397.249	202.19
397.474	160.19
397.698	133.19
397.922	109.19
398.147	108.19
398.371	104.19
398.595	93.19
398.82	97.19
399.044	93.19
399.268	94.19
399.492	99.19
399.717	101.19
399.941	98.19
400.165	102.19
400.389	83.19
400.613	80.19
400.837	104.19
401.062	86.19
401.286	100.19
401.51	77.19
401.734	105.19
401.958	97.19
402.182	87.19
402.406	86.19
402.63	94.19
402.854	117.19
403.078	93.19
403.302	97.19
403.526	107.19
403.75	88.19
403.974	103.19
404.198	126.19
404.422	155.19
404.645	204.19
404.869	173.19
405.093	133.19
405.317	106.19
405.541	94.19
405.765	86.19
405.988	93.19
406.212	104.19
406.436	103.19
406.66	96.19
406.883	96.19
407.107	97.19
407.331	104.19
407.555	112.19
407.778	148.19
408.002	139.19
408.226	88.19
408.449	92.19
408.673	89.19
408.896	96.19
409.12	102.19
409.344	118.19
409.567	119.19
409.791	140.19
410.014	121.19
410.238	113.19
410.461	105.19
410.685	104.19
410.908	86.19
411.132	109.19
411.355	96.19
411.578	94.19
411.802	99.19
412.025	94.19
412.249	97.19
412.472	90.19
412.695	82.19
412.919	99.19
413.142	93.19
413.365	99.19
413.589	90.19
413.812	106.19
414.035	92.19
414.258	86.19
414.482	96.19
414.705	76.19
414.928	85.19
415.151	89.19
415.374	88.19
415.597	83.19
415.821	82.19
416.044	87.19
416.267	88.19
416.49	88.19
416.713	87.19
416.936	89.19
417.159	91.19
417.382	87.19
417.605	98.19
417.828	85.19
418.051	90.19
418.274	84.19
418.497	88.19
418.72	104.19
418.943	100.19
419.166	87.19
419.389	86.19
419.611	107.19
419.834	104.19
420.057	94.19
420.28	89.19
420.503	105.19
420.726	96.19
420.948	96.19
421.171	122.19
421.394	132.19
421.617	167.19
421.839	168.19
422.062	201.19
422.285	284.19
422.507	470.19
422.73	641.19
422.953	577.19
423.175	386.19
423.398	228.19
423.621	144.19
423.843	141.19
424.066	136.19
424.288	125.19
424.511	99.19
424.733	121.19
424.956	101.19
425.178	97.19
425.401	112.19
425.623	106.19
425.846	82.19
426.068	94.19
426.291	96.19
426.513	87.19
426.735	96.19
426.958	100.19
427.18	97.19
427.402	91.19
427.625	101.19
427.847	94.19
428.069	126.19
428.292	193.19
428.514	198.19
428.736	149.19
428.958	188.19
429.181	188.19
429.403	131.19
429.625	120.19
429.847	198.19
430.069	287.19
430.292	314.19
430.514	264.19
430.736	196.19
430.958	226.19
431.18	132.19
431.402	112.19
431.624	128.19
431.846	179.19
432.068	212.19
432.29	129.19
432.512	86.19
432.734	116.19
432.956	96.19
433.178	99.19
433.4	98.19
433.622	94.19
433.844	86.19
434.066	95.19
434.287	85.19
434.509	82.19
434.731	95.19
434.953	78.19
435.175	81.19
435.397	98.19
435.618	105.19
435.84	93.19
436.062	91.19
436.284	99.19
436.505	90.19
436.727	98.19
436.949	83.19
437.17	90.19
437.392	82.19
437.614	106.19
437.835	86.19
438.057	82.19
438.278	90.19
438.5	96.19
438.721	86.19
438.943	90.19
439.165	84.19
439.386	93.19
439.608	109.19
439.829	114.19
440.05	100.19
440.272	97.19
440.493	86.19
440.715	108.19
440.936	85.19
441.158	89.19
441.379	95.19
441.6	104.19
441.822	90.19
442.043	110.19
442.264	116.19
442.486	214.19
442.707	310.19
442.928	198.19
443.149	165.19
443.371	251.19
443.592	476.19
443.813	424.19
444.034	170.19
444.255	122.19
444.476	112.19
444.698	102.19
444.919	130.19
445.14	238.19
445.361	341.19
445.582	598.19
445.803	477.19
446.024	204.19
446.245	110.19
446.466	99.19
446.687	112.19
446.908	90.19
447.129	91.19
447.35	91.19
447.571	77.19
447.792	94.19
448.013	100.19
448.234	77.19
448.455	88.19
448.675	92.19
448.896	89.19
449.117	89.19
449.338	93.19
449.559	84.19
449.779	80.19
450	100.19
450.221	94.19
450.442	89.19
450.662	78.19
450.883	92.19
451.104	92.19
451.324	93.19
451.545	89.19
451.766	85.19
451.986	93.19
452.207	95.19
452.428	100.19
452.648	108.19
452.869	115.19
453.089	119.19
453.31	115.19
453.53	114.19
453.751	100.19
453.971	96.19
454.192	78.19
454.412	87.19
454.633	101.19
454.853	88.19
455.073	100.19
455.294	98.19
455.514	100.19
455.734	89.19
455.955	92.19
456.175	91.19
456.395	81.19
456.616	97.19
456.836	96.19
457.056	92.19
457.276	93.19
457.497	94.19
457.717	105.19
457.937	135.19
458.157	188.19
458.377	202.19
458.598	181.19
458.818	167.19
459.038	128.19
459.258	99.19
459.478	99.19
459.698	79.19
459.918	82.19
460.138	97.19
460.358	88.19
460.578	110.19
460.798	194.19
461.018	171.19
461.238	90.19
461.458	101.19
461.678	109.19
461.898	89.19
462.118	86.19
462.338	83.19
462.558	108.19
462.777	78.19
462.997	84.19
463.217	87.19
463.437	96.19
463.657	110.19
463.876	91.19
464.096	88.19
464.316	90.19
464.536	88.19
464.755	90.19
464.975	82.19
465.195	96.19
465.414	96.19
465.634	109.19
465.854	91.19
466.073	97.19
466.293	90.19
466.512	108.19
466.732	80.19
466.951	93.19
467.171	91.19
467.391	84.19
467.61	76.19
467.829	95.19
468.049	98.19
468.268	93.19
468.488	96.19
468.707	105.19
468.927	91.19
469.146	97.19
469.365	101.19
469.585	102.19
469.804	85.19
470.023	92.19
470.243	95.19
470.462	86.19
470.681	89.19
470.901	88.19
471.12	84.19
471.339	86.19
471.558	101.19
471.777	92.19
471.997	92.19
472.216	105.19
472.435	100.19
472.654	72.19
472.873	96.19
473.092	88.19
473.311	92.19
473.53	88.19
473.749	90.19
473.968	100.19
474.187	102.19
474.406	83.19
474.625	84.19
474.844	95.19
475.063	81.19
475.282	85.19
475.501	92.19
475.72	96.19
475.939	80.19
476.158	90.19
476.377	94.19
476.596	88.19
476.814	93.19
477.033	100.19
477.252	93.19
477.471	70.19
477.69	91.19
477.908	84.19
478.127	86.19
478.346	95.19
478.564	84.19
478.783	99.19
479.002	92.19
479.22	93.19
479.439	90.19
479.658	90.19
479.876	98.19
480.095	107.19
480.313	101.19
480.532	101.19
480.751	107.19
480.969	88.19
481.188	88.19
481.406	102.19
481.624	100.19
481.843	92.19
482.061	96.19
482.28	93.19
482.498	94.19
482.717	94.19
482.935	103.19
483.153	84.19
483.372	107.19
483.59	94.19
483.808	90.19
484.027	106.19
484.245	103.19
484.463	92.19
484.681	114.19
484.9	88.19
485.118	89.19
485.336	102.19
485.554	93.19
485.772	99.19
485.99	105.19
486.209	92.19
486.427	83.19
486.645	88.19
486.863	115.19
487.081	105.19
487.299	101.19
487.517	120.19
487.735	178.19
487.953	304.19
488.171	251.19
488.389	138.19
488.607	116.19
488.825	95.19
489.043	97.19
489.261	102.19
489.479	91.19
489.696	92.19
489.914	85.19
490.132	84.19
490.35	109.19
490.568	88.19
490.786	94.19
491.003	95.19
491.221	90.19
491.439	97.19
491.657	94.19
491.874	91.19
492.092	93.19
492.31	96.19
492.527	86.19
492.745	96.19
492.963	72.19
493.18	91.19
493.398	105.19
493.615	90.19
493.833	100.19
494.05	90.19
494.268	90.19
494.485	98.19
494.703	110.19
494.92	89.19
495.138	90.19
495.355	89.19
495.573	104.19
495.79	105.19
496.008	105.19
496.225	98.19
496.442	109.19
496.66	95.19
496.877	96.19
497.094	88.19
497.312	87.19
497.529	90.19
497.746	98.19
497.963	95.19
498.181	133.19
498.398	134.19
498.615	117.19
498.832	102.19
499.049	98.19
499.267	123.19
499.484	108.19
499.701	99.19
499.918	104.19
500.135	102.19
500.352	93.19
500.569	85.19
500.786	102.19
501.003	96.19
501.22	95.19
501.437	90.19
501.654	106.19
501.871	116.19
502.088	94.19
502.305	98.19
502.522	102.19
502.739	97.19
502.956	80.19
503.172	90.19
503.389	93.19
503.606	93.19
503.823	102.19
504.04	122.19
504.256	188.19
504.473	205.19
504.69	124.19
504.907	114.19
505.123	107.19
505.34	97.19
505.557	96.19
505.773	96.19
505.99	75.19
506.207	102.19
506.423	118.19
506.64	98.19
506.856	89.19
507.073	94.19
507.289	86.19
507.506	107.19
507.722	100.19
507.939	92.19
508.155	106.19
508.372	92.19
508.588	96.19
508.805	96.19
509.021	99.19
509.238	83.19
509.454	87.19
509.67	86.19
509.887	83.19
510.103	94.19
510.319	92.19
510.536	92.19
510.752	89.19
510.968	83.19
511.184	86.19
511.401	105.19
511.617	103.19
511.833	96.19
512.049	90.19
512.265	90.19
512.481	87.19
512.698	78.19
512.914	85.19
513.13	87.19
513.346	90.19
513.562	102.19
513.778	84.19
513.994	93.19
514.21	94.19
514.426	96.19
514.642	84.19
514.858	97.19
515.074	100.19
515.29	94.19
