Data from 2145_3_HRD10591_00027.txt Node
Date: Mon Jan 19 14:23:20 EST 2026
User: Yrep
Spectrometer: HR+D1059
Trigger mode: 1
Integration Time (sec): 1.000000E-1
Scans to average: 1
Electric dark correction enabled: true
Nonlinearity correction enabled: false
Boxcar width: 0
XAxis mode: Wavelengths
Number of Pixels in Spectrum: 2048
>>>>>Begin Spectral Data<<<<<
223.165	-6.38
223.4	-6.38
223.635	-6.38
223.869	-16.38
224.104	-4.38
224.338	-32.38
224.573	-10.38
224.808	-6.38
225.042	-6.38
225.277	-12.38
225.511	-1.38
225.746	9.62
225.98	-6.38
226.215	14.62
226.449	7.62
226.683	21.62
226.918	22.62
227.152	26.62
227.387	30.62
227.621	48.62
227.856	56.62
228.09	51.62
228.324	54.62
228.559	61.62
228.793	58.62
229.027	65.62
229.262	62.62
229.496	56.62
229.73	76.62
229.964	78.62
230.199	74.62
230.433	68.62
230.667	71.62
230.901	97.62
231.136	87.62
231.37	86.62
231.604	71.62
231.838	99.62
232.072	83.62
232.306	93.62
232.541	75.62
232.775	86.62
233.009	73.62
233.243	76.62
233.477	85.62
233.711	79.62
233.945	78.62
234.179	87.62
234.413	72.62
234.647	75.62
234.881	87.62
235.115	78.62
235.349	81.62
235.583	89.62
235.817	75.62
236.051	80.62
236.285	74.62
236.519	87.62
236.753	85.62
236.987	63.62
237.221	76.62
237.455	78.62
237.689	71.62
237.922	80.62
238.156	74.62
238.39	84.62
238.624	75.62
238.858	86.62
239.091	71.62
239.325	82.62
239.559	73.62
239.793	68.62
240.027	69.62
240.26	54.62
240.494	79.62
240.728	74.62
240.961	63.62
241.195	77.62
241.429	84.62
241.662	86.62
241.896	90.62
242.13	76.62
242.363	67.62
242.597	70.62
242.83	83.62
243.064	77.62
243.298	69.62
243.531	62.62
243.765	85.62
243.998	64.62
244.232	103.62
244.465	80.62
244.699	77.62
244.932	73.62
245.166	76.62
245.399	74.62
245.633	65.62
245.866	90.62
246.099	78.62
246.333	69.62
246.566	75.62
246.8	73.62
247.033	88.62
247.266	80.62
247.5	73.62
247.733	86.62
247.966	81.62
248.2	74.62
248.433	90.62
248.666	83.62
248.899	79.62
249.133	85.62
249.366	74.62
249.599	76.62
249.832	74.62
250.066	87.62
250.299	73.62
250.532	75.62
250.765	79.62
250.998	77.62
251.231	98.62
251.465	98.62
251.698	73.62
251.931	94.62
252.164	87.62
252.397	60.62
252.63	71.62
252.863	73.62
253.096	98.62
253.329	78.62
253.562	92.62
253.795	69.62
254.028	91.62
254.261	75.62
254.494	73.62
254.727	82.62
254.96	89.62
255.193	74.62
255.426	79.62
255.659	81.62
255.892	87.62
256.124	73.62
256.357	81.62
256.59	88.62
256.823	89.62
257.056	90.62
257.289	74.62
257.521	83.62
257.754	82.62
257.987	78.62
258.22	100.62
258.452	85.62
258.685	74.62
258.918	75.62
259.151	98.62
259.383	81.62
259.616	79.62
259.849	74.62
260.081	85.62
260.314	83.62
260.547	75.62
260.779	71.62
261.012	87.62
261.244	83.62
261.477	100.62
261.71	75.62
261.942	83.62
262.175	81.62
262.407	80.62
262.64	81.62
262.872	79.62
263.105	86.62
263.337	87.62
263.57	84.62
263.802	88.62
264.035	85.62
264.267	85.62
264.499	81.62
264.732	69.62
264.964	79.62
265.197	89.62
265.429	80.62
265.661	75.62
265.894	85.62
266.126	78.62
266.358	87.62
266.591	86.62
266.823	86.62
267.055	85.62
267.287	74.62
267.52	86.62
267.752	91.62
267.984	86.62
268.216	85.62
268.448	96.62
268.681	92.62
268.913	80.62
269.145	82.62
269.377	87.62
269.609	91.62
269.841	86.62
270.073	79.62
270.306	74.62
270.538	91.62
270.77	97.62
271.002	85.62
271.234	77.62
271.466	90.62
271.698	80.62
271.93	85.62
272.162	87.62
272.394	105.62
272.626	91.62
272.858	66.62
273.09	66.62
273.322	109.62
273.553	82.62
273.785	93.62
274.017	99.62
274.249	69.62
274.481	84.62
274.713	77.62
274.945	94.62
275.176	87.62
275.408	79.62
275.64	85.62
275.872	87.62
276.104	93.62
276.335	93.62
276.567	89.62
276.799	74.62
277.031	73.62
277.262	89.62
277.494	85.62
277.726	89.62
277.957	76.62
278.189	92.62
278.421	76.62
278.652	85.62
278.884	100.62
279.115	97.62
279.347	86.62
279.579	97.62
279.81	85.62
280.042	79.62
280.273	95.62
280.505	71.62
280.736	96.62
280.968	89.62
281.199	82.62
281.431	82.62
281.662	82.62
281.894	75.62
282.125	91.62
282.356	83.62
282.588	90.62
282.819	86.62
283.051	81.62
283.282	77.62
283.513	90.62
283.745	86.62
283.976	82.62
284.207	85.62
284.439	96.62
284.67	80.62
284.901	87.62
285.132	95.62
285.364	90.62
285.595	88.62
285.826	77.62
286.057	93.62
286.288	93.62
286.52	92.62
286.751	85.62
286.982	98.62
287.213	83.62
287.444	92.62
287.675	80.62
287.906	83.62
288.138	92.62
288.369	101.62
288.6	84.62
288.831	98.62
289.062	94.62
289.293	83.62
289.524	73.62
289.755	74.62
289.986	79.62
290.217	84.62
290.448	99.62
290.679	93.62
290.91	84.62
291.141	96.62
291.371	93.62
291.602	89.62
291.833	85.62
292.064	100.62
292.295	86.62
292.526	75.62
292.757	89.62
292.987	89.62
293.218	82.62
293.449	86.62
293.68	79.62
293.91	94.62
294.141	109.62
294.372	89.62
294.603	94.62
294.833	94.62
295.064	74.62
295.295	85.62
295.525	83.62
295.756	97.62
295.987	90.62
296.217	99.62
296.448	95.62
296.679	87.62
296.909	92.62
297.14	94.62
297.37	76.62
297.601	102.62
297.831	94.62
298.062	82.62
298.292	84.62
298.523	89.62
298.753	93.62
298.984	73.62
299.214	100.62
299.445	103.62
299.675	111.62
299.905	125.62
300.136	102.62
300.366	117.62
300.597	106.62
300.827	93.62
301.057	86.62
301.288	92.62
301.518	94.62
301.748	103.62
301.979	111.62
302.209	88.62
302.439	86.62
302.669	91.62
302.9	89.62
303.13	95.62
303.36	93.62
303.59	74.62
303.82	105.62
304.051	82.62
304.281	83.62
304.511	80.62
304.741	77.62
304.971	101.62
305.201	88.62
305.431	92.62
305.661	90.62
305.891	95.62
306.121	89.62
306.352	82.62
306.582	82.62
306.812	93.62
307.042	96.62
307.272	80.62
307.502	79.62
307.731	87.62
307.961	119.62
308.191	103.62
308.421	105.62
308.651	90.62
308.881	97.62
309.111	109.62
309.341	102.62
309.571	103.62
309.8	88.62
310.03	92.62
310.26	108.62
310.49	83.62
310.72	89.62
310.949	94.62
311.179	84.62
311.409	86.62
311.639	100.62
311.868	85.62
312.098	97.62
312.328	90.62
312.557	91.62
312.787	92.62
313.017	85.62
313.246	100.62
313.476	93.62
313.706	98.62
313.935	93.62
314.165	84.62
314.394	94.62
314.624	98.62
314.853	87.62
315.083	95.62
315.312	102.62
315.542	78.62
315.771	95.62
316.001	100.62
316.23	102.62
316.46	94.62
316.689	111.62
316.919	83.62
317.148	100.62
317.377	94.62
317.607	104.62
317.836	114.62
318.065	105.62
318.295	102.62
318.524	83.62
318.753	91.62
318.983	85.62
319.212	86.62
319.441	86.62
319.67	91.62
319.9	81.62
320.129	84.62
320.358	90.62
320.587	104.62
320.816	87.62
321.046	78.62
321.275	93.62
321.504	92.62
321.733	94.62
321.962	93.62
322.191	105.62
322.42	86.62
322.649	106.62
322.878	102.62
323.108	90.62
323.337	87.62
323.566	90.62
323.795	80.62
324.024	91.62
324.253	97.62
324.482	93.62
324.71	82.62
324.939	105.62
325.168	89.62
325.397	93.62
325.626	82.62
325.855	72.62
326.084	91.62
326.313	93.62
326.542	85.62
326.77	91.62
326.999	97.62
327.228	93.62
327.457	69.62
327.686	85.62
327.914	92.62
328.143	106.62
328.372	88.62
328.6	87.62
328.829	95.62
329.058	86.62
329.287	72.62
329.515	92.62
329.744	107.62
329.972	101.62
330.201	103.62
330.43	106.62
330.658	75.62
330.887	101.62
331.115	102.62
331.344	113.62
331.572	83.62
331.801	91.62
332.03	86.62
332.258	87.62
332.486	97.62
332.715	97.62
332.943	109.62
333.172	116.62
333.4	90.62
333.629	94.62
333.857	94.62
334.085	91.62
334.314	99.62
334.542	100.62
334.771	93.62
334.999	108.62
335.227	95.62
335.455	129.62
335.684	110.62
335.912	119.62
336.14	107.62
336.369	97.62
336.597	102.62
336.825	93.62
337.053	90.62
337.281	97.62
337.51	92.62
337.738	115.62
337.966	101.62
338.194	100.62
338.422	100.62
338.65	90.62
338.878	84.62
339.106	101.62
339.334	101.62
339.562	98.62
339.79	111.62
340.018	99.62
340.246	94.62
340.474	87.62
340.702	100.62
340.93	90.62
341.158	85.62
341.386	97.62
341.614	80.62
341.842	95.62
342.07	92.62
342.298	80.62
342.526	89.62
342.754	88.62
342.981	84.62
343.209	93.62
343.437	108.62
343.665	107.62
343.893	102.62
344.12	102.62
344.348	119.62
344.576	117.62
344.804	121.62
345.031	109.62
345.259	93.62
345.487	80.62
345.714	89.62
345.942	90.62
346.17	86.62
346.397	85.62
346.625	107.62
346.853	82.62
347.08	110.62
347.308	95.62
347.535	95.62
347.763	88.62
347.99	94.62
348.218	88.62
348.445	98.62
348.673	100.62
348.9	92.62
349.128	102.62
349.355	97.62
349.583	96.62
349.81	99.62
350.037	94.62
350.265	92.62
350.492	90.62
350.72	100.62
350.947	83.62
351.174	99.62
351.402	97.62
351.629	101.62
351.856	94.62
352.083	91.62
352.311	93.62
352.538	83.62
352.765	85.62
352.992	98.62
353.22	84.62
353.447	84.62
353.674	101.62
353.901	97.62
354.128	91.62
354.355	75.62
354.583	75.62
354.81	94.62
355.037	85.62
355.264	102.62
355.491	87.62
355.718	91.62
355.945	99.62
356.172	103.62
356.399	86.62
356.626	110.62
356.853	101.62
357.08	108.62
357.307	99.62
357.534	83.62
357.761	90.62
357.988	103.62
358.215	103.62
358.441	107.62
358.668	113.62
358.895	92.62
359.122	89.62
359.349	85.62
359.576	96.62
359.802	83.62
360.029	96.62
360.256	99.62
360.483	101.62
360.709	103.62
360.936	108.62
361.163	90.62
361.39	107.62
361.616	118.62
361.843	114.62
362.07	119.62
362.296	132.62
362.523	144.62
362.749	143.62
362.976	158.62
363.203	163.62
363.429	156.62
363.656	138.62
363.882	141.62
364.109	178.62
364.335	196.62
364.562	170.62
364.788	139.62
365.015	120.62
365.241	105.62
365.468	107.62
365.694	119.62
365.92	100.62
366.147	113.62
366.373	97.62
366.599	97.62
366.826	106.62
367.052	97.62
367.278	99.62
367.505	92.62
367.731	95.62
367.957	102.62
368.184	91.62
368.41	102.62
368.636	83.62
368.862	92.62
369.089	102.62
369.315	103.62
369.541	101.62
369.767	90.62
369.993	103.62
370.219	104.62
370.445	101.62
370.672	97.62
370.898	97.62
371.124	92.62
371.35	89.62
371.576	95.62
371.802	99.62
372.028	109.62
372.254	97.62
372.48	109.62
372.706	102.62
372.932	95.62
373.158	94.62
373.384	107.62
373.61	117.62
373.835	118.62
374.061	105.62
374.287	121.62
374.513	100.62
374.739	102.62
374.965	110.62
375.191	109.62
375.416	103.62
375.642	102.62
375.868	115.62
376.094	113.62
376.319	107.62
376.545	103.62
376.771	92.62
376.997	99.62
377.222	101.62
377.448	92.62
377.674	99.62
377.899	105.62
378.125	102.62
378.35	113.62
378.576	91.62
378.802	90.62
379.027	93.62
379.253	100.62
379.478	98.62
379.704	93.62
379.929	91.62
380.155	91.62
380.38	104.62
380.606	90.62
380.831	93.62
381.057	108.62
381.282	107.62
381.507	101.62
381.733	101.62
381.958	103.62
382.184	110.62
382.409	95.62
382.634	104.62
382.86	95.62
383.085	106.62
383.31	109.62
383.535	122.62
383.761	105.62
383.986	102.62
384.211	118.62
384.436	110.62
384.662	102.62
384.887	103.62
385.112	88.62
385.337	115.62
385.562	110.62
385.787	118.62
386.013	102.62
386.238	101.62
386.463	105.62
386.688	110.62
386.913	102.62
387.138	113.62
387.363	110.62
387.588	123.62
387.813	117.62
388.038	95.62
388.263	118.62
388.488	98.62
388.713	97.62
388.938	91.62
389.163	101.62
389.387	106.62
389.612	100.62
389.837	112.62
390.062	120.62
390.287	104.62
390.512	106.62
390.736	109.62
390.961	84.62
391.186	113.62
391.411	115.62
391.636	97.62
391.86	114.62
392.085	121.62
392.31	119.62
392.534	141.62
392.759	165.62
392.984	266.62
393.208	430.62
393.433	614.62
393.658	466.62
393.882	238.62
394.107	148.62
394.331	178.62
394.556	184.62
394.78	143.62
395.005	131.62
395.229	117.62
395.454	125.62
395.678	149.62
395.903	183.62
396.127	235.62
396.352	262.62
396.576	281.62
396.801	409.62
397.025	492.62
397.249	278.62
397.474	206.62
397.698	150.62
397.922	113.62
398.147	103.62
398.371	105.62
398.595	91.62
398.82	83.62
399.044	101.62
399.268	102.62
399.492	92.62
399.717	89.62
399.941	116.62
400.165	107.62
400.389	92.62
400.613	95.62
400.837	92.62
401.062	115.62
401.286	93.62
401.51	106.62
401.734	107.62
401.958	105.62
402.182	103.62
402.406	97.62
402.63	101.62
402.854	95.62
403.078	104.62
403.302	122.62
403.526	113.62
403.75	129.62
403.974	151.62
404.198	197.62
404.422	352.62
404.645	427.62
404.869	355.62
405.093	224.62
405.317	133.62
405.541	119.62
405.765	118.62
405.988	98.62
406.212	121.62
406.436	95.62
406.66	110.62
406.883	117.62
407.107	123.62
407.331	111.62
407.555	129.62
407.778	127.62
408.002	139.62
408.226	118.62
408.449	88.62
408.673	104.62
408.896	107.62
409.12	105.62
409.344	124.62
409.567	119.62
409.791	113.62
410.014	131.62
410.238	135.62
410.461	124.62
410.685	114.62
410.908	94.62
411.132	103.62
411.355	100.62
411.578	99.62
411.802	100.62
412.025	108.62
412.249	93.62
412.472	106.62
412.695	94.62
412.919	97.62
413.142	86.62
413.365	93.62
413.589	100.62
413.812	92.62
414.035	92.62
414.258	103.62
414.482	100.62
414.705	81.62
414.928	105.62
415.151	104.62
415.374	108.62
415.597	101.62
415.821	89.62
416.044	97.62
416.267	91.62
416.49	89.62
416.713	100.62
416.936	98.62
417.159	89.62
417.382	92.62
417.605	96.62
417.828	98.62
418.051	97.62
418.274	100.62
418.497	97.62
418.72	96.62
418.943	108.62
419.166	108.62
419.389	96.62
419.611	113.62
419.834	109.62
420.057	99.62
420.28	107.62
420.503	110.62
420.726	111.62
420.948	107.62
421.171	122.62
421.394	153.62
421.617	185.62
421.839	215.62
422.062	284.62
422.285	420.62
422.507	663.62
422.73	851.62
422.953	794.62
423.175	549.62
423.398	312.62
423.621	225.62
423.843	181.62
424.066	153.62
424.288	146.62
424.511	121.62
424.733	119.62
424.956	115.62
425.178	113.62
425.401	109.62
425.623	105.62
425.846	106.62
426.068	97.62
426.291	106.62
426.513	105.62
426.735	106.62
426.958	112.62
427.18	99.62
427.402	110.62
427.625	121.62
427.847	114.62
428.069	146.62
428.292	268.62
428.514	282.62
428.736	201.62
428.958	254.62
429.181	252.62
429.403	150.62
429.625	157.62
429.847	240.62
430.069	369.62
430.292	449.62
430.514	419.62
430.736	294.62
430.958	298.62
431.18	181.62
431.402	119.62
431.624	157.62
431.846	235.62
432.068	287.62
432.29	143.62
432.512	114.62
432.734	89.62
432.956	109.62
433.178	102.62
433.4	95.62
433.622	91.62
433.844	98.62
434.066	94.62
434.287	104.62
434.509	104.62
434.731	106.62
434.953	92.62
435.175	110.62
435.397	100.62
435.618	111.62
435.84	95.62
436.062	99.62
436.284	96.62
436.505	110.62
436.727	111.62
436.949	88.62
437.17	79.62
437.392	99.62
437.614	87.62
437.835	97.62
438.057	98.62
438.278	100.62
438.5	104.62
438.721	107.62
438.943	97.62
439.165	93.62
439.386	101.62
439.608	97.62
439.829	90.62
440.05	83.62
440.272	98.62
440.493	104.62
440.715	101.62
440.936	98.62
441.158	109.62
441.379	114.62
441.6	110.62
441.822	109.62
442.043	117.62
442.264	159.62
442.486	274.62
442.707	405.62
442.928	249.62
443.149	212.62
443.371	392.62
443.592	676.62
443.813	538.62
444.034	243.62
444.255	150.62
444.476	125.62
444.698	156.62
444.919	171.62
445.14	319.62
445.361	529.62
445.582	835.62
445.803	680.62
446.024	270.62
446.245	134.62
446.466	137.62
446.687	116.62
446.908	103.62
447.129	94.62
447.35	102.62
447.571	90.62
447.792	95.62
448.013	96.62
448.234	94.62
448.455	76.62
448.675	94.62
448.896	98.62
449.117	101.62
449.338	94.62
449.559	89.62
449.779	100.62
450	106.62
450.221	95.62
450.442	93.62
450.662	93.62
450.883	93.62
451.104	95.62
451.324	78.62
451.545	90.62
451.766	112.62
451.986	114.62
452.207	113.62
452.428	115.62
452.648	108.62
452.869	123.62
453.089	121.62
453.31	105.62
453.53	116.62
453.751	121.62
453.971	106.62
454.192	115.62
454.412	92.62
454.633	89.62
454.853	100.62
455.073	87.62
455.294	99.62
455.514	93.62
455.734	98.62
455.955	99.62
456.175	103.62
456.395	100.62
456.616	93.62
456.836	113.62
457.056	106.62
457.276	97.62
457.497	93.62
457.717	122.62
457.937	154.62
458.157	204.62
458.377	222.62
458.598	205.62
458.818	218.62
459.038	165.62
459.258	124.62
459.478	113.62
459.698	107.62
459.918	103.62
460.138	95.62
460.358	112.62
460.578	154.62
460.798	212.62
461.018	199.62
461.238	102.62
461.458	98.62
461.678	91.62
461.898	95.62
462.118	101.62
462.338	99.62
462.558	96.62
462.777	83.62
462.997	103.62
463.217	95.62
463.437	93.62
463.657	107.62
463.876	85.62
464.096	97.62
464.316	79.62
464.536	98.62
464.755	99.62
464.975	94.62
465.195	103.62
465.414	85.62
465.634	92.62
465.854	87.62
466.073	101.62
466.293	104.62
466.512	96.62
466.732	93.62
466.951	91.62
467.171	102.62
467.391	80.62
467.61	83.62
467.829	100.62
468.049	106.62
468.268	105.62
468.488	103.62
468.707	90.62
468.927	87.62
469.146	94.62
469.365	93.62
469.585	102.62
469.804	98.62
470.023	89.62
470.243	95.62
470.462	94.62
470.681	93.62
470.901	81.62
471.12	86.62
471.339	87.62
471.558	86.62
471.777	100.62
471.997	98.62
472.216	106.62
472.435	92.62
472.654	98.62
472.873	99.62
473.092	87.62
473.311	97.62
473.53	102.62
473.749	86.62
473.968	89.62
474.187	100.62
474.406	91.62
474.625	97.62
474.844	114.62
475.063	90.62
475.282	96.62
475.501	98.62
475.72	96.62
475.939	106.62
476.158	101.62
476.377	86.62
476.596	86.62
476.814	103.62
477.033	105.62
477.252	80.62
477.471	89.62
477.69	95.62
477.908	95.62
478.127	109.62
478.346	107.62
478.564	105.62
478.783	91.62
479.002	100.62
479.22	91.62
479.439	87.62
479.658	98.62
479.876	103.62
480.095	89.62
480.313	92.62
480.532	94.62
480.751	101.62
480.969	113.62
481.188	117.62
481.406	108.62
481.624	110.62
481.843	91.62
482.061	104.62
482.28	101.62
482.498	102.62
482.717	102.62
482.935	100.62
483.153	102.62
483.372	108.62
483.59	101.62
483.808	111.62
484.027	104.62
484.245	108.62
484.463	119.62
484.681	109.62
484.9	102.62
485.118	117.62
485.336	94.62
485.554	113.62
485.772	117.62
485.99	107.62
486.209	103.62
486.427	91.62
486.645	121.62
486.863	113.62
487.081	115.62
487.299	151.62
487.517	148.62
487.735	197.62
487.953	306.62
488.171	300.62
488.389	166.62
488.607	123.62
488.825	115.62
489.043	103.62
489.261	121.62
489.479	112.62
489.696	115.62
489.914	129.62
490.132	111.62
490.35	97.62
490.568	100.62
490.786	106.62
491.003	97.62
491.221	117.62
491.439	107.62
491.657	123.62
491.874	102.62
492.092	107.62
492.31	95.62
492.527	98.62
492.745	92.62
492.963	110.62
493.18	109.62
493.398	107.62
493.615	94.62
493.833	93.62
494.05	88.62
494.268	117.62
494.485	86.62
494.703	97.62
494.92	99.62
495.138	99.62
495.355	102.62
495.573	118.62
495.79	103.62
496.008	114.62
496.225	122.62
496.442	116.62
496.66	107.62
496.877	111.62
497.094	102.62
497.312	98.62
497.529	105.62
497.746	86.62
497.963	102.62
498.181	114.62
498.398	116.62
498.615	106.62
498.832	113.62
499.049	103.62
499.267	92.62
499.484	97.62
499.701	104.62
499.918	124.62
500.135	125.62
500.352	120.62
500.569	109.62
500.786	118.62
501.003	104.62
501.22	93.62
501.437	113.62
501.654	110.62
501.871	99.62
502.088	101.62
502.305	103.62
502.522	100.62
502.739	84.62
502.956	101.62
503.172	97.62
503.389	98.62
503.606	106.62
503.823	116.62
504.04	147.62
504.256	214.62
504.473	218.62
504.69	159.62
504.907	132.62
505.123	115.62
505.34	125.62
505.557	116.62
505.773	115.62
505.99	120.62
506.207	102.62
506.423	98.62
506.64	104.62
506.856	104.62
507.073	94.62
507.289	99.62
507.506	90.62
507.722	101.62
507.939	97.62
508.155	103.62
508.372	100.62
508.588	89.62
508.805	102.62
509.021	108.62
509.238	110.62
509.454	106.62
509.67	113.62
509.887	113.62
510.103	120.62
510.319	118.62
510.536	108.62
510.752	113.62
510.968	111.62
511.184	113.62
511.401	113.62
511.617	106.62
511.833	113.62
512.049	113.62
512.265	105.62
