Data from 2145_3_HRD10591_00046.txt Node
Date: Mon Jan 19 14:23:30 EST 2026
User: Yrep
Spectrometer: HR+D1059
Trigger mode: 1
Integration Time (sec): 1.000000E-1
Scans to average: 1
Electric dark correction enabled: true
Nonlinearity correction enabled: false
Boxcar width: 0
XAxis mode: Wavelengths
Number of Pixels in Spectrum: 2048
>>>>>Begin Spectral Data<<<<<
223.165	-8.88
223.4	-8.88
223.635	-8.88
223.869	-24.88
224.104	-29.88
224.338	-14.88
224.573	-3.88
224.808	-22.88
225.042	-7.88
225.277	2.12
225.511	-7.88
225.746	11.12
225.98	11.12
226.215	9.12
226.449	23.12
226.683	21.12
226.918	24.12
227.152	19.12
227.387	45.12
227.621	33.12
227.856	31.12
228.09	42.12
228.324	42.12
228.559	50.12
228.793	47.12
229.027	60.12
229.262	73.12
229.496	75.12
229.73	69.12
229.964	70.12
230.199	72.12
230.433	67.12
230.667	75.12
230.901	78.12
231.136	69.12
231.37	89.12
231.604	72.12
231.838	87.12
232.072	79.12
232.306	74.12
232.541	76.12
232.775	86.12
233.009	79.12
233.243	89.12
233.477	87.12
233.711	66.12
233.945	83.12
234.179	75.12
234.413	75.12
234.647	74.12
234.881	74.12
235.115	78.12
235.349	87.12
235.583	77.12
235.817	65.12
236.051	83.12
236.285	67.12
236.519	62.12
236.753	74.12
236.987	66.12
237.221	75.12
237.455	78.12
237.689	69.12
237.922	71.12
238.156	82.12
238.39	80.12
238.624	66.12
238.858	64.12
239.091	73.12
239.325	62.12
239.559	81.12
239.793	65.12
240.027	63.12
240.26	59.12
240.494	86.12
240.728	89.12
240.961	69.12
241.195	72.12
241.429	74.12
241.662	83.12
241.896	65.12
242.13	83.12
242.363	79.12
242.597	73.12
242.83	64.12
243.064	55.12
243.298	67.12
243.531	76.12
243.765	56.12
243.998	75.12
244.232	67.12
244.465	70.12
244.699	74.12
244.932	72.12
245.166	78.12
245.399	81.12
245.633	63.12
245.866	86.12
246.099	83.12
246.333	69.12
246.566	81.12
246.8	85.12
247.033	79.12
247.266	81.12
247.5	57.12
247.733	69.12
247.966	74.12
248.2	65.12
248.433	71.12
248.666	90.12
248.899	66.12
249.133	69.12
249.366	73.12
249.599	89.12
249.832	78.12
250.066	82.12
250.299	70.12
250.532	74.12
250.765	79.12
250.998	75.12
251.231	85.12
251.465	87.12
251.698	65.12
251.931	71.12
252.164	79.12
252.397	73.12
252.63	79.12
252.863	64.12
253.096	71.12
253.329	77.12
253.562	65.12
253.795	78.12
254.028	67.12
254.261	69.12
254.494	65.12
254.727	71.12
254.96	65.12
255.193	83.12
255.426	85.12
255.659	72.12
255.892	79.12
256.124	76.12
256.357	75.12
256.59	81.12
256.823	77.12
257.056	82.12
257.289	79.12
257.521	78.12
257.754	74.12
257.987	65.12
258.22	72.12
258.452	72.12
258.685	68.12
258.918	79.12
259.151	73.12
259.383	78.12
259.616	59.12
259.849	89.12
260.081	90.12
260.314	88.12
260.547	74.12
260.779	79.12
261.012	78.12
261.244	86.12
261.477	86.12
261.71	80.12
261.942	75.12
262.175	63.12
262.407	81.12
262.64	81.12
262.872	88.12
263.105	80.12
263.337	89.12
263.57	91.12
263.802	90.12
264.035	73.12
264.267	85.12
264.499	89.12
264.732	89.12
264.964	73.12
265.197	82.12
265.429	85.12
265.661	89.12
265.894	89.12
266.126	79.12
266.358	71.12
266.591	66.12
266.823	65.12
267.055	73.12
267.287	88.12
267.52	82.12
267.752	72.12
267.984	81.12
268.216	83.12
268.448	73.12
268.681	72.12
268.913	76.12
269.145	78.12
269.377	76.12
269.609	83.12
269.841	83.12
270.073	94.12
270.306	71.12
270.538	66.12
270.77	74.12
271.002	94.12
271.234	66.12
271.466	83.12
271.698	79.12
271.93	79.12
272.162	91.12
272.394	88.12
272.626	90.12
272.858	71.12
273.09	79.12
273.322	81.12
273.553	72.12
273.785	74.12
274.017	94.12
274.249	101.12
274.481	77.12
274.713	72.12
274.945	76.12
275.176	87.12
275.408	73.12
275.64	71.12
275.872	85.12
276.104	73.12
276.335	81.12
276.567	87.12
276.799	73.12
277.031	73.12
277.262	77.12
277.494	82.12
277.726	94.12
277.957	74.12
278.189	86.12
278.421	82.12
278.652	74.12
278.884	73.12
279.115	79.12
279.347	78.12
279.579	80.12
279.81	84.12
280.042	70.12
280.273	89.12
280.505	89.12
280.736	66.12
280.968	79.12
281.199	84.12
281.431	81.12
281.662	82.12
281.894	76.12
282.125	85.12
282.356	83.12
282.588	102.12
282.819	79.12
283.051	82.12
283.282	82.12
283.513	78.12
283.745	87.12
283.976	90.12
284.207	94.12
284.439	81.12
284.67	83.12
284.901	82.12
285.132	95.12
285.364	83.12
285.595	92.12
285.826	81.12
286.057	89.12
286.288	95.12
286.52	74.12
286.751	91.12
286.982	69.12
287.213	81.12
287.444	77.12
287.675	83.12
287.906	72.12
288.138	89.12
288.369	83.12
288.6	81.12
288.831	70.12
289.062	92.12
289.293	82.12
289.524	70.12
289.755	74.12
289.986	82.12
290.217	92.12
290.448	78.12
290.679	73.12
290.91	83.12
291.141	64.12
291.371	91.12
291.602	88.12
291.833	88.12
292.064	85.12
292.295	83.12
292.526	90.12
292.757	81.12
292.987	82.12
293.218	63.12
293.449	84.12
293.68	81.12
293.91	75.12
294.141	86.12
294.372	75.12
294.603	86.12
294.833	92.12
295.064	94.12
295.295	80.12
295.525	78.12
295.756	81.12
295.987	77.12
296.217	94.12
296.448	74.12
296.679	87.12
296.909	78.12
297.14	79.12
297.37	90.12
297.601	76.12
297.831	75.12
298.062	87.12
298.292	90.12
298.523	72.12
298.753	93.12
298.984	69.12
299.214	98.12
299.445	95.12
299.675	95.12
299.905	97.12
300.136	93.12
300.366	74.12
300.597	85.12
300.827	86.12
301.057	97.12
301.288	82.12
301.518	71.12
301.748	85.12
301.979	105.12
302.209	77.12
302.439	82.12
302.669	69.12
302.9	70.12
303.13	87.12
303.36	94.12
303.59	98.12
303.82	89.12
304.051	80.12
304.281	85.12
304.511	82.12
304.741	80.12
304.971	77.12
305.201	90.12
305.431	89.12
305.661	98.12
305.891	82.12
306.121	93.12
306.352	77.12
306.582	72.12
306.812	87.12
307.042	91.12
307.272	94.12
307.502	81.12
307.731	85.12
307.961	87.12
308.191	85.12
308.421	109.12
308.651	93.12
308.881	79.12
309.111	71.12
309.341	100.12
309.571	93.12
309.8	85.12
310.03	80.12
310.26	89.12
310.49	87.12
310.72	87.12
310.949	81.12
311.179	85.12
311.409	81.12
311.639	83.12
311.868	96.12
312.098	89.12
312.328	78.12
312.557	96.12
312.787	90.12
313.017	88.12
313.246	98.12
313.476	85.12
313.706	89.12
313.935	83.12
314.165	83.12
314.394	91.12
314.624	73.12
314.853	81.12
315.083	85.12
315.312	88.12
315.542	86.12
315.771	86.12
316.001	85.12
316.23	102.12
316.46	98.12
316.689	87.12
316.919	90.12
317.148	80.12
317.377	90.12
317.607	97.12
317.836	80.12
318.065	85.12
318.295	95.12
318.524	76.12
318.753	85.12
318.983	95.12
319.212	87.12
319.441	89.12
319.67	88.12
319.9	76.12
320.129	90.12
320.358	87.12
320.587	92.12
320.816	93.12
321.046	97.12
321.275	69.12
321.504	82.12
321.733	83.12
321.962	99.12
322.191	89.12
322.42	87.12
322.649	83.12
322.878	98.12
323.108	89.12
323.337	91.12
323.566	79.12
323.795	89.12
324.024	89.12
324.253	102.12
324.482	93.12
324.71	89.12
324.939	84.12
325.168	82.12
325.397	77.12
325.626	84.12
325.855	81.12
326.084	83.12
326.313	98.12
326.542	90.12
326.77	98.12
326.999	94.12
327.228	83.12
327.457	90.12
327.686	91.12
327.914	81.12
328.143	105.12
328.372	88.12
328.6	88.12
328.829	85.12
329.058	89.12
329.287	88.12
329.515	83.12
329.744	94.12
329.972	79.12
330.201	79.12
330.43	94.12
330.658	86.12
330.887	87.12
331.115	98.12
331.344	101.12
331.572	90.12
331.801	91.12
332.03	94.12
332.258	93.12
332.486	66.12
332.715	76.12
332.943	85.12
333.172	86.12
333.4	96.12
333.629	75.12
333.857	75.12
334.085	89.12
334.314	76.12
334.542	94.12
334.771	97.12
334.999	84.12
335.227	94.12
335.455	92.12
335.684	100.12
335.912	99.12
336.14	93.12
336.369	93.12
336.597	79.12
336.825	84.12
337.053	71.12
337.281	96.12
337.51	83.12
337.738	92.12
337.966	97.12
338.194	93.12
338.422	77.12
338.65	74.12
338.878	96.12
339.106	73.12
339.334	87.12
339.562	89.12
339.79	81.12
340.018	83.12
340.246	89.12
340.474	82.12
340.702	90.12
340.93	81.12
341.158	71.12
341.386	77.12
341.614	85.12
341.842	71.12
342.07	86.12
342.298	89.12
342.526	88.12
342.754	89.12
342.981	81.12
343.209	89.12
343.437	97.12
343.665	95.12
343.893	84.12
344.12	100.12
344.348	89.12
344.576	101.12
344.804	101.12
345.031	90.12
345.259	89.12
345.487	91.12
345.714	81.12
345.942	91.12
346.17	83.12
346.397	81.12
346.625	82.12
346.853	79.12
347.08	75.12
347.308	83.12
347.535	81.12
347.763	71.12
347.99	89.12
348.218	101.12
348.445	80.12
348.673	81.12
348.9	98.12
349.128	96.12
349.355	95.12
349.583	95.12
349.81	81.12
350.037	83.12
350.265	84.12
350.492	78.12
350.72	83.12
350.947	78.12
351.174	84.12
351.402	76.12
351.629	93.12
351.856	86.12
352.083	89.12
352.311	87.12
352.538	80.12
352.765	77.12
352.992	98.12
353.22	88.12
353.447	88.12
353.674	103.12
353.901	97.12
354.128	77.12
354.355	82.12
354.583	87.12
354.81	91.12
355.037	98.12
355.264	99.12
355.491	81.12
355.718	88.12
355.945	91.12
356.172	91.12
356.399	75.12
356.626	87.12
356.853	86.12
357.08	107.12
357.307	78.12
357.534	82.12
357.761	93.12
357.988	89.12
358.215	86.12
358.441	94.12
358.668	101.12
358.895	79.12
359.122	76.12
359.349	85.12
359.576	83.12
359.802	92.12
360.029	91.12
360.256	86.12
360.483	81.12
360.709	77.12
360.936	89.12
361.163	72.12
361.39	69.12
361.616	72.12
361.843	96.12
362.07	95.12
362.296	102.12
362.523	103.12
362.749	123.12
362.976	135.12
363.203	131.12
363.429	107.12
363.656	111.12
363.882	99.12
364.109	106.12
364.335	137.12
364.562	130.12
364.788	119.12
365.015	101.12
365.241	95.12
365.468	101.12
365.694	96.12
365.92	93.12
366.147	82.12
366.373	87.12
366.599	85.12
366.826	86.12
367.052	87.12
367.278	75.12
367.505	94.12
367.731	99.12
367.957	88.12
368.184	85.12
368.41	99.12
368.636	83.12
368.862	93.12
369.089	81.12
369.315	85.12
369.541	90.12
369.767	91.12
369.993	91.12
370.219	104.12
370.445	93.12
370.672	76.12
370.898	65.12
371.124	88.12
371.35	85.12
371.576	78.12
371.802	97.12
372.028	92.12
372.254	90.12
372.48	93.12
372.706	88.12
372.932	80.12
373.158	96.12
373.384	87.12
373.61	98.12
373.835	106.12
374.061	87.12
374.287	93.12
374.513	84.12
374.739	97.12
374.965	99.12
375.191	94.12
375.416	77.12
375.642	91.12
375.868	91.12
376.094	100.12
376.319	85.12
376.545	75.12
376.771	81.12
376.997	91.12
377.222	90.12
377.448	68.12
377.674	97.12
377.899	83.12
378.125	86.12
378.35	88.12
378.576	78.12
378.802	85.12
379.027	94.12
379.253	83.12
379.478	90.12
379.704	104.12
379.929	90.12
380.155	83.12
380.38	96.12
380.606	95.12
380.831	81.12
381.057	89.12
381.282	74.12
381.507	83.12
381.733	101.12
381.958	86.12
382.184	87.12
382.409	95.12
382.634	90.12
382.86	100.12
383.085	94.12
383.31	91.12
383.535	86.12
383.761	93.12
383.986	99.12
384.211	92.12
384.436	91.12
384.662	97.12
384.887	81.12
385.112	81.12
385.337	90.12
385.562	97.12
385.787	96.12
386.013	102.12
386.238	89.12
386.463	95.12
386.688	108.12
386.913	99.12
387.138	73.12
387.363	97.12
387.588	99.12
387.813	98.12
388.038	100.12
388.263	106.12
388.488	94.12
388.713	88.12
388.938	93.12
389.163	99.12
389.387	88.12
389.612	83.12
389.837	98.12
390.062	95.12
390.287	84.12
390.512	102.12
390.736	115.12
390.961	79.12
391.186	93.12
391.411	87.12
391.636	86.12
391.86	92.12
392.085	110.12
392.31	101.12
392.534	105.12
392.759	122.12
392.984	157.12
393.208	253.12
393.433	336.12
393.658	261.12
393.882	132.12
394.107	103.12
394.331	128.12
394.556	129.12
394.78	126.12
395.005	95.12
395.229	106.12
395.454	105.12
395.678	105.12
395.903	126.12
396.127	143.12
396.352	166.12
396.576	183.12
396.801	250.12
397.025	284.12
397.249	166.12
397.474	145.12
397.698	97.12
397.922	86.12
398.147	98.12
398.371	81.12
398.595	87.12
398.82	96.12
399.044	76.12
399.268	75.12
399.492	82.12
399.717	90.12
399.941	96.12
400.165	77.12
400.389	80.12
400.613	87.12
400.837	95.12
401.062	90.12
401.286	75.12
401.51	91.12
401.734	93.12
401.958	85.12
402.182	82.12
402.406	85.12
402.63	88.12
402.854	86.12
403.078	91.12
403.302	97.12
403.526	83.12
403.75	101.12
403.974	103.12
404.198	128.12
404.422	178.12
404.645	209.12
404.869	171.12
405.093	113.12
405.317	110.12
405.541	86.12
405.765	93.12
405.988	85.12
406.212	84.12
406.436	78.12
406.66	94.12
406.883	110.12
407.107	92.12
407.331	86.12
407.555	93.12
407.778	112.12
408.002	127.12
408.226	91.12
408.449	93.12
408.673	99.12
408.896	105.12
409.12	91.12
409.344	91.12
409.567	101.12
409.791	102.12
410.014	96.12
410.238	89.12
410.461	97.12
410.685	93.12
410.908	106.12
411.132	102.12
411.355	85.12
411.578	88.12
411.802	90.12
412.025	95.12
412.249	95.12
412.472	92.12
412.695	83.12
412.919	86.12
413.142	97.12
413.365	95.12
413.589	71.12
413.812	86.12
414.035	98.12
414.258	83.12
414.482	91.12
414.705	78.12
414.928	87.12
415.151	82.12
415.374	78.12
415.597	89.12
415.821	78.12
416.044	84.12
416.267	77.12
416.49	94.12
416.713	87.12
416.936	78.12
417.159	98.12
417.382	84.12
417.605	79.12
417.828	93.12
418.051	84.12
418.274	101.12
418.497	88.12
418.72	92.12
418.943	98.12
419.166	102.12
419.389	93.12
419.611	81.12
419.834	107.12
420.057	98.12
420.28	98.12
420.503	86.12
420.726	102.12
420.948	104.12
421.171	118.12
421.394	129.12
421.617	132.12
421.839	151.12
422.062	158.12
422.285	214.12
422.507	401.12
422.73	530.12
422.953	474.12
423.175	301.12
423.398	185.12
423.621	125.12
423.843	118.12
424.066	122.12
424.288	106.12
424.511	96.12
424.733	93.12
424.956	105.12
425.178	98.12
425.401	106.12
425.623	92.12
425.846	86.12
426.068	83.12
426.291	89.12
426.513	99.12
426.735	85.12
426.958	99.12
427.18	110.12
427.402	94.12
427.625	96.12
427.847	104.12
428.069	106.12
428.292	150.12
428.514	166.12
428.736	127.12
428.958	147.12
429.181	149.12
429.403	120.12
429.625	118.12
429.847	151.12
430.069	217.12
430.292	235.12
430.514	221.12
430.736	155.12
430.958	164.12
431.18	104.12
431.402	103.12
431.624	101.12
431.846	136.12
432.068	170.12
432.29	115.12
432.512	99.12
432.734	103.12
432.956	98.12
433.178	82.12
433.4	89.12
433.622	110.12
433.844	84.12
434.066	94.12
434.287	89.12
434.509	85.12
434.731	82.12
434.953	97.12
435.175	78.12
435.397	90.12
435.618	98.12
435.84	97.12
436.062	90.12
436.284	84.12
436.505	83.12
436.727	77.12
436.949	81.12
437.17	89.12
437.392	84.12
437.614	84.12
437.835	95.12
438.057	78.12
438.278	94.12
438.5	99.12
438.721	82.12
438.943	85.12
439.165	84.12
439.386	83.12
439.608	85.12
439.829	89.12
440.05	98.12
440.272	101.12
440.493	107.12
440.715	98.12
440.936	98.12
441.158	83.12
441.379	87.12
441.6	78.12
441.822	95.12
442.043	102.12
442.264	119.12
442.486	160.12
442.707	248.12
442.928	159.12
443.149	137.12
443.371	211.12
443.592	370.12
443.813	303.12
444.034	145.12
444.255	100.12
444.476	93.12
444.698	94.12
444.919	97.12
445.14	237.12
445.361	281.12
445.582	422.12
445.803	377.12
446.024	183.12
446.245	106.12
446.466	94.12
446.687	73.12
446.908	98.12
447.129	93.12
447.35	82.12
447.571	96.12
447.792	92.12
448.013	87.12
448.234	85.12
448.455	81.12
448.675	77.12
448.896	75.12
449.117	73.12
449.338	81.12
449.559	91.12
449.779	83.12
450	84.12
450.221	78.12
450.442	91.12
450.662	86.12
450.883	95.12
451.104	103.12
451.324	86.12
451.545	90.12
451.766	85.12
451.986	90.12
452.207	84.12
452.428	100.12
452.648	87.12
452.869	103.12
453.089	91.12
453.31	86.12
453.53	89.12
453.751	90.12
453.971	86.12
454.192	84.12
454.412	70.12
454.633	89.12
454.853	88.12
455.073	90.12
455.294	79.12
455.514	92.12
455.734	72.12
455.955	90.12
456.175	81.12
456.395	92.12
456.616	99.12
456.836	96.12
457.056	76.12
457.276	77.12
457.497	92.12
457.717	98.12
457.937	121.12
458.157	143.12
458.377	133.12
458.598	130.12
458.818	162.12
459.038	113.12
459.258	88.12
459.478	87.12
459.698	98.12
459.918	88.12
460.138	83.12
460.358	81.12
460.578	100.12
460.798	156.12
461.018	158.12
461.238	99.12
461.458	69.12
461.678	91.12
461.898	93.12
462.118	104.12
462.338	84.12
462.558	75.12
462.777	77.12
462.997	99.12
463.217	78.12
463.437	81.12
463.657	86.12
463.876	88.12
464.096	69.12
464.316	86.12
464.536	87.12
464.755	88.12
464.975	93.12
465.195	79.12
465.414	77.12
465.634	90.12
465.854	71.12
466.073	93.12
466.293	93.12
466.512	96.12
466.732	83.12
466.951	72.12
467.171	87.12
467.391	89.12
467.61	83.12
467.829	77.12
468.049	84.12
468.268	82.12
468.488	74.12
468.707	95.12
468.927	91.12
469.146	81.12
469.365	90.12
469.585	89.12
469.804	93.12
470.023	85.12
470.243	89.12
470.462	85.12
470.681	85.12
470.901	71.12
471.12	87.12
471.339	93.12
471.558	85.12
471.777	94.12
471.997	83.12
472.216	83.12
472.435	73.12
472.654	88.12
472.873	90.12
473.092	95.12
473.311	83.12
473.53	104.12
473.749	85.12
473.968	91.12
474.187	87.12
474.406	91.12
474.625	75.12
474.844	87.12
475.063	92.12
475.282	82.12
475.501	76.12
475.72	91.12
475.939	78.12
476.158	82.12
476.377	86.12
476.596	86.12
476.814	90.12
477.033	82.12
477.252	81.12
477.471	84.12
477.69	90.12
477.908	71.12
478.127	84.12
478.346	90.12
478.564	96.12
478.783	86.12
479.002	85.12
479.22	99.12
479.439	81.12
479.658	80.12
479.876	88.12
480.095	79.12
480.313	89.12
480.532	96.12
480.751	99.12
480.969	94.12
481.188	94.12
481.406	85.12
481.624	81.12
481.843	87.12
482.061	89.12
482.28	89.12
482.498	95.12
482.717	99.12
482.935	93.12
483.153	90.12
483.372	97.12
483.59	101.12
483.808	77.12
484.027	87.12
484.245	93.12
484.463	85.12
484.681	106.12
484.9	96.12
485.118	79.12
485.336	79.12
485.554	85.12
485.772	76.12
485.99	71.12
486.209	90.12
486.427	84.12
486.645	90.12
486.863	96.12
487.081	87.12
487.299	99.12
487.517	113.12
487.735	122.12
487.953	198.12
488.171	185.12
488.389	109.12
488.607	100.12
488.825	89.12
489.043	75.12
489.261	82.12
489.479	94.12
489.696	85.12
489.914	97.12
490.132	83.12
490.35	86.12
490.568	89.12
490.786	89.12
491.003	94.12
491.221	81.12
491.439	80.12
491.657	79.12
491.874	77.12
492.092	86.12
492.31	93.12
492.527	100.12
492.745	90.12
492.963	85.12
493.18	91.12
493.398	107.12
493.615	104.12
493.833	93.12
494.05	96.12
494.268	86.12
494.485	80.12
494.703	85.12
494.92	97.12
495.138	92.12
495.355	85.12
495.573	81.12
495.79	92.12
496.008	96.12
496.225	105.12
496.442	93.12
496.66	108.12
496.877	83.12
497.094	91.12
497.312	102.12
497.529	87.12
497.746	98.12
497.963	100.12
498.181	94.12
498.398	113.12
498.615	89.12
498.832	83.12
499.049	95.12
499.267	103.12
499.484	86.12
499.701	84.12
499.918	87.12
500.135	102.12
500.352	94.12
500.569	89.12
500.786	95.12
501.003	89.12
501.22	79.12
501.437	91.12
501.654	91.12
501.871	94.12
502.088	86.12
502.305	89.12
502.522	83.12
502.739	93.12
502.956	103.12
503.172	94.12
503.389	84.12
503.606	95.12
503.823	107.12
504.04	117.12
504.256	161.12
504.473	147.12
504.69	119.12
504.907	89.12
505.123	88.12
505.34	98.12
505.557	90.12
505.773	93.12
505.99	80.12
506.207	89.12
506.423	95.12
506.64	89.12
506.856	93.12
507.073	82.12
507.289	76.12
507.506	96.12
507.722	83.12
507.939	83.12
508.155	92.12
508.372	85.12
508.588	70.12
508.805	93.12
509.021	94.12
509.238	103.12
509.454	77.12
509.67	99.12
509.887	95.12
510.103	105.12
510.319	97.12
510.536	84.12
510.752	96.12
510.968	93.12
511.184	86.12
511.401	95.12
511.617	110.12
511.833	111.12
512.049	90.12
512.265	91.12
512.481	90.12
512.698	89.12
512.914	87.12
513.13	83.12
513.346	86.12
513.562	82.12
513.778	72.12
513.994	81.12
514.21	85.12
514.426	95.12
514.642	94.12
514.858	85.12
515.074	95.12
515.29	110.12
515.506	102.12
515.721	93.12
515.937	89.12
516.153	104.12
516.369	83.12
516.585	88.12
516.801	79.12
517.016	101.12
517.232	89.12
517.448	96.12
517.664	86.12
