Data from 2145_3_HRD10591_00021.txt Node
Date: Mon Jan 19 14:23:17 EST 2026
User: Yrep
Spectrometer: HR+D1059
Trigger mode: 1
Integration Time (sec): 1.000000E-1
Scans to average: 1
Electric dark correction enabled: true
Nonlinearity correction enabled: false
Boxcar width: 0
XAxis mode: Wavelengths
Number of Pixels in Spectrum: 2048
>>>>>Begin Spectral Data<<<<<
223.165	-10.69
223.4	-10.69
223.635	-10.69
223.869	-18.69
224.104	-20.69
224.338	-12.69
224.573	-18.69
224.808	1.31
225.042	-7.69
225.277	-2.69
225.511	-3.69
225.746	-3.69
225.98	0.31
226.215	14.31
226.449	20.31
226.683	15.31
226.918	19.31
227.152	28.31
227.387	39.31
227.621	46.31
227.856	31.31
228.09	58.31
228.324	52.31
228.559	61.31
228.793	61.31
229.027	65.31
229.262	61.31
229.496	69.31
229.73	67.31
229.964	73.31
230.199	76.31
230.433	83.31
230.667	83.31
230.901	76.31
231.136	69.31
231.37	78.31
231.604	84.31
231.838	82.31
232.072	79.31
232.306	80.31
232.541	89.31
232.775	65.31
233.009	77.31
233.243	74.31
233.477	77.31
233.711	82.31
233.945	79.31
234.179	69.31
234.413	93.31
234.647	85.31
234.881	71.31
235.115	91.31
235.349	71.31
235.583	81.31
235.817	72.31
236.051	81.31
236.285	72.31
236.519	72.31
236.753	87.31
236.987	87.31
237.221	69.31
237.455	67.31
237.689	68.31
237.922	82.31
238.156	75.31
238.39	75.31
238.624	62.31
238.858	87.31
239.091	77.31
239.325	63.31
239.559	81.31
239.793	85.31
240.027	78.31
240.26	85.31
240.494	81.31
240.728	76.31
240.961	81.31
241.195	73.31
241.429	74.31
241.662	66.31
241.896	62.31
242.13	82.31
242.363	76.31
242.597	87.31
242.83	86.31
243.064	74.31
243.298	72.31
243.531	73.31
243.765	83.31
243.998	69.31
244.232	77.31
244.465	87.31
244.699	85.31
244.932	81.31
245.166	71.31
245.399	80.31
245.633	68.31
245.866	78.31
246.099	67.31
246.333	79.31
246.566	79.31
246.8	95.31
247.033	83.31
247.266	81.31
247.5	72.31
247.733	81.31
247.966	65.31
248.2	89.31
248.433	79.31
248.666	78.31
248.899	77.31
249.133	91.31
249.366	80.31
249.599	71.31
249.832	73.31
250.066	82.31
250.299	71.31
250.532	71.31
250.765	79.31
250.998	73.31
251.231	84.31
251.465	78.31
251.698	75.31
251.931	89.31
252.164	73.31
252.397	84.31
252.63	86.31
252.863	65.31
253.096	86.31
253.329	89.31
253.562	91.31
253.795	71.31
254.028	95.31
254.261	84.31
254.494	71.31
254.727	84.31
254.96	72.31
255.193	82.31
255.426	77.31
255.659	73.31
255.892	84.31
256.124	72.31
256.357	69.31
256.59	84.31
256.823	82.31
257.056	78.31
257.289	80.31
257.521	77.31
257.754	76.31
257.987	78.31
258.22	78.31
258.452	82.31
258.685	85.31
258.918	70.31
259.151	81.31
259.383	85.31
259.616	91.31
259.849	75.31
260.081	83.31
260.314	81.31
260.547	83.31
260.779	75.31
261.012	72.31
261.244	70.31
261.477	80.31
261.71	74.31
261.942	63.31
262.175	71.31
262.407	81.31
262.64	63.31
262.872	75.31
263.105	77.31
263.337	76.31
263.57	86.31
263.802	81.31
264.035	73.31
264.267	90.31
264.499	86.31
264.732	92.31
264.964	75.31
265.197	84.31
265.429	79.31
265.661	86.31
265.894	88.31
266.126	96.31
266.358	74.31
266.591	82.31
266.823	76.31
267.055	80.31
267.287	92.31
267.52	76.31
267.752	80.31
267.984	58.31
268.216	88.31
268.448	82.31
268.681	100.31
268.913	93.31
269.145	96.31
269.377	78.31
269.609	59.31
269.841	81.31
270.073	73.31
270.306	85.31
270.538	83.31
270.77	86.31
271.002	78.31
271.234	68.31
271.466	88.31
271.698	74.31
271.93	77.31
272.162	84.31
272.394	90.31
272.626	89.31
272.858	93.31
273.09	88.31
273.322	78.31
273.553	96.31
273.785	62.31
274.017	95.31
274.249	88.31
274.481	88.31
274.713	79.31
274.945	85.31
275.176	82.31
275.408	83.31
275.64	86.31
275.872	101.31
276.104	75.31
276.335	76.31
276.567	76.31
276.799	84.31
277.031	79.31
277.262	87.31
277.494	86.31
277.726	86.31
277.957	73.31
278.189	76.31
278.421	87.31
278.652	85.31
278.884	80.31
279.115	103.31
279.347	91.31
279.579	97.31
279.81	81.31
280.042	92.31
280.273	79.31
280.505	83.31
280.736	83.31
280.968	88.31
281.199	85.31
281.431	81.31
281.662	91.31
281.894	76.31
282.125	73.31
282.356	84.31
282.588	83.31
282.819	82.31
283.051	80.31
283.282	96.31
283.513	97.31
283.745	76.31
283.976	87.31
284.207	76.31
284.439	85.31
284.67	85.31
284.901	75.31
285.132	78.31
285.364	97.31
285.595	101.31
285.826	85.31
286.057	69.31
286.288	90.31
286.52	80.31
286.751	71.31
286.982	71.31
287.213	75.31
287.444	83.31
287.675	69.31
287.906	101.31
288.138	97.31
288.369	89.31
288.6	83.31
288.831	87.31
289.062	73.31
289.293	74.31
289.524	83.31
289.755	88.31
289.986	90.31
290.217	87.31
290.448	83.31
290.679	97.31
290.91	80.31
291.141	72.31
291.371	76.31
291.602	88.31
291.833	83.31
292.064	95.31
292.295	85.31
292.526	76.31
292.757	78.31
292.987	75.31
293.218	89.31
293.449	80.31
293.68	85.31
293.91	86.31
294.141	83.31
294.372	76.31
294.603	94.31
294.833	88.31
295.064	91.31
295.295	83.31
295.525	85.31
295.756	94.31
295.987	87.31
296.217	76.31
296.448	83.31
296.679	97.31
296.909	95.31
297.14	81.31
297.37	90.31
297.601	92.31
297.831	78.31
298.062	101.31
298.292	84.31
298.523	90.31
298.753	81.31
298.984	77.31
299.214	91.31
299.445	87.31
299.675	100.31
299.905	90.31
300.136	88.31
300.366	81.31
300.597	98.31
300.827	97.31
301.057	94.31
301.288	80.31
301.518	81.31
301.748	90.31
301.979	88.31
302.209	88.31
302.439	86.31
302.669	92.31
302.9	90.31
303.13	84.31
303.36	99.31
303.59	96.31
303.82	88.31
304.051	84.31
304.281	105.31
304.511	91.31
304.741	105.31
304.971	90.31
305.201	82.31
305.431	95.31
305.661	96.31
305.891	81.31
306.121	82.31
306.352	85.31
306.582	94.31
306.812	94.31
307.042	97.31
307.272	78.31
307.502	82.31
307.731	95.31
307.961	95.31
308.191	96.31
308.421	99.31
308.651	97.31
308.881	90.31
309.111	99.31
309.341	116.31
309.571	88.31
309.8	102.31
310.03	102.31
310.26	99.31
310.49	108.31
310.72	84.31
310.949	89.31
311.179	101.31
311.409	75.31
311.639	84.31
311.868	73.31
312.098	71.31
312.328	97.31
312.557	98.31
312.787	79.31
313.017	98.31
313.246	99.31
313.476	78.31
313.706	71.31
313.935	89.31
314.165	95.31
314.394	93.31
314.624	74.31
314.853	99.31
315.083	87.31
315.312	103.31
315.542	84.31
315.771	93.31
316.001	101.31
316.23	100.31
316.46	81.31
316.689	79.31
316.919	80.31
317.148	85.31
317.377	92.31
317.607	88.31
317.836	95.31
318.065	99.31
318.295	91.31
318.524	103.31
318.753	95.31
318.983	84.31
319.212	86.31
319.441	77.31
319.67	91.31
319.9	86.31
320.129	85.31
320.358	67.31
320.587	97.31
320.816	100.31
321.046	95.31
321.275	101.31
321.504	85.31
321.733	85.31
321.962	82.31
322.191	78.31
322.42	76.31
322.649	99.31
322.878	89.31
323.108	100.31
323.337	83.31
323.566	79.31
323.795	82.31
324.024	68.31
324.253	87.31
324.482	86.31
324.71	86.31
324.939	87.31
325.168	82.31
325.397	97.31
325.626	81.31
325.855	77.31
326.084	89.31
326.313	91.31
326.542	89.31
326.77	103.31
326.999	99.31
327.228	95.31
327.457	101.31
327.686	93.31
327.914	79.31
328.143	74.31
328.372	89.31
328.6	78.31
328.829	67.31
329.058	78.31
329.287	87.31
329.515	96.31
329.744	93.31
329.972	95.31
330.201	97.31
330.43	87.31
330.658	99.31
330.887	94.31
331.115	77.31
331.344	80.31
331.572	103.31
331.801	93.31
332.03	93.31
332.258	86.31
332.486	87.31
332.715	96.31
332.943	78.31
333.172	95.31
333.4	81.31
333.629	93.31
333.857	94.31
334.085	106.31
334.314	98.31
334.542	94.31
334.771	92.31
334.999	87.31
335.227	100.31
335.455	113.31
335.684	93.31
335.912	108.31
336.14	89.31
336.369	98.31
336.597	94.31
336.825	90.31
337.053	99.31
337.281	94.31
337.51	92.31
337.738	99.31
337.966	91.31
338.194	80.31
338.422	99.31
338.65	83.31
338.878	93.31
339.106	74.31
339.334	90.31
339.562	80.31
339.79	85.31
340.018	87.31
340.246	90.31
340.474	79.31
340.702	86.31
340.93	77.31
341.158	85.31
341.386	84.31
341.614	101.31
341.842	96.31
342.07	90.31
342.298	78.31
342.526	98.31
342.754	97.31
342.981	88.31
343.209	92.31
343.437	101.31
343.665	95.31
343.893	104.31
344.12	108.31
344.348	92.31
344.576	108.31
344.804	117.31
345.031	121.31
345.259	99.31
345.487	75.31
345.714	88.31
345.942	86.31
346.17	99.31
346.397	98.31
346.625	108.31
346.853	78.31
347.08	87.31
347.308	88.31
347.535	88.31
347.763	88.31
347.99	109.31
348.218	91.31
348.445	90.31
348.673	95.31
348.9	90.31
349.128	93.31
349.355	107.31
349.583	78.31
349.81	99.31
350.037	86.31
350.265	80.31
350.492	108.31
350.72	88.31
350.947	96.31
351.174	78.31
351.402	86.31
351.629	69.31
351.856	94.31
352.083	82.31
352.311	91.31
352.538	84.31
352.765	89.31
352.992	106.31
353.22	108.31
353.447	91.31
353.674	91.31
353.901	70.31
354.128	96.31
354.355	97.31
354.583	87.31
354.81	85.31
355.037	86.31
355.264	81.31
355.491	90.31
355.718	79.31
355.945	92.31
356.172	89.31
356.399	81.31
356.626	107.31
356.853	90.31
357.08	99.31
357.307	91.31
357.534	98.31
357.761	99.31
357.988	103.31
358.215	113.31
358.441	87.31
358.668	101.31
358.895	96.31
359.122	93.31
359.349	87.31
359.576	92.31
359.802	82.31
360.029	88.31
360.256	95.31
360.483	100.31
360.709	87.31
360.936	105.31
361.163	91.31
361.39	80.31
361.616	95.31
361.843	95.31
362.07	106.31
362.296	134.31
362.523	132.31
362.749	136.31
362.976	133.31
363.203	137.31
363.429	124.31
363.656	98.31
363.882	111.31
364.109	131.31
364.335	140.31
364.562	154.31
364.788	123.31
365.015	95.31
365.241	99.31
365.468	106.31
365.694	89.31
365.92	95.31
366.147	96.31
366.373	82.31
366.599	85.31
366.826	97.31
367.052	88.31
367.278	85.31
367.505	88.31
367.731	108.31
367.957	77.31
368.184	116.31
368.41	83.31
368.636	100.31
368.862	99.31
369.089	91.31
369.315	79.31
369.541	81.31
369.767	72.31
369.993	89.31
370.219	99.31
370.445	85.31
370.672	110.31
370.898	90.31
371.124	91.31
371.35	102.31
371.576	102.31
371.802	104.31
372.028	89.31
372.254	106.31
372.48	97.31
372.706	84.31
372.932	87.31
373.158	97.31
373.384	115.31
373.61	124.31
373.835	125.31
374.061	92.31
374.287	91.31
374.513	81.31
374.739	90.31
374.965	100.31
375.191	96.31
375.416	103.31
375.642	97.31
375.868	92.31
376.094	103.31
376.319	90.31
376.545	97.31
376.771	85.31
376.997	89.31
377.222	97.31
377.448	98.31
377.674	92.31
377.899	103.31
378.125	87.31
378.35	100.31
378.576	87.31
378.802	91.31
379.027	88.31
379.253	86.31
379.478	95.31
379.704	85.31
379.929	82.31
380.155	77.31
380.38	69.31
380.606	86.31
380.831	91.31
381.057	91.31
381.282	83.31
381.507	88.31
381.733	101.31
381.958	95.31
382.184	108.31
382.409	101.31
382.634	90.31
382.86	97.31
383.085	101.31
383.31	96.31
383.535	102.31
383.761	99.31
383.986	101.31
384.211	109.31
384.436	102.31
384.662	89.31
384.887	89.31
385.112	77.31
385.337	97.31
385.562	90.31
385.787	98.31
386.013	106.31
386.238	114.31
386.463	85.31
386.688	100.31
386.913	99.31
387.138	98.31
387.363	93.31
387.588	100.31
387.813	101.31
388.038	95.31
388.263	94.31
388.488	87.31
388.713	104.31
388.938	99.31
389.163	83.31
389.387	85.31
389.612	103.31
389.837	98.31
390.062	105.31
390.287	84.31
390.512	103.31
390.736	95.31
390.961	86.31
391.186	83.31
391.411	87.31
391.636	96.31
391.86	109.31
392.085	108.31
392.31	118.31
392.534	116.31
392.759	131.31
392.984	216.31
393.208	349.31
393.433	504.31
393.658	381.31
393.882	174.31
394.107	134.31
394.331	132.31
394.556	164.31
394.78	121.31
395.005	113.31
395.229	107.31
395.454	121.31
395.678	123.31
395.903	150.31
396.127	184.31
396.352	230.31
396.576	252.31
396.801	367.31
397.025	426.31
397.249	240.31
397.474	145.31
397.698	109.31
397.922	104.31
398.147	116.31
398.371	104.31
398.595	104.31
398.82	92.31
399.044	96.31
399.268	86.31
399.492	90.31
399.717	101.31
399.941	103.31
400.165	87.31
400.389	91.31
400.613	99.31
400.837	118.31
401.062	93.31
401.286	95.31
401.51	81.31
401.734	89.31
401.958	91.31
402.182	100.31
402.406	88.31
402.63	97.31
402.854	100.31
403.078	91.31
403.302	99.31
403.526	91.31
403.75	103.31
403.974	138.31
404.198	184.31
404.422	287.31
404.645	365.31
404.869	296.31
405.093	195.31
405.317	129.31
405.541	121.31
405.765	82.31
405.988	87.31
406.212	76.31
406.436	97.31
406.66	112.31
406.883	100.31
407.107	105.31
407.331	115.31
407.555	114.31
407.778	123.31
408.002	122.31
408.226	99.31
408.449	93.31
408.673	97.31
408.896	105.31
409.12	93.31
409.344	102.31
409.567	103.31
409.791	117.31
410.014	117.31
410.238	112.31
410.461	99.31
410.685	105.31
410.908	91.31
411.132	96.31
411.355	98.31
411.578	113.31
411.802	95.31
412.025	99.31
412.249	97.31
412.472	92.31
412.695	93.31
412.919	101.31
413.142	108.31
413.365	84.31
413.589	89.31
413.812	90.31
414.035	85.31
414.258	89.31
414.482	86.31
414.705	75.31
414.928	87.31
415.151	81.31
415.374	91.31
415.597	96.31
415.821	91.31
416.044	91.31
416.267	104.31
416.49	98.31
416.713	93.31
416.936	88.31
417.159	106.31
417.382	85.31
417.605	87.31
417.828	77.31
418.051	91.31
418.274	90.31
418.497	89.31
418.72	82.31
418.943	111.31
419.166	94.31
419.389	91.31
419.611	102.31
419.834	96.31
420.057	94.31
420.28	111.31
420.503	93.31
420.726	119.31
420.948	95.31
421.171	106.31
421.394	113.31
421.617	147.31
421.839	159.31
422.062	193.31
422.285	287.31
422.507	490.31
422.73	710.31
422.953	649.31
423.175	365.31
423.398	204.31
423.621	169.31
423.843	139.31
424.066	121.31
424.288	111.31
424.511	107.31
424.733	111.31
424.956	94.31
425.178	101.31
425.401	93.31
425.623	85.31
425.846	106.31
426.068	91.31
426.291	88.31
426.513	98.31
426.735	100.31
426.958	98.31
427.18	101.31
427.402	92.31
427.625	103.31
427.847	91.31
428.069	122.31
428.292	211.31
428.514	237.31
428.736	154.31
428.958	206.31
429.181	204.31
429.403	123.31
429.625	115.31
429.847	180.31
430.069	280.31
430.292	334.31
430.514	295.31
430.736	218.31
430.958	236.31
431.18	137.31
431.402	113.31
431.624	133.31
431.846	192.31
432.068	229.31
432.29	120.31
432.512	92.31
432.734	95.31
432.956	94.31
433.178	97.31
433.4	98.31
433.622	89.31
433.844	101.31
434.066	77.31
434.287	85.31
434.509	79.31
434.731	92.31
434.953	101.31
435.175	81.31
435.397	96.31
435.618	93.31
435.84	97.31
436.062	92.31
436.284	89.31
436.505	99.31
436.727	108.31
436.949	95.31
437.17	90.31
437.392	88.31
437.614	92.31
437.835	92.31
438.057	103.31
438.278	88.31
438.5	97.31
438.721	93.31
438.943	100.31
439.165	93.31
439.386	84.31
439.608	98.31
439.829	74.31
440.05	92.31
440.272	89.31
440.493	84.31
440.715	84.31
440.936	104.31
441.158	91.31
441.379	76.31
441.6	104.31
441.822	101.31
442.043	113.31
442.264	136.31
442.486	217.31
442.707	284.31
442.928	210.31
443.149	168.31
443.371	273.31
443.592	469.31
443.813	387.31
444.034	173.31
444.255	119.31
444.476	119.31
444.698	116.31
444.919	138.31
445.14	257.31
445.361	367.31
445.582	633.31
445.803	501.31
446.024	189.31
446.245	130.31
446.466	111.31
446.687	100.31
446.908	100.31
447.129	101.31
447.35	83.31
447.571	75.31
447.792	88.31
448.013	81.31
448.234	87.31
448.455	91.31
448.675	80.31
448.896	95.31
449.117	101.31
449.338	96.31
449.559	84.31
449.779	84.31
450	92.31
450.221	93.31
450.442	104.31
450.662	106.31
450.883	84.31
451.104	94.31
451.324	83.31
451.545	92.31
451.766	87.31
451.986	79.31
452.207	77.31
452.428	104.31
452.648	108.31
452.869	117.31
453.089	83.31
453.31	109.31
453.53	102.31
453.751	105.31
453.971	93.31
454.192	97.31
454.412	94.31
454.633	101.31
454.853	81.31
455.073	81.31
455.294	97.31
455.514	83.31
455.734	96.31
455.955	81.31
456.175	91.31
456.395	86.31
456.616	89.31
456.836	93.31
457.056	84.31
457.276	90.31
457.497	79.31
457.717	92.31
457.937	140.31
458.157	155.31
458.377	164.31
458.598	159.31
458.818	150.31
459.038	124.31
459.258	95.31
459.478	82.31
459.698	83.31
459.918	95.31
460.138	89.31
460.358	102.31
460.578	122.31
460.798	180.31
461.018	175.31
461.238	108.31
461.458	98.31
461.678	97.31
461.898	92.31
462.118	86.31
462.338	92.31
462.558	75.31
462.777	95.31
462.997	92.31
463.217	91.31
463.437	89.31
463.657	90.31
463.876	102.31
464.096	91.31
464.316	83.31
464.536	87.31
464.755	93.31
464.975	87.31
465.195	86.31
465.414	99.31
465.634	82.31
465.854	95.31
466.073	76.31
466.293	81.31
466.512	93.31
466.732	87.31
466.951	99.31
467.171	96.31
467.391	85.31
467.61	114.31
467.829	94.31
468.049	93.31
468.268	88.31
468.488	92.31
468.707	80.31
468.927	103.31
469.146	75.31
469.365	84.31
469.585	90.31
469.804	88.31
470.023	79.31
470.243	72.31
470.462	82.31
470.681	84.31
470.901	95.31
471.12	97.31
471.339	84.31
471.558	106.31
471.777	91.31
471.997	95.31
472.216	92.31
472.435	103.31
472.654	90.31
472.873	104.31
473.092	93.31
473.311	90.31
473.53	92.31
473.749	101.31
473.968	107.31
474.187	82.31
474.406	84.31
474.625	92.31
474.844	95.31
475.063	97.31
475.282	105.31
475.501	89.31
475.72	99.31
475.939	77.31
476.158	99.31
476.377	92.31
476.596	93.31
476.814	91.31
477.033	89.31
477.252	87.31
477.471	91.31
477.69	104.31
477.908	94.31
478.127	97.31
478.346	98.31
478.564	98.31
478.783	103.31
479.002	105.31
479.22	89.31
479.439	95.31
479.658	98.31
479.876	81.31
480.095	90.31
480.313	95.31
480.532	101.31
480.751	83.31
480.969	95.31
481.188	102.31
481.406	113.31
481.624	90.31
481.843	101.31
482.061	94.31
482.28	95.31
482.498	96.31
482.717	103.31
482.935	89.31
483.153	117.31
483.372	108.31
483.59	103.31
483.808	101.31
484.027	113.31
484.245	104.31
484.463	92.31
484.681	104.31
484.9	84.31
485.118	100.31
485.336	99.31
485.554	99.31
485.772	92.31
485.99	113.31
486.209	88.31
486.427	95.31
486.645	91.31
486.863	100.31
487.081	97.31
487.299	107.31
487.517	113.31
487.735	140.31
487.953	227.31
488.171	209.31
488.389	127.31
488.607	107.31
488.825	99.31
489.043	103.31
489.261	100.31
489.479	89.31
489.696	103.31
489.914	96.31
490.132	106.31
490.35	107.31
490.568	97.31
490.786	97.31
491.003	87.31
491.221	95.31
491.439	95.31
491.657	85.31
491.874	104.31
492.092	99.31
492.31	104.31
492.527	109.31
492.745	104.31
492.963	95.31
493.18	86.31
493.398	108.31
493.615	112.31
493.833	105.31
494.05	91.31
494.268	89.31
494.485	94.31
494.703	115.31
494.92	92.31
495.138	81.31
495.355	103.31
495.573	105.31
495.79	89.31
496.008	86.31
496.225	105.31
496.442	103.31
496.66	99.31
496.877	82.31
497.094	103.31
497.312	92.31
497.529	94.31
497.746	97.31
497.963	92.31
498.181	96.31
498.398	118.31
498.615	103.31
498.832	94.31
499.049	106.31
499.267	104.31
499.484	120.31
499.701	98.31
499.918	93.31
500.135	91.31
500.352	77.31
500.569	90.31
500.786	102.31
501.003	97.31
501.22	97.31
501.437	112.31
501.654	101.31
501.871	97.31
502.088	101.31
502.305	99.31
502.522	88.31
502.739	113.31
502.956	97.31
503.172	85.31
503.389	95.31
503.606	99.31
503.823	122.31
504.04	134.31
504.256	150.31
504.473	165.31
504.69	113.31
504.907	119.31
505.123	96.31
505.34	103.31
505.557	102.31
505.773	93.31
505.99	89.31
506.207	77.31
506.423	95.31
506.64	105.31
506.856	96.31
507.073	92.31
507.289	104.31
507.506	104.31
507.722	98.31
507.939	95.31
508.155	80.31
508.372	103.31
508.588	98.31
508.805	101.31
509.021	84.31
509.238	90.31
509.454	91.31
509.67	109.31
509.887	105.31
510.103	115.31
510.319	119.31
510.536	115.31
510.752	113.31
510.968	100.31
511.184	104.31
511.401	100.31
511.617	115.31
511.833	99.31
512.049	95.31
512.265	104.31
512.481	93.31
512.698	107.31
512.914	101.31
513.13	95.31
513.346	101.31
513.562	104.31
513.778	86.31
513.994	97.31
514.21	90.31
514.426	97.31
514.642	100.31
514.858	93.31
515.074	107.31
515.29	103.31
