Data from 2145_3_HRD10591_00048.txt Node
Date: Mon Jan 19 14:23:31 EST 2026
User: Yrep
Spectrometer: HR+D1059
Trigger mode: 1
Integration Time (sec): 1.000000E-1
Scans to average: 1
Electric dark correction enabled: true
Nonlinearity correction enabled: false
Boxcar width: 0
XAxis mode: Wavelengths
Number of Pixels in Spectrum: 2048
>>>>>Begin Spectral Data<<<<<
223.165	-6.88
223.4	-6.88
223.635	-6.88
223.869	-20.88
224.104	-17.88
224.338	-29.88
224.573	-6.88
224.808	-18.88
225.042	-8.88
225.277	9.12
225.511	-4.88
225.746	6.12
225.98	7.12
226.215	7.12
226.449	16.12
226.683	18.12
226.918	20.12
227.152	31.12
227.387	34.12
227.621	40.12
227.856	47.12
228.09	54.12
228.324	52.12
228.559	65.12
228.793	68.12
229.027	61.12
229.262	76.12
229.496	57.12
229.73	69.12
229.964	67.12
230.199	67.12
230.433	71.12
230.667	67.12
230.901	75.12
231.136	85.12
231.37	84.12
231.604	82.12
231.838	83.12
232.072	90.12
232.306	78.12
232.541	70.12
232.775	68.12
233.009	83.12
233.243	90.12
233.477	71.12
233.711	72.12
233.945	76.12
234.179	82.12
234.413	74.12
234.647	76.12
234.881	60.12
235.115	86.12
235.349	83.12
235.583	68.12
235.817	84.12
236.051	80.12
236.285	84.12
236.519	88.12
236.753	84.12
236.987	95.12
237.221	78.12
237.455	69.12
237.689	68.12
237.922	101.12
238.156	68.12
238.39	84.12
238.624	76.12
238.858	78.12
239.091	62.12
239.325	70.12
239.559	74.12
239.793	72.12
240.027	84.12
240.26	74.12
240.494	74.12
240.728	82.12
240.961	80.12
241.195	88.12
241.429	86.12
241.662	66.12
241.896	74.12
242.13	84.12
242.363	64.12
242.597	73.12
242.83	76.12
243.064	75.12
243.298	71.12
243.531	71.12
243.765	65.12
243.998	75.12
244.232	82.12
244.465	82.12
244.699	84.12
244.932	72.12
245.166	88.12
245.399	88.12
245.633	88.12
245.866	88.12
246.099	68.12
246.333	70.12
246.566	76.12
246.8	71.12
247.033	85.12
247.266	68.12
247.5	82.12
247.733	59.12
247.966	64.12
248.2	88.12
248.433	93.12
248.666	72.12
248.899	68.12
249.133	85.12
249.366	84.12
249.599	79.12
249.832	80.12
250.066	82.12
250.299	80.12
250.532	80.12
250.765	73.12
250.998	92.12
251.231	76.12
251.465	67.12
251.698	83.12
251.931	92.12
252.164	64.12
252.397	70.12
252.63	80.12
252.863	73.12
253.096	82.12
253.329	87.12
253.562	88.12
253.795	77.12
254.028	83.12
254.261	74.12
254.494	74.12
254.727	82.12
254.96	88.12
255.193	87.12
255.426	79.12
255.659	68.12
255.892	76.12
256.124	78.12
256.357	95.12
256.59	69.12
256.823	86.12
257.056	81.12
257.289	70.12
257.521	87.12
257.754	79.12
257.987	78.12
258.22	81.12
258.452	73.12
258.685	82.12
258.918	80.12
259.151	81.12
259.383	75.12
259.616	82.12
259.849	76.12
260.081	84.12
260.314	87.12
260.547	75.12
260.779	79.12
261.012	76.12
261.244	75.12
261.477	69.12
261.71	88.12
261.942	87.12
262.175	86.12
262.407	78.12
262.64	92.12
262.872	83.12
263.105	74.12
263.337	82.12
263.57	68.12
263.802	69.12
264.035	73.12
264.267	71.12
264.499	76.12
264.732	64.12
264.964	87.12
265.197	75.12
265.429	74.12
265.661	76.12
265.894	79.12
266.126	78.12
266.358	76.12
266.591	98.12
266.823	76.12
267.055	70.12
267.287	92.12
267.52	80.12
267.752	81.12
267.984	80.12
268.216	88.12
268.448	83.12
268.681	90.12
268.913	76.12
269.145	75.12
269.377	92.12
269.609	89.12
269.841	89.12
270.073	91.12
270.306	70.12
270.538	86.12
270.77	86.12
271.002	69.12
271.234	86.12
271.466	77.12
271.698	85.12
271.93	77.12
272.162	86.12
272.394	80.12
272.626	67.12
272.858	78.12
273.09	87.12
273.322	84.12
273.553	79.12
273.785	90.12
274.017	97.12
274.249	87.12
274.481	85.12
274.713	88.12
274.945	77.12
275.176	78.12
275.408	78.12
275.64	81.12
275.872	63.12
276.104	89.12
276.335	70.12
276.567	74.12
276.799	94.12
277.031	90.12
277.262	87.12
277.494	93.12
277.726	104.12
277.957	81.12
278.189	81.12
278.421	79.12
278.652	82.12
278.884	90.12
279.115	80.12
279.347	85.12
279.579	102.12
279.81	84.12
280.042	69.12
280.273	78.12
280.505	84.12
280.736	69.12
280.968	90.12
281.199	81.12
281.431	84.12
281.662	94.12
281.894	77.12
282.125	88.12
282.356	63.12
282.588	86.12
282.819	71.12
283.051	85.12
283.282	68.12
283.513	101.12
283.745	93.12
283.976	101.12
284.207	92.12
284.439	77.12
284.67	70.12
284.901	88.12
285.132	86.12
285.364	88.12
285.595	84.12
285.826	92.12
286.057	90.12
286.288	71.12
286.52	82.12
286.751	80.12
286.982	82.12
287.213	76.12
287.444	77.12
287.675	94.12
287.906	90.12
288.138	81.12
288.369	81.12
288.6	87.12
288.831	98.12
289.062	88.12
289.293	98.12
289.524	84.12
289.755	90.12
289.986	83.12
290.217	77.12
290.448	93.12
290.679	80.12
290.91	80.12
291.141	83.12
291.371	90.12
291.602	78.12
291.833	95.12
292.064	104.12
292.295	96.12
292.526	89.12
292.757	88.12
292.987	97.12
293.218	78.12
293.449	92.12
293.68	87.12
293.91	82.12
294.141	82.12
294.372	69.12
294.603	88.12
294.833	90.12
295.064	87.12
295.295	86.12
295.525	70.12
295.756	90.12
295.987	94.12
296.217	86.12
296.448	96.12
296.679	102.12
296.909	95.12
297.14	82.12
297.37	76.12
297.601	87.12
297.831	86.12
298.062	95.12
298.292	94.12
298.523	82.12
298.753	100.12
298.984	94.12
299.214	76.12
299.445	81.12
299.675	92.12
299.905	94.12
300.136	92.12
300.366	88.12
300.597	86.12
300.827	85.12
301.057	83.12
301.288	86.12
301.518	94.12
301.748	86.12
301.979	105.12
302.209	72.12
302.439	90.12
302.669	75.12
302.9	87.12
303.13	87.12
303.36	89.12
303.59	82.12
303.82	80.12
304.051	88.12
304.281	79.12
304.511	88.12
304.741	84.12
304.971	92.12
305.201	72.12
305.431	79.12
305.661	84.12
305.891	88.12
306.121	78.12
306.352	84.12
306.582	85.12
306.812	72.12
307.042	85.12
307.272	85.12
307.502	95.12
307.731	88.12
307.961	94.12
308.191	94.12
308.421	91.12
308.651	95.12
308.881	80.12
309.111	88.12
309.341	88.12
309.571	112.12
309.8	92.12
310.03	80.12
310.26	80.12
310.49	94.12
310.72	91.12
310.949	66.12
311.179	66.12
311.409	87.12
311.639	82.12
311.868	87.12
312.098	91.12
312.328	75.12
312.557	90.12
312.787	69.12
313.017	75.12
313.246	91.12
313.476	86.12
313.706	78.12
313.935	87.12
314.165	72.12
314.394	71.12
314.624	84.12
314.853	64.12
315.083	77.12
315.312	88.12
315.542	80.12
315.771	87.12
316.001	98.12
316.23	91.12
316.46	72.12
316.689	98.12
316.919	104.12
317.148	90.12
317.377	88.12
317.607	68.12
317.836	80.12
318.065	93.12
318.295	77.12
318.524	90.12
318.753	98.12
318.983	84.12
319.212	83.12
319.441	86.12
319.67	80.12
319.9	79.12
320.129	99.12
320.358	83.12
320.587	78.12
320.816	100.12
321.046	75.12
321.275	100.12
321.504	85.12
321.733	80.12
321.962	100.12
322.191	90.12
322.42	89.12
322.649	89.12
322.878	96.12
323.108	79.12
323.337	91.12
323.566	84.12
323.795	88.12
324.024	87.12
324.253	85.12
324.482	85.12
324.71	83.12
324.939	82.12
325.168	82.12
325.397	87.12
325.626	78.12
325.855	65.12
326.084	86.12
326.313	65.12
326.542	84.12
326.77	90.12
326.999	91.12
327.228	82.12
327.457	102.12
327.686	84.12
327.914	88.12
328.143	97.12
328.372	83.12
328.6	69.12
328.829	87.12
329.058	82.12
329.287	86.12
329.515	82.12
329.744	94.12
329.972	84.12
330.201	90.12
330.43	104.12
330.658	98.12
330.887	91.12
331.115	85.12
331.344	79.12
331.572	87.12
331.801	89.12
332.03	94.12
332.258	90.12
332.486	72.12
332.715	88.12
332.943	89.12
333.172	80.12
333.4	82.12
333.629	75.12
333.857	86.12
334.085	83.12
334.314	90.12
334.542	86.12
334.771	105.12
334.999	94.12
335.227	96.12
335.455	104.12
335.684	101.12
335.912	99.12
336.14	91.12
336.369	104.12
336.597	92.12
336.825	85.12
337.053	85.12
337.281	86.12
337.51	91.12
337.738	90.12
337.966	81.12
338.194	80.12
338.422	70.12
338.65	72.12
338.878	90.12
339.106	99.12
339.334	100.12
339.562	91.12
339.79	82.12
340.018	98.12
340.246	75.12
340.474	78.12
340.702	101.12
340.93	83.12
341.158	75.12
341.386	91.12
341.614	99.12
341.842	97.12
342.07	90.12
342.298	75.12
342.526	66.12
342.754	70.12
342.981	63.12
343.209	84.12
343.437	94.12
343.665	89.12
343.893	88.12
344.12	104.12
344.348	86.12
344.576	102.12
344.804	84.12
345.031	84.12
345.259	77.12
345.487	86.12
345.714	81.12
345.942	83.12
346.17	85.12
346.397	91.12
346.625	90.12
346.853	89.12
347.08	84.12
347.308	89.12
347.535	94.12
347.763	82.12
347.99	82.12
348.218	91.12
348.445	85.12
348.673	87.12
348.9	87.12
349.128	85.12
349.355	88.12
349.583	89.12
349.81	85.12
350.037	87.12
350.265	83.12
350.492	93.12
350.72	97.12
350.947	87.12
351.174	75.12
351.402	98.12
351.629	97.12
351.856	92.12
352.083	96.12
352.311	87.12
352.538	82.12
352.765	82.12
352.992	77.12
353.22	100.12
353.447	85.12
353.674	84.12
353.901	87.12
354.128	94.12
354.355	88.12
354.583	82.12
354.81	89.12
355.037	80.12
355.264	88.12
355.491	89.12
355.718	89.12
355.945	87.12
356.172	88.12
356.399	87.12
356.626	83.12
356.853	87.12
357.08	73.12
357.307	92.12
357.534	86.12
357.761	76.12
357.988	82.12
358.215	79.12
358.441	92.12
358.668	90.12
358.895	94.12
359.122	102.12
359.349	95.12
359.576	78.12
359.802	86.12
360.029	85.12
360.256	81.12
360.483	99.12
360.709	83.12
360.936	76.12
361.163	88.12
361.39	98.12
361.616	108.12
361.843	97.12
362.07	110.12
362.296	112.12
362.523	87.12
362.749	111.12
362.976	128.12
363.203	140.12
363.429	122.12
363.656	119.12
363.882	104.12
364.109	138.12
364.335	148.12
364.562	143.12
364.788	114.12
365.015	96.12
365.241	78.12
365.468	95.12
365.694	85.12
365.92	84.12
366.147	82.12
366.373	82.12
366.599	86.12
366.826	77.12
367.052	87.12
367.278	89.12
367.505	95.12
367.731	83.12
367.957	91.12
368.184	90.12
368.41	85.12
368.636	91.12
368.862	93.12
369.089	84.12
369.315	78.12
369.541	104.12
369.767	85.12
369.993	102.12
370.219	87.12
370.445	86.12
370.672	96.12
370.898	115.12
371.124	90.12
371.35	90.12
371.576	79.12
371.802	99.12
372.028	95.12
372.254	87.12
372.48	96.12
372.706	85.12
372.932	99.12
373.158	77.12
373.384	105.12
373.61	88.12
373.835	90.12
374.061	92.12
374.287	94.12
374.513	90.12
374.739	102.12
374.965	100.12
375.191	90.12
375.416	94.12
375.642	98.12
375.868	107.12
376.094	90.12
376.319	84.12
376.545	94.12
376.771	86.12
376.997	79.12
377.222	77.12
377.448	94.12
377.674	89.12
377.899	83.12
378.125	81.12
378.35	85.12
378.576	80.12
378.802	84.12
379.027	84.12
379.253	92.12
379.478	79.12
379.704	86.12
379.929	86.12
380.155	74.12
380.38	77.12
380.606	82.12
380.831	94.12
381.057	107.12
381.282	90.12
381.507	89.12
381.733	93.12
381.958	104.12
382.184	108.12
382.409	97.12
382.634	89.12
382.86	85.12
383.085	82.12
383.31	101.12
383.535	103.12
383.761	85.12
383.986	88.12
384.211	70.12
384.436	80.12
384.662	89.12
384.887	86.12
385.112	103.12
385.337	98.12
385.562	80.12
385.787	87.12
386.013	102.12
386.238	103.12
386.463	90.12
386.688	100.12
386.913	95.12
387.138	97.12
387.363	102.12
387.588	92.12
387.813	87.12
388.038	90.12
388.263	85.12
388.488	79.12
388.713	86.12
388.938	94.12
389.163	95.12
389.387	88.12
389.612	89.12
389.837	103.12
390.062	77.12
390.287	92.12
390.512	89.12
390.736	76.12
390.961	106.12
391.186	97.12
391.411	106.12
391.636	91.12
391.86	97.12
392.085	102.12
392.31	88.12
392.534	112.12
392.759	115.12
392.984	147.12
393.208	199.12
393.433	285.12
393.658	238.12
393.882	122.12
394.107	97.12
394.331	119.12
394.556	128.12
394.78	101.12
395.005	92.12
395.229	102.12
395.454	106.12
395.678	124.12
395.903	134.12
396.127	140.12
396.352	163.12
396.576	162.12
396.801	213.12
397.025	230.12
397.249	149.12
397.474	121.12
397.698	119.12
397.922	90.12
398.147	90.12
398.371	90.12
398.595	95.12
398.82	91.12
399.044	83.12
399.268	82.12
399.492	86.12
399.717	98.12
399.941	109.12
400.165	90.12
400.389	86.12
400.613	83.12
400.837	90.12
401.062	97.12
401.286	77.12
401.51	79.12
401.734	87.12
401.958	88.12
402.182	81.12
402.406	87.12
402.63	90.12
402.854	88.12
403.078	91.12
403.302	90.12
403.526	80.12
403.75	97.12
403.974	103.12
404.198	107.12
404.422	141.12
404.645	165.12
404.869	139.12
405.093	118.12
405.317	95.12
405.541	101.12
405.765	85.12
405.988	83.12
406.212	94.12
406.436	87.12
406.66	83.12
406.883	96.12
407.107	80.12
407.331	86.12
407.555	102.12
407.778	112.12
408.002	110.12
408.226	107.12
408.449	74.12
408.673	88.12
408.896	94.12
409.12	98.12
409.344	87.12
409.567	100.12
409.791	97.12
410.014	99.12
410.238	100.12
410.461	102.12
410.685	78.12
410.908	88.12
411.132	89.12
411.355	71.12
411.578	99.12
411.802	82.12
412.025	80.12
412.249	83.12
412.472	96.12
412.695	82.12
412.919	94.12
413.142	95.12
413.365	84.12
413.589	88.12
413.812	80.12
414.035	86.12
414.258	102.12
414.482	92.12
414.705	91.12
414.928	91.12
415.151	93.12
415.374	88.12
415.597	74.12
415.821	77.12
416.044	82.12
416.267	83.12
416.49	68.12
416.713	85.12
416.936	88.12
417.159	98.12
417.382	99.12
417.605	100.12
417.828	89.12
418.051	90.12
418.274	85.12
418.497	88.12
418.72	82.12
418.943	83.12
419.166	95.12
419.389	80.12
419.611	91.12
419.834	83.12
420.057	86.12
420.28	100.12
420.503	90.12
420.726	102.12
420.948	106.12
421.171	105.12
421.394	98.12
421.617	120.12
421.839	140.12
422.062	165.12
422.285	218.12
422.507	340.12
422.73	434.12
422.953	403.12
423.175	280.12
423.398	183.12
423.621	143.12
423.843	112.12
424.066	127.12
424.288	104.12
424.511	91.12
424.733	103.12
424.956	88.12
425.178	80.12
425.401	96.12
425.623	85.12
425.846	96.12
426.068	94.12
426.291	93.12
426.513	93.12
426.735	81.12
426.958	99.12
427.18	88.12
427.402	95.12
427.625	101.12
427.847	95.12
428.069	114.12
428.292	150.12
428.514	158.12
428.736	133.12
428.958	151.12
429.181	145.12
429.403	107.12
429.625	108.12
429.847	143.12
430.069	180.12
430.292	246.12
430.514	212.12
430.736	160.12
430.958	158.12
431.18	105.12
431.402	105.12
431.624	108.12
431.846	130.12
432.068	152.12
432.29	103.12
432.512	89.12
432.734	82.12
432.956	83.12
433.178	71.12
433.4	75.12
433.622	81.12
433.844	83.12
434.066	95.12
434.287	103.12
434.509	81.12
434.731	91.12
434.953	89.12
435.175	94.12
435.397	94.12
435.618	98.12
435.84	98.12
436.062	96.12
436.284	87.12
436.505	87.12
436.727	97.12
436.949	84.12
437.17	73.12
437.392	84.12
437.614	75.12
437.835	82.12
438.057	87.12
438.278	90.12
438.5	98.12
438.721	82.12
438.943	86.12
439.165	88.12
439.386	82.12
439.608	94.12
439.829	90.12
440.05	80.12
440.272	88.12
440.493	95.12
440.715	94.12
440.936	74.12
441.158	90.12
441.379	95.12
441.6	88.12
441.822	99.12
442.043	92.12
442.264	116.12
442.486	157.12
442.707	224.12
442.928	148.12
443.149	115.12
443.371	179.12
443.592	314.12
443.813	270.12
444.034	137.12
444.255	89.12
444.476	91.12
444.698	92.12
444.919	95.12
445.14	208.12
445.361	254.12
445.582	370.12
445.803	316.12
446.024	151.12
446.245	94.12
446.466	89.12
446.687	83.12
446.908	82.12
447.129	86.12
447.35	91.12
447.571	80.12
447.792	77.12
448.013	82.12
448.234	97.12
448.455	85.12
448.675	70.12
448.896	88.12
449.117	67.12
449.338	82.12
449.559	72.12
449.779	86.12
450	82.12
450.221	86.12
450.442	70.12
450.662	90.12
450.883	76.12
451.104	96.12
451.324	92.12
451.545	89.12
451.766	84.12
451.986	84.12
452.207	72.12
452.428	89.12
452.648	97.12
452.869	87.12
453.089	92.12
453.31	107.12
453.53	92.12
453.751	90.12
453.971	86.12
454.192	75.12
454.412	77.12
454.633	84.12
454.853	83.12
455.073	74.12
455.294	98.12
455.514	105.12
455.734	88.12
455.955	76.12
456.175	82.12
456.395	91.12
456.616	88.12
456.836	82.12
457.056	82.12
457.276	92.12
457.497	82.12
457.717	104.12
457.937	113.12
458.157	146.12
458.377	143.12
458.598	128.12
458.818	142.12
459.038	112.12
459.258	82.12
459.478	86.12
459.698	92.12
459.918	94.12
460.138	87.12
460.358	98.12
460.578	92.12
460.798	147.12
461.018	140.12
461.238	91.12
461.458	83.12
461.678	71.12
461.898	71.12
462.118	91.12
462.338	74.12
462.558	92.12
462.777	88.12
462.997	88.12
463.217	97.12
463.437	80.12
463.657	66.12
463.876	92.12
464.096	84.12
464.316	72.12
464.536	96.12
464.755	83.12
464.975	83.12
465.195	93.12
465.414	74.12
465.634	86.12
465.854	100.12
466.073	78.12
466.293	84.12
466.512	88.12
466.732	89.12
466.951	88.12
467.171	84.12
467.391	72.12
467.61	100.12
467.829	88.12
468.049	96.12
468.268	79.12
468.488	91.12
468.707	92.12
468.927	84.12
469.146	72.12
469.365	89.12
469.585	97.12
469.804	94.12
470.023	85.12
470.243	94.12
470.462	91.12
470.681	86.12
470.901	81.12
471.12	76.12
471.339	74.12
471.558	81.12
471.777	97.12
471.997	97.12
472.216	79.12
472.435	101.12
472.654	88.12
472.873	98.12
473.092	90.12
473.311	85.12
473.53	94.12
473.749	74.12
473.968	92.12
474.187	97.12
474.406	77.12
474.625	76.12
474.844	86.12
475.063	78.12
475.282	73.12
475.501	81.12
475.72	90.12
475.939	90.12
476.158	83.12
476.377	87.12
476.596	82.12
476.814	87.12
477.033	95.12
477.252	75.12
477.471	89.12
477.69	69.12
477.908	73.12
478.127	92.12
478.346	96.12
478.564	97.12
478.783	88.12
479.002	80.12
479.22	87.12
479.439	87.12
479.658	93.12
479.876	89.12
480.095	92.12
480.313	95.12
480.532	79.12
480.751	82.12
480.969	82.12
481.188	99.12
481.406	98.12
481.624	86.12
481.843	79.12
482.061	99.12
482.28	100.12
482.498	89.12
482.717	97.12
482.935	94.12
483.153	101.12
483.372	92.12
483.59	97.12
483.808	88.12
484.027	82.12
484.245	104.12
484.463	99.12
484.681	100.12
484.9	84.12
485.118	76.12
485.336	89.12
485.554	90.12
485.772	95.12
485.99	83.12
486.209	94.12
486.427	92.12
486.645	91.12
486.863	98.12
487.081	84.12
487.299	97.12
487.517	100.12
487.735	125.12
487.953	202.12
488.171	174.12
488.389	116.12
488.607	114.12
488.825	85.12
489.043	94.12
489.261	81.12
489.479	83.12
489.696	97.12
489.914	99.12
490.132	76.12
490.35	84.12
490.568	82.12
490.786	90.12
491.003	97.12
491.221	95.12
491.439	83.12
491.657	89.12
491.874	104.12
492.092	91.12
492.31	83.12
492.527	97.12
492.745	89.12
492.963	82.12
493.18	85.12
493.398	98.12
493.615	104.12
493.833	97.12
494.05	82.12
494.268	89.12
494.485	99.12
494.703	88.12
494.92	91.12
495.138	87.12
495.355	82.12
495.573	98.12
495.79	88.12
496.008	112.12
496.225	103.12
496.442	99.12
496.66	104.12
496.877	94.12
497.094	99.12
497.312	91.12
497.529	93.12
497.746	73.12
497.963	100.12
498.181	91.12
498.398	107.12
498.615	94.12
498.832	97.12
499.049	106.12
499.267	104.12
499.484	89.12
499.701	85.12
499.918	98.12
500.135	87.12
500.352	97.12
500.569	99.12
500.786	86.12
501.003	92.12
501.22	78.12
501.437	88.12
501.654	102.12
501.871	91.12
502.088	84.12
502.305	97.12
502.522	91.12
502.739	87.12
502.956	91.12
503.172	84.12
503.389	112.12
503.606	97.12
503.823	106.12
504.04	122.12
504.256	143.12
504.473	157.12
504.69	106.12
504.907	101.12
505.123	82.12
505.34	91.12
505.557	85.12
505.773	99.12
505.99	86.12
506.207	76.12
506.423	90.12
506.64	98.12
506.856	91.12
507.073	96.12
507.289	95.12
507.506	89.12
507.722	98.12
507.939	104.12
508.155	86.12
508.372	90.12
508.588	93.12
508.805	85.12
509.021	88.12
509.238	87.12
509.454	96.12
509.67	77.12
509.887	94.12
510.103	85.12
510.319	97.12
510.536	90.12
510.752	90.12
510.968	81.12
511.184	96.12
511.401	100.12
511.617	82.12
511.833	102.12
512.049	95.12
512.265	102.12
512.481	82.12
512.698	92.12
512.914	77.12
513.13	104.12
513.346	89.12
513.562	91.12
513.778	81.12
513.994	68.12
514.21	82.12
514.426	86.12
514.642	99.12
514.858	85.12
515.074	82.12
515.29	89.12
515.506	73.12
515.721	91.12
515.937	99.12
516.153	114.12
516.369	94.12
516.585	97.12
516.801	93.12
517.016	88.12
517.232	95.12
517.448	95.12
