Data from 2145_3_HRD10591_00001.txt Node
Date: Mon Jan 19 14:23:10 EST 2026
User: Yrep
Spectrometer: HR+D1059
Trigger mode: 1
Integration Time (sec): 1.000000E-1
Scans to average: 1
Electric dark correction enabled: true
Nonlinearity correction enabled: false
Boxcar width: 0
XAxis mode: Wavelengths
Number of Pixels in Spectrum: 2048
>>>>>Begin Spectral Data<<<<<
223.165	-26.81
223.4	-26.81
223.635	-26.81
223.869	-32.81
224.104	-26.81
224.338	-7.81
224.573	-9.81
224.808	-15.81
225.042	-13.81
225.277	5.19
225.511	-1.81
225.746	7.19
225.98	14.19
226.215	13.19
226.449	22.19
226.683	26.19
226.918	25.19
227.152	22.19
227.387	41.19
227.621	54.19
227.856	33.19
228.09	50.19
228.324	50.19
228.559	66.19
228.793	55.19
229.027	60.19
229.262	72.19
229.496	77.19
229.73	68.19
229.964	78.19
230.199	66.19
230.433	78.19
230.667	88.19
230.901	94.19
231.136	76.19
231.37	78.19
231.604	71.19
231.838	74.19
232.072	85.19
232.306	77.19
232.541	91.19
232.775	78.19
233.009	88.19
233.243	74.19
233.477	81.19
233.711	82.19
233.945	79.19
234.179	87.19
234.413	76.19
234.647	76.19
234.881	73.19
235.115	69.19
235.349	71.19
235.583	68.19
235.817	73.19
236.051	84.19
236.285	66.19
236.519	84.19
236.753	73.19
236.987	80.19
237.221	76.19
237.455	87.19
237.689	86.19
237.922	82.19
238.156	59.19
238.39	62.19
238.624	70.19
238.858	68.19
239.091	76.19
239.325	73.19
239.559	84.19
239.793	68.19
240.027	69.19
240.26	80.19
240.494	68.19
240.728	62.19
240.961	74.19
241.195	79.19
241.429	77.19
241.662	77.19
241.896	78.19
242.13	67.19
242.363	80.19
242.597	78.19
242.83	88.19
243.064	77.19
243.298	77.19
243.531	81.19
243.765	72.19
243.998	62.19
244.232	81.19
244.465	86.19
244.699	71.19
244.932	73.19
245.166	78.19
245.399	75.19
245.633	87.19
245.866	90.19
246.099	78.19
246.333	78.19
246.566	91.19
246.8	82.19
247.033	74.19
247.266	66.19
247.5	88.19
247.733	52.19
247.966	78.19
248.2	83.19
248.433	73.19
248.666	88.19
248.899	71.19
249.133	87.19
249.366	83.19
249.599	70.19
249.832	92.19
250.066	82.19
250.299	77.19
250.532	75.19
250.765	80.19
250.998	69.19
251.231	90.19
251.465	89.19
251.698	88.19
251.931	91.19
252.164	88.19
252.397	81.19
252.63	78.19
252.863	91.19
253.096	75.19
253.329	82.19
253.562	78.19
253.795	75.19
254.028	69.19
254.261	76.19
254.494	82.19
254.727	78.19
254.96	84.19
255.193	81.19
255.426	72.19
255.659	80.19
255.892	84.19
256.124	84.19
256.357	72.19
256.59	80.19
256.823	82.19
257.056	82.19
257.289	74.19
257.521	75.19
257.754	61.19
257.987	75.19
258.22	84.19
258.452	90.19
258.685	78.19
258.918	69.19
259.151	82.19
259.383	92.19
259.616	79.19
259.849	90.19
260.081	72.19
260.314	81.19
260.547	77.19
260.779	86.19
261.012	86.19
261.244	82.19
261.477	98.19
261.71	88.19
261.942	73.19
262.175	74.19
262.407	85.19
262.64	75.19
262.872	74.19
263.105	82.19
263.337	82.19
263.57	68.19
263.802	70.19
264.035	79.19
264.267	92.19
264.499	74.19
264.732	69.19
264.964	72.19
265.197	84.19
265.429	78.19
265.661	78.19
265.894	73.19
266.126	76.19
266.358	66.19
266.591	82.19
266.823	92.19
267.055	86.19
267.287	85.19
267.52	85.19
267.752	78.19
267.984	87.19
268.216	90.19
268.448	72.19
268.681	87.19
268.913	87.19
269.145	80.19
269.377	96.19
269.609	78.19
269.841	72.19
270.073	79.19
270.306	83.19
270.538	73.19
270.77	76.19
271.002	79.19
271.234	88.19
271.466	72.19
271.698	70.19
271.93	66.19
272.162	88.19
272.394	96.19
272.626	73.19
272.858	88.19
273.09	88.19
273.322	83.19
273.553	77.19
273.785	75.19
274.017	73.19
274.249	77.19
274.481	98.19
274.713	96.19
274.945	79.19
275.176	92.19
275.408	73.19
275.64	96.19
275.872	91.19
276.104	80.19
276.335	77.19
276.567	87.19
276.799	73.19
277.031	81.19
277.262	73.19
277.494	88.19
277.726	91.19
277.957	77.19
278.189	87.19
278.421	84.19
278.652	71.19
278.884	72.19
279.115	87.19
279.347	86.19
279.579	71.19
279.81	101.19
280.042	83.19
280.273	97.19
280.505	81.19
280.736	71.19
280.968	84.19
281.199	78.19
281.431	91.19
281.662	85.19
281.894	98.19
282.125	81.19
282.356	88.19
282.588	82.19
282.819	73.19
283.051	83.19
283.282	84.19
283.513	84.19
283.745	77.19
283.976	79.19
284.207	73.19
284.439	87.19
284.67	98.19
284.901	88.19
285.132	77.19
285.364	88.19
285.595	90.19
285.826	77.19
286.057	86.19
286.288	86.19
286.52	89.19
286.751	94.19
286.982	84.19
287.213	84.19
287.444	90.19
287.675	87.19
287.906	77.19
288.138	107.19
288.369	88.19
288.6	91.19
288.831	78.19
289.062	82.19
289.293	83.19
289.524	87.19
289.755	84.19
289.986	92.19
290.217	95.19
290.448	77.19
290.679	93.19
290.91	82.19
291.141	82.19
291.371	84.19
291.602	86.19
291.833	74.19
292.064	84.19
292.295	80.19
292.526	83.19
292.757	88.19
292.987	86.19
293.218	92.19
293.449	84.19
293.68	90.19
293.91	84.19
294.141	86.19
294.372	85.19
294.603	85.19
294.833	90.19
295.064	102.19
295.295	89.19
295.525	85.19
295.756	82.19
295.987	89.19
296.217	88.19
296.448	84.19
296.679	90.19
296.909	87.19
297.14	82.19
297.37	95.19
297.601	98.19
297.831	84.19
298.062	90.19
298.292	86.19
298.523	92.19
298.753	103.19
298.984	84.19
299.214	76.19
299.445	96.19
299.675	84.19
299.905	97.19
300.136	97.19
300.366	94.19
300.597	97.19
300.827	92.19
301.057	80.19
301.288	84.19
301.518	81.19
301.748	93.19
301.979	114.19
302.209	90.19
302.439	91.19
302.669	73.19
302.9	103.19
303.13	96.19
303.36	90.19
303.59	96.19
303.82	103.19
304.051	89.19
304.281	73.19
304.511	93.19
304.741	85.19
304.971	98.19
305.201	76.19
305.431	84.19
305.661	73.19
305.891	80.19
306.121	77.19
306.352	73.19
306.582	89.19
306.812	88.19
307.042	91.19
307.272	90.19
307.502	88.19
307.731	84.19
307.961	90.19
308.191	109.19
308.421	100.19
308.651	85.19
308.881	82.19
309.111	93.19
309.341	92.19
309.571	110.19
309.8	89.19
310.03	89.19
310.26	82.19
310.49	92.19
310.72	89.19
310.949	72.19
311.179	88.19
311.409	84.19
311.639	92.19
311.868	84.19
312.098	75.19
312.328	82.19
312.557	85.19
312.787	88.19
313.017	84.19
313.246	80.19
313.476	79.19
313.706	81.19
313.935	85.19
314.165	92.19
314.394	88.19
314.624	78.19
314.853	76.19
315.083	86.19
315.312	84.19
315.542	78.19
315.771	87.19
316.001	94.19
316.23	98.19
316.46	89.19
316.689	100.19
316.919	88.19
317.148	77.19
317.377	98.19
317.607	83.19
317.836	100.19
318.065	121.19
318.295	93.19
318.524	77.19
318.753	96.19
318.983	90.19
319.212	92.19
319.441	77.19
319.67	94.19
319.9	83.19
320.129	102.19
320.358	87.19
320.587	89.19
320.816	94.19
321.046	100.19
321.275	89.19
321.504	90.19
321.733	98.19
321.962	92.19
322.191	92.19
322.42	87.19
322.649	94.19
322.878	80.19
323.108	78.19
323.337	90.19
323.566	90.19
323.795	96.19
324.024	85.19
324.253	94.19
324.482	96.19
324.71	95.19
324.939	87.19
325.168	89.19
325.397	94.19
325.626	84.19
325.855	91.19
326.084	96.19
326.313	91.19
326.542	90.19
326.77	78.19
326.999	93.19
327.228	96.19
327.457	85.19
327.686	74.19
327.914	80.19
328.143	92.19
328.372	92.19
328.6	92.19
328.829	97.19
329.058	80.19
329.287	85.19
329.515	84.19
329.744	87.19
329.972	99.19
330.201	101.19
330.43	108.19
330.658	102.19
330.887	92.19
331.115	99.19
331.344	84.19
331.572	71.19
331.801	84.19
332.03	80.19
332.258	88.19
332.486	89.19
332.715	86.19
332.943	79.19
333.172	92.19
333.4	94.19
333.629	90.19
333.857	97.19
334.085	88.19
334.314	85.19
334.542	102.19
334.771	118.19
334.999	110.19
335.227	93.19
335.455	98.19
335.684	103.19
335.912	99.19
336.14	107.19
336.369	103.19
336.597	86.19
336.825	95.19
337.053	94.19
337.281	99.19
337.51	78.19
337.738	92.19
337.966	102.19
338.194	98.19
338.422	99.19
338.65	103.19
338.878	77.19
339.106	90.19
339.334	105.19
339.562	81.19
339.79	84.19
340.018	75.19
340.246	92.19
340.474	76.19
340.702	83.19
340.93	93.19
341.158	97.19
341.386	92.19
341.614	82.19
341.842	93.19
342.07	84.19
342.298	87.19
342.526	85.19
342.754	96.19
342.981	98.19
343.209	83.19
343.437	98.19
343.665	83.19
343.893	83.19
344.12	102.19
344.348	96.19
344.576	100.19
344.804	101.19
345.031	73.19
345.259	104.19
345.487	85.19
345.714	88.19
345.942	76.19
346.17	97.19
346.397	95.19
346.625	85.19
346.853	84.19
347.08	94.19
347.308	108.19
347.535	115.19
347.763	94.19
347.99	81.19
348.218	97.19
348.445	83.19
348.673	82.19
348.9	100.19
349.128	101.19
349.355	82.19
349.583	85.19
349.81	105.19
350.037	94.19
350.265	76.19
350.492	82.19
350.72	88.19
350.947	100.19
351.174	89.19
351.402	88.19
351.629	88.19
351.856	85.19
352.083	91.19
352.311	89.19
352.538	73.19
352.765	90.19
352.992	84.19
353.22	84.19
353.447	92.19
353.674	89.19
353.901	93.19
354.128	96.19
354.355	83.19
354.583	54.19
354.81	93.19
355.037	87.19
355.264	90.19
355.491	91.19
355.718	98.19
355.945	74.19
356.172	82.19
356.399	103.19
356.626	85.19
356.853	91.19
357.08	90.19
357.307	91.19
357.534	69.19
357.761	93.19
357.988	104.19
358.215	98.19
358.441	90.19
358.668	80.19
358.895	88.19
359.122	78.19
359.349	88.19
359.576	87.19
359.802	91.19
360.029	89.19
360.256	93.19
360.483	87.19
360.709	86.19
360.936	98.19
361.163	94.19
361.39	91.19
361.616	94.19
361.843	100.19
362.07	107.19
362.296	108.19
362.523	121.19
362.749	114.19
362.976	137.19
363.203	148.19
363.429	120.19
363.656	109.19
363.882	106.19
364.109	127.19
364.335	178.19
364.562	160.19
364.788	127.19
365.015	118.19
365.241	100.19
365.468	96.19
365.694	105.19
365.92	91.19
366.147	86.19
366.373	83.19
366.599	86.19
366.826	97.19
367.052	88.19
367.278	101.19
367.505	84.19
367.731	87.19
367.957	95.19
368.184	91.19
368.41	101.19
368.636	97.19
368.862	102.19
369.089	78.19
369.315	70.19
369.541	86.19
369.767	94.19
369.993	88.19
370.219	89.19
370.445	104.19
370.672	100.19
370.898	98.19
371.124	102.19
371.35	81.19
371.576	94.19
371.802	95.19
372.028	102.19
372.254	96.19
372.48	92.19
372.706	110.19
372.932	90.19
373.158	95.19
373.384	122.19
373.61	128.19
373.835	110.19
374.061	114.19
374.287	108.19
374.513	107.19
374.739	115.19
374.965	107.19
375.191	104.19
375.416	102.19
375.642	104.19
375.868	106.19
376.094	110.19
376.319	89.19
376.545	92.19
376.771	92.19
376.997	92.19
377.222	99.19
377.448	92.19
377.674	99.19
377.899	95.19
378.125	95.19
378.35	84.19
378.576	100.19
378.802	78.19
379.027	77.19
379.253	93.19
379.478	97.19
379.704	88.19
379.929	93.19
380.155	94.19
380.38	91.19
380.606	78.19
380.831	85.19
381.057	96.19
381.282	89.19
381.507	96.19
381.733	88.19
381.958	106.19
382.184	115.19
382.409	124.19
382.634	112.19
382.86	102.19
383.085	113.19
383.31	112.19
383.535	116.19
383.761	105.19
383.986	116.19
384.211	100.19
384.436	96.19
384.662	85.19
384.887	91.19
385.112	99.19
385.337	95.19
385.562	81.19
385.787	89.19
386.013	105.19
386.238	108.19
386.463	103.19
386.688	115.19
386.913	107.19
387.138	102.19
387.363	118.19
387.588	108.19
387.813	98.19
388.038	109.19
388.263	110.19
388.488	105.19
388.713	101.19
388.938	104.19
389.163	96.19
389.387	97.19
389.612	78.19
389.837	73.19
390.062	87.19
390.287	102.19
390.512	120.19
390.736	101.19
390.961	91.19
391.186	104.19
391.411	104.19
391.636	95.19
391.86	90.19
392.085	106.19
392.31	109.19
392.534	136.19
392.759	148.19
392.984	240.19
393.208	358.19
393.433	498.19
393.658	393.19
393.882	204.19
394.107	153.19
394.331	164.19
394.556	188.19
394.78	135.19
395.005	122.19
395.229	105.19
395.454	105.19
395.678	127.19
395.903	154.19
396.127	206.19
396.352	254.19
396.576	247.19
396.801	363.19
397.025	422.19
397.249	222.19
397.474	176.19
397.698	131.19
397.922	108.19
398.147	85.19
398.371	102.19
398.595	107.19
398.82	106.19
399.044	88.19
399.268	97.19
399.492	107.19
399.717	107.19
399.941	103.19
400.165	91.19
400.389	98.19
400.613	100.19
400.837	97.19
401.062	108.19
401.286	98.19
401.51	85.19
401.734	77.19
401.958	77.19
402.182	84.19
402.406	98.19
402.63	94.19
402.854	93.19
403.078	104.19
403.302	100.19
403.526	92.19
403.75	102.19
403.974	119.19
404.198	136.19
404.422	163.19
404.645	214.19
404.869	174.19
405.093	128.19
405.317	96.19
405.541	100.19
405.765	93.19
405.988	84.19
406.212	108.19
406.436	90.19
406.66	87.19
406.883	86.19
407.107	82.19
407.331	114.19
407.555	125.19
407.778	145.19
408.002	125.19
408.226	106.19
408.449	86.19
408.673	99.19
408.896	82.19
409.12	86.19
409.344	103.19
409.567	114.19
409.791	124.19
410.014	128.19
410.238	105.19
410.461	92.19
410.685	103.19
410.908	92.19
411.132	94.19
411.355	86.19
411.578	84.19
411.802	87.19
412.025	99.19
412.249	83.19
412.472	88.19
412.695	92.19
412.919	103.19
413.142	103.19
413.365	92.19
413.589	92.19
413.812	91.19
414.035	100.19
414.258	97.19
414.482	81.19
414.705	91.19
414.928	102.19
415.151	94.19
415.374	92.19
415.597	92.19
415.821	100.19
416.044	96.19
416.267	106.19
416.49	108.19
416.713	93.19
416.936	101.19
417.159	98.19
417.382	93.19
417.605	99.19
417.828	77.19
418.051	94.19
418.274	90.19
418.497	74.19
418.72	77.19
418.943	89.19
419.166	108.19
419.389	94.19
419.611	99.19
419.834	94.19
420.057	95.19
420.28	97.19
420.503	109.19
420.726	112.19
420.948	117.19
421.171	101.19
421.394	130.19
421.617	167.19
421.839	165.19
422.062	167.19
422.285	261.19
422.507	407.19
422.73	537.19
422.953	501.19
423.175	337.19
423.398	213.19
423.621	147.19
423.843	122.19
424.066	124.19
424.288	104.19
424.511	108.19
424.733	106.19
424.956	105.19
425.178	93.19
425.401	98.19
425.623	91.19
425.846	97.19
426.068	105.19
426.291	92.19
426.513	96.19
426.735	98.19
426.958	101.19
427.18	102.19
427.402	115.19
427.625	88.19
427.847	108.19
428.069	118.19
428.292	185.19
428.514	214.19
428.736	136.19
428.958	188.19
429.181	189.19
429.403	128.19
429.625	117.19
429.847	163.19
430.069	270.19
430.292	294.19
430.514	274.19
430.736	192.19
430.958	192.19
431.18	127.19
431.402	125.19
431.624	122.19
431.846	171.19
432.068	195.19
432.29	128.19
432.512	97.19
432.734	96.19
432.956	109.19
433.178	93.19
433.4	76.19
433.622	98.19
433.844	83.19
434.066	88.19
434.287	81.19
434.509	100.19
434.731	81.19
434.953	86.19
435.175	83.19
435.397	105.19
435.618	106.19
435.84	113.19
436.062	83.19
436.284	93.19
436.505	100.19
436.727	112.19
436.949	106.19
437.17	93.19
437.392	90.19
437.614	89.19
437.835	103.19
438.057	93.19
438.278	83.19
438.5	112.19
438.721	93.19
438.943	100.19
439.165	86.19
439.386	94.19
439.608	89.19
439.829	88.19
440.05	100.19
440.272	98.19
440.493	98.19
440.715	105.19
440.936	90.19
441.158	92.19
441.379	98.19
441.6	95.19
441.822	106.19
442.043	96.19
442.264	137.19
442.486	208.19
442.707	264.19
442.928	186.19
443.149	155.19
443.371	261.19
443.592	441.19
443.813	365.19
444.034	167.19
444.255	123.19
444.476	112.19
444.698	112.19
444.919	130.19
445.14	262.19
445.361	339.19
445.582	535.19
445.803	463.19
446.024	189.19
446.245	132.19
446.466	113.19
446.687	109.19
446.908	101.19
447.129	89.19
447.35	98.19
447.571	96.19
447.792	79.19
448.013	96.19
448.234	90.19
448.455	98.19
448.675	102.19
448.896	76.19
449.117	91.19
449.338	81.19
449.559	96.19
449.779	96.19
450	97.19
450.221	99.19
450.442	82.19
450.662	62.19
450.883	89.19
451.104	88.19
451.324	79.19
451.545	90.19
451.766	84.19
451.986	94.19
452.207	97.19
452.428	92.19
452.648	104.19
452.869	131.19
453.089	123.19
453.31	95.19
453.53	103.19
453.751	120.19
453.971	89.19
454.192	86.19
454.412	101.19
454.633	77.19
454.853	91.19
455.073	92.19
455.294	94.19
455.514	92.19
455.734	105.19
455.955	88.19
456.175	99.19
456.395	96.19
456.616	90.19
456.836	75.19
457.056	82.19
457.276	84.19
457.497	99.19
457.717	109.19
457.937	129.19
458.157	160.19
458.377	160.19
458.598	166.19
458.818	175.19
459.038	124.19
459.258	108.19
459.478	84.19
459.698	96.19
459.918	90.19
460.138	93.19
460.358	116.19
460.578	132.19
460.798	169.19
461.018	143.19
461.238	89.19
461.458	112.19
461.678	98.19
461.898	86.19
462.118	95.19
462.338	86.19
462.558	98.19
462.777	91.19
462.997	80.19
463.217	82.19
463.437	81.19
463.657	65.19
463.876	86.19
464.096	79.19
464.316	88.19
464.536	82.19
464.755	102.19
464.975	95.19
465.195	88.19
465.414	99.19
465.634	92.19
465.854	85.19
466.073	105.19
466.293	79.19
466.512	81.19
466.732	97.19
466.951	77.19
467.171	73.19
467.391	100.19
467.61	100.19
467.829	101.19
468.049	94.19
468.268	93.19
468.488	76.19
468.707	101.19
468.927	92.19
469.146	93.19
469.365	78.19
469.585	97.19
469.804	94.19
470.023	95.19
470.243	96.19
470.462	107.19
470.681	77.19
470.901	92.19
471.12	92.19
471.339	94.19
471.558	92.19
471.777	89.19
471.997	79.19
472.216	96.19
472.435	99.19
472.654	89.19
472.873	84.19
473.092	88.19
473.311	82.19
473.53	90.19
473.749	108.19
473.968	104.19
474.187	77.19
474.406	78.19
474.625	93.19
474.844	100.19
475.063	81.19
475.282	84.19
475.501	80.19
475.72	88.19
475.939	98.19
476.158	77.19
476.377	95.19
476.596	94.19
476.814	92.19
477.033	90.19
477.252	90.19
477.471	81.19
477.69	97.19
477.908	93.19
478.127	99.19
478.346	96.19
478.564	92.19
478.783	90.19
479.002	83.19
479.22	93.19
479.439	83.19
479.658	88.19
479.876	109.19
480.095	105.19
480.313	103.19
480.532	93.19
480.751	93.19
480.969	109.19
481.188	91.19
481.406	109.19
481.624	94.19
481.843	87.19
482.061	100.19
482.28	102.19
482.498	104.19
482.717	88.19
482.935	98.19
483.153	98.19
483.372	90.19
483.59	103.19
483.808	96.19
484.027	87.19
484.245	108.19
484.463	93.19
484.681	86.19
484.9	97.19
485.118	83.19
485.336	89.19
485.554	90.19
485.772	84.19
485.99	95.19
486.209	96.19
486.427	93.19
486.645	114.19
486.863	103.19
487.081	94.19
487.299	121.19
487.517	134.19
487.735	146.19
487.953	274.19
488.171	246.19
488.389	134.19
488.607	115.19
488.825	92.19
489.043	85.19
489.261	96.19
489.479	99.19
489.696	97.19
489.914	88.19
490.132	93.19
490.35	93.19
490.568	96.19
490.786	100.19
491.003	103.19
491.221	92.19
491.439	99.19
491.657	101.19
491.874	107.19
492.092	87.19
492.31	93.19
492.527	91.19
492.745	84.19
492.963	86.19
493.18	94.19
493.398	107.19
493.615	92.19
493.833	98.19
494.05	98.19
494.268	87.19
494.485	91.19
494.703	90.19
494.92	92.19
495.138	94.19
495.355	90.19
495.573	100.19
495.79	100.19
496.008	112.19
496.225	113.19
496.442	115.19
496.66	102.19
496.877	112.19
497.094	90.19
497.312	105.19
497.529	97.19
497.746	100.19
497.963	102.19
498.181	108.19
498.398	133.19
498.615	94.19
498.832	76.19
499.049	108.19
499.267	114.19
499.484	106.19
499.701	100.19
499.918	99.19
500.135	107.19
500.352	84.19
500.569	83.19
500.786	105.19
501.003	102.19
501.22	91.19
501.437	92.19
501.654	107.19
501.871	98.19
502.088	93.19
502.305	103.19
502.522	96.19
502.739	86.19
502.956	109.19
503.172	109.19
503.389	90.19
503.606	102.19
503.823	101.19
504.04	124.19
504.256	190.19
504.473	180.19
504.69	129.19
504.907	108.19
505.123	92.19
505.34	108.19
505.557	99.19
505.773	94.19
505.99	89.19
506.207	98.19
506.423	105.19
506.64	101.19
506.856	96.19
507.073	89.19
507.289	85.19
507.506	107.19
507.722	98.19
507.939	97.19
508.155	101.19
508.372	78.19
508.588	94.19
508.805	96.19
509.021	94.19
509.238	91.19
509.454	81.19
509.67	100.19
509.887	97.19
510.103	95.19
510.319	93.19
510.536	91.19
510.752	93.19
510.968	90.19
511.184	104.19
511.401	82.19
511.617	98.19
511.833	81.19
512.049	109.19
512.265	83.19
512.481	81.19
512.698	113.19
512.914	87.19
513.13	98.19
513.346	100.19
513.562	107.19
513.778	102.19
513.994	93.19
514.21	99.19
514.426	95.19
514.642	100.19
514.858	86.19
515.074	93.19
515.29	116.19
