Data from 2145_3_HRD10591_00018.txt Node
Date: Mon Jan 19 14:23:16 EST 2026
User: Yrep
Spectrometer: HR+D1059
Trigger mode: 1
Integration Time (sec): 1.000000E-1
Scans to average: 1
Electric dark correction enabled: true
Nonlinearity correction enabled: false
Boxcar width: 0
XAxis mode: Wavelengths
Number of Pixels in Spectrum: 2048
>>>>>Begin Spectral Data<<<<<
223.165	-28.62
223.4	-28.62
223.635	-28.62
223.869	-12.62
224.104	4.38
224.338	-8.62
224.573	-15.62
224.808	-26.62
225.042	-13.62
225.277	-3.62
225.511	-8.62
225.746	-0.62
225.98	10.38
226.215	13.38
226.449	12.38
226.683	15.38
226.918	23.38
227.152	39.38
227.387	44.38
227.621	33.38
227.856	44.38
228.09	38.38
228.324	44.38
228.559	55.38
228.793	56.38
229.027	50.38
229.262	69.38
229.496	54.38
229.73	65.38
229.964	77.38
230.199	72.38
230.433	70.38
230.667	88.38
230.901	79.38
231.136	75.38
231.37	74.38
231.604	59.38
231.838	77.38
232.072	73.38
232.306	81.38
232.541	87.38
232.775	84.38
233.009	87.38
233.243	75.38
233.477	81.38
233.711	77.38
233.945	87.38
234.179	86.38
234.413	61.38
234.647	72.38
234.881	80.38
235.115	88.38
235.349	89.38
235.583	86.38
235.817	72.38
236.051	85.38
236.285	70.38
236.519	67.38
236.753	78.38
236.987	73.38
237.221	69.38
237.455	69.38
237.689	77.38
237.922	83.38
238.156	73.38
238.39	60.38
238.624	65.38
238.858	78.38
239.091	73.38
239.325	71.38
239.559	71.38
239.793	72.38
240.027	80.38
240.26	76.38
240.494	76.38
240.728	67.38
240.961	77.38
241.195	79.38
241.429	63.38
241.662	78.38
241.896	71.38
242.13	71.38
242.363	73.38
242.597	65.38
242.83	68.38
243.064	69.38
243.298	74.38
243.531	84.38
243.765	79.38
243.998	80.38
244.232	69.38
244.465	70.38
244.699	77.38
244.932	62.38
245.166	77.38
245.399	78.38
245.633	77.38
245.866	68.38
246.099	74.38
246.333	76.38
246.566	75.38
246.8	78.38
247.033	71.38
247.266	90.38
247.5	77.38
247.733	91.38
247.966	83.38
248.2	84.38
248.433	63.38
248.666	82.38
248.899	70.38
249.133	72.38
249.366	86.38
249.599	71.38
249.832	62.38
250.066	81.38
250.299	88.38
250.532	77.38
250.765	71.38
250.998	76.38
251.231	76.38
251.465	90.38
251.698	89.38
251.931	87.38
252.164	78.38
252.397	80.38
252.63	96.38
252.863	73.38
253.096	77.38
253.329	88.38
253.562	75.38
253.795	82.38
254.028	79.38
254.261	84.38
254.494	82.38
254.727	93.38
254.96	68.38
255.193	70.38
255.426	65.38
255.659	83.38
255.892	71.38
256.124	74.38
256.357	84.38
256.59	81.38
256.823	75.38
257.056	87.38
257.289	82.38
257.521	76.38
257.754	68.38
257.987	75.38
258.22	77.38
258.452	75.38
258.685	92.38
258.918	86.38
259.151	95.38
259.383	84.38
259.616	83.38
259.849	92.38
260.081	67.38
260.314	92.38
260.547	85.38
260.779	81.38
261.012	76.38
261.244	72.38
261.477	87.38
261.71	72.38
261.942	82.38
262.175	88.38
262.407	80.38
262.64	79.38
262.872	86.38
263.105	92.38
263.337	85.38
263.57	77.38
263.802	86.38
264.035	75.38
264.267	67.38
264.499	83.38
264.732	101.38
264.964	86.38
265.197	84.38
265.429	95.38
265.661	75.38
265.894	73.38
266.126	81.38
266.358	75.38
266.591	72.38
266.823	69.38
267.055	81.38
267.287	85.38
267.52	87.38
267.752	86.38
267.984	81.38
268.216	80.38
268.448	85.38
268.681	75.38
268.913	87.38
269.145	81.38
269.377	85.38
269.609	69.38
269.841	85.38
270.073	73.38
270.306	87.38
270.538	83.38
270.77	78.38
271.002	71.38
271.234	65.38
271.466	83.38
271.698	83.38
271.93	95.38
272.162	82.38
272.394	83.38
272.626	66.38
272.858	76.38
273.09	99.38
273.322	88.38
273.553	81.38
273.785	90.38
274.017	73.38
274.249	81.38
274.481	84.38
274.713	64.38
274.945	70.38
275.176	90.38
275.408	84.38
275.64	91.38
275.872	91.38
276.104	86.38
276.335	78.38
276.567	68.38
276.799	81.38
277.031	84.38
277.262	90.38
277.494	82.38
277.726	80.38
277.957	75.38
278.189	75.38
278.421	72.38
278.652	82.38
278.884	76.38
279.115	87.38
279.347	77.38
279.579	79.38
279.81	97.38
280.042	87.38
280.273	77.38
280.505	95.38
280.736	81.38
280.968	90.38
281.199	68.38
281.431	94.38
281.662	80.38
281.894	87.38
282.125	90.38
282.356	84.38
282.588	88.38
282.819	86.38
283.051	74.38
283.282	86.38
283.513	91.38
283.745	91.38
283.976	84.38
284.207	83.38
284.439	82.38
284.67	82.38
284.901	90.38
285.132	90.38
285.364	70.38
285.595	90.38
285.826	87.38
286.057	87.38
286.288	73.38
286.52	88.38
286.751	84.38
286.982	65.38
287.213	91.38
287.444	91.38
287.675	84.38
287.906	103.38
288.138	92.38
288.369	87.38
288.6	84.38
288.831	87.38
289.062	95.38
289.293	84.38
289.524	78.38
289.755	77.38
289.986	90.38
290.217	83.38
290.448	68.38
290.679	94.38
290.91	85.38
291.141	73.38
291.371	82.38
291.602	91.38
291.833	79.38
292.064	89.38
292.295	84.38
292.526	72.38
292.757	74.38
292.987	76.38
293.218	89.38
293.449	88.38
293.68	73.38
293.91	88.38
294.141	87.38
294.372	94.38
294.603	88.38
294.833	88.38
295.064	89.38
295.295	76.38
295.525	91.38
295.756	83.38
295.987	92.38
296.217	93.38
296.448	80.38
296.679	93.38
296.909	87.38
297.14	91.38
297.37	75.38
297.601	83.38
297.831	90.38
298.062	87.38
298.292	83.38
298.523	80.38
298.753	80.38
298.984	86.38
299.214	106.38
299.445	89.38
299.675	88.38
299.905	90.38
300.136	79.38
300.366	89.38
300.597	88.38
300.827	109.38
301.057	87.38
301.288	83.38
301.518	87.38
301.748	83.38
301.979	105.38
302.209	108.38
302.439	75.38
302.669	76.38
302.9	77.38
303.13	76.38
303.36	92.38
303.59	70.38
303.82	96.38
304.051	77.38
304.281	92.38
304.511	80.38
304.741	89.38
304.971	87.38
305.201	87.38
305.431	108.38
305.661	77.38
305.891	95.38
306.121	90.38
306.352	83.38
306.582	91.38
306.812	83.38
307.042	89.38
307.272	89.38
307.502	79.38
307.731	81.38
307.961	88.38
308.191	89.38
308.421	89.38
308.651	94.38
308.881	109.38
309.111	102.38
309.341	105.38
309.571	109.38
309.8	89.38
310.03	78.38
310.26	79.38
310.49	87.38
310.72	87.38
310.949	88.38
311.179	81.38
311.409	85.38
311.639	91.38
311.868	85.38
312.098	88.38
312.328	67.38
312.557	76.38
312.787	82.38
313.017	86.38
313.246	92.38
313.476	81.38
313.706	89.38
313.935	88.38
314.165	90.38
314.394	81.38
314.624	75.38
314.853	88.38
315.083	85.38
315.312	76.38
315.542	102.38
315.771	89.38
316.001	95.38
316.23	90.38
316.46	80.38
316.689	87.38
316.919	99.38
317.148	89.38
317.377	86.38
317.607	87.38
317.836	76.38
318.065	102.38
318.295	95.38
318.524	89.38
318.753	95.38
318.983	95.38
319.212	89.38
319.441	100.38
319.67	90.38
319.9	91.38
320.129	94.38
320.358	97.38
320.587	93.38
320.816	71.38
321.046	97.38
321.275	77.38
321.504	82.38
321.733	102.38
321.962	85.38
322.191	79.38
322.42	97.38
322.649	83.38
322.878	73.38
323.108	80.38
323.337	75.38
323.566	89.38
323.795	93.38
324.024	80.38
324.253	87.38
324.482	84.38
324.71	91.38
324.939	95.38
325.168	87.38
325.397	86.38
325.626	78.38
325.855	95.38
326.084	84.38
326.313	96.38
326.542	85.38
326.77	100.38
326.999	77.38
327.228	92.38
327.457	95.38
327.686	94.38
327.914	92.38
328.143	84.38
328.372	100.38
328.6	88.38
328.829	81.38
329.058	79.38
329.287	91.38
329.515	89.38
329.744	92.38
329.972	101.38
330.201	97.38
330.43	105.38
330.658	87.38
330.887	97.38
331.115	81.38
331.344	85.38
331.572	83.38
331.801	80.38
332.03	72.38
332.258	96.38
332.486	89.38
332.715	69.38
332.943	77.38
333.172	83.38
333.4	86.38
333.629	83.38
333.857	92.38
334.085	88.38
334.314	100.38
334.542	96.38
334.771	100.38
334.999	94.38
335.227	99.38
335.455	105.38
335.684	113.38
335.912	108.38
336.14	95.38
336.369	89.38
336.597	101.38
336.825	96.38
337.053	83.38
337.281	87.38
337.51	76.38
337.738	72.38
337.966	96.38
338.194	83.38
338.422	90.38
338.65	88.38
338.878	96.38
339.106	92.38
339.334	89.38
339.562	91.38
339.79	96.38
340.018	88.38
340.246	77.38
340.474	85.38
340.702	84.38
340.93	85.38
341.158	84.38
341.386	92.38
341.614	85.38
341.842	89.38
342.07	85.38
342.298	88.38
342.526	95.38
342.754	94.38
342.981	84.38
343.209	90.38
343.437	95.38
343.665	99.38
343.893	89.38
344.12	98.38
344.348	102.38
344.576	99.38
344.804	106.38
345.031	113.38
345.259	101.38
345.487	84.38
345.714	94.38
345.942	81.38
346.17	93.38
346.397	95.38
346.625	81.38
346.853	84.38
347.08	83.38
347.308	89.38
347.535	96.38
347.763	93.38
347.99	92.38
348.218	80.38
348.445	91.38
348.673	77.38
348.9	92.38
349.128	83.38
349.355	85.38
349.583	84.38
349.81	92.38
350.037	78.38
350.265	88.38
350.492	88.38
350.72	98.38
350.947	75.38
351.174	79.38
351.402	91.38
351.629	96.38
351.856	93.38
352.083	96.38
352.311	84.38
352.538	90.38
352.765	80.38
352.992	96.38
353.22	81.38
353.447	104.38
353.674	91.38
353.901	96.38
354.128	97.38
354.355	99.38
354.583	90.38
354.81	89.38
355.037	92.38
355.264	88.38
355.491	85.38
355.718	86.38
355.945	84.38
356.172	92.38
356.399	79.38
356.626	97.38
356.853	84.38
357.08	95.38
357.307	90.38
357.534	90.38
357.761	105.38
357.988	89.38
358.215	100.38
358.441	96.38
358.668	102.38
358.895	92.38
359.122	91.38
359.349	98.38
359.576	85.38
359.802	105.38
360.029	95.38
360.256	89.38
360.483	94.38
360.709	89.38
360.936	84.38
361.163	85.38
361.39	101.38
361.616	89.38
361.843	100.38
362.07	103.38
362.296	105.38
362.523	117.38
362.749	111.38
362.976	133.38
363.203	132.38
363.429	115.38
363.656	111.38
363.882	106.38
364.109	145.38
364.335	158.38
364.562	151.38
364.788	124.38
365.015	113.38
365.241	89.38
365.468	110.38
365.694	99.38
365.92	86.38
366.147	91.38
366.373	97.38
366.599	80.38
366.826	72.38
367.052	88.38
367.278	82.38
367.505	62.38
367.731	97.38
367.957	93.38
368.184	89.38
368.41	85.38
368.636	91.38
368.862	100.38
369.089	79.38
369.315	83.38
369.541	78.38
369.767	82.38
369.993	86.38
370.219	85.38
370.445	83.38
370.672	88.38
370.898	75.38
371.124	75.38
371.35	90.38
371.576	92.38
371.802	80.38
372.028	98.38
372.254	97.38
372.48	89.38
372.706	87.38
372.932	83.38
373.158	100.38
373.384	98.38
373.61	107.38
373.835	103.38
374.061	102.38
374.287	87.38
374.513	96.38
374.739	97.38
374.965	91.38
375.191	103.38
375.416	71.38
375.642	99.38
375.868	90.38
376.094	92.38
376.319	96.38
376.545	100.38
376.771	97.38
376.997	81.38
377.222	103.38
377.448	75.38
377.674	78.38
377.899	89.38
378.125	102.38
378.35	93.38
378.576	85.38
378.802	87.38
379.027	85.38
379.253	86.38
379.478	85.38
379.704	101.38
379.929	83.38
380.155	82.38
380.38	87.38
380.606	92.38
380.831	96.38
381.057	98.38
381.282	82.38
381.507	92.38
381.733	96.38
381.958	93.38
382.184	95.38
382.409	87.38
382.634	101.38
382.86	91.38
383.085	78.38
383.31	101.38
383.535	106.38
383.761	93.38
383.986	90.38
384.211	90.38
384.436	84.38
384.662	80.38
384.887	88.38
385.112	80.38
385.337	95.38
385.562	87.38
385.787	98.38
386.013	109.38
386.238	99.38
386.463	91.38
386.688	103.38
386.913	84.38
387.138	87.38
387.363	105.38
387.588	97.38
387.813	103.38
388.038	105.38
388.263	96.38
388.488	94.38
388.713	98.38
388.938	88.38
389.163	87.38
389.387	78.38
389.612	83.38
389.837	96.38
390.062	83.38
390.287	104.38
390.512	91.38
390.736	93.38
390.961	85.38
391.186	96.38
391.411	101.38
391.636	99.38
391.86	101.38
392.085	90.38
392.31	114.38
392.534	129.38
392.759	143.38
392.984	188.38
393.208	329.38
393.433	467.38
393.658	372.38
393.882	173.38
394.107	136.38
394.331	135.38
394.556	139.38
394.78	125.38
395.005	103.38
395.229	103.38
395.454	112.38
395.678	113.38
395.903	146.38
396.127	170.38
396.352	210.38
396.576	226.38
396.801	344.38
397.025	380.38
397.249	224.38
397.474	147.38
397.698	123.38
397.922	103.38
398.147	71.38
398.371	98.38
398.595	90.38
398.82	103.38
399.044	83.38
399.268	92.38
399.492	88.38
399.717	91.38
399.941	100.38
400.165	97.38
400.389	90.38
400.613	101.38
400.837	99.38
401.062	81.38
401.286	91.38
401.51	94.38
401.734	89.38
401.958	91.38
402.182	97.38
402.406	79.38
402.63	96.38
402.854	93.38
403.078	94.38
403.302	88.38
403.526	115.38
403.75	104.38
403.974	123.38
404.198	166.38
404.422	247.38
404.645	299.38
404.869	249.38
405.093	176.38
405.317	130.38
405.541	109.38
405.765	93.38
405.988	91.38
406.212	106.38
406.436	91.38
406.66	96.38
406.883	99.38
407.107	101.38
407.331	105.38
407.555	107.38
407.778	112.38
408.002	119.38
408.226	88.38
408.449	93.38
408.673	92.38
408.896	93.38
409.12	89.38
409.344	92.38
409.567	120.38
409.791	105.38
410.014	107.38
410.238	98.38
410.461	85.38
410.685	97.38
410.908	82.38
411.132	107.38
411.355	98.38
411.578	98.38
411.802	85.38
412.025	102.38
412.249	100.38
412.472	88.38
412.695	82.38
412.919	98.38
413.142	78.38
413.365	92.38
413.589	84.38
413.812	92.38
414.035	99.38
414.258	87.38
414.482	91.38
414.705	97.38
414.928	85.38
415.151	86.38
415.374	87.38
415.597	90.38
415.821	73.38
416.044	88.38
416.267	87.38
416.49	98.38
416.713	74.38
416.936	87.38
417.159	84.38
417.382	90.38
417.605	88.38
417.828	97.38
418.051	97.38
418.274	95.38
418.497	82.38
418.72	99.38
418.943	74.38
419.166	99.38
419.389	91.38
419.611	82.38
419.834	92.38
420.057	84.38
420.28	95.38
420.503	104.38
420.726	111.38
420.948	97.38
421.171	107.38
421.394	123.38
421.617	143.38
421.839	142.38
422.062	178.38
422.285	245.38
422.507	424.38
422.73	581.38
422.953	529.38
423.175	325.38
423.398	207.38
423.621	156.38
423.843	119.38
424.066	100.38
424.288	102.38
424.511	96.38
424.733	105.38
424.956	100.38
425.178	89.38
425.401	96.38
425.623	91.38
425.846	103.38
426.068	92.38
426.291	87.38
426.513	98.38
426.735	85.38
426.958	89.38
427.18	113.38
427.402	85.38
427.625	90.38
427.847	104.38
428.069	121.38
428.292	186.38
428.514	215.38
428.736	153.38
428.958	192.38
429.181	183.38
429.403	110.38
429.625	123.38
429.847	181.38
430.069	256.38
430.292	303.38
430.514	303.38
430.736	212.38
430.958	219.38
431.18	127.38
431.402	121.38
431.624	119.38
431.846	180.38
432.068	199.38
432.29	119.38
432.512	101.38
432.734	95.38
432.956	91.38
433.178	75.38
433.4	86.38
433.622	97.38
433.844	85.38
434.066	106.38
434.287	84.38
434.509	77.38
434.731	97.38
434.953	87.38
435.175	97.38
435.397	97.38
435.618	93.38
435.84	92.38
436.062	80.38
436.284	88.38
436.505	97.38
436.727	82.38
436.949	91.38
437.17	82.38
437.392	83.38
437.614	77.38
437.835	79.38
438.057	89.38
438.278	82.38
438.5	93.38
438.721	84.38
438.943	103.38
439.165	90.38
439.386	85.38
439.608	98.38
439.829	78.38
440.05	90.38
440.272	95.38
440.493	98.38
440.715	88.38
440.936	88.38
441.158	101.38
441.379	90.38
441.6	95.38
441.822	94.38
442.043	117.38
442.264	134.38
442.486	201.38
442.707	252.38
442.928	177.38
443.149	168.38
443.371	257.38
443.592	443.38
443.813	349.38
444.034	162.38
444.255	117.38
444.476	109.38
444.698	117.38
444.919	139.38
445.14	249.38
445.361	347.38
445.582	544.38
445.803	439.38
446.024	200.38
446.245	125.38
446.466	90.38
446.687	94.38
446.908	86.38
447.129	97.38
447.35	95.38
447.571	87.38
447.792	77.38
448.013	89.38
448.234	97.38
448.455	80.38
448.675	88.38
448.896	88.38
449.117	85.38
449.338	84.38
449.559	93.38
449.779	95.38
450	85.38
450.221	90.38
450.442	93.38
450.662	88.38
450.883	81.38
451.104	108.38
451.324	94.38
451.545	88.38
451.766	97.38
451.986	91.38
452.207	85.38
452.428	90.38
452.648	87.38
452.869	89.38
453.089	106.38
453.31	103.38
453.53	92.38
453.751	81.38
453.971	86.38
454.192	87.38
454.412	98.38
454.633	95.38
454.853	86.38
455.073	96.38
455.294	103.38
455.514	84.38
455.734	83.38
455.955	89.38
456.175	91.38
456.395	82.38
456.616	83.38
456.836	74.38
457.056	83.38
457.276	78.38
457.497	104.38
457.717	99.38
457.937	99.38
458.157	138.38
458.377	152.38
458.598	149.38
458.818	142.38
459.038	121.38
459.258	101.38
459.478	83.38
459.698	95.38
459.918	89.38
460.138	94.38
460.358	92.38
460.578	108.38
460.798	170.38
461.018	156.38
461.238	98.38
461.458	87.38
461.678	84.38
461.898	99.38
462.118	96.38
462.338	86.38
462.558	85.38
462.777	90.38
462.997	89.38
463.217	93.38
463.437	104.38
463.657	92.38
463.876	96.38
464.096	87.38
464.316	87.38
464.536	71.38
464.755	90.38
464.975	108.38
465.195	87.38
465.414	85.38
465.634	91.38
465.854	92.38
466.073	95.38
466.293	85.38
466.512	89.38
466.732	91.38
466.951	103.38
467.171	84.38
467.391	99.38
467.61	92.38
467.829	88.38
468.049	85.38
468.268	92.38
468.488	97.38
468.707	88.38
468.927	78.38
469.146	87.38
469.365	99.38
469.585	84.38
469.804	89.38
470.023	107.38
470.243	105.38
470.462	88.38
470.681	77.38
470.901	83.38
471.12	87.38
471.339	85.38
471.558	86.38
471.777	106.38
471.997	91.38
472.216	76.38
472.435	88.38
472.654	80.38
472.873	87.38
473.092	98.38
473.311	74.38
473.53	90.38
473.749	105.38
473.968	106.38
474.187	97.38
474.406	93.38
474.625	91.38
474.844	95.38
475.063	103.38
475.282	75.38
475.501	99.38
475.72	101.38
475.939	91.38
476.158	87.38
476.377	88.38
476.596	83.38
476.814	95.38
477.033	84.38
477.252	100.38
477.471	101.38
477.69	106.38
477.908	96.38
478.127	104.38
478.346	90.38
478.564	97.38
478.783	80.38
479.002	77.38
479.22	81.38
479.439	90.38
479.658	83.38
479.876	97.38
480.095	87.38
480.313	89.38
480.532	112.38
480.751	105.38
480.969	97.38
481.188	104.38
481.406	95.38
481.624	102.38
481.843	81.38
482.061	101.38
482.28	97.38
482.498	96.38
482.717	87.38
482.935	88.38
483.153	95.38
483.372	113.38
483.59	102.38
483.808	81.38
484.027	98.38
484.245	92.38
484.463	103.38
484.681	91.38
484.9	103.38
485.118	89.38
485.336	93.38
485.554	97.38
485.772	101.38
485.99	107.38
486.209	109.38
486.427	106.38
486.645	101.38
486.863	104.38
487.081	118.38
487.299	115.38
487.517	121.38
487.735	143.38
487.953	193.38
488.171	207.38
488.389	134.38
488.607	112.38
488.825	92.38
489.043	88.38
489.261	97.38
489.479	98.38
489.696	100.38
489.914	91.38
490.132	96.38
490.35	99.38
490.568	96.38
490.786	96.38
491.003	96.38
491.221	94.38
491.439	99.38
491.657	102.38
491.874	97.38
492.092	88.38
492.31	97.38
492.527	97.38
492.745	92.38
492.963	102.38
493.18	95.38
493.398	88.38
493.615	101.38
493.833	94.38
494.05	105.38
494.268	91.38
494.485	78.38
494.703	83.38
494.92	90.38
495.138	91.38
495.355	107.38
495.573	105.38
495.79	96.38
496.008	108.38
496.225	112.38
496.442	86.38
496.66	80.38
496.877	101.38
497.094	91.38
497.312	105.38
497.529	104.38
497.746	94.38
497.963	102.38
498.181	106.38
498.398	116.38
498.615	106.38
498.832	99.38
499.049	105.38
499.267	115.38
499.484	111.38
499.701	95.38
499.918	95.38
500.135	102.38
500.352	105.38
500.569	100.38
500.786	115.38
501.003	106.38
501.22	92.38
501.437	88.38
501.654	93.38
501.871	91.38
502.088	80.38
502.305	95.38
502.522	92.38
502.739	83.38
502.956	100.38
503.172	103.38
503.389	106.38
503.606	98.38
503.823	124.38
504.04	124.38
504.256	159.38
504.473	153.38
504.69	121.38
504.907	127.38
505.123	115.38
505.34	103.38
505.557	97.38
505.773	95.38
505.99	95.38
506.207	89.38
506.423	103.38
506.64	100.38
506.856	102.38
507.073	97.38
507.289	87.38
507.506	92.38
507.722	90.38
507.939	92.38
508.155	99.38
508.372	98.38
508.588	105.38
508.805	107.38
509.021	92.38
509.238	100.38
509.454	100.38
509.67	112.38
509.887	89.38
510.103	106.38
510.319	107.38
510.536	113.38
510.752	118.38
510.968	103.38
511.184	95.38
511.401	97.38
511.617	106.38
511.833	119.38
512.049	102.38
512.265	98.38
512.481	86.38
512.698	102.38
512.914	109.38
513.13	101.38
513.346	94.38
513.562	100.38
513.778	107.38
513.994	103.38
514.21	86.38
514.426	80.38
514.642	94.38
514.858	101.38
515.074	109.38
515.29	102.38
515.506	93.38
515.721	104.38
515.937	96.38
