Data from 2145_3_HRD10591_00025.txt Node
Date: Mon Jan 19 14:23:19 EST 2026
User: Yrep
Spectrometer: HR+D1059
Trigger mode: 1
Integration Time (sec): 1.000000E-1
Scans to average: 1
Electric dark correction enabled: true
Nonlinearity correction enabled: false
Boxcar width: 0
XAxis mode: Wavelengths
Number of Pixels in Spectrum: 2048
>>>>>Begin Spectral Data<<<<<
223.165	-11
223.4	-11
223.635	-11
223.869	-9
224.104	-20
224.338	-17
224.573	-21
224.808	-26
225.042	0
225.277	-19
225.511	-8
225.746	7
225.98	6
226.215	31
226.449	16
226.683	21
226.918	17
227.152	33
227.387	45
227.621	55
227.856	44
228.09	34
228.324	51
228.559	43
228.793	62
229.027	66
229.262	75
229.496	71
229.73	74
229.964	80
230.199	78
230.433	75
230.667	90
230.901	63
231.136	71
231.37	77
231.604	86
231.838	71
232.072	81
232.306	55
232.541	71
232.775	77
233.009	86
233.243	76
233.477	76
233.711	84
233.945	81
234.179	86
234.413	76
234.647	90
234.881	97
235.115	92
235.349	75
235.583	91
235.817	76
236.051	88
236.285	86
236.519	71
236.753	76
236.987	78
237.221	101
237.455	70
237.689	76
237.922	76
238.156	73
238.39	69
238.624	87
238.858	79
239.091	73
239.325	74
239.559	86
239.793	76
240.027	67
240.26	67
240.494	84
240.728	71
240.961	77
241.195	88
241.429	80
241.662	74
241.896	84
242.13	74
242.363	74
242.597	70
242.83	84
243.064	73
243.298	82
243.531	60
243.765	76
243.998	80
244.232	70
244.465	81
244.699	84
244.932	82
245.166	76
245.399	77
245.633	73
245.866	83
246.099	90
246.333	79
246.566	72
246.8	93
247.033	69
247.266	92
247.5	96
247.733	74
247.966	86
248.2	77
248.433	68
248.666	75
248.899	79
249.133	79
249.366	78
249.599	84
249.832	86
250.066	71
250.299	81
250.532	83
250.765	75
250.998	85
251.231	76
251.465	78
251.698	93
251.931	76
252.164	85
252.397	78
252.63	80
252.863	80
253.096	82
253.329	85
253.562	84
253.795	94
254.028	101
254.261	80
254.494	72
254.727	63
254.96	76
255.193	84
255.426	85
255.659	77
255.892	81
256.124	83
256.357	83
256.59	90
256.823	68
257.056	70
257.289	90
257.521	84
257.754	90
257.987	81
258.22	86
258.452	86
258.685	76
258.918	74
259.151	67
259.383	88
259.616	85
259.849	76
260.081	86
260.314	71
260.547	76
260.779	81
261.012	75
261.244	77
261.477	74
261.71	74
261.942	85
262.175	92
262.407	89
262.64	71
262.872	94
263.105	76
263.337	92
263.57	81
263.802	84
264.035	82
264.267	81
264.499	81
264.732	74
264.964	81
265.197	80
265.429	86
265.661	89
265.894	82
266.126	89
266.358	92
266.591	85
266.823	91
267.055	87
267.287	80
267.52	83
267.752	78
267.984	86
268.216	78
268.448	80
268.681	75
268.913	90
269.145	76
269.377	84
269.609	83
269.841	86
270.073	73
270.306	91
270.538	84
270.77	83
271.002	86
271.234	84
271.466	97
271.698	93
271.93	79
272.162	95
272.394	79
272.626	72
272.858	80
273.09	77
273.322	85
273.553	77
273.785	86
274.017	78
274.249	88
274.481	90
274.713	86
274.945	81
275.176	87
275.408	78
275.64	88
275.872	82
276.104	80
276.335	85
276.567	78
276.799	83
277.031	85
277.262	98
277.494	92
277.726	88
277.957	72
278.189	75
278.421	93
278.652	91
278.884	85
279.115	83
279.347	99
279.579	75
279.81	90
280.042	93
280.273	88
280.505	81
280.736	94
280.968	82
281.199	77
281.431	90
281.662	85
281.894	86
282.125	88
282.356	91
282.588	83
282.819	84
283.051	100
283.282	96
283.513	87
283.745	90
283.976	102
284.207	99
284.439	88
284.67	88
284.901	77
285.132	103
285.364	88
285.595	91
285.826	85
286.057	76
286.288	76
286.52	63
286.751	94
286.982	81
287.213	96
287.444	80
287.675	83
287.906	77
288.138	92
288.369	95
288.6	93
288.831	81
289.062	80
289.293	97
289.524	91
289.755	94
289.986	98
290.217	95
290.448	86
290.679	80
290.91	103
291.141	80
291.371	92
291.602	87
291.833	95
292.064	87
292.295	89
292.526	88
292.757	79
292.987	88
293.218	102
293.449	83
293.68	96
293.91	104
294.141	95
294.372	88
294.603	95
294.833	81
295.064	96
295.295	88
295.525	90
295.756	89
295.987	86
296.217	80
296.448	92
296.679	82
296.909	91
297.14	84
297.37	84
297.601	82
297.831	90
298.062	107
298.292	89
298.523	99
298.753	99
298.984	92
299.214	102
299.445	78
299.675	91
299.905	110
300.136	88
300.366	87
300.597	104
300.827	83
301.057	68
301.288	84
301.518	72
301.748	87
301.979	96
302.209	90
302.439	88
302.669	81
302.9	78
303.13	74
303.36	83
303.59	78
303.82	93
304.051	87
304.281	89
304.511	90
304.741	95
304.971	87
305.201	104
305.431	87
305.661	93
305.891	95
306.121	91
306.352	98
306.582	92
306.812	99
307.042	104
307.272	91
307.502	91
307.731	91
307.961	96
308.191	105
308.421	108
308.651	96
308.881	109
309.111	108
309.341	114
309.571	82
309.8	87
310.03	90
310.26	99
310.49	92
310.72	92
310.949	87
311.179	84
311.409	86
311.639	79
311.868	92
312.098	99
312.328	91
312.557	89
312.787	84
313.017	96
313.246	87
313.476	94
313.706	87
313.935	75
314.165	97
314.394	104
314.624	83
314.853	93
315.083	105
315.312	85
315.542	110
315.771	106
316.001	92
316.23	111
316.46	100
316.689	85
316.919	76
317.148	99
317.377	93
317.607	92
317.836	110
318.065	104
318.295	102
318.524	100
318.753	91
318.983	104
319.212	113
319.441	92
319.67	91
319.9	91
320.129	99
320.358	87
320.587	74
320.816	80
321.046	92
321.275	110
321.504	81
321.733	99
321.962	94
322.191	88
322.42	91
322.649	105
322.878	98
323.108	101
323.337	89
323.566	94
323.795	100
324.024	94
324.253	88
324.482	104
324.71	104
324.939	82
325.168	91
325.397	99
325.626	87
325.855	101
326.084	101
326.313	102
326.542	110
326.77	92
326.999	86
327.228	98
327.457	81
327.686	94
327.914	88
328.143	92
328.372	92
328.6	79
328.829	77
329.058	87
329.287	86
329.515	95
329.744	101
329.972	101
330.201	93
330.43	91
330.658	91
330.887	95
331.115	104
331.344	96
331.572	84
331.801	80
332.03	96
332.258	101
332.486	91
332.715	93
332.943	87
333.172	80
333.4	90
333.629	98
333.857	106
334.085	102
334.314	89
334.542	100
334.771	94
334.999	96
335.227	96
335.455	112
335.684	112
335.912	110
336.14	102
336.369	101
336.597	93
336.825	92
337.053	93
337.281	104
337.51	89
337.738	97
337.966	98
338.194	80
338.422	99
338.65	82
338.878	93
339.106	86
339.334	88
339.562	96
339.79	82
340.018	90
340.246	84
340.474	87
340.702	90
340.93	94
341.158	75
341.386	95
341.614	85
341.842	90
342.07	94
342.298	92
342.526	98
342.754	87
342.981	92
343.209	94
343.437	96
343.665	100
343.893	99
344.12	107
344.348	100
344.576	108
344.804	111
345.031	108
345.259	77
345.487	94
345.714	99
345.942	95
346.17	96
346.397	86
346.625	79
346.853	90
347.08	86
347.308	92
347.535	99
347.763	107
347.99	91
348.218	84
348.445	94
348.673	90
348.9	106
349.128	91
349.355	100
349.583	78
349.81	86
350.037	96
350.265	91
350.492	85
350.72	94
350.947	90
351.174	86
351.402	76
351.629	95
351.856	99
352.083	94
352.311	95
352.538	88
352.765	90
352.992	90
353.22	101
353.447	88
353.674	94
353.901	91
354.128	88
354.355	95
354.583	99
354.81	94
355.037	76
355.264	96
355.491	90
355.718	92
355.945	88
356.172	87
356.399	84
356.626	100
356.853	95
357.08	99
357.307	100
357.534	90
357.761	104
357.988	108
358.215	93
358.441	98
358.668	99
358.895	96
359.122	88
359.349	110
359.576	104
359.802	86
360.029	95
360.256	115
360.483	97
360.709	109
360.936	101
361.163	108
361.39	95
361.616	93
361.843	96
362.07	110
362.296	135
362.523	116
362.749	127
362.976	152
363.203	148
363.429	124
363.656	120
363.882	117
364.109	153
364.335	179
364.562	174
364.788	148
365.015	120
365.241	107
365.468	95
365.694	97
365.92	100
366.147	93
366.373	90
366.599	101
366.826	82
367.052	96
367.278	109
367.505	100
367.731	112
367.957	106
368.184	106
368.41	87
368.636	102
368.862	104
369.089	116
369.315	97
369.541	82
369.767	96
369.993	94
370.219	93
370.445	99
370.672	99
370.898	94
371.124	97
371.35	91
371.576	96
371.802	101
372.028	109
372.254	93
372.48	104
372.706	105
372.932	100
373.158	101
373.384	124
373.61	124
373.835	111
374.061	108
374.287	102
374.513	103
374.739	87
374.965	105
375.191	100
375.416	108
375.642	118
375.868	113
376.094	106
376.319	81
376.545	96
376.771	91
376.997	92
377.222	101
377.448	106
377.674	92
377.899	88
378.125	87
378.35	84
378.576	87
378.802	98
379.027	90
379.253	96
379.478	86
379.704	93
379.929	94
380.155	94
380.38	89
380.606	88
380.831	83
381.057	104
381.282	89
381.507	98
381.733	89
381.958	105
382.184	88
382.409	105
382.634	110
382.86	107
383.085	114
383.31	108
383.535	131
383.761	102
383.986	117
384.211	99
384.436	80
384.662	95
384.887	92
385.112	97
385.337	88
385.562	94
385.787	98
386.013	126
386.238	98
386.463	94
386.688	125
386.913	103
387.138	104
387.363	87
387.588	99
387.813	103
388.038	108
388.263	111
388.488	91
388.713	88
388.938	107
389.163	103
389.387	104
389.612	88
389.837	97
390.062	111
390.287	105
390.512	102
390.736	92
390.961	93
391.186	78
391.411	105
391.636	97
391.86	99
392.085	127
392.31	135
392.534	125
392.759	152
392.984	239
393.208	404
393.433	571
393.658	456
393.882	209
394.107	157
394.331	154
394.556	162
394.78	134
395.005	115
395.229	118
395.454	124
395.678	134
395.903	156
396.127	214
396.352	242
396.576	264
396.801	425
397.025	481
397.249	254
397.474	173
397.698	130
397.922	111
398.147	102
398.371	104
398.595	119
398.82	103
399.044	102
399.268	100
399.492	105
399.717	101
399.941	98
400.165	96
400.389	96
400.613	93
400.837	92
401.062	88
401.286	90
401.51	96
401.734	92
401.958	99
402.182	100
402.406	92
402.63	102
402.854	88
403.078	94
403.302	90
403.526	107
403.75	120
403.974	125
404.198	189
404.422	292
404.645	359
404.869	324
405.093	190
405.317	114
405.541	96
405.765	98
405.988	104
406.212	99
406.436	95
406.66	102
406.883	108
407.107	101
407.331	119
407.555	102
407.778	133
408.002	139
408.226	104
408.449	96
408.673	122
408.896	110
409.12	102
409.344	100
409.567	123
409.791	116
410.014	128
410.238	116
410.461	107
410.685	103
410.908	106
411.132	90
411.355	111
411.578	81
411.802	98
412.025	94
412.249	96
412.472	92
412.695	99
412.919	97
413.142	99
413.365	101
413.589	95
413.812	98
414.035	105
414.258	90
414.482	94
414.705	103
414.928	90
415.151	88
415.374	102
415.597	109
415.821	86
416.044	89
416.267	105
416.49	90
416.713	96
416.936	107
417.159	96
417.382	91
417.605	84
417.828	107
418.051	107
418.274	87
418.497	95
418.72	103
418.943	106
419.166	90
419.389	99
419.611	102
419.834	79
420.057	99
420.28	90
420.503	101
420.726	114
420.948	124
421.171	108
421.394	130
421.617	170
421.839	188
422.062	207
422.285	315
422.507	542
422.73	737
422.953	679
423.175	422
423.398	227
423.621	160
423.843	147
424.066	138
424.288	122
424.511	105
424.733	116
424.956	107
425.178	114
425.401	111
425.623	118
425.846	92
426.068	102
426.291	107
426.513	99
426.735	99
426.958	110
427.18	113
427.402	108
427.625	107
427.847	111
428.069	149
428.292	234
428.514	256
428.736	165
428.958	235
429.181	227
429.403	144
429.625	134
429.847	206
430.069	319
430.292	379
430.514	346
430.736	238
430.958	266
431.18	136
431.402	111
431.624	136
431.846	196
432.068	244
432.29	158
432.512	93
432.734	101
432.956	102
433.178	102
433.4	106
433.622	80
433.844	92
434.066	91
434.287	95
434.509	90
434.731	80
434.953	98
435.175	102
435.397	95
435.618	108
435.84	110
436.062	105
436.284	95
436.505	80
436.727	90
436.949	100
437.17	89
437.392	94
437.614	80
437.835	89
438.057	102
438.278	102
438.5	88
438.721	111
438.943	84
439.165	84
439.386	99
439.608	95
439.829	94
440.05	109
440.272	82
440.493	94
440.715	98
440.936	88
441.158	100
441.379	115
441.6	83
441.822	110
442.043	102
442.264	139
442.486	255
442.707	332
442.928	214
443.149	187
443.371	324
443.592	563
443.813	464
444.034	173
444.255	136
444.476	119
444.698	108
444.919	144
445.14	270
445.361	431
445.582	694
445.803	566
446.024	238
446.245	152
446.466	117
446.687	99
446.908	101
447.129	111
447.35	86
447.571	86
447.792	83
448.013	103
448.234	76
448.455	79
448.675	92
448.896	92
449.117	91
449.338	103
449.559	74
449.779	88
450	82
450.221	88
450.442	72
450.662	99
450.883	90
451.104	97
451.324	100
451.545	95
451.766	89
451.986	92
452.207	94
452.428	98
452.648	116
452.869	110
453.089	118
453.31	114
453.53	100
453.751	91
453.971	83
454.192	104
454.412	91
454.633	96
454.853	84
455.073	99
455.294	80
455.514	92
455.734	85
455.955	90
456.175	80
456.395	89
456.616	84
456.836	112
457.056	107
457.276	86
457.497	96
457.717	115
457.937	154
458.157	168
458.377	165
458.598	182
458.818	183
459.038	140
459.258	100
459.478	104
459.698	89
459.918	98
460.138	95
460.358	107
460.578	120
460.798	187
461.018	192
461.238	111
461.458	106
461.678	96
461.898	88
462.118	92
462.338	106
462.558	88
462.777	94
462.997	65
463.217	87
463.437	93
463.657	82
463.876	92
464.096	99
464.316	90
464.536	95
464.755	89
464.975	99
465.195	88
465.414	91
465.634	93
465.854	89
466.073	99
466.293	81
466.512	87
466.732	91
466.951	91
467.171	104
467.391	94
467.61	84
467.829	88
468.049	93
468.268	94
468.488	91
468.707	84
468.927	92
469.146	98
469.365	90
469.585	94
469.804	96
470.023	84
470.243	104
470.462	88
470.681	86
470.901	87
471.12	89
471.339	102
471.558	75
471.777	91
471.997	100
472.216	78
472.435	101
472.654	95
472.873	106
473.092	103
473.311	86
473.53	93
473.749	92
473.968	102
474.187	102
474.406	91
474.625	92
474.844	86
475.063	100
475.282	111
475.501	92
475.72	92
475.939	79
476.158	95
476.377	94
476.596	104
476.814	97
477.033	90
477.252	87
477.471	77
477.69	86
477.908	85
478.127	107
478.346	88
478.564	94
478.783	98
479.002	116
479.22	95
479.439	104
479.658	98
479.876	102
480.095	106
480.313	112
480.532	93
480.751	94
480.969	94
481.188	95
481.406	115
481.624	105
481.843	108
482.061	104
482.28	100
482.498	110
482.717	95
482.935	100
483.153	103
483.372	128
483.59	104
483.808	101
484.027	90
484.245	111
484.463	101
484.681	95
484.9	107
485.118	108
485.336	97
485.554	98
485.772	99
485.99	89
486.209	98
486.427	95
486.645	103
486.863	110
487.081	104
487.299	103
487.517	123
487.735	156
487.953	255
488.171	264
488.389	157
488.607	107
488.825	102
489.043	96
489.261	110
489.479	110
489.696	86
489.914	93
490.132	98
490.35	82
490.568	117
490.786	92
491.003	114
491.221	101
491.439	87
491.657	94
491.874	100
492.092	98
492.31	86
492.527	96
492.745	99
492.963	112
493.18	93
493.398	107
493.615	91
493.833	88
494.05	93
494.268	104
494.485	108
494.703	104
494.92	111
495.138	102
495.355	93
495.573	104
495.79	107
496.008	125
496.225	109
496.442	120
496.66	116
496.877	111
497.094	111
497.312	92
497.529	110
497.746	110
497.963	112
498.181	115
498.398	114
498.615	106
498.832	102
499.049	107
499.267	115
499.484	99
499.701	111
499.918	102
500.135	104
500.352	111
500.569	102
500.786	103
501.003	104
501.22	97
501.437	102
501.654	109
501.871	114
502.088	106
502.305	103
502.522	104
502.739	97
502.956	110
503.172	96
503.389	110
503.606	106
503.823	101
504.04	130
504.256	180
504.473	194
504.69	133
504.907	118
505.123	101
505.34	120
505.557	116
505.773	104
505.99	101
506.207	96
506.423	108
506.64	96
506.856	98
507.073	103
507.289	86
507.506	106
507.722	104
507.939	108
508.155	97
508.372	102
508.588	103
508.805	104
509.021	103
509.238	95
509.454	99
509.67	93
509.887	101
510.103	117
510.319	118
510.536	118
510.752	117
510.968	112
511.184	110
511.401	97
511.617	116
511.833	116
512.049	103
512.265	98
512.481	95
512.698	94
512.914	106
513.13	109
513.346	103
513.562	105
513.778	83
513.994	92
514.21	110
514.426	112
514.642	89
514.858	101
515.074	106
515.29	107
515.506	108
515.721	91
515.937	106
516.153	89
516.369	88
516.585	105
516.801	105
517.016	105
517.232	78
517.448	86
517.664	90
517.879	97
518.095	110
518.311	112
518.527	114
518.742	158
518.958	230
519.173	234
519.389	150
519.605	105
519.82	100
520.036	116
520.251	89
520.467	95
520.682	104
520.898	106
521.113	114
521.329	101
521.544	101
521.76	109
521.975	101
522.19	96
522.406	90
522.621	114
522.836	103
523.052	101
523.267	104
523.482	95
523.698	102
523.913	94
524.128	104
524.343	124
524.559	110
524.774	100
524.989	112
525.204	117
525.419	107
525.634	116
525.849	131
526.064	184
526.28	432
526.495	638
526.71	797
526.925	510
527.14	644
527.355	607
527.57	182
527.785	116
527.999	109
528.214	100
528.429	94
528.644	100
528.859	110
529.074	103
529.289	90
529.503	88
529.718	105
529.933	100
530.148	113
530.363	115
530.577	90
530.792	97
531.007	93
531.221	95
531.436	89
531.651	112
531.865	107
532.08	116
532.295	111
532.509	125
532.724	119
532.938	130
533.153	115
533.367	104
533.582	109
533.796	102
534.011	108
534.225	138
534.44	149
534.654	132
534.868	166
535.083	299
535.297	280
535.511	148
535.726	128
535.94	124
536.154	138
536.369	134
536.583	124
536.797	134
537.011	113
537.225	127
537.44	119
537.654	114
537.868	115
538.082	114
538.296	109
538.51	118
538.724	110
538.938	118
539.153	111
539.367	97
539.581	102
539.795	99
540.009	111
540.222	93
540.436	114
540.65	112
540.864	100
541.078	114
541.292	115
541.506	119
541.72	110
541.934	107
542.147	104
542.361	107
542.575	102
542.789	94
543.002	82
543.216	95
543.43	100
543.644	109
543.857	102
544.071	106
544.285	108
544.498	114
544.712	114
544.925	103
545.139	95
545.352	106
545.566	86
545.779	113
545.993	103
546.206	111
546.42	103
546.633	111
546.847	131
547.06	114
547.274	123
547.487	141
547.7	149
547.914	147
548.127	148
548.34	171
548.554	164
548.767	151
548.98	156
549.193	151
549.407	152
549.62	171
549.833	150
550.046	178
550.259	179
550.473	194
550.686	190
550.899	212
551.112	242
551.325	243
551.538	248
551.751	230
551.964	204
552.177	196
552.39	187
552.603	170
552.816	148
553.029	168
553.242	172
553.455	183
553.667	204
553.88	181
554.093	196
554.306	192
554.519	190
554.732	166
554.944	188
555.157	160
555.37	169
555.583	183
555.795	164
556.008	168
556.221	147
556.433	153
556.646	126
556.859	144
557.071	128
557.284	148
557.496	151
557.709	113
557.921	138
558.134	167
558.346	288
558.559	256
558.771	248
558.984	634
559.196	864
559.409	400
559.621	644
559.833	475
560.046	594
560.258	456
560.47	440
560.683	210
560.895	124
561.107	106
561.32	125
561.532	116
561.744	102
561.956	96
562.168	107
562.381	94
562.593	90
562.805	103
563.017	116
563.229	115
563.441	106
563.653	97
563.865	94
564.077	91
564.289	93
564.501	100
564.713	94
564.925	110
565.137	100
565.349	88
565.561	97
565.773	94
565.985	94
566.197	94
566.408	109
566.62	94
566.832	85
567.044	95
567.255	109
567.467	111
567.679	94
567.891	99
568.102	94
568.314	102
568.526	104
568.737	110
568.949	126
569.161	119
569.372	90
569.584	112
569.795	105
570.007	106
570.218	88
570.43	112
570.641	89
570.853	96
571.064	103
571.276	103
571.487	99
571.698	101
571.91	100
572.121	88
572.333	89
572.544	103
572.755	111
572.966	104
573.178	109
573.389	88
573.6	96
573.811	84
574.023	86
574.234	85
574.445	91
574.656	97
574.867	98
575.078	99
575.289	106
575.501	106
575.712	98
575.923	98
576.134	99
576.345	89
576.556	99
576.767	99
576.978	84
577.188	107
577.399	100
577.61	100
577.821	106
578.032	90
578.243	115
578.454	130
578.665	133
578.875	131
