Data from 2145_3_HRD10591_00015.txt Node
Date: Mon Jan 19 14:23:14 EST 2026
User: Yrep
Spectrometer: HR+D1059
Trigger mode: 1
Integration Time (sec): 1.000000E-1
Scans to average: 1
Electric dark correction enabled: true
Nonlinearity correction enabled: false
Boxcar width: 0
XAxis mode: Wavelengths
Number of Pixels in Spectrum: 2048
>>>>>Begin Spectral Data<<<<<
223.165	-14.94
223.4	-14.94
223.635	-14.94
223.869	-18.94
224.104	-4.94
224.338	-12.94
224.573	-8.94
224.808	-14.94
225.042	-7.94
225.277	-6.94
225.511	-4.94
225.746	9.06
225.98	12.06
226.215	-3.94
226.449	6.06
226.683	18.06
226.918	23.06
227.152	31.06
227.387	44.06
227.621	41.06
227.856	44.06
228.09	51.06
228.324	52.06
228.559	50.06
228.793	68.06
229.027	51.06
229.262	55.06
229.496	57.06
229.73	70.06
229.964	82.06
230.199	65.06
230.433	75.06
230.667	87.06
230.901	87.06
231.136	86.06
231.37	71.06
231.604	80.06
231.838	84.06
232.072	69.06
232.306	84.06
232.541	64.06
232.775	71.06
233.009	72.06
233.243	81.06
233.477	83.06
233.711	82.06
233.945	77.06
234.179	82.06
234.413	73.06
234.647	78.06
234.881	76.06
235.115	66.06
235.349	70.06
235.583	69.06
235.817	93.06
236.051	76.06
236.285	72.06
236.519	73.06
236.753	63.06
236.987	75.06
237.221	76.06
237.455	87.06
237.689	72.06
237.922	66.06
238.156	76.06
238.39	83.06
238.624	75.06
238.858	88.06
239.091	72.06
239.325	83.06
239.559	83.06
239.793	57.06
240.027	62.06
240.26	63.06
240.494	76.06
240.728	65.06
240.961	61.06
241.195	69.06
241.429	62.06
241.662	80.06
241.896	73.06
242.13	74.06
242.363	71.06
242.597	71.06
242.83	80.06
243.064	74.06
243.298	77.06
243.531	82.06
243.765	72.06
243.998	64.06
244.232	77.06
244.465	84.06
244.699	86.06
244.932	87.06
245.166	70.06
245.399	81.06
245.633	73.06
245.866	92.06
246.099	78.06
246.333	80.06
246.566	65.06
246.8	64.06
247.033	81.06
247.266	59.06
247.5	72.06
247.733	62.06
247.966	82.06
248.2	76.06
248.433	81.06
248.666	77.06
248.899	75.06
249.133	75.06
249.366	69.06
249.599	75.06
249.832	72.06
250.066	70.06
250.299	84.06
250.532	74.06
250.765	89.06
250.998	76.06
251.231	88.06
251.465	71.06
251.698	71.06
251.931	73.06
252.164	76.06
252.397	85.06
252.63	91.06
252.863	79.06
253.096	77.06
253.329	78.06
253.562	78.06
253.795	75.06
254.028	84.06
254.261	71.06
254.494	82.06
254.727	73.06
254.96	86.06
255.193	93.06
255.426	92.06
255.659	74.06
255.892	78.06
256.124	76.06
256.357	82.06
256.59	73.06
256.823	67.06
257.056	71.06
257.289	81.06
257.521	61.06
257.754	67.06
257.987	67.06
258.22	92.06
258.452	70.06
258.685	72.06
258.918	83.06
259.151	85.06
259.383	80.06
259.616	87.06
259.849	82.06
260.081	75.06
260.314	89.06
260.547	79.06
260.779	84.06
261.012	67.06
261.244	88.06
261.477	75.06
261.71	75.06
261.942	89.06
262.175	74.06
262.407	74.06
262.64	98.06
262.872	89.06
263.105	69.06
263.337	77.06
263.57	80.06
263.802	85.06
264.035	76.06
264.267	70.06
264.499	86.06
264.732	73.06
264.964	81.06
265.197	89.06
265.429	77.06
265.661	73.06
265.894	80.06
266.126	83.06
266.358	78.06
266.591	86.06
266.823	72.06
267.055	84.06
267.287	72.06
267.52	78.06
267.752	81.06
267.984	81.06
268.216	77.06
268.448	78.06
268.681	93.06
268.913	74.06
269.145	83.06
269.377	88.06
269.609	82.06
269.841	94.06
270.073	73.06
270.306	83.06
270.538	86.06
270.77	84.06
271.002	77.06
271.234	84.06
271.466	81.06
271.698	67.06
271.93	90.06
272.162	77.06
272.394	78.06
272.626	73.06
272.858	75.06
273.09	84.06
273.322	82.06
273.553	86.06
273.785	78.06
274.017	92.06
274.249	78.06
274.481	77.06
274.713	93.06
274.945	75.06
275.176	88.06
275.408	90.06
275.64	83.06
275.872	70.06
276.104	81.06
276.335	73.06
276.567	88.06
276.799	75.06
277.031	77.06
277.262	98.06
277.494	74.06
277.726	90.06
277.957	81.06
278.189	88.06
278.421	87.06
278.652	81.06
278.884	78.06
279.115	83.06
279.347	81.06
279.579	83.06
279.81	76.06
280.042	91.06
280.273	78.06
280.505	69.06
280.736	77.06
280.968	75.06
281.199	90.06
281.431	74.06
281.662	75.06
281.894	79.06
282.125	87.06
282.356	77.06
282.588	79.06
282.819	76.06
283.051	89.06
283.282	99.06
283.513	81.06
283.745	83.06
283.976	95.06
284.207	85.06
284.439	81.06
284.67	88.06
284.901	78.06
285.132	72.06
285.364	67.06
285.595	75.06
285.826	67.06
286.057	76.06
286.288	85.06
286.52	83.06
286.751	86.06
286.982	71.06
287.213	73.06
287.444	67.06
287.675	65.06
287.906	79.06
288.138	83.06
288.369	88.06
288.6	81.06
288.831	74.06
289.062	85.06
289.293	94.06
289.524	88.06
289.755	79.06
289.986	74.06
290.217	75.06
290.448	80.06
290.679	87.06
290.91	89.06
291.141	79.06
291.371	77.06
291.602	79.06
291.833	99.06
292.064	95.06
292.295	75.06
292.526	91.06
292.757	86.06
292.987	88.06
293.218	78.06
293.449	85.06
293.68	90.06
293.91	89.06
294.141	101.06
294.372	95.06
294.603	89.06
294.833	77.06
295.064	68.06
295.295	77.06
295.525	84.06
295.756	81.06
295.987	102.06
296.217	91.06
296.448	93.06
296.679	88.06
296.909	77.06
297.14	81.06
297.37	83.06
297.601	79.06
297.831	92.06
298.062	77.06
298.292	92.06
298.523	80.06
298.753	87.06
298.984	82.06
299.214	88.06
299.445	61.06
299.675	76.06
299.905	86.06
300.136	88.06
300.366	84.06
300.597	85.06
300.827	66.06
301.057	82.06
301.288	82.06
301.518	83.06
301.748	87.06
301.979	100.06
302.209	91.06
302.439	78.06
302.669	92.06
302.9	78.06
303.13	84.06
303.36	79.06
303.59	77.06
303.82	72.06
304.051	84.06
304.281	87.06
304.511	89.06
304.741	71.06
304.971	83.06
305.201	90.06
305.431	84.06
305.661	96.06
305.891	95.06
306.121	75.06
306.352	89.06
306.582	95.06
306.812	81.06
307.042	91.06
307.272	83.06
307.502	78.06
307.731	73.06
307.961	79.06
308.191	85.06
308.421	108.06
308.651	82.06
308.881	76.06
309.111	81.06
309.341	77.06
309.571	85.06
309.8	86.06
310.03	88.06
310.26	79.06
310.49	88.06
310.72	80.06
310.949	74.06
311.179	86.06
311.409	83.06
311.639	66.06
311.868	88.06
312.098	87.06
312.328	89.06
312.557	79.06
312.787	90.06
313.017	84.06
313.246	86.06
313.476	92.06
313.706	87.06
313.935	83.06
314.165	83.06
314.394	83.06
314.624	97.06
314.853	79.06
315.083	88.06
315.312	89.06
315.542	75.06
315.771	81.06
316.001	82.06
316.23	96.06
316.46	92.06
316.689	68.06
316.919	94.06
317.148	71.06
317.377	85.06
317.607	87.06
317.836	96.06
318.065	91.06
318.295	95.06
318.524	73.06
318.753	70.06
318.983	88.06
319.212	85.06
319.441	88.06
319.67	81.06
319.9	76.06
320.129	90.06
320.358	77.06
320.587	79.06
320.816	75.06
321.046	79.06
321.275	84.06
321.504	90.06
321.733	73.06
321.962	90.06
322.191	91.06
322.42	78.06
322.649	77.06
322.878	76.06
323.108	83.06
323.337	90.06
323.566	86.06
323.795	82.06
324.024	76.06
324.253	80.06
324.482	83.06
324.71	93.06
324.939	90.06
325.168	82.06
325.397	72.06
325.626	88.06
325.855	82.06
326.084	86.06
326.313	103.06
326.542	82.06
326.77	88.06
326.999	85.06
327.228	89.06
327.457	87.06
327.686	87.06
327.914	64.06
328.143	87.06
328.372	70.06
328.6	84.06
328.829	66.06
329.058	90.06
329.287	92.06
329.515	87.06
329.744	79.06
329.972	78.06
330.201	79.06
330.43	75.06
330.658	79.06
330.887	86.06
331.115	95.06
331.344	92.06
331.572	89.06
331.801	85.06
332.03	99.06
332.258	91.06
332.486	75.06
332.715	83.06
332.943	85.06
333.172	90.06
333.4	89.06
333.629	73.06
333.857	67.06
334.085	84.06
334.314	87.06
334.542	83.06
334.771	76.06
334.999	84.06
335.227	86.06
335.455	87.06
335.684	85.06
335.912	75.06
336.14	94.06
336.369	76.06
336.597	79.06
336.825	75.06
337.053	92.06
337.281	76.06
337.51	81.06
337.738	95.06
337.966	82.06
338.194	84.06
338.422	91.06
338.65	92.06
338.878	96.06
339.106	95.06
339.334	90.06
339.562	83.06
339.79	69.06
340.018	81.06
340.246	81.06
340.474	72.06
340.702	71.06
340.93	97.06
341.158	74.06
341.386	80.06
341.614	81.06
341.842	75.06
342.07	83.06
342.298	78.06
342.526	91.06
342.754	78.06
342.981	83.06
343.209	92.06
343.437	104.06
343.665	91.06
343.893	83.06
344.12	96.06
344.348	95.06
344.576	95.06
344.804	99.06
345.031	94.06
345.259	86.06
345.487	90.06
345.714	81.06
345.942	81.06
346.17	83.06
346.397	63.06
346.625	79.06
346.853	94.06
347.08	93.06
347.308	89.06
347.535	81.06
347.763	85.06
347.99	95.06
348.218	91.06
348.445	78.06
348.673	95.06
348.9	77.06
349.128	92.06
349.355	79.06
349.583	92.06
349.81	80.06
350.037	74.06
350.265	79.06
350.492	92.06
350.72	75.06
350.947	91.06
351.174	83.06
351.402	93.06
351.629	84.06
351.856	91.06
352.083	83.06
352.311	91.06
352.538	76.06
352.765	81.06
352.992	89.06
353.22	95.06
353.447	84.06
353.674	78.06
353.901	68.06
354.128	92.06
354.355	95.06
354.583	92.06
354.81	91.06
355.037	85.06
355.264	84.06
355.491	84.06
355.718	84.06
355.945	85.06
356.172	77.06
356.399	85.06
356.626	89.06
356.853	75.06
357.08	83.06
357.307	80.06
357.534	95.06
357.761	81.06
357.988	86.06
358.215	88.06
358.441	93.06
358.668	88.06
358.895	92.06
359.122	75.06
359.349	70.06
359.576	76.06
359.802	87.06
360.029	76.06
360.256	84.06
360.483	86.06
360.709	87.06
360.936	85.06
361.163	85.06
361.39	91.06
361.616	74.06
361.843	95.06
362.07	91.06
362.296	70.06
362.523	67.06
362.749	72.06
362.976	91.06
363.203	74.06
363.429	72.06
363.656	63.06
363.882	83.06
364.109	75.06
364.335	83.06
364.562	72.06
364.788	73.06
365.015	84.06
365.241	65.06
365.468	82.06
365.694	84.06
365.92	74.06
366.147	85.06
366.373	83.06
366.599	80.06
366.826	89.06
367.052	87.06
367.278	63.06
367.505	63.06
367.731	91.06
367.957	60.06
368.184	96.06
368.41	87.06
368.636	81.06
368.862	86.06
369.089	84.06
369.315	81.06
369.541	71.06
369.767	85.06
369.993	75.06
370.219	73.06
370.445	91.06
370.672	77.06
370.898	77.06
371.124	82.06
371.35	67.06
371.576	78.06
371.802	80.06
372.028	83.06
372.254	92.06
372.48	84.06
372.706	78.06
372.932	79.06
373.158	81.06
373.384	82.06
373.61	79.06
373.835	93.06
374.061	82.06
374.287	81.06
374.513	79.06
374.739	82.06
374.965	86.06
375.191	89.06
375.416	75.06
375.642	66.06
375.868	96.06
376.094	96.06
376.319	88.06
376.545	77.06
376.771	84.06
376.997	83.06
377.222	86.06
377.448	87.06
377.674	66.06
377.899	79.06
378.125	75.06
378.35	83.06
378.576	69.06
378.802	79.06
379.027	79.06
379.253	76.06
379.478	85.06
379.704	79.06
379.929	80.06
380.155	91.06
380.38	84.06
380.606	83.06
380.831	91.06
381.057	86.06
381.282	85.06
381.507	88.06
381.733	88.06
381.958	75.06
382.184	83.06
382.409	81.06
382.634	98.06
382.86	77.06
383.085	77.06
383.31	71.06
383.535	91.06
383.761	88.06
383.986	101.06
384.211	82.06
384.436	63.06
384.662	77.06
384.887	72.06
385.112	84.06
385.337	91.06
385.562	73.06
385.787	80.06
386.013	83.06
386.238	72.06
386.463	80.06
386.688	88.06
386.913	73.06
387.138	92.06
387.363	79.06
387.588	87.06
387.813	83.06
388.038	75.06
388.263	86.06
388.488	78.06
388.713	77.06
388.938	77.06
389.163	75.06
389.387	81.06
389.612	82.06
389.837	80.06
390.062	91.06
390.287	83.06
390.512	58.06
390.736	88.06
390.961	99.06
391.186	83.06
391.411	70.06
391.636	62.06
391.86	65.06
392.085	82.06
392.31	85.06
392.534	79.06
392.759	76.06
392.984	81.06
393.208	79.06
393.433	90.06
393.658	87.06
393.882	76.06
394.107	75.06
394.331	81.06
394.556	76.06
394.78	88.06
395.005	77.06
395.229	83.06
395.454	85.06
395.678	78.06
395.903	87.06
396.127	87.06
396.352	93.06
396.576	78.06
396.801	85.06
397.025	75.06
397.249	69.06
397.474	80.06
397.698	65.06
397.922	85.06
398.147	76.06
398.371	72.06
398.595	71.06
398.82	85.06
399.044	76.06
399.268	68.06
399.492	83.06
399.717	84.06
399.941	79.06
400.165	78.06
400.389	81.06
400.613	75.06
400.837	71.06
401.062	68.06
401.286	77.06
401.51	75.06
401.734	88.06
401.958	101.06
402.182	73.06
402.406	88.06
402.63	79.06
402.854	71.06
403.078	83.06
403.302	87.06
403.526	80.06
403.75	84.06
403.974	70.06
404.198	88.06
404.422	83.06
404.645	74.06
404.869	81.06
405.093	95.06
405.317	76.06
405.541	81.06
405.765	78.06
405.988	80.06
406.212	84.06
406.436	90.06
406.66	91.06
406.883	84.06
407.107	69.06
407.331	78.06
407.555	76.06
407.778	83.06
408.002	81.06
408.226	81.06
408.449	75.06
408.673	95.06
408.896	73.06
409.12	77.06
409.344	86.06
409.567	88.06
409.791	80.06
410.014	82.06
410.238	73.06
410.461	87.06
410.685	74.06
410.908	60.06
411.132	86.06
411.355	73.06
411.578	62.06
411.802	83.06
412.025	80.06
412.249	73.06
412.472	64.06
412.695	72.06
412.919	82.06
413.142	74.06
413.365	65.06
413.589	78.06
413.812	74.06
414.035	84.06
414.258	78.06
414.482	83.06
414.705	78.06
414.928	87.06
415.151	83.06
415.374	80.06
415.597	78.06
415.821	81.06
416.044	77.06
416.267	96.06
416.49	92.06
416.713	75.06
416.936	88.06
417.159	69.06
417.382	79.06
417.605	83.06
417.828	73.06
418.051	82.06
418.274	68.06
418.497	69.06
418.72	62.06
418.943	75.06
419.166	86.06
419.389	76.06
419.611	70.06
419.834	81.06
420.057	75.06
420.28	83.06
420.503	75.06
420.726	72.06
420.948	86.06
421.171	81.06
421.394	82.06
421.617	73.06
421.839	77.06
422.062	72.06
422.285	65.06
422.507	69.06
422.73	76.06
422.953	89.06
423.175	75.06
423.398	70.06
423.621	77.06
423.843	74.06
424.066	78.06
424.288	72.06
424.511	79.06
424.733	74.06
424.956	79.06
425.178	69.06
425.401	83.06
425.623	72.06
425.846	75.06
426.068	83.06
426.291	90.06
426.513	81.06
426.735	75.06
426.958	89.06
427.18	88.06
427.402	74.06
427.625	75.06
427.847	72.06
428.069	79.06
428.292	98.06
428.514	78.06
428.736	59.06
428.958	74.06
429.181	76.06
429.403	86.06
429.625	76.06
429.847	82.06
430.069	77.06
430.292	81.06
430.514	83.06
430.736	76.06
430.958	82.06
431.18	84.06
431.402	73.06
431.624	71.06
431.846	98.06
432.068	87.06
432.29	80.06
432.512	84.06
432.734	81.06
432.956	76.06
433.178	78.06
433.4	80.06
433.622	75.06
433.844	65.06
434.066	76.06
434.287	82.06
434.509	84.06
434.731	93.06
434.953	81.06
435.175	80.06
435.397	75.06
435.618	86.06
435.84	78.06
436.062	80.06
436.284	92.06
436.505	76.06
436.727	80.06
436.949	108.06
437.17	77.06
437.392	85.06
437.614	72.06
437.835	80.06
438.057	65.06
438.278	76.06
438.5	85.06
438.721	97.06
438.943	65.06
439.165	89.06
439.386	86.06
439.608	84.06
439.829	75.06
440.05	76.06
440.272	80.06
440.493	86.06
440.715	74.06
440.936	81.06
441.158	89.06
441.379	68.06
441.6	95.06
441.822	87.06
442.043	79.06
442.264	80.06
442.486	81.06
442.707	72.06
442.928	75.06
443.149	70.06
443.371	73.06
443.592	76.06
443.813	78.06
444.034	71.06
444.255	89.06
444.476	82.06
444.698	89.06
444.919	88.06
445.14	171.06
445.361	120.06
445.582	88.06
445.803	73.06
446.024	78.06
446.245	79.06
446.466	85.06
446.687	73.06
446.908	73.06
447.129	72.06
447.35	81.06
447.571	89.06
447.792	90.06
448.013	83.06
448.234	97.06
448.455	80.06
448.675	71.06
448.896	94.06
449.117	71.06
449.338	74.06
449.559	85.06
449.779	90.06
450	69.06
450.221	78.06
450.442	77.06
450.662	85.06
450.883	68.06
451.104	77.06
451.324	79.06
451.545	83.06
451.766	89.06
451.986	81.06
452.207	70.06
452.428	70.06
452.648	75.06
452.869	90.06
453.089	87.06
453.31	67.06
453.53	80.06
453.751	80.06
453.971	75.06
454.192	82.06
454.412	81.06
454.633	67.06
454.853	89.06
455.073	77.06
455.294	82.06
455.514	77.06
455.734	79.06
455.955	81.06
456.175	66.06
456.395	75.06
456.616	89.06
456.836	81.06
457.056	67.06
457.276	81.06
457.497	82.06
457.717	73.06
457.937	79.06
458.157	73.06
458.377	67.06
458.598	74.06
458.818	74.06
459.038	71.06
459.258	83.06
459.478	71.06
459.698	77.06
459.918	93.06
460.138	73.06
460.358	75.06
460.578	85.06
460.798	85.06
461.018	89.06
461.238	76.06
461.458	77.06
461.678	78.06
461.898	77.06
462.118	75.06
462.338	86.06
462.558	81.06
462.777	89.06
462.997	69.06
463.217	72.06
463.437	86.06
463.657	75.06
463.876	93.06
464.096	61.06
464.316	86.06
464.536	89.06
464.755	81.06
464.975	80.06
465.195	85.06
465.414	86.06
465.634	86.06
465.854	89.06
466.073	75.06
466.293	87.06
466.512	86.06
466.732	72.06
466.951	75.06
467.171	71.06
467.391	88.06
467.61	67.06
467.829	72.06
468.049	69.06
468.268	83.06
468.488	81.06
468.707	88.06
468.927	74.06
469.146	83.06
469.365	75.06
469.585	75.06
469.804	91.06
470.023	83.06
470.243	81.06
470.462	81.06
470.681	95.06
470.901	88.06
471.12	70.06
471.339	82.06
471.558	88.06
471.777	73.06
471.997	85.06
472.216	85.06
472.435	84.06
472.654	72.06
472.873	84.06
473.092	96.06
473.311	77.06
473.53	74.06
473.749	82.06
473.968	81.06
474.187	81.06
474.406	88.06
474.625	77.06
474.844	66.06
475.063	74.06
475.282	75.06
475.501	77.06
475.72	78.06
475.939	73.06
476.158	82.06
476.377	78.06
476.596	71.06
476.814	77.06
477.033	88.06
477.252	82.06
477.471	81.06
477.69	82.06
477.908	89.06
478.127	86.06
478.346	75.06
478.564	80.06
478.783	68.06
479.002	85.06
479.22	77.06
479.439	91.06
479.658	79.06
479.876	76.06
480.095	57.06
480.313	84.06
480.532	86.06
480.751	93.06
480.969	81.06
481.188	88.06
481.406	73.06
481.624	80.06
481.843	88.06
482.061	73.06
482.28	80.06
482.498	79.06
482.717	68.06
482.935	83.06
483.153	79.06
483.372	72.06
483.59	86.06
483.808	78.06
484.027	89.06
484.245	82.06
484.463	73.06
484.681	91.06
484.9	77.06
485.118	85.06
485.336	78.06
485.554	80.06
485.772	88.06
485.99	69.06
486.209	83.06
486.427	84.06
486.645	90.06
486.863	84.06
487.081	78.06
487.299	99.06
487.517	78.06
487.735	93.06
487.953	81.06
488.171	81.06
488.389	65.06
488.607	81.06
488.825	72.06
489.043	70.06
489.261	92.06
489.479	81.06
489.696	89.06
489.914	75.06
490.132	80.06
490.35	89.06
490.568	71.06
490.786	84.06
491.003	63.06
491.221	89.06
491.439	75.06
491.657	69.06
491.874	77.06
492.092	88.06
492.31	91.06
492.527	78.06
492.745	72.06
492.963	73.06
493.18	85.06
493.398	80.06
493.615	76.06
493.833	75.06
494.05	59.06
494.268	68.06
494.485	78.06
494.703	92.06
494.92	83.06
495.138	80.06
495.355	73.06
495.573	77.06
495.79	88.06
496.008	89.06
496.225	86.06
496.442	81.06
496.66	69.06
496.877	85.06
497.094	81.06
497.312	70.06
497.529	82.06
497.746	79.06
497.963	80.06
498.181	60.06
498.398	80.06
498.615	74.06
498.832	73.06
499.049	89.06
499.267	88.06
499.484	75.06
499.701	82.06
499.918	76.06
500.135	91.06
500.352	83.06
500.569	82.06
500.786	72.06
501.003	83.06
501.22	79.06
501.437	75.06
501.654	77.06
501.871	76.06
502.088	89.06
502.305	79.06
502.522	95.06
502.739	80.06
502.956	92.06
503.172	83.06
503.389	84.06
503.606	88.06
503.823	81.06
504.04	74.06
504.256	84.06
504.473	74.06
504.69	75.06
504.907	87.06
505.123	69.06
505.34	80.06
505.557	82.06
505.773	79.06
505.99	82.06
506.207	80.06
506.423	82.06
506.64	67.06
506.856	73.06
507.073	70.06
507.289	80.06
507.506	89.06
507.722	69.06
507.939	84.06
508.155	83.06
508.372	71.06
508.588	77.06
508.805	98.06
509.021	81.06
509.238	77.06
509.454	90.06
509.67	71.06
509.887	73.06
510.103	75.06
510.319	84.06
510.536	91.06
510.752	89.06
510.968	60.06
511.184	76.06
511.401	84.06
511.617	83.06
511.833	61.06
512.049	77.06
512.265	80.06
512.481	81.06
512.698	78.06
512.914	89.06
513.13	83.06
513.346	78.06
513.562	92.06
513.778	92.06
513.994	84.06
514.21	83.06
514.426	93.06
514.642	74.06
514.858	67.06
515.074	84.06
515.29	91.06
515.506	82.06
515.721	80.06
515.937	83.06
516.153	74.06
516.369	83.06
516.585	67.06
516.801	69.06
517.016	82.06
517.232	85.06
517.448	80.06
517.664	88.06
517.879	75.06
518.095	94.06
518.311	77.06
518.527	72.06
518.742	71.06
518.958	70.06
519.173	85.06
519.389	76.06
519.605	95.06
519.82	74.06
520.036	94.06
520.251	76.06
