Data from 2145_3_HRD10591_00045.txt Node
Date: Mon Jan 19 14:23:29 EST 2026
User: Yrep
Spectrometer: HR+D1059
Trigger mode: 1
Integration Time (sec): 1.000000E-1
Scans to average: 1
Electric dark correction enabled: true
Nonlinearity correction enabled: false
Boxcar width: 0
XAxis mode: Wavelengths
Number of Pixels in Spectrum: 2048
>>>>>Begin Spectral Data<<<<<
223.165	-11.12
223.4	-11.12
223.635	-11.12
223.869	-18.12
224.104	-19.12
224.338	-30.12
224.573	-14.12
224.808	-8.12
225.042	-4.12
225.277	-9.12
225.511	-1.12
225.746	0.88
225.98	15.88
226.215	22.88
226.449	13.88
226.683	20.88
226.918	21.88
227.152	18.88
227.387	36.88
227.621	29.88
227.856	52.88
228.09	52.88
228.324	61.88
228.559	58.88
228.793	70.88
229.027	66.88
229.262	58.88
229.496	83.88
229.73	67.88
229.964	78.88
230.199	72.88
230.433	73.88
230.667	87.88
230.901	73.88
231.136	84.88
231.37	76.88
231.604	73.88
231.838	78.88
232.072	74.88
232.306	64.88
232.541	83.88
232.775	70.88
233.009	87.88
233.243	76.88
233.477	73.88
233.711	81.88
233.945	82.88
234.179	84.88
234.413	81.88
234.647	83.88
234.881	89.88
235.115	91.88
235.349	87.88
235.583	75.88
235.817	81.88
236.051	66.88
236.285	89.88
236.519	71.88
236.753	80.88
236.987	63.88
237.221	69.88
237.455	74.88
237.689	78.88
237.922	76.88
238.156	74.88
238.39	80.88
238.624	63.88
238.858	82.88
239.091	74.88
239.325	85.88
239.559	67.88
239.793	79.88
240.027	72.88
240.26	80.88
240.494	66.88
240.728	84.88
240.961	82.88
241.195	78.88
241.429	76.88
241.662	76.88
241.896	82.88
242.13	93.88
242.363	77.88
242.597	91.88
242.83	88.88
243.064	81.88
243.298	75.88
243.531	66.88
243.765	70.88
243.998	85.88
244.232	92.88
244.465	87.88
244.699	84.88
244.932	75.88
245.166	71.88
245.399	73.88
245.633	88.88
245.866	77.88
246.099	89.88
246.333	91.88
246.566	66.88
246.8	84.88
247.033	79.88
247.266	83.88
247.5	78.88
247.733	81.88
247.966	74.88
248.2	75.88
248.433	84.88
248.666	90.88
248.899	80.88
249.133	68.88
249.366	87.88
249.599	66.88
249.832	70.88
250.066	77.88
250.299	81.88
250.532	77.88
250.765	78.88
250.998	89.88
251.231	82.88
251.465	77.88
251.698	90.88
251.931	83.88
252.164	70.88
252.397	83.88
252.63	85.88
252.863	89.88
253.096	87.88
253.329	83.88
253.562	79.88
253.795	86.88
254.028	84.88
254.261	70.88
254.494	81.88
254.727	84.88
254.96	71.88
255.193	82.88
255.426	86.88
255.659	72.88
255.892	80.88
256.124	91.88
256.357	85.88
256.59	83.88
256.823	82.88
257.056	76.88
257.289	78.88
257.521	89.88
257.754	77.88
257.987	80.88
258.22	88.88
258.452	83.88
258.685	98.88
258.918	86.88
259.151	74.88
259.383	82.88
259.616	74.88
259.849	76.88
260.081	85.88
260.314	81.88
260.547	64.88
260.779	84.88
261.012	80.88
261.244	88.88
261.477	86.88
261.71	82.88
261.942	79.88
262.175	76.88
262.407	77.88
262.64	79.88
262.872	87.88
263.105	83.88
263.337	68.88
263.57	76.88
263.802	83.88
264.035	88.88
264.267	61.88
264.499	86.88
264.732	79.88
264.964	82.88
265.197	78.88
265.429	63.88
265.661	78.88
265.894	92.88
266.126	76.88
266.358	86.88
266.591	82.88
266.823	84.88
267.055	76.88
267.287	98.88
267.52	88.88
267.752	96.88
267.984	92.88
268.216	82.88
268.448	72.88
268.681	90.88
268.913	72.88
269.145	85.88
269.377	78.88
269.609	86.88
269.841	94.88
270.073	87.88
270.306	77.88
270.538	95.88
270.77	78.88
271.002	77.88
271.234	84.88
271.466	89.88
271.698	77.88
271.93	99.88
272.162	84.88
272.394	85.88
272.626	73.88
272.858	85.88
273.09	74.88
273.322	80.88
273.553	74.88
273.785	77.88
274.017	104.88
274.249	81.88
274.481	83.88
274.713	81.88
274.945	78.88
275.176	67.88
275.408	76.88
275.64	79.88
275.872	91.88
276.104	99.88
276.335	94.88
276.567	80.88
276.799	72.88
277.031	86.88
277.262	81.88
277.494	68.88
277.726	84.88
277.957	79.88
278.189	78.88
278.421	83.88
278.652	84.88
278.884	86.88
279.115	85.88
279.347	92.88
279.579	96.88
279.81	84.88
280.042	87.88
280.273	77.88
280.505	78.88
280.736	77.88
280.968	90.88
281.199	92.88
281.431	77.88
281.662	93.88
281.894	83.88
282.125	84.88
282.356	92.88
282.588	92.88
282.819	89.88
283.051	90.88
283.282	88.88
283.513	95.88
283.745	88.88
283.976	86.88
284.207	84.88
284.439	86.88
284.67	94.88
284.901	83.88
285.132	101.88
285.364	94.88
285.595	108.88
285.826	84.88
286.057	74.88
286.288	76.88
286.52	81.88
286.751	96.88
286.982	84.88
287.213	87.88
287.444	87.88
287.675	100.88
287.906	73.88
288.138	93.88
288.369	89.88
288.6	83.88
288.831	73.88
289.062	86.88
289.293	88.88
289.524	78.88
289.755	89.88
289.986	85.88
290.217	92.88
290.448	91.88
290.679	80.88
290.91	90.88
291.141	92.88
291.371	87.88
291.602	98.88
291.833	90.88
292.064	82.88
292.295	71.88
292.526	90.88
292.757	92.88
292.987	87.88
293.218	86.88
293.449	72.88
293.68	80.88
293.91	81.88
294.141	96.88
294.372	94.88
294.603	81.88
294.833	96.88
295.064	85.88
295.295	76.88
295.525	96.88
295.756	91.88
295.987	84.88
296.217	85.88
296.448	81.88
296.679	83.88
296.909	98.88
297.14	92.88
297.37	84.88
297.601	91.88
297.831	85.88
298.062	88.88
298.292	101.88
298.523	88.88
298.753	76.88
298.984	88.88
299.214	100.88
299.445	101.88
299.675	97.88
299.905	97.88
300.136	98.88
300.366	92.88
300.597	81.88
300.827	102.88
301.057	81.88
301.288	92.88
301.518	94.88
301.748	93.88
301.979	102.88
302.209	103.88
302.439	94.88
302.669	93.88
302.9	83.88
303.13	94.88
303.36	72.88
303.59	103.88
303.82	81.88
304.051	93.88
304.281	93.88
304.511	92.88
304.741	80.88
304.971	85.88
305.201	100.88
305.431	77.88
305.661	91.88
305.891	98.88
306.121	94.88
306.352	86.88
306.582	91.88
306.812	89.88
307.042	84.88
307.272	89.88
307.502	90.88
307.731	97.88
307.961	100.88
308.191	90.88
308.421	105.88
308.651	96.88
308.881	96.88
309.111	107.88
309.341	104.88
309.571	112.88
309.8	107.88
310.03	89.88
310.26	79.88
310.49	94.88
310.72	82.88
310.949	89.88
311.179	88.88
311.409	96.88
311.639	93.88
311.868	93.88
312.098	74.88
312.328	85.88
312.557	107.88
312.787	81.88
313.017	82.88
313.246	98.88
313.476	84.88
313.706	99.88
313.935	88.88
314.165	93.88
314.394	80.88
314.624	87.88
314.853	79.88
315.083	81.88
315.312	94.88
315.542	85.88
315.771	91.88
316.001	82.88
316.23	101.88
316.46	100.88
316.689	102.88
316.919	88.88
317.148	84.88
317.377	92.88
317.607	103.88
317.836	114.88
318.065	105.88
318.295	98.88
318.524	100.88
318.753	92.88
318.983	88.88
319.212	99.88
319.441	93.88
319.67	94.88
319.9	87.88
320.129	98.88
320.358	80.88
320.587	91.88
320.816	82.88
321.046	94.88
321.275	88.88
321.504	97.88
321.733	100.88
321.962	93.88
322.191	91.88
322.42	89.88
322.649	100.88
322.878	103.88
323.108	89.88
323.337	94.88
323.566	97.88
323.795	77.88
324.024	85.88
324.253	74.88
324.482	89.88
324.71	84.88
324.939	99.88
325.168	90.88
325.397	83.88
325.626	88.88
325.855	91.88
326.084	81.88
326.313	99.88
326.542	98.88
326.77	101.88
326.999	98.88
327.228	94.88
327.457	84.88
327.686	97.88
327.914	87.88
328.143	82.88
328.372	87.88
328.6	88.88
328.829	81.88
329.058	91.88
329.287	78.88
329.515	81.88
329.744	90.88
329.972	93.88
330.201	101.88
330.43	98.88
330.658	94.88
330.887	98.88
331.115	95.88
331.344	89.88
331.572	107.88
331.801	86.88
332.03	85.88
332.258	106.88
332.486	86.88
332.715	89.88
332.943	81.88
333.172	81.88
333.4	83.88
333.629	94.88
333.857	98.88
334.085	84.88
334.314	109.88
334.542	84.88
334.771	106.88
334.999	106.88
335.227	112.88
335.455	99.88
335.684	108.88
335.912	106.88
336.14	118.88
336.369	123.88
336.597	101.88
336.825	105.88
337.053	108.88
337.281	108.88
337.51	97.88
337.738	100.88
337.966	87.88
338.194	100.88
338.422	90.88
338.65	94.88
338.878	83.88
339.106	84.88
339.334	87.88
339.562	88.88
339.79	83.88
340.018	96.88
340.246	85.88
340.474	94.88
340.702	83.88
340.93	91.88
341.158	94.88
341.386	80.88
341.614	67.88
341.842	79.88
342.07	91.88
342.298	86.88
342.526	92.88
342.754	101.88
342.981	89.88
343.209	82.88
343.437	113.88
343.665	96.88
343.893	97.88
344.12	107.88
344.348	92.88
344.576	93.88
344.804	104.88
345.031	92.88
345.259	72.88
345.487	93.88
345.714	84.88
345.942	87.88
346.17	96.88
346.397	84.88
346.625	88.88
346.853	77.88
347.08	96.88
347.308	99.88
347.535	97.88
347.763	98.88
347.99	97.88
348.218	78.88
348.445	81.88
348.673	103.88
348.9	112.88
349.128	94.88
349.355	83.88
349.583	97.88
349.81	85.88
350.037	91.88
350.265	80.88
350.492	76.88
350.72	85.88
350.947	75.88
351.174	93.88
351.402	90.88
351.629	99.88
351.856	91.88
352.083	84.88
352.311	93.88
352.538	86.88
352.765	85.88
352.992	96.88
353.22	78.88
353.447	90.88
353.674	91.88
353.901	91.88
354.128	98.88
354.355	93.88
354.583	94.88
354.81	85.88
355.037	75.88
355.264	92.88
355.491	91.88
355.718	83.88
355.945	87.88
356.172	83.88
356.399	98.88
356.626	87.88
356.853	94.88
357.08	85.88
357.307	101.88
357.534	97.88
357.761	92.88
357.988	109.88
358.215	119.88
358.441	109.88
358.668	103.88
358.895	94.88
359.122	76.88
359.349	89.88
359.576	89.88
359.802	78.88
360.029	103.88
360.256	99.88
360.483	97.88
360.709	106.88
360.936	113.88
361.163	99.88
361.39	92.88
361.616	91.88
361.843	98.88
362.07	122.88
362.296	128.88
362.523	135.88
362.749	146.88
362.976	155.88
363.203	159.88
363.429	133.88
363.656	107.88
363.882	130.88
364.109	164.88
364.335	207.88
364.562	222.88
364.788	157.88
365.015	110.88
365.241	101.88
365.468	98.88
365.694	99.88
365.92	82.88
366.147	95.88
366.373	96.88
366.599	100.88
366.826	100.88
367.052	96.88
367.278	99.88
367.505	107.88
367.731	100.88
367.957	96.88
368.184	113.88
368.41	93.88
368.636	96.88
368.862	84.88
369.089	83.88
369.315	88.88
369.541	88.88
369.767	97.88
369.993	90.88
370.219	88.88
370.445	94.88
370.672	99.88
370.898	112.88
371.124	93.88
371.35	93.88
371.576	82.88
371.802	110.88
372.028	92.88
372.254	89.88
372.48	112.88
372.706	82.88
372.932	96.88
373.158	100.88
373.384	131.88
373.61	120.88
373.835	113.88
374.061	101.88
374.287	94.88
374.513	115.88
374.739	102.88
374.965	125.88
375.191	103.88
375.416	114.88
375.642	105.88
375.868	100.88
376.094	85.88
376.319	92.88
376.545	80.88
376.771	93.88
376.997	92.88
377.222	87.88
377.448	104.88
377.674	95.88
377.899	94.88
378.125	89.88
378.35	89.88
378.576	93.88
378.802	87.88
379.027	93.88
379.253	94.88
379.478	101.88
379.704	85.88
379.929	101.88
380.155	95.88
380.38	99.88
380.606	90.88
380.831	81.88
381.057	108.88
381.282	93.88
381.507	88.88
381.733	107.88
381.958	91.88
382.184	98.88
382.409	98.88
382.634	102.88
382.86	106.88
383.085	112.88
383.31	118.88
383.535	115.88
383.761	109.88
383.986	120.88
384.211	107.88
384.436	93.88
384.662	92.88
384.887	123.88
385.112	109.88
385.337	96.88
385.562	97.88
385.787	105.88
386.013	125.88
386.238	105.88
386.463	98.88
386.688	129.88
386.913	87.88
387.138	100.88
387.363	84.88
387.588	118.88
387.813	104.88
388.038	108.88
388.263	109.88
388.488	108.88
388.713	108.88
388.938	95.88
389.163	95.88
389.387	110.88
389.612	109.88
389.837	105.88
390.062	90.88
390.287	103.88
390.512	93.88
390.736	106.88
390.961	106.88
391.186	95.88
391.411	96.88
391.636	104.88
391.86	100.88
392.085	98.88
392.31	121.88
392.534	129.88
392.759	152.88
392.984	234.88
393.208	381.88
393.433	548.88
393.658	425.88
393.882	210.88
394.107	157.88
394.331	164.88
394.556	176.88
394.78	139.88
395.005	131.88
395.229	97.88
395.454	118.88
395.678	137.88
395.903	188.88
396.127	227.88
396.352	254.88
396.576	252.88
396.801	389.88
397.025	436.88
397.249	262.88
397.474	177.88
397.698	134.88
397.922	120.88
398.147	100.88
398.371	98.88
398.595	105.88
398.82	106.88
399.044	99.88
399.268	106.88
399.492	96.88
399.717	102.88
399.941	91.88
400.165	100.88
400.389	89.88
400.613	104.88
400.837	88.88
401.062	92.88
401.286	99.88
401.51	87.88
401.734	102.88
401.958	93.88
402.182	77.88
402.406	83.88
402.63	91.88
402.854	91.88
403.078	93.88
403.302	99.88
403.526	98.88
403.75	100.88
403.974	102.88
404.198	123.88
404.422	181.88
404.645	208.88
404.869	155.88
405.093	117.88
405.317	96.88
405.541	92.88
405.765	93.88
405.988	104.88
406.212	102.88
406.436	100.88
406.66	100.88
406.883	94.88
407.107	94.88
407.331	93.88
407.555	113.88
407.778	145.88
408.002	137.88
408.226	102.88
408.449	90.88
408.673	72.88
408.896	88.88
409.12	94.88
409.344	103.88
409.567	113.88
409.791	139.88
410.014	120.88
410.238	120.88
410.461	91.88
410.685	97.88
410.908	84.88
411.132	81.88
411.355	97.88
411.578	98.88
411.802	98.88
412.025	100.88
412.249	101.88
412.472	87.88
412.695	90.88
412.919	100.88
413.142	92.88
413.365	89.88
413.589	83.88
413.812	94.88
414.035	94.88
414.258	86.88
414.482	96.88
414.705	98.88
414.928	80.88
415.151	91.88
415.374	101.88
415.597	82.88
415.821	100.88
416.044	86.88
416.267	94.88
416.49	84.88
416.713	83.88
416.936	89.88
417.159	88.88
417.382	76.88
417.605	101.88
417.828	90.88
418.051	103.88
418.274	92.88
418.497	86.88
418.72	91.88
418.943	100.88
419.166	100.88
419.389	99.88
419.611	99.88
419.834	104.88
420.057	101.88
420.28	101.88
420.503	99.88
420.726	89.88
420.948	97.88
421.171	125.88
421.394	134.88
421.617	157.88
421.839	173.88
422.062	201.88
422.285	320.88
422.507	506.88
422.73	661.88
422.953	620.88
423.175	380.88
423.398	237.88
423.621	163.88
423.843	150.88
424.066	143.88
424.288	120.88
424.511	116.88
424.733	104.88
424.956	88.88
425.178	108.88
425.401	110.88
425.623	114.88
425.846	100.88
426.068	88.88
426.291	98.88
426.513	92.88
426.735	97.88
426.958	95.88
427.18	110.88
427.402	104.88
427.625	100.88
427.847	126.88
428.069	130.88
428.292	195.88
428.514	249.88
428.736	154.88
428.958	197.88
429.181	198.88
429.403	122.88
429.625	127.88
429.847	196.88
430.069	278.88
430.292	354.88
430.514	308.88
430.736	235.88
430.958	240.88
431.18	126.88
431.402	106.88
431.624	123.88
431.846	193.88
432.068	230.88
432.29	135.88
432.512	83.88
432.734	84.88
432.956	84.88
433.178	93.88
433.4	80.88
433.622	105.88
433.844	94.88
434.066	83.88
434.287	98.88
434.509	84.88
434.731	90.88
434.953	75.88
435.175	91.88
435.397	114.88
435.618	104.88
435.84	94.88
436.062	94.88
436.284	104.88
436.505	97.88
436.727	101.88
436.949	80.88
437.17	88.88
437.392	76.88
437.614	86.88
437.835	80.88
438.057	87.88
438.278	86.88
438.5	98.88
438.721	94.88
438.943	104.88
439.165	70.88
439.386	86.88
439.608	90.88
439.829	102.88
440.05	96.88
440.272	86.88
440.493	105.88
440.715	92.88
440.936	93.88
441.158	93.88
441.379	97.88
441.6	91.88
441.822	97.88
442.043	109.88
442.264	140.88
442.486	236.88
442.707	334.88
442.928	204.88
443.149	163.88
443.371	284.88
443.592	531.88
443.813	427.88
444.034	182.88
444.255	132.88
444.476	100.88
444.698	128.88
444.919	121.88
445.14	276.88
445.361	389.88
445.582	650.88
445.803	528.88
446.024	206.88
446.245	112.88
446.466	104.88
446.687	84.88
446.908	88.88
447.129	83.88
447.35	100.88
447.571	97.88
447.792	98.88
448.013	88.88
448.234	94.88
448.455	103.88
448.675	94.88
448.896	101.88
449.117	109.88
449.338	92.88
449.559	74.88
449.779	82.88
450	98.88
450.221	96.88
450.442	73.88
450.662	90.88
450.883	94.88
451.104	81.88
451.324	94.88
451.545	89.88
451.766	99.88
451.986	107.88
452.207	104.88
452.428	108.88
452.648	117.88
452.869	128.88
453.089	128.88
453.31	114.88
453.53	117.88
453.751	126.88
453.971	95.88
454.192	90.88
454.412	80.88
454.633	78.88
454.853	100.88
455.073	87.88
455.294	86.88
455.514	98.88
455.734	100.88
455.955	85.88
456.175	92.88
456.395	94.88
456.616	85.88
456.836	93.88
457.056	86.88
457.276	87.88
457.497	83.88
457.717	104.88
457.937	152.88
458.157	218.88
458.377	218.88
458.598	194.88
458.818	226.88
459.038	131.88
459.258	112.88
459.478	96.88
459.698	89.88
459.918	77.88
460.138	96.88
460.358	89.88
460.578	119.88
460.798	167.88
461.018	162.88
461.238	105.88
461.458	90.88
461.678	95.88
461.898	86.88
462.118	90.88
462.338	86.88
462.558	98.88
462.777	74.88
462.997	91.88
463.217	90.88
463.437	77.88
463.657	95.88
463.876	93.88
464.096	98.88
464.316	73.88
464.536	82.88
464.755	89.88
464.975	69.88
465.195	94.88
465.414	68.88
465.634	93.88
465.854	88.88
466.073	91.88
466.293	91.88
466.512	94.88
466.732	88.88
466.951	86.88
467.171	92.88
467.391	80.88
467.61	80.88
467.829	89.88
468.049	97.88
468.268	89.88
468.488	96.88
468.707	100.88
468.927	97.88
469.146	91.88
469.365	85.88
469.585	82.88
469.804	95.88
470.023	98.88
470.243	82.88
470.462	94.88
470.681	86.88
470.901	86.88
471.12	92.88
471.339	87.88
471.558	92.88
471.777	84.88
471.997	94.88
472.216	102.88
472.435	98.88
472.654	88.88
472.873	96.88
473.092	85.88
473.311	87.88
473.53	89.88
473.749	98.88
473.968	87.88
474.187	91.88
474.406	84.88
474.625	75.88
474.844	88.88
475.063	85.88
475.282	82.88
475.501	89.88
475.72	106.88
475.939	97.88
476.158	114.88
476.377	93.88
476.596	84.88
476.814	89.88
477.033	97.88
477.252	97.88
477.471	90.88
477.69	76.88
477.908	84.88
478.127	101.88
478.346	79.88
478.564	86.88
478.783	95.88
479.002	100.88
479.22	89.88
479.439	95.88
479.658	91.88
479.876	93.88
480.095	93.88
480.313	98.88
480.532	94.88
480.751	84.88
480.969	85.88
481.188	74.88
481.406	116.88
481.624	100.88
481.843	91.88
482.061	104.88
482.28	93.88
482.498	105.88
482.717	92.88
482.935	82.88
483.153	103.88
483.372	96.88
483.59	96.88
483.808	87.88
484.027	112.88
484.245	110.88
484.463	99.88
484.681	93.88
484.9	107.88
485.118	97.88
485.336	103.88
485.554	93.88
485.772	93.88
485.99	101.88
486.209	105.88
486.427	85.88
486.645	103.88
486.863	92.88
487.081	95.88
487.299	110.88
487.517	134.88
487.735	165.88
487.953	318.88
488.171	269.88
488.389	131.88
488.607	104.88
488.825	95.88
489.043	84.88
489.261	89.88
489.479	109.88
489.696	91.88
489.914	113.88
490.132	76.88
490.35	88.88
490.568	105.88
490.786	86.88
491.003	87.88
491.221	82.88
491.439	88.88
491.657	96.88
491.874	87.88
492.092	116.88
492.31	100.88
492.527	102.88
492.745	83.88
492.963	97.88
493.18	96.88
493.398	113.88
493.615	90.88
493.833	85.88
494.05	95.88
494.268	92.88
494.485	92.88
494.703	98.88
494.92	86.88
495.138	98.88
495.355	89.88
495.573	86.88
495.79	100.88
496.008	103.88
496.225	107.88
496.442	110.88
496.66	91.88
496.877	89.88
497.094	108.88
497.312	98.88
497.529	101.88
497.746	109.88
497.963	87.88
498.181	110.88
498.398	132.88
498.615	86.88
498.832	90.88
499.049	99.88
499.267	143.88
499.484	94.88
499.701	98.88
499.918	117.88
500.135	108.88
500.352	107.88
500.569	100.88
500.786	116.88
501.003	123.88
501.22	92.88
501.437	109.88
501.654	100.88
501.871	101.88
502.088	103.88
502.305	97.88
502.522	87.88
502.739	102.88
502.956	101.88
503.172	94.88
503.389	92.88
503.606	107.88
503.823	115.88
504.04	142.88
504.256	225.88
504.473	198.88
504.69	152.88
504.907	124.88
505.123	104.88
505.34	89.88
505.557	92.88
505.773	103.88
505.99	96.88
506.207	91.88
506.423	98.88
506.64	92.88
506.856	95.88
507.073	88.88
507.289	94.88
507.506	89.88
507.722	90.88
507.939	108.88
508.155	90.88
508.372	96.88
508.588	87.88
508.805	90.88
509.021	77.88
509.238	108.88
509.454	92.88
509.67	90.88
509.887	82.88
510.103	109.88
510.319	106.88
510.536	92.88
510.752	84.88
510.968	95.88
511.184	96.88
511.401	98.88
511.617	109.88
511.833	100.88
512.049	101.88
512.265	99.88
512.481	104.88
512.698	100.88
512.914	92.88
513.13	88.88
513.346	89.88
513.562	91.88
513.778	96.88
513.994	95.88
514.21	113.88
514.426	84.88
514.642	100.88
514.858	103.88
