Data from 2145_3_HRD10591_00029.txt Node
Date: Mon Jan 19 14:23:21 EST 2026
User: Yrep
Spectrometer: HR+D1059
Trigger mode: 1
Integration Time (sec): 1.000000E-1
Scans to average: 1
Electric dark correction enabled: true
Nonlinearity correction enabled: false
Boxcar width: 0
XAxis mode: Wavelengths
Number of Pixels in Spectrum: 2048
>>>>>Begin Spectral Data<<<<<
223.165	-10.44
223.4	-10.44
223.635	-10.44
223.869	-3.44
224.104	-13.44
224.338	-11.44
224.573	-29.44
224.808	-10.44
225.042	-1.44
225.277	-1.44
225.511	-12.44
225.746	4.56
225.98	2.56
226.215	5.56
226.449	-2.44
226.683	19.56
226.918	23.56
227.152	40.56
227.387	33.56
227.621	39.56
227.856	61.56
228.09	39.56
228.324	42.56
228.559	51.56
228.793	70.56
229.027	60.56
229.262	61.56
229.496	62.56
229.73	71.56
229.964	90.56
230.199	89.56
230.433	67.56
230.667	74.56
230.901	68.56
231.136	73.56
231.37	86.56
231.604	88.56
231.838	88.56
232.072	81.56
232.306	67.56
232.541	75.56
232.775	75.56
233.009	93.56
233.243	81.56
233.477	93.56
233.711	78.56
233.945	77.56
234.179	84.56
234.413	77.56
234.647	67.56
234.881	82.56
235.115	77.56
235.349	81.56
235.583	68.56
235.817	84.56
236.051	98.56
236.285	80.56
236.519	84.56
236.753	75.56
236.987	71.56
237.221	77.56
237.455	72.56
237.689	85.56
237.922	80.56
238.156	78.56
238.39	74.56
238.624	76.56
238.858	76.56
239.091	63.56
239.325	66.56
239.559	79.56
239.793	74.56
240.027	77.56
240.26	73.56
240.494	79.56
240.728	79.56
240.961	79.56
241.195	80.56
241.429	81.56
241.662	69.56
241.896	79.56
242.13	66.56
242.363	83.56
242.597	68.56
242.83	88.56
243.064	70.56
243.298	83.56
243.531	76.56
243.765	88.56
243.998	84.56
244.232	87.56
244.465	68.56
244.699	66.56
244.932	73.56
245.166	83.56
245.399	79.56
245.633	79.56
245.866	71.56
246.099	74.56
246.333	83.56
246.566	71.56
246.8	86.56
247.033	71.56
247.266	88.56
247.5	94.56
247.733	80.56
247.966	85.56
248.2	80.56
248.433	93.56
248.666	84.56
248.899	68.56
249.133	79.56
249.366	74.56
249.599	78.56
249.832	79.56
250.066	76.56
250.299	90.56
250.532	74.56
250.765	81.56
250.998	91.56
251.231	82.56
251.465	79.56
251.698	98.56
251.931	73.56
252.164	88.56
252.397	96.56
252.63	100.56
252.863	78.56
253.096	74.56
253.329	70.56
253.562	73.56
253.795	77.56
254.028	79.56
254.261	72.56
254.494	69.56
254.727	94.56
254.96	65.56
255.193	92.56
255.426	86.56
255.659	90.56
255.892	88.56
256.124	84.56
256.357	81.56
256.59	88.56
256.823	68.56
257.056	84.56
257.289	82.56
257.521	76.56
257.754	80.56
257.987	70.56
258.22	95.56
258.452	87.56
258.685	86.56
258.918	77.56
259.151	80.56
259.383	82.56
259.616	78.56
259.849	82.56
260.081	67.56
260.314	86.56
260.547	71.56
260.779	68.56
261.012	69.56
261.244	84.56
261.477	97.56
261.71	84.56
261.942	86.56
262.175	73.56
262.407	62.56
262.64	68.56
262.872	81.56
263.105	84.56
263.337	74.56
263.57	84.56
263.802	92.56
264.035	87.56
264.267	82.56
264.499	91.56
264.732	92.56
264.964	84.56
265.197	65.56
265.429	84.56
265.661	82.56
265.894	88.56
266.126	88.56
266.358	99.56
266.591	77.56
266.823	84.56
267.055	86.56
267.287	80.56
267.52	89.56
267.752	98.56
267.984	82.56
268.216	88.56
268.448	82.56
268.681	78.56
268.913	78.56
269.145	91.56
269.377	81.56
269.609	68.56
269.841	83.56
270.073	73.56
270.306	80.56
270.538	86.56
270.77	98.56
271.002	96.56
271.234	91.56
271.466	78.56
271.698	85.56
271.93	98.56
272.162	78.56
272.394	83.56
272.626	90.56
272.858	93.56
273.09	92.56
273.322	87.56
273.553	89.56
273.785	80.56
274.017	78.56
274.249	82.56
274.481	92.56
274.713	89.56
274.945	68.56
275.176	79.56
275.408	88.56
275.64	85.56
275.872	82.56
276.104	75.56
276.335	97.56
276.567	76.56
276.799	90.56
277.031	91.56
277.262	78.56
277.494	91.56
277.726	79.56
277.957	92.56
278.189	89.56
278.421	94.56
278.652	89.56
278.884	83.56
279.115	81.56
279.347	89.56
279.579	99.56
279.81	73.56
280.042	66.56
280.273	78.56
280.505	74.56
280.736	84.56
280.968	91.56
281.199	89.56
281.431	95.56
281.662	89.56
281.894	74.56
282.125	96.56
282.356	87.56
282.588	90.56
282.819	86.56
283.051	81.56
283.282	86.56
283.513	88.56
283.745	79.56
283.976	88.56
284.207	81.56
284.439	88.56
284.67	88.56
284.901	85.56
285.132	108.56
285.364	97.56
285.595	95.56
285.826	85.56
286.057	78.56
286.288	79.56
286.52	80.56
286.751	78.56
286.982	90.56
287.213	86.56
287.444	85.56
287.675	81.56
287.906	99.56
288.138	95.56
288.369	106.56
288.6	101.56
288.831	83.56
289.062	80.56
289.293	87.56
289.524	90.56
289.755	99.56
289.986	79.56
290.217	85.56
290.448	84.56
290.679	88.56
290.91	86.56
291.141	88.56
291.371	78.56
291.602	97.56
291.833	72.56
292.064	88.56
292.295	83.56
292.526	101.56
292.757	86.56
292.987	100.56
293.218	93.56
293.449	94.56
293.68	95.56
293.91	96.56
294.141	84.56
294.372	76.56
294.603	84.56
294.833	89.56
295.064	88.56
295.295	90.56
295.525	88.56
295.756	94.56
295.987	90.56
296.217	92.56
296.448	91.56
296.679	93.56
296.909	75.56
297.14	104.56
297.37	92.56
297.601	86.56
297.831	81.56
298.062	78.56
298.292	76.56
298.523	81.56
298.753	92.56
298.984	91.56
299.214	78.56
299.445	100.56
299.675	102.56
299.905	96.56
300.136	93.56
300.366	106.56
300.597	99.56
300.827	104.56
301.057	93.56
301.288	79.56
301.518	86.56
301.748	88.56
301.979	92.56
302.209	96.56
302.439	92.56
302.669	97.56
302.9	92.56
303.13	82.56
303.36	90.56
303.59	85.56
303.82	84.56
304.051	86.56
304.281	84.56
304.511	87.56
304.741	86.56
304.971	87.56
305.201	92.56
305.431	88.56
305.661	85.56
305.891	85.56
306.121	88.56
306.352	92.56
306.582	76.56
306.812	83.56
307.042	103.56
307.272	88.56
307.502	100.56
307.731	103.56
307.961	97.56
308.191	101.56
308.421	96.56
308.651	101.56
308.881	120.56
309.111	98.56
309.341	120.56
309.571	121.56
309.8	106.56
310.03	80.56
310.26	96.56
310.49	97.56
310.72	97.56
310.949	91.56
311.179	85.56
311.409	86.56
311.639	85.56
311.868	87.56
312.098	82.56
312.328	95.56
312.557	89.56
312.787	84.56
313.017	95.56
313.246	89.56
313.476	86.56
313.706	99.56
313.935	92.56
314.165	75.56
314.394	98.56
314.624	86.56
314.853	96.56
315.083	79.56
315.312	88.56
315.542	90.56
315.771	96.56
316.001	90.56
316.23	97.56
316.46	88.56
316.689	95.56
316.919	93.56
317.148	79.56
317.377	94.56
317.607	101.56
317.836	94.56
318.065	93.56
318.295	96.56
318.524	82.56
318.753	80.56
318.983	116.56
319.212	84.56
319.441	88.56
319.67	91.56
319.9	101.56
320.129	90.56
320.358	106.56
320.587	98.56
320.816	101.56
321.046	91.56
321.275	90.56
321.504	86.56
321.733	99.56
321.962	104.56
322.191	102.56
322.42	87.56
322.649	97.56
322.878	84.56
323.108	74.56
323.337	90.56
323.566	83.56
323.795	102.56
324.024	110.56
324.253	90.56
324.482	81.56
324.71	94.56
324.939	94.56
325.168	94.56
325.397	112.56
325.626	75.56
325.855	89.56
326.084	96.56
326.313	93.56
326.542	72.56
326.77	82.56
326.999	64.56
327.228	77.56
327.457	96.56
327.686	92.56
327.914	90.56
328.143	83.56
328.372	86.56
328.6	84.56
328.829	93.56
329.058	99.56
329.287	112.56
329.515	93.56
329.744	85.56
329.972	94.56
330.201	106.56
330.43	116.56
330.658	112.56
330.887	104.56
331.115	89.56
331.344	89.56
331.572	103.56
331.801	86.56
332.03	81.56
332.258	81.56
332.486	91.56
332.715	90.56
332.943	81.56
333.172	96.56
333.4	94.56
333.629	96.56
333.857	80.56
334.085	108.56
334.314	101.56
334.542	104.56
334.771	82.56
334.999	83.56
335.227	88.56
335.455	98.56
335.684	98.56
335.912	100.56
336.14	95.56
336.369	107.56
336.597	93.56
336.825	96.56
337.053	86.56
337.281	91.56
337.51	96.56
337.738	84.56
337.966	82.56
338.194	94.56
338.422	86.56
338.65	94.56
338.878	105.56
339.106	96.56
339.334	80.56
339.562	108.56
339.79	102.56
340.018	100.56
340.246	90.56
340.474	82.56
340.702	93.56
340.93	80.56
341.158	85.56
341.386	101.56
341.614	90.56
341.842	84.56
342.07	92.56
342.298	114.56
342.526	77.56
342.754	72.56
342.981	86.56
343.209	98.56
343.437	114.56
343.665	90.56
343.893	79.56
344.12	101.56
344.348	110.56
344.576	124.56
344.804	118.56
345.031	114.56
345.259	96.56
345.487	94.56
345.714	92.56
345.942	92.56
346.17	83.56
346.397	85.56
346.625	91.56
346.853	95.56
347.08	103.56
347.308	102.56
347.535	92.56
347.763	97.56
347.99	102.56
348.218	84.56
348.445	87.56
348.673	97.56
348.9	104.56
349.128	92.56
349.355	105.56
349.583	92.56
349.81	91.56
350.037	85.56
350.265	91.56
350.492	86.56
350.72	90.56
350.947	104.56
351.174	103.56
351.402	78.56
351.629	87.56
351.856	103.56
352.083	80.56
352.311	92.56
352.538	79.56
352.765	81.56
352.992	92.56
353.22	96.56
353.447	96.56
353.674	96.56
353.901	82.56
354.128	105.56
354.355	99.56
354.583	99.56
354.81	92.56
355.037	89.56
355.264	92.56
355.491	74.56
355.718	93.56
355.945	95.56
356.172	82.56
356.399	85.56
356.626	78.56
356.853	92.56
357.08	98.56
357.307	96.56
357.534	102.56
357.761	78.56
357.988	100.56
358.215	89.56
358.441	109.56
358.668	115.56
358.895	100.56
359.122	89.56
359.349	98.56
359.576	97.56
359.802	100.56
360.029	98.56
360.256	99.56
360.483	92.56
360.709	91.56
360.936	103.56
361.163	86.56
361.39	108.56
361.616	106.56
361.843	114.56
362.07	115.56
362.296	136.56
362.523	149.56
362.749	152.56
362.976	156.56
363.203	169.56
363.429	130.56
363.656	121.56
363.882	133.56
364.109	158.56
364.335	190.56
364.562	185.56
364.788	150.56
365.015	105.56
365.241	112.56
365.468	107.56
365.694	95.56
365.92	92.56
366.147	99.56
366.373	93.56
366.599	101.56
366.826	104.56
367.052	92.56
367.278	98.56
367.505	101.56
367.731	105.56
367.957	90.56
368.184	85.56
368.41	89.56
368.636	95.56
368.862	96.56
369.089	83.56
369.315	88.56
369.541	92.56
369.767	93.56
369.993	92.56
370.219	98.56
370.445	104.56
370.672	99.56
370.898	100.56
371.124	96.56
371.35	105.56
371.576	96.56
371.802	95.56
372.028	112.56
372.254	113.56
372.48	93.56
372.706	89.56
372.932	99.56
373.158	108.56
373.384	108.56
373.61	115.56
373.835	127.56
374.061	119.56
374.287	79.56
374.513	92.56
374.739	112.56
374.965	114.56
375.191	108.56
375.416	111.56
375.642	90.56
375.868	96.56
376.094	87.56
376.319	97.56
376.545	99.56
376.771	106.56
376.997	90.56
377.222	87.56
377.448	74.56
377.674	93.56
377.899	75.56
378.125	92.56
378.35	90.56
378.576	103.56
378.802	79.56
379.027	104.56
379.253	107.56
379.478	98.56
379.704	100.56
379.929	105.56
380.155	84.56
380.38	80.56
380.606	101.56
380.831	92.56
381.057	102.56
381.282	85.56
381.507	92.56
381.733	105.56
381.958	98.56
382.184	102.56
382.409	113.56
382.634	117.56
382.86	96.56
383.085	103.56
383.31	113.56
383.535	109.56
383.761	104.56
383.986	116.56
384.211	105.56
384.436	108.56
384.662	114.56
384.887	109.56
385.112	107.56
385.337	107.56
385.562	114.56
385.787	102.56
386.013	116.56
386.238	104.56
386.463	89.56
386.688	105.56
386.913	98.56
387.138	105.56
387.363	109.56
387.588	105.56
387.813	108.56
388.038	99.56
388.263	113.56
388.488	104.56
388.713	102.56
388.938	113.56
389.163	87.56
389.387	97.56
389.612	85.56
389.837	100.56
390.062	104.56
390.287	97.56
390.512	99.56
390.736	115.56
390.961	100.56
391.186	112.56
391.411	99.56
391.636	109.56
391.86	116.56
392.085	112.56
392.31	109.56
392.534	143.56
392.759	180.56
392.984	283.56
393.208	476.56
393.433	685.56
393.658	522.56
393.882	246.56
394.107	186.56
394.331	177.56
394.556	202.56
394.78	149.56
395.005	129.56
395.229	119.56
395.454	128.56
395.678	152.56
395.903	177.56
396.127	242.56
396.352	287.56
396.576	308.56
396.801	484.56
397.025	560.56
397.249	286.56
397.474	197.56
397.698	145.56
397.922	124.56
398.147	117.56
398.371	103.56
398.595	101.56
398.82	108.56
399.044	101.56
399.268	97.56
399.492	108.56
399.717	109.56
399.941	106.56
400.165	106.56
400.389	93.56
400.613	103.56
400.837	109.56
401.062	91.56
401.286	84.56
401.51	89.56
401.734	99.56
401.958	95.56
402.182	114.56
402.406	100.56
402.63	100.56
402.854	95.56
403.078	113.56
403.302	99.56
403.526	107.56
403.75	119.56
403.974	136.56
404.198	226.56
404.422	380.56
404.645	472.56
404.869	357.56
405.093	227.56
405.317	130.56
405.541	114.56
405.765	98.56
405.988	98.56
406.212	118.56
406.436	107.56
406.66	98.56
406.883	106.56
407.107	102.56
407.331	109.56
407.555	127.56
407.778	130.56
408.002	138.56
408.226	101.56
408.449	78.56
408.673	104.56
408.896	99.56
409.12	117.56
409.344	112.56
409.567	110.56
409.791	118.56
410.014	125.56
410.238	128.56
410.461	116.56
410.685	121.56
410.908	90.56
411.132	97.56
411.355	90.56
411.578	82.56
411.802	92.56
412.025	85.56
412.249	104.56
412.472	103.56
412.695	104.56
412.919	99.56
413.142	97.56
413.365	94.56
413.589	91.56
413.812	100.56
414.035	88.56
414.258	102.56
414.482	106.56
414.705	111.56
414.928	96.56
415.151	89.56
415.374	94.56
415.597	101.56
415.821	76.56
416.044	98.56
416.267	92.56
416.49	100.56
416.713	90.56
416.936	96.56
417.159	76.56
417.382	85.56
417.605	96.56
417.828	79.56
418.051	104.56
418.274	90.56
418.497	102.56
418.72	94.56
418.943	104.56
419.166	97.56
419.389	104.56
419.611	110.56
419.834	106.56
420.057	97.56
420.28	109.56
420.503	124.56
420.726	120.56
420.948	127.56
421.171	120.56
421.394	138.56
421.617	183.56
421.839	216.56
422.062	260.56
422.285	386.56
422.507	719.56
422.73	1010.56
422.953	900.56
423.175	520.56
423.398	285.56
423.621	205.56
423.843	151.56
424.066	131.56
424.288	124.56
424.511	122.56
424.733	120.56
424.956	106.56
425.178	107.56
425.401	95.56
425.623	93.56
425.846	108.56
426.068	110.56
426.291	117.56
426.513	121.56
426.735	112.56
426.958	96.56
427.18	97.56
427.402	117.56
427.625	122.56
427.847	109.56
428.069	157.56
428.292	250.56
428.514	308.56
428.736	216.56
428.958	274.56
429.181	273.56
429.403	139.56
429.625	151.56
429.847	236.56
430.069	403.56
430.292	485.56
430.514	441.56
430.736	312.56
430.958	305.56
431.18	164.56
431.402	127.56
431.624	141.56
431.846	253.56
432.068	288.56
432.29	145.56
432.512	110.56
432.734	106.56
432.956	90.56
433.178	99.56
433.4	89.56
433.622	102.56
433.844	105.56
434.066	97.56
434.287	98.56
434.509	87.56
434.731	100.56
434.953	97.56
435.175	105.56
435.397	101.56
435.618	105.56
435.84	96.56
436.062	98.56
436.284	84.56
436.505	103.56
436.727	78.56
436.949	96.56
437.17	97.56
437.392	83.56
437.614	101.56
437.835	98.56
438.057	101.56
438.278	98.56
438.5	99.56
438.721	100.56
438.943	91.56
439.165	105.56
439.386	80.56
439.608	80.56
439.829	81.56
440.05	93.56
440.272	91.56
440.493	103.56
440.715	112.56
440.936	92.56
441.158	94.56
441.379	100.56
441.6	113.56
441.822	100.56
442.043	123.56
442.264	155.56
442.486	276.56
442.707	413.56
442.928	260.56
443.149	224.56
443.371	398.56
443.592	722.56
443.813	562.56
444.034	224.56
444.255	149.56
444.476	121.56
444.698	137.56
444.919	159.56
445.14	300.56
445.361	494.56
445.582	893.56
445.803	703.56
446.024	256.56
446.245	133.56
446.466	109.56
446.687	102.56
446.908	98.56
447.129	108.56
447.35	85.56
447.571	84.56
447.792	95.56
448.013	101.56
448.234	99.56
448.455	85.56
448.675	93.56
448.896	92.56
449.117	81.56
449.338	78.56
449.559	104.56
449.779	86.56
450	88.56
450.221	83.56
450.442	84.56
450.662	97.56
450.883	82.56
451.104	97.56
451.324	89.56
451.545	85.56
451.766	105.56
451.986	101.56
452.207	81.56
452.428	96.56
452.648	120.56
452.869	115.56
453.089	124.56
453.31	117.56
453.53	120.56
453.751	96.56
453.971	101.56
454.192	83.56
454.412	96.56
454.633	83.56
454.853	103.56
455.073	94.56
455.294	96.56
455.514	85.56
455.734	82.56
455.955	91.56
456.175	99.56
456.395	89.56
456.616	90.56
456.836	75.56
457.056	89.56
457.276	85.56
457.497	90.56
457.717	114.56
457.937	136.56
458.157	183.56
458.377	197.56
458.598	198.56
458.818	229.56
459.038	166.56
459.258	102.56
459.478	103.56
459.698	93.56
459.918	96.56
460.138	96.56
460.358	115.56
460.578	139.56
460.798	220.56
461.018	200.56
461.238	107.56
461.458	98.56
461.678	100.56
461.898	88.56
462.118	84.56
462.338	91.56
462.558	113.56
462.777	89.56
462.997	87.56
463.217	92.56
463.437	95.56
463.657	96.56
463.876	91.56
464.096	88.56
464.316	92.56
464.536	94.56
464.755	97.56
464.975	84.56
465.195	96.56
465.414	93.56
465.634	96.56
465.854	100.56
466.073	78.56
466.293	92.56
466.512	87.56
466.732	101.56
466.951	104.56
467.171	80.56
467.391	103.56
467.61	106.56
467.829	105.56
468.049	99.56
468.268	86.56
468.488	104.56
468.707	88.56
468.927	99.56
469.146	95.56
469.365	92.56
469.585	90.56
469.804	103.56
470.023	94.56
470.243	90.56
470.462	99.56
470.681	98.56
470.901	96.56
471.12	83.56
471.339	100.56
471.558	91.56
471.777	92.56
471.997	100.56
472.216	95.56
472.435	79.56
472.654	89.56
472.873	93.56
473.092	88.56
473.311	93.56
473.53	100.56
473.749	85.56
473.968	98.56
474.187	93.56
474.406	88.56
474.625	98.56
474.844	102.56
475.063	105.56
475.282	95.56
475.501	86.56
475.72	112.56
475.939	95.56
476.158	97.56
476.377	78.56
476.596	94.56
476.814	101.56
477.033	106.56
477.252	96.56
477.471	101.56
477.69	98.56
477.908	93.56
478.127	108.56
478.346	88.56
478.564	93.56
478.783	100.56
479.002	78.56
479.22	83.56
479.439	93.56
479.658	107.56
479.876	115.56
480.095	85.56
480.313	112.56
480.532	114.56
480.751	107.56
480.969	99.56
481.188	107.56
481.406	114.56
481.624	92.56
481.843	100.56
482.061	111.56
482.28	96.56
482.498	96.56
482.717	115.56
482.935	109.56
483.153	112.56
483.372	92.56
483.59	101.56
483.808	95.56
484.027	107.56
484.245	89.56
484.463	103.56
484.681	120.56
484.9	112.56
485.118	109.56
485.336	109.56
485.554	95.56
485.772	114.56
485.99	97.56
486.209	96.56
486.427	97.56
486.645	105.56
486.863	104.56
487.081	112.56
487.299	121.56
487.517	122.56
487.735	181.56
487.953	288.56
488.171	272.56
488.389	169.56
488.607	126.56
488.825	102.56
489.043	96.56
489.261	106.56
489.479	106.56
489.696	103.56
489.914	113.56
490.132	84.56
490.35	93.56
490.568	104.56
490.786	91.56
491.003	114.56
491.221	99.56
491.439	107.56
491.657	104.56
491.874	88.56
492.092	88.56
492.31	97.56
492.527	91.56
492.745	97.56
492.963	98.56
493.18	92.56
493.398	84.56
493.615	113.56
493.833	93.56
494.05	100.56
494.268	102.56
494.485	91.56
494.703	92.56
494.92	106.56
495.138	101.56
495.355	111.56
495.573	121.56
495.79	104.56
496.008	108.56
496.225	106.56
496.442	117.56
496.66	94.56
496.877	118.56
497.094	112.56
497.312	88.56
497.529	85.56
497.746	102.56
497.963	105.56
498.181	116.56
498.398	122.56
498.615	108.56
498.832	98.56
499.049	100.56
499.267	116.56
499.484	103.56
499.701	103.56
499.918	105.56
500.135	105.56
500.352	102.56
500.569	93.56
500.786	107.56
501.003	110.56
501.22	99.56
501.437	84.56
501.654	105.56
501.871	118.56
502.088	100.56
502.305	98.56
502.522	95.56
502.739	107.56
502.956	107.56
503.172	108.56
503.389	114.56
503.606	120.56
503.823	117.56
504.04	128.56
504.256	189.56
504.473	208.56
504.69	148.56
504.907	126.56
505.123	115.56
505.34	112.56
505.557	100.56
505.773	107.56
505.99	95.56
506.207	98.56
506.423	98.56
506.64	90.56
506.856	93.56
507.073	89.56
507.289	101.56
507.506	100.56
507.722	98.56
507.939	105.56
508.155	107.56
508.372	109.56
508.588	103.56
508.805	98.56
509.021	109.56
509.238	105.56
509.454	103.56
509.67	107.56
509.887	96.56
510.103	100.56
510.319	107.56
510.536	112.56
510.752	114.56
510.968	96.56
511.184	114.56
511.401	112.56
511.617	98.56
511.833	104.56
512.049	103.56
512.265	113.56
512.481	103.56
512.698	112.56
512.914	98.56
513.13	97.56
513.346	88.56
