Data from 2145_3_HRD10591_00036.txt Node
Date: Mon Jan 19 14:23:25 EST 2026
User: Yrep
Spectrometer: HR+D1059
Trigger mode: 1
Integration Time (sec): 1.000000E-1
Scans to average: 1
Electric dark correction enabled: true
Nonlinearity correction enabled: false
Boxcar width: 0
XAxis mode: Wavelengths
Number of Pixels in Spectrum: 2048
>>>>>Begin Spectral Data<<<<<
223.165	-5.94
223.4	-5.94
223.635	-5.94
223.869	-2.94
224.104	-19.94
224.338	-14.94
224.573	-14.94
224.808	-1.94
225.042	-27.94
225.277	-5.94
225.511	-6.94
225.746	2.06
225.98	10.06
226.215	4.06
226.449	20.06
226.683	13.06
226.918	15.06
227.152	37.06
227.387	32.06
227.621	36.06
227.856	53.06
228.09	56.06
228.324	44.06
228.559	57.06
228.793	44.06
229.027	60.06
229.262	62.06
229.496	59.06
229.73	80.06
229.964	76.06
230.199	71.06
230.433	70.06
230.667	72.06
230.901	70.06
231.136	64.06
231.37	88.06
231.604	75.06
231.838	90.06
232.072	78.06
232.306	78.06
232.541	82.06
232.775	78.06
233.009	76.06
233.243	75.06
233.477	82.06
233.711	70.06
233.945	80.06
234.179	81.06
234.413	85.06
234.647	81.06
234.881	83.06
235.115	77.06
235.349	80.06
235.583	75.06
235.817	88.06
236.051	64.06
236.285	58.06
236.519	67.06
236.753	89.06
236.987	90.06
237.221	85.06
237.455	68.06
237.689	66.06
237.922	45.06
238.156	73.06
238.39	80.06
238.624	66.06
238.858	71.06
239.091	78.06
239.325	90.06
239.559	72.06
239.793	69.06
240.027	73.06
240.26	76.06
240.494	83.06
240.728	82.06
240.961	74.06
241.195	87.06
241.429	81.06
241.662	75.06
241.896	65.06
242.13	77.06
242.363	62.06
242.597	79.06
242.83	68.06
243.064	78.06
243.298	84.06
243.531	82.06
243.765	83.06
243.998	68.06
244.232	76.06
244.465	74.06
244.699	82.06
244.932	83.06
245.166	80.06
245.399	76.06
245.633	82.06
245.866	77.06
246.099	82.06
246.333	69.06
246.566	73.06
246.8	60.06
247.033	69.06
247.266	86.06
247.5	88.06
247.733	80.06
247.966	84.06
248.2	77.06
248.433	79.06
248.666	70.06
248.899	80.06
249.133	77.06
249.366	87.06
249.599	87.06
249.832	74.06
250.066	70.06
250.299	69.06
250.532	83.06
250.765	75.06
250.998	84.06
251.231	74.06
251.465	87.06
251.698	88.06
251.931	93.06
252.164	89.06
252.397	82.06
252.63	67.06
252.863	77.06
253.096	92.06
253.329	81.06
253.562	79.06
253.795	74.06
254.028	86.06
254.261	66.06
254.494	75.06
254.727	75.06
254.96	78.06
255.193	70.06
255.426	65.06
255.659	68.06
255.892	73.06
256.124	82.06
256.357	80.06
256.59	81.06
256.823	90.06
257.056	82.06
257.289	85.06
257.521	81.06
257.754	67.06
257.987	82.06
258.22	93.06
258.452	79.06
258.685	87.06
258.918	77.06
259.151	75.06
259.383	93.06
259.616	83.06
259.849	93.06
260.081	88.06
260.314	77.06
260.547	86.06
260.779	74.06
261.012	78.06
261.244	95.06
261.477	83.06
261.71	87.06
261.942	87.06
262.175	89.06
262.407	79.06
262.64	81.06
262.872	71.06
263.105	98.06
263.337	79.06
263.57	75.06
263.802	71.06
264.035	81.06
264.267	76.06
264.499	77.06
264.732	72.06
264.964	83.06
265.197	80.06
265.429	89.06
265.661	85.06
265.894	71.06
266.126	78.06
266.358	86.06
266.591	89.06
266.823	87.06
267.055	94.06
267.287	74.06
267.52	88.06
267.752	88.06
267.984	90.06
268.216	91.06
268.448	91.06
268.681	76.06
268.913	75.06
269.145	78.06
269.377	83.06
269.609	81.06
269.841	68.06
270.073	92.06
270.306	82.06
270.538	85.06
270.77	83.06
271.002	81.06
271.234	90.06
271.466	84.06
271.698	85.06
271.93	70.06
272.162	87.06
272.394	86.06
272.626	80.06
272.858	83.06
273.09	78.06
273.322	73.06
273.553	66.06
273.785	89.06
274.017	75.06
274.249	74.06
274.481	83.06
274.713	73.06
274.945	70.06
275.176	97.06
275.408	79.06
275.64	84.06
275.872	93.06
276.104	98.06
276.335	62.06
276.567	88.06
276.799	96.06
277.031	90.06
277.262	89.06
277.494	85.06
277.726	102.06
277.957	93.06
278.189	78.06
278.421	92.06
278.652	86.06
278.884	90.06
279.115	88.06
279.347	68.06
279.579	85.06
279.81	86.06
280.042	86.06
280.273	74.06
280.505	72.06
280.736	89.06
280.968	92.06
281.199	83.06
281.431	82.06
281.662	94.06
281.894	84.06
282.125	79.06
282.356	76.06
282.588	81.06
282.819	85.06
283.051	71.06
283.282	86.06
283.513	82.06
283.745	83.06
283.976	78.06
284.207	90.06
284.439	85.06
284.67	84.06
284.901	92.06
285.132	104.06
285.364	96.06
285.595	93.06
285.826	79.06
286.057	82.06
286.288	86.06
286.52	87.06
286.751	94.06
286.982	81.06
287.213	90.06
287.444	90.06
287.675	93.06
287.906	89.06
288.138	102.06
288.369	81.06
288.6	95.06
288.831	90.06
289.062	92.06
289.293	81.06
289.524	84.06
289.755	93.06
289.986	88.06
290.217	93.06
290.448	78.06
290.679	89.06
290.91	76.06
291.141	86.06
291.371	88.06
291.602	74.06
291.833	77.06
292.064	78.06
292.295	81.06
292.526	88.06
292.757	89.06
292.987	92.06
293.218	86.06
293.449	81.06
293.68	83.06
293.91	90.06
294.141	92.06
294.372	89.06
294.603	83.06
294.833	88.06
295.064	82.06
295.295	83.06
295.525	76.06
295.756	90.06
295.987	103.06
296.217	90.06
296.448	86.06
296.679	80.06
296.909	77.06
297.14	87.06
297.37	75.06
297.601	88.06
297.831	78.06
298.062	91.06
298.292	77.06
298.523	84.06
298.753	85.06
298.984	84.06
299.214	78.06
299.445	91.06
299.675	92.06
299.905	90.06
300.136	99.06
300.366	82.06
300.597	84.06
300.827	98.06
301.057	83.06
301.288	78.06
301.518	92.06
301.748	83.06
301.979	108.06
302.209	86.06
302.439	84.06
302.669	84.06
302.9	88.06
303.13	79.06
303.36	89.06
303.59	99.06
303.82	77.06
304.051	93.06
304.281	79.06
304.511	97.06
304.741	80.06
304.971	93.06
305.201	88.06
305.431	84.06
305.661	80.06
305.891	84.06
306.121	105.06
306.352	98.06
306.582	85.06
306.812	81.06
307.042	94.06
307.272	93.06
307.502	86.06
307.731	83.06
307.961	103.06
308.191	105.06
308.421	114.06
308.651	94.06
308.881	102.06
309.111	105.06
309.341	119.06
309.571	108.06
309.8	87.06
310.03	85.06
310.26	96.06
310.49	78.06
310.72	86.06
310.949	83.06
311.179	97.06
311.409	96.06
311.639	82.06
311.868	86.06
312.098	87.06
312.328	85.06
312.557	90.06
312.787	92.06
313.017	89.06
313.246	85.06
313.476	75.06
313.706	94.06
313.935	97.06
314.165	80.06
314.394	95.06
314.624	97.06
314.853	96.06
315.083	78.06
315.312	79.06
315.542	86.06
315.771	82.06
316.001	104.06
316.23	90.06
316.46	87.06
316.689	90.06
316.919	89.06
317.148	89.06
317.377	98.06
317.607	73.06
317.836	88.06
318.065	85.06
318.295	94.06
318.524	88.06
318.753	85.06
318.983	90.06
319.212	102.06
319.441	95.06
319.67	86.06
319.9	86.06
320.129	74.06
320.358	80.06
320.587	89.06
320.816	74.06
321.046	89.06
321.275	100.06
321.504	70.06
321.733	92.06
321.962	81.06
322.191	90.06
322.42	87.06
322.649	86.06
322.878	92.06
323.108	92.06
323.337	88.06
323.566	89.06
323.795	92.06
324.024	93.06
324.253	78.06
324.482	90.06
324.71	76.06
324.939	97.06
325.168	85.06
325.397	85.06
325.626	72.06
325.855	91.06
326.084	96.06
326.313	94.06
326.542	91.06
326.77	83.06
326.999	85.06
327.228	100.06
327.457	98.06
327.686	91.06
327.914	83.06
328.143	100.06
328.372	85.06
328.6	86.06
328.829	75.06
329.058	90.06
329.287	100.06
329.515	76.06
329.744	93.06
329.972	101.06
330.201	93.06
330.43	77.06
330.658	97.06
330.887	85.06
331.115	104.06
331.344	87.06
331.572	93.06
331.801	93.06
332.03	84.06
332.258	103.06
332.486	94.06
332.715	82.06
332.943	84.06
333.172	75.06
333.4	79.06
333.629	86.06
333.857	99.06
334.085	104.06
334.314	92.06
334.542	98.06
334.771	103.06
334.999	93.06
335.227	104.06
335.455	99.06
335.684	108.06
335.912	96.06
336.14	102.06
336.369	104.06
336.597	105.06
336.825	89.06
337.053	90.06
337.281	88.06
337.51	84.06
337.738	91.06
337.966	96.06
338.194	72.06
338.422	83.06
338.65	74.06
338.878	81.06
339.106	106.06
339.334	95.06
339.562	84.06
339.79	99.06
340.018	77.06
340.246	88.06
340.474	82.06
340.702	84.06
340.93	86.06
341.158	103.06
341.386	88.06
341.614	88.06
341.842	84.06
342.07	84.06
342.298	86.06
342.526	87.06
342.754	88.06
342.981	89.06
343.209	99.06
343.437	101.06
343.665	81.06
343.893	88.06
344.12	101.06
344.348	112.06
344.576	100.06
344.804	114.06
345.031	101.06
345.259	85.06
345.487	88.06
345.714	92.06
345.942	90.06
346.17	91.06
346.397	79.06
346.625	108.06
346.853	88.06
347.08	87.06
347.308	90.06
347.535	95.06
347.763	94.06
347.99	96.06
348.218	98.06
348.445	81.06
348.673	97.06
348.9	96.06
349.128	96.06
349.355	85.06
349.583	92.06
349.81	78.06
350.037	96.06
350.265	75.06
350.492	86.06
350.72	104.06
350.947	78.06
351.174	99.06
351.402	84.06
351.629	81.06
351.856	90.06
352.083	94.06
352.311	101.06
352.538	84.06
352.765	72.06
352.992	84.06
353.22	94.06
353.447	82.06
353.674	95.06
353.901	93.06
354.128	98.06
354.355	77.06
354.583	77.06
354.81	90.06
355.037	78.06
355.264	92.06
355.491	83.06
355.718	77.06
355.945	86.06
356.172	84.06
356.399	70.06
356.626	97.06
356.853	93.06
357.08	100.06
357.307	75.06
357.534	90.06
357.761	93.06
357.988	101.06
358.215	115.06
358.441	85.06
358.668	94.06
358.895	92.06
359.122	105.06
359.349	99.06
359.576	76.06
359.802	92.06
360.029	92.06
360.256	94.06
360.483	99.06
360.709	90.06
360.936	102.06
361.163	88.06
361.39	98.06
361.616	94.06
361.843	84.06
362.07	96.06
362.296	116.06
362.523	115.06
362.749	134.06
362.976	125.06
363.203	138.06
363.429	110.06
363.656	99.06
363.882	106.06
364.109	132.06
364.335	139.06
364.562	137.06
364.788	108.06
365.015	98.06
365.241	98.06
365.468	97.06
365.694	93.06
365.92	103.06
366.147	90.06
366.373	86.06
366.599	101.06
366.826	95.06
367.052	88.06
367.278	96.06
367.505	83.06
367.731	77.06
367.957	96.06
368.184	89.06
368.41	88.06
368.636	84.06
368.862	94.06
369.089	79.06
369.315	81.06
369.541	96.06
369.767	94.06
369.993	92.06
370.219	74.06
370.445	93.06
370.672	80.06
370.898	96.06
371.124	92.06
371.35	91.06
371.576	86.06
371.802	82.06
372.028	99.06
372.254	94.06
372.48	86.06
372.706	96.06
372.932	93.06
373.158	90.06
373.384	100.06
373.61	112.06
373.835	106.06
374.061	83.06
374.287	99.06
374.513	101.06
374.739	101.06
374.965	101.06
375.191	89.06
375.416	98.06
375.642	96.06
375.868	102.06
376.094	91.06
376.319	90.06
376.545	98.06
376.771	102.06
376.997	88.06
377.222	94.06
377.448	99.06
377.674	94.06
377.899	87.06
378.125	84.06
378.35	94.06
378.576	70.06
378.802	88.06
379.027	88.06
379.253	93.06
379.478	95.06
379.704	81.06
379.929	86.06
380.155	91.06
380.38	100.06
380.606	84.06
380.831	97.06
381.057	86.06
381.282	90.06
381.507	84.06
381.733	108.06
381.958	91.06
382.184	109.06
382.409	102.06
382.634	104.06
382.86	96.06
383.085	94.06
383.31	107.06
383.535	100.06
383.761	106.06
383.986	97.06
384.211	110.06
384.436	85.06
384.662	88.06
384.887	88.06
385.112	93.06
385.337	93.06
385.562	88.06
385.787	104.06
386.013	105.06
386.238	112.06
386.463	72.06
386.688	110.06
386.913	76.06
387.138	86.06
387.363	103.06
387.588	104.06
387.813	96.06
388.038	104.06
388.263	104.06
388.488	103.06
388.713	117.06
388.938	92.06
389.163	88.06
389.387	90.06
389.612	89.06
389.837	88.06
390.062	92.06
390.287	99.06
390.512	92.06
390.736	92.06
390.961	89.06
391.186	96.06
391.411	94.06
391.636	104.06
391.86	93.06
392.085	92.06
392.31	106.06
392.534	105.06
392.759	141.06
392.984	177.06
393.208	309.06
393.433	434.06
393.658	329.06
393.882	167.06
394.107	133.06
394.331	149.06
394.556	164.06
394.78	140.06
395.005	96.06
395.229	92.06
395.454	108.06
395.678	121.06
395.903	152.06
396.127	196.06
396.352	229.06
396.576	235.06
396.801	298.06
397.025	361.06
397.249	193.06
397.474	136.06
397.698	118.06
397.922	99.06
398.147	86.06
398.371	103.06
398.595	89.06
398.82	88.06
399.044	89.06
399.268	94.06
399.492	108.06
399.717	100.06
399.941	96.06
400.165	87.06
400.389	99.06
400.613	103.06
400.837	93.06
401.062	86.06
401.286	97.06
401.51	87.06
401.734	104.06
401.958	91.06
402.182	104.06
402.406	92.06
402.63	92.06
402.854	102.06
403.078	99.06
403.302	97.06
403.526	103.06
403.75	92.06
403.974	105.06
404.198	196.06
404.422	261.06
404.645	291.06
404.869	242.06
405.093	162.06
405.317	122.06
405.541	100.06
405.765	91.06
405.988	98.06
406.212	93.06
406.436	86.06
406.66	94.06
406.883	95.06
407.107	87.06
407.331	96.06
407.555	81.06
407.778	112.06
408.002	111.06
408.226	99.06
408.449	85.06
408.673	96.06
408.896	95.06
409.12	89.06
409.344	97.06
409.567	84.06
409.791	86.06
410.014	100.06
410.238	94.06
410.461	98.06
410.685	94.06
410.908	101.06
411.132	90.06
411.355	85.06
411.578	96.06
411.802	92.06
412.025	91.06
412.249	97.06
412.472	91.06
412.695	90.06
412.919	101.06
413.142	79.06
413.365	102.06
413.589	88.06
413.812	90.06
414.035	80.06
414.258	87.06
414.482	83.06
414.705	86.06
414.928	97.06
415.151	100.06
415.374	91.06
415.597	89.06
415.821	94.06
416.044	81.06
416.267	94.06
416.49	73.06
416.713	93.06
416.936	77.06
417.159	84.06
417.382	89.06
417.605	77.06
417.828	95.06
418.051	80.06
418.274	93.06
418.497	78.06
418.72	76.06
418.943	84.06
419.166	89.06
419.389	92.06
419.611	100.06
419.834	86.06
420.057	103.06
420.28	90.06
420.503	93.06
420.726	101.06
420.948	100.06
421.171	96.06
421.394	114.06
421.617	147.06
421.839	140.06
422.062	168.06
422.285	218.06
422.507	433.06
422.73	665.06
422.953	576.06
423.175	306.06
423.398	180.06
423.621	134.06
423.843	104.06
424.066	105.06
424.288	107.06
424.511	99.06
424.733	95.06
424.956	95.06
425.178	94.06
425.401	84.06
425.623	98.06
425.846	92.06
426.068	94.06
426.291	102.06
426.513	95.06
426.735	104.06
426.958	91.06
427.18	83.06
427.402	102.06
427.625	91.06
427.847	96.06
428.069	125.06
428.292	183.06
428.514	218.06
428.736	163.06
428.958	179.06
429.181	192.06
429.403	132.06
429.625	123.06
429.847	180.06
430.069	268.06
430.292	301.06
430.514	278.06
430.736	200.06
430.958	218.06
431.18	131.06
431.402	104.06
431.624	112.06
431.846	174.06
432.068	191.06
432.29	122.06
432.512	99.06
432.734	82.06
432.956	87.06
433.178	95.06
433.4	100.06
433.622	95.06
433.844	90.06
434.066	83.06
434.287	88.06
434.509	84.06
434.731	80.06
434.953	87.06
435.175	84.06
435.397	99.06
435.618	95.06
435.84	95.06
436.062	98.06
436.284	101.06
436.505	90.06
436.727	96.06
436.949	84.06
437.17	76.06
437.392	99.06
437.614	84.06
437.835	87.06
438.057	93.06
438.278	101.06
438.5	94.06
438.721	100.06
438.943	88.06
439.165	79.06
439.386	91.06
439.608	63.06
439.829	86.06
440.05	96.06
440.272	100.06
440.493	92.06
440.715	89.06
440.936	92.06
441.158	87.06
441.379	84.06
441.6	96.06
441.822	93.06
442.043	102.06
442.264	124.06
442.486	177.06
442.707	228.06
442.928	156.06
443.149	141.06
443.371	228.06
443.592	389.06
443.813	329.06
444.034	165.06
444.255	108.06
444.476	99.06
444.698	107.06
444.919	120.06
445.14	223.06
445.361	316.06
445.582	515.06
445.803	423.06
446.024	169.06
446.245	102.06
446.466	105.06
446.687	88.06
446.908	102.06
447.129	100.06
447.35	78.06
447.571	84.06
447.792	98.06
448.013	88.06
448.234	83.06
448.455	90.06
448.675	92.06
448.896	81.06
449.117	83.06
449.338	82.06
449.559	88.06
449.779	93.06
450	92.06
450.221	100.06
450.442	97.06
450.662	87.06
450.883	94.06
451.104	91.06
451.324	77.06
451.545	91.06
451.766	98.06
451.986	80.06
452.207	94.06
452.428	86.06
452.648	96.06
452.869	107.06
453.089	99.06
453.31	91.06
453.53	107.06
453.751	115.06
453.971	102.06
454.192	83.06
454.412	80.06
454.633	91.06
454.853	82.06
455.073	85.06
455.294	72.06
455.514	90.06
455.734	86.06
455.955	93.06
456.175	82.06
456.395	87.06
456.616	96.06
456.836	84.06
457.056	94.06
457.276	88.06
457.497	94.06
457.717	110.06
457.937	97.06
458.157	124.06
458.377	134.06
458.598	133.06
458.818	149.06
459.038	134.06
459.258	99.06
459.478	89.06
459.698	89.06
459.918	84.06
460.138	94.06
460.358	82.06
460.578	115.06
460.798	156.06
461.018	141.06
461.238	87.06
461.458	96.06
461.678	91.06
461.898	103.06
462.118	93.06
462.338	90.06
462.558	101.06
462.777	78.06
462.997	77.06
463.217	88.06
463.437	90.06
463.657	94.06
463.876	86.06
464.096	85.06
464.316	82.06
464.536	92.06
464.755	93.06
464.975	92.06
465.195	86.06
465.414	85.06
465.634	81.06
465.854	76.06
466.073	97.06
466.293	88.06
466.512	78.06
466.732	98.06
466.951	88.06
467.171	83.06
467.391	90.06
467.61	88.06
467.829	78.06
468.049	81.06
468.268	89.06
468.488	89.06
468.707	93.06
468.927	93.06
469.146	85.06
469.365	87.06
469.585	78.06
469.804	80.06
470.023	86.06
470.243	81.06
470.462	87.06
470.681	86.06
470.901	89.06
471.12	92.06
471.339	87.06
471.558	88.06
471.777	106.06
471.997	92.06
472.216	87.06
472.435	101.06
472.654	88.06
472.873	84.06
473.092	87.06
473.311	79.06
473.53	84.06
473.749	88.06
473.968	106.06
474.187	93.06
474.406	91.06
474.625	97.06
474.844	95.06
475.063	85.06
475.282	92.06
475.501	99.06
475.72	96.06
475.939	94.06
476.158	100.06
476.377	97.06
476.596	82.06
476.814	83.06
477.033	80.06
477.252	103.06
477.471	88.06
477.69	94.06
477.908	89.06
478.127	91.06
478.346	93.06
478.564	84.06
478.783	84.06
479.002	104.06
479.22	98.06
479.439	87.06
479.658	100.06
479.876	88.06
480.095	107.06
480.313	81.06
480.532	92.06
480.751	87.06
480.969	95.06
481.188	107.06
481.406	99.06
481.624	85.06
481.843	84.06
482.061	91.06
482.28	85.06
482.498	89.06
482.717	82.06
482.935	93.06
483.153	98.06
483.372	105.06
483.59	81.06
483.808	81.06
484.027	94.06
484.245	89.06
484.463	113.06
484.681	96.06
484.9	109.06
485.118	99.06
485.336	104.06
485.554	91.06
485.772	86.06
485.99	94.06
486.209	89.06
486.427	87.06
486.645	86.06
486.863	97.06
487.081	104.06
487.299	90.06
487.517	97.06
487.735	119.06
487.953	196.06
488.171	161.06
488.389	114.06
488.607	116.06
488.825	104.06
489.043	97.06
489.261	94.06
489.479	74.06
489.696	91.06
489.914	96.06
490.132	90.06
490.35	99.06
490.568	86.06
490.786	79.06
491.003	102.06
491.221	92.06
491.439	98.06
491.657	93.06
491.874	87.06
492.092	97.06
492.31	101.06
492.527	88.06
492.745	75.06
492.963	85.06
493.18	87.06
493.398	95.06
493.615	87.06
493.833	85.06
494.05	105.06
494.268	89.06
494.485	87.06
494.703	99.06
494.92	85.06
495.138	95.06
495.355	96.06
495.573	98.06
495.79	79.06
496.008	101.06
496.225	101.06
496.442	99.06
496.66	104.06
496.877	93.06
497.094	98.06
497.312	89.06
497.529	91.06
497.746	82.06
497.963	96.06
498.181	97.06
498.398	114.06
498.615	85.06
498.832	91.06
499.049	96.06
499.267	116.06
499.484	100.06
499.701	102.06
499.918	87.06
500.135	91.06
500.352	91.06
500.569	106.06
500.786	94.06
501.003	99.06
501.22	98.06
501.437	96.06
501.654	105.06
501.871	93.06
502.088	90.06
502.305	89.06
502.522	101.06
502.739	96.06
502.956	95.06
503.172	79.06
503.389	74.06
503.606	103.06
503.823	103.06
504.04	114.06
504.256	140.06
504.473	123.06
504.69	97.06
504.907	105.06
505.123	100.06
505.34	102.06
505.557	99.06
505.773	87.06
505.99	86.06
506.207	100.06
506.423	85.06
506.64	96.06
506.856	94.06
507.073	94.06
507.289	104.06
507.506	90.06
507.722	103.06
507.939	86.06
508.155	89.06
508.372	90.06
508.588	103.06
508.805	89.06
509.021	94.06
509.238	87.06
509.454	85.06
509.67	87.06
509.887	87.06
510.103	107.06
510.319	124.06
510.536	90.06
510.752	86.06
510.968	109.06
511.184	102.06
511.401	97.06
511.617	99.06
511.833	89.06
512.049	91.06
512.265	100.06
512.481	96.06
512.698	88.06
512.914	111.06
513.13	94.06
513.346	86.06
513.562	85.06
513.778	86.06
513.994	89.06
514.21	107.06
514.426	88.06
514.642	100.06
514.858	88.06
515.074	85.06
515.29	88.06
515.506	90.06
515.721	94.06
515.937	94.06
516.153	88.06
516.369	76.06
516.585	95.06
