Data from 2145_3_HRD10591_00011.txt Node
Date: Mon Jan 19 14:23:14 EST 2026
User: Yrep
Spectrometer: HR+D1059
Trigger mode: 1
Integration Time (sec): 1.000000E-1
Scans to average: 1
Electric dark correction enabled: true
Nonlinearity correction enabled: false
Boxcar width: 0
XAxis mode: Wavelengths
Number of Pixels in Spectrum: 2048
>>>>>Begin Spectral Data<<<<<
223.165	-20
223.4	-20
223.635	-20
223.869	-25
224.104	-21
224.338	-33
224.573	-25
224.808	-7
225.042	-16
225.277	7
225.511	11
225.746	13
225.98	1
226.215	21
226.449	29
226.683	15
226.918	22
227.152	28
227.387	44
227.621	62
227.856	42
228.09	54
228.324	56
228.559	62
228.793	59
229.027	77
229.262	87
229.496	71
229.73	96
229.964	67
230.199	90
230.433	83
230.667	88
230.901	72
231.136	84
231.37	73
231.604	84
231.838	92
232.072	83
232.306	88
232.541	67
232.775	89
233.009	87
233.243	93
233.477	89
233.711	99
233.945	84
234.179	90
234.413	84
234.647	98
234.881	81
235.115	98
235.349	90
235.583	84
235.817	86
236.051	78
236.285	84
236.519	87
236.753	72
236.987	82
237.221	81
237.455	91
237.689	87
237.922	80
238.156	88
238.39	88
238.624	80
238.858	85
239.091	106
239.325	83
239.559	80
239.793	84
240.027	98
240.26	93
240.494	90
240.728	92
240.961	80
241.195	87
241.429	93
241.662	85
241.896	84
242.13	76
242.363	85
242.597	104
242.83	86
243.064	90
243.298	95
243.531	96
243.765	80
243.998	100
244.232	89
244.465	99
244.699	101
244.932	86
245.166	82
245.399	106
245.633	103
245.866	89
246.099	86
246.333	97
246.566	89
246.8	100
247.033	87
247.266	92
247.5	101
247.733	86
247.966	83
248.2	107
248.433	99
248.666	90
248.899	96
249.133	107
249.366	98
249.599	114
249.832	108
250.066	105
250.299	104
250.532	108
250.765	118
250.998	114
251.231	109
251.465	124
251.698	135
251.931	144
252.164	123
252.397	111
252.63	114
252.863	119
253.096	127
253.329	115
253.562	108
253.795	112
254.028	117
254.261	107
254.494	104
254.727	107
254.96	100
255.193	94
255.426	95
255.659	109
255.892	109
256.124	98
256.357	90
256.59	101
256.823	108
257.056	114
257.289	106
257.521	110
257.754	105
257.987	107
258.22	99
258.452	98
258.685	99
258.918	107
259.151	104
259.383	102
259.616	110
259.849	96
260.081	108
260.314	122
260.547	102
260.779	106
261.012	113
261.244	114
261.477	122
261.71	110
261.942	107
262.175	104
262.407	101
262.64	119
262.872	98
263.105	118
263.337	121
263.57	117
263.802	108
264.035	98
264.267	106
264.499	100
264.732	110
264.964	103
265.197	107
265.429	109
265.661	115
265.894	125
266.126	109
266.358	93
266.591	124
266.823	101
267.055	111
267.287	109
267.52	115
267.752	124
267.984	109
268.216	110
268.448	114
268.681	107
268.913	108
269.145	117
269.377	110
269.609	114
269.841	107
270.073	112
270.306	110
270.538	128
270.77	120
271.002	115
271.234	119
271.466	130
271.698	123
271.93	122
272.162	115
272.394	130
272.626	126
272.858	113
273.09	108
273.322	122
273.553	127
273.785	126
274.017	111
274.249	124
274.481	100
274.713	131
274.945	143
275.176	143
275.408	133
275.64	128
275.872	120
276.104	120
276.335	124
276.567	116
276.799	121
277.031	110
277.262	120
277.494	126
277.726	123
277.957	120
278.189	130
278.421	121
278.652	138
278.884	117
279.115	131
279.347	168
279.579	202
279.81	231
280.042	175
280.273	174
280.505	175
280.736	147
280.968	119
281.199	127
281.431	107
281.662	112
281.894	118
282.125	139
282.356	135
282.588	133
282.819	127
283.051	136
283.282	125
283.513	122
283.745	132
283.976	132
284.207	114
284.439	125
284.67	128
284.901	143
285.132	140
285.364	159
285.595	143
285.826	135
286.057	130
286.288	130
286.52	135
286.751	136
286.982	125
287.213	133
287.444	132
287.675	160
287.906	156
288.138	183
288.369	194
288.6	171
288.831	138
289.062	150
289.293	119
289.524	120
289.755	134
289.986	126
290.217	138
290.448	127
290.679	120
290.91	142
291.141	137
291.371	131
291.602	145
291.833	134
292.064	128
292.295	134
292.526	136
292.757	125
292.987	137
293.218	135
293.449	133
293.68	140
293.91	135
294.141	125
294.372	128
294.603	137
294.833	132
295.064	121
295.295	139
295.525	139
295.756	147
295.987	131
296.217	119
296.448	133
296.679	140
296.909	141
297.14	139
297.37	138
297.601	139
297.831	129
298.062	141
298.292	123
298.523	147
298.753	151
298.984	143
299.214	143
299.445	160
299.675	151
299.905	178
300.136	152
300.366	148
300.597	150
300.827	160
301.057	152
301.288	141
301.518	133
301.748	134
301.979	164
302.209	154
302.439	133
302.669	150
302.9	135
303.13	140
303.36	139
303.59	139
303.82	149
304.051	140
304.281	140
304.511	155
304.741	144
304.971	138
305.201	159
305.431	126
305.661	148
305.891	143
306.121	144
306.352	153
306.582	132
306.812	149
307.042	157
307.272	136
307.502	144
307.731	166
307.961	154
308.191	171
308.421	176
308.651	170
308.881	169
309.111	171
309.341	207
309.571	190
309.8	164
310.03	150
310.26	158
310.49	144
310.72	144
310.949	145
311.179	138
311.409	142
311.639	148
311.868	148
312.098	161
312.328	158
312.557	176
312.787	167
313.017	144
313.246	133
313.476	166
313.706	160
313.935	156
314.165	174
314.394	174
314.624	173
314.853	181
315.083	198
315.312	234
315.542	291
315.771	388
316.001	479
316.23	453
316.46	346
316.689	293
316.919	276
317.148	269
317.377	303
317.607	428
317.836	577
318.065	724
318.295	669
318.524	470
318.753	351
318.983	295
319.212	258
319.441	242
319.67	200
319.9	210
320.129	210
320.358	202
320.587	195
320.816	178
321.046	185
321.275	187
321.504	172
321.733	185
321.962	196
322.191	174
322.42	172
322.649	174
322.878	171
323.108	184
323.337	176
323.566	159
323.795	174
324.024	164
324.253	174
324.482	175
324.71	172
324.939	178
325.168	165
325.397	173
325.626	180
325.855	158
326.084	166
326.313	162
326.542	168
326.77	168
326.999	160
327.228	163
327.457	150
327.686	172
327.914	169
328.143	167
328.372	174
328.6	154
328.829	158
329.058	162
329.287	175
329.515	165
329.744	182
329.972	173
330.201	185
330.43	179
330.658	170
330.887	164
331.115	164
331.344	160
331.572	158
331.801	173
332.03	165
332.258	160
332.486	154
332.715	176
332.943	183
333.172	174
333.4	175
333.629	165
333.857	175
334.085	176
334.314	165
334.542	183
334.771	194
334.999	181
335.227	187
335.455	175
335.684	185
335.912	183
336.14	193
336.369	191
336.597	188
336.825	190
337.053	187
337.281	188
337.51	179
337.738	190
337.966	178
338.194	187
338.422	188
338.65	178
338.878	190
339.106	171
339.334	171
339.562	175
339.79	172
340.018	163
340.246	190
340.474	166
340.702	156
340.93	158
341.158	168
341.386	178
341.614	173
341.842	175
342.07	174
342.298	180
342.526	173
342.754	179
342.981	176
343.209	160
343.437	183
343.665	180
343.893	167
344.12	199
344.348	188
344.576	172
344.804	172
345.031	185
345.259	190
345.487	166
345.714	175
345.942	170
346.17	176
346.397	160
346.625	175
346.853	173
347.08	165
347.308	174
347.535	180
347.763	159
347.99	176
348.218	164
348.445	170
348.673	164
348.9	187
349.128	183
349.355	167
349.583	173
349.81	180
350.037	156
350.265	174
350.492	136
350.72	148
350.947	170
351.174	181
351.402	163
351.629	163
351.856	174
352.083	182
352.311	175
352.538	166
352.765	167
352.992	178
353.22	171
353.447	165
353.674	172
353.901	178
354.128	149
354.355	190
354.583	166
354.81	164
355.037	154
355.264	182
355.491	185
355.718	184
355.945	175
356.172	170
356.399	174
356.626	186
356.853	182
357.08	194
357.307	180
357.534	169
357.761	197
357.988	198
358.215	202
358.441	182
358.668	186
358.895	174
359.122	179
359.349	166
359.576	174
359.802	163
360.029	173
360.256	196
360.483	169
360.709	178
360.936	190
361.163	171
361.39	178
361.616	164
361.843	189
362.07	198
362.296	197
362.523	209
362.749	205
362.976	226
363.203	238
363.429	208
363.656	202
363.882	220
364.109	229
364.335	234
364.562	248
364.788	227
365.015	226
365.241	214
365.468	179
365.694	171
365.92	175
366.147	194
366.373	181
366.599	179
366.826	165
367.052	172
367.278	180
367.505	180
367.731	187
367.957	200
368.184	187
368.41	175
368.636	200
368.862	191
369.089	189
369.315	174
369.541	190
369.767	186
369.993	197
370.219	209
370.445	262
370.672	302
370.898	317
371.124	268
371.35	222
371.576	208
371.802	206
372.028	223
372.254	218
372.48	216
372.706	214
372.932	229
373.158	258
373.384	311
373.61	400
373.835	492
374.061	398
374.287	311
374.513	285
374.739	249
374.965	235
375.191	235
375.416	223
375.642	221
375.868	222
376.094	199
376.319	207
376.545	214
376.771	198
376.997	195
377.222	188
377.448	173
377.674	159
377.899	201
378.125	192
378.35	192
378.576	183
378.802	175
379.027	179
379.253	200
379.478	178
379.704	201
379.929	190
380.155	184
380.38	183
380.606	195
380.831	190
381.057	186
381.282	198
381.507	213
381.733	208
381.958	194
382.184	212
382.409	219
382.634	230
382.86	240
383.085	223
383.31	219
383.535	229
383.761	233
383.986	248
384.211	223
384.436	220
384.662	228
384.887	224
385.112	211
385.337	235
385.562	219
385.787	228
386.013	238
386.238	237
386.463	229
386.688	243
386.913	230
387.138	212
387.363	233
387.588	202
387.813	234
388.038	243
388.263	243
388.488	231
388.713	226
388.938	236
389.163	223
389.387	224
389.612	240
389.837	237
390.062	233
390.287	252
390.512	268
390.736	277
390.961	284
391.186	294
391.411	325
391.636	320
391.86	345
392.085	402
392.31	482
392.534	585
392.759	778
392.984	1241
393.208	1975
393.433	2558
393.658	1925
393.882	1025
394.107	644
394.331	544
394.556	495
394.78	414
395.005	359
395.229	348
395.454	360
395.678	414
395.903	485
396.127	601
396.352	845
396.576	1209
396.801	1813
397.025	1881
397.249	1077
397.474	614
397.698	439
397.922	350
398.147	312
398.371	293
398.595	299
398.82	281
399.044	287
399.268	269
399.492	270
399.717	259
399.941	255
400.165	247
400.389	258
400.613	235
400.837	232
401.062	247
401.286	198
401.51	233
401.734	219
401.958	236
402.182	215
402.406	231
402.63	231
402.854	219
403.078	214
403.302	235
403.526	230
403.75	233
403.974	250
404.198	304
404.422	388
404.645	431
404.869	403
405.093	317
405.317	244
405.541	239
405.765	236
405.988	244
406.212	240
406.436	228
406.66	252
406.883	230
407.107	235
407.331	272
407.555	300
407.778	350
408.002	350
408.226	259
408.449	240
408.673	239
408.896	235
409.12	234
409.344	240
409.567	239
409.791	219
410.014	238
410.238	234
410.461	251
410.685	240
410.908	228
411.132	234
411.355	237
411.578	219
411.802	214
412.025	216
412.249	231
412.472	223
412.695	215
412.919	222
413.142	247
413.365	236
413.589	236
413.812	223
414.035	222
414.258	222
414.482	224
414.705	203
414.928	211
415.151	216
415.374	220
415.597	215
415.821	204
416.044	205
416.267	207
416.49	205
416.713	214
416.936	216
417.159	214
417.382	200
417.605	232
417.828	213
418.051	218
418.274	216
418.497	217
418.72	198
418.943	208
419.166	217
419.389	216
419.611	225
419.834	228
420.057	244
420.28	224
420.503	219
420.726	216
420.948	237
421.171	250
421.394	284
421.617	356
421.839	348
422.062	375
422.285	486
422.507	738
422.73	981
422.953	914
423.175	563
423.398	372
423.621	322
423.843	281
424.066	260
424.288	238
424.511	226
424.733	230
424.956	215
425.178	223
425.401	234
425.623	205
425.846	217
426.068	213
426.291	212
426.513	229
426.735	213
426.958	214
427.18	214
427.402	224
427.625	208
427.847	242
428.069	279
428.292	365
428.514	402
428.736	321
428.958	370
429.181	350
429.403	257
429.625	264
429.847	370
430.069	474
430.292	566
430.514	524
430.736	410
430.958	390
431.18	269
431.402	238
431.624	281
431.846	338
432.068	372
432.29	244
432.512	220
432.734	224
432.956	208
433.178	212
433.4	207
433.622	210
433.844	205
434.066	222
434.287	192
434.509	194
434.731	222
434.953	185
435.175	209
435.397	223
435.618	205
435.84	214
436.062	198
436.284	209
436.505	216
436.727	198
436.949	199
437.17	185
437.392	183
437.614	199
437.835	189
438.057	187
438.278	186
438.5	236
438.721	222
438.943	198
439.165	195
439.386	205
439.608	179
439.829	216
440.05	191
440.272	195
440.493	206
440.715	212
440.936	208
441.158	204
441.379	196
441.6	226
441.822	236
442.043	235
442.264	265
442.486	355
442.707	439
442.928	335
443.149	332
443.371	451
443.592	647
443.813	539
444.034	311
444.255	276
444.476	246
444.698	246
444.919	272
445.14	431
445.361	546
445.582	767
445.803	624
446.024	333
446.245	274
446.466	242
446.687	200
446.908	220
447.129	226
447.35	197
447.571	195
447.792	185
448.013	201
448.234	209
448.455	187
448.675	198
448.896	194
449.117	209
449.338	182
449.559	194
449.779	185
450	187
450.221	180
450.442	183
450.662	187
450.883	181
451.104	178
451.324	183
451.545	192
451.766	194
451.986	196
452.207	191
452.428	200
452.648	204
452.869	209
453.089	203
453.31	195
453.53	193
453.751	191
453.971	187
454.192	194
454.412	185
454.633	172
454.853	202
455.073	182
455.294	186
455.514	194
455.734	204
455.955	176
456.175	199
456.395	179
456.616	174
456.836	185
457.056	186
457.276	171
457.497	196
457.717	200
457.937	217
458.157	252
458.377	264
458.598	266
458.818	275
459.038	252
459.258	220
459.478	217
459.698	215
459.918	201
460.138	215
460.358	235
460.578	246
460.798	298
461.018	295
461.238	226
461.458	212
461.678	209
461.898	221
462.118	207
462.338	199
462.558	193
462.777	208
462.997	210
463.217	215
463.437	210
463.657	212
463.876	211
464.096	222
464.316	214
464.536	204
464.755	210
464.975	204
465.195	187
465.414	192
465.634	200
465.854	191
466.073	202
466.293	201
466.512	191
466.732	206
466.951	201
467.171	208
467.391	201
467.61	190
467.829	197
468.049	203
468.268	214
468.488	192
468.707	208
468.927	215
469.146	196
469.365	195
469.585	202
469.804	206
470.023	227
470.243	205
470.462	220
470.681	204
470.901	221
471.12	199
471.339	192
471.558	192
471.777	208
471.997	211
472.216	198
472.435	186
472.654	202
472.873	194
473.092	196
473.311	196
473.53	198
473.749	202
473.968	211
474.187	202
474.406	215
474.625	218
474.844	208
475.063	198
475.282	200
475.501	204
475.72	216
475.939	205
476.158	212
476.377	208
476.596	231
476.814	224
477.033	198
477.252	213
477.471	215
477.69	229
477.908	226
478.127	229
478.346	237
478.564	235
478.783	223
479.002	233
479.22	230
479.439	231
479.658	227
479.876	211
480.095	216
480.313	221
480.532	234
480.751	218
480.969	243
481.188	236
481.406	251
481.624	242
481.843	250
482.061	237
482.28	244
482.498	228
482.717	230
482.935	244
483.153	232
483.372	232
483.59	234
483.808	212
484.027	234
484.245	231
484.463	233
484.681	229
484.9	217
485.118	220
485.336	228
485.554	236
485.772	222
485.99	245
486.209	224
486.427	229
486.645	245
486.863	243
487.081	232
487.299	233
487.517	273
487.735	290
487.953	378
488.171	374
488.389	282
488.607	256
488.825	232
489.043	237
489.261	234
489.479	248
489.696	224
489.914	228
490.132	237
490.35	242
490.568	235
490.786	235
491.003	235
491.221	224
491.439	234
491.657	242
491.874	246
492.092	230
492.31	248
492.527	232
492.745	259
492.963	232
493.18	244
493.398	259
493.615	239
493.833	233
494.05	241
494.268	228
494.485	236
494.703	236
494.92	245
495.138	223
495.355	223
495.573	229
495.79	239
496.008	244
496.225	258
496.442	251
496.66	252
496.877	259
497.094	252
497.312	250
497.529	250
497.746	265
497.963	256
498.181	280
498.398	270
498.615	287
498.832	267
499.049	292
499.267	298
499.484	292
499.701	301
499.918	303
500.135	330
500.352	344
500.569	314
500.786	322
501.003	329
501.22	296
501.437	303
501.654	303
501.871	290
502.088	269
502.305	272
502.522	288
502.739	265
502.956	256
503.172	266
503.389	250
503.606	282
503.823	291
504.04	293
504.256	316
504.473	316
504.69	291
504.907	263
505.123	259
505.34	256
505.557	237
505.773	231
505.99	276
506.207	239
506.423	229
506.64	219
506.856	242
507.073	244
507.289	219
507.506	220
507.722	228
507.939	225
508.155	228
508.372	221
508.588	223
508.805	219
509.021	223
509.238	215
509.454	212
509.67	212
509.887	222
510.103	218
510.319	245
510.536	228
510.752	229
510.968	215
511.184	214
511.401	216
511.617	229
511.833	211
512.049	199
512.265	218
512.481	224
512.698	214
512.914	240
513.13	215
513.346	220
513.562	214
513.778	207
513.994	218
514.21	214
514.426	207
514.642	218
514.858	218
515.074	200
515.29	231
515.506	207
515.721	205
515.937	223
516.153	227
516.369	220
516.585	237
516.801	226
517.016	229
517.232	236
517.448	265
517.664	254
517.879	268
518.095	255
518.311	261
518.527	283
518.742	314
518.958	365
519.173	343
519.389	278
519.605	266
519.82	236
520.036	238
520.251	226
520.467	221
520.682	201
520.898	236
521.113	229
521.329	215
521.544	231
521.76	228
521.975	226
522.19	211
522.406	205
522.621	224
522.836	233
523.052	218
523.267	228
523.482	214
523.698	219
523.913	223
524.128	223
524.343	232
524.559	215
524.774	218
524.989	218
525.204	231
525.419	212
525.634	255
525.849	272
526.064	322
526.28	534
526.495	773
526.71	823
526.925	668
527.14	739
527.355	726
527.57	351
527.785	262
527.999	238
528.214	219
528.429	232
528.644	228
528.859	211
529.074	229
529.289	217
529.503	203
529.718	211
529.933	208
530.148	220
530.363	228
530.577	204
530.792	215
531.007	203
531.221	192
531.436	204
531.651	210
531.865	205
532.08	207
532.295	222
532.509	221
532.724	215
532.938	223
533.153	232
533.367	222
533.582	205
533.796	232
534.011	236
534.225	213
534.44	220
534.654	228
534.868	278
535.083	398
535.297	364
535.511	254
535.726	220
535.94	216
536.154	208
536.369	204
536.583	232
536.797	206
537.011	209
537.225	204
537.44	214
537.654	200
537.868	203
538.082	192
538.296	215
538.51	187
538.724	213
538.938	188
539.153	206
539.367	194
539.581	194
539.795	216
540.009	201
540.222	206
540.436	198
540.65	202
540.864	199
541.078	190
541.292	198
541.506	178
541.72	198
541.934	194
542.147	206
542.361	207
542.575	203
542.789	202
543.002	189
543.216	200
543.43	199
543.644	202
543.857	194
544.071	200
544.285	187
544.498	197
544.712	186
544.925	194
545.139	196
545.352	179
545.566	204
545.779	206
545.993	190
546.206	196
546.42	200
546.633	202
546.847	203
547.06	196
547.274	208
547.487	245
547.7	238
547.914	241
548.127	224
548.34	264
548.554	256
548.767	239
548.98	232
549.193	242
549.407	246
549.62	247
549.833	257
550.046	258
550.259	273
550.473	259
550.686	275
550.899	270
551.112	297
551.325	311
551.538	314
551.751	306
551.964	286
552.177	278
552.39	275
552.603	268
552.816	277
553.029	244
553.242	265
553.455	269
553.667	293
553.88	281
554.093	252
554.306	265
554.519	263
554.732	274
554.944	266
555.157	254
555.37	237
555.583	231
555.795	242
556.008	233
556.221	222
556.433	227
556.646	233
556.859	232
557.071	219
557.284	220
557.496	229
557.709	208
557.921	226
558.134	252
558.346	367
558.559	364
558.771	371
558.984	724
559.196	933
559.409	564
559.621	704
559.833	586
560.046	659
560.258	544
560.47	545
560.683	346
560.895	257
561.107	205
561.32	203
561.532	188
561.744	196
561.956	191
562.168	199
562.381	190
562.593	171
562.805	190
563.017	170
563.229	192
563.441	182
563.653	171
563.865	179
564.077	164
564.289	191
564.501	189
564.713	181
564.925	183
565.137	179
565.349	172
565.561	179
565.773	182
