Data from 2145_3_HRD10591_00044.txt Node
Date: Mon Jan 19 14:23:29 EST 2026
User: Yrep
Spectrometer: HR+D1059
Trigger mode: 1
Integration Time (sec): 1.000000E-1
Scans to average: 1
Electric dark correction enabled: true
Nonlinearity correction enabled: false
Boxcar width: 0
XAxis mode: Wavelengths
Number of Pixels in Spectrum: 2048
>>>>>Begin Spectral Data<<<<<
223.165	-13.94
223.4	-13.94
223.635	-13.94
223.869	-20.94
224.104	-10.94
224.338	-17.94
224.573	-20.94
224.808	-2.94
225.042	-5.94
225.277	-5.94
225.511	-14.94
225.746	-1.94
225.98	6.06
226.215	8.06
226.449	26.06
226.683	19.06
226.918	30.06
227.152	27.06
227.387	48.06
227.621	26.06
227.856	41.06
228.09	39.06
228.324	44.06
228.559	70.06
228.793	51.06
229.027	67.06
229.262	78.06
229.496	70.06
229.73	61.06
229.964	67.06
230.199	81.06
230.433	73.06
230.667	73.06
230.901	79.06
231.136	72.06
231.37	75.06
231.604	74.06
231.838	78.06
232.072	81.06
232.306	78.06
232.541	73.06
232.775	77.06
233.009	85.06
233.243	93.06
233.477	80.06
233.711	73.06
233.945	90.06
234.179	77.06
234.413	86.06
234.647	85.06
234.881	72.06
235.115	70.06
235.349	87.06
235.583	81.06
235.817	74.06
236.051	75.06
236.285	77.06
236.519	69.06
236.753	69.06
236.987	90.06
237.221	81.06
237.455	67.06
237.689	75.06
237.922	68.06
238.156	63.06
238.39	62.06
238.624	70.06
238.858	70.06
239.091	85.06
239.325	82.06
239.559	72.06
239.793	73.06
240.027	73.06
240.26	84.06
240.494	72.06
240.728	86.06
240.961	68.06
241.195	68.06
241.429	73.06
241.662	75.06
241.896	83.06
242.13	71.06
242.363	80.06
242.597	93.06
242.83	78.06
243.064	67.06
243.298	70.06
243.531	69.06
243.765	86.06
243.998	79.06
244.232	63.06
244.465	72.06
244.699	68.06
244.932	79.06
245.166	83.06
245.399	80.06
245.633	67.06
245.866	78.06
246.099	68.06
246.333	77.06
246.566	70.06
246.8	87.06
247.033	58.06
247.266	78.06
247.5	62.06
247.733	76.06
247.966	85.06
248.2	73.06
248.433	93.06
248.666	79.06
248.899	93.06
249.133	79.06
249.366	85.06
249.599	75.06
249.832	61.06
250.066	86.06
250.299	81.06
250.532	69.06
250.765	84.06
250.998	85.06
251.231	72.06
251.465	80.06
251.698	74.06
251.931	86.06
252.164	86.06
252.397	65.06
252.63	70.06
252.863	81.06
253.096	79.06
253.329	85.06
253.562	81.06
253.795	81.06
254.028	79.06
254.261	70.06
254.494	75.06
254.727	64.06
254.96	82.06
255.193	79.06
255.426	77.06
255.659	72.06
255.892	79.06
256.124	71.06
256.357	81.06
256.59	82.06
256.823	95.06
257.056	93.06
257.289	74.06
257.521	66.06
257.754	83.06
257.987	74.06
258.22	71.06
258.452	79.06
258.685	67.06
258.918	73.06
259.151	79.06
259.383	81.06
259.616	66.06
259.849	81.06
260.081	59.06
260.314	69.06
260.547	78.06
260.779	73.06
261.012	82.06
261.244	79.06
261.477	89.06
261.71	72.06
261.942	80.06
262.175	79.06
262.407	81.06
262.64	69.06
262.872	80.06
263.105	76.06
263.337	75.06
263.57	83.06
263.802	70.06
264.035	76.06
264.267	62.06
264.499	85.06
264.732	84.06
264.964	75.06
265.197	87.06
265.429	74.06
265.661	68.06
265.894	68.06
266.126	73.06
266.358	82.06
266.591	74.06
266.823	81.06
267.055	68.06
267.287	67.06
267.52	82.06
267.752	71.06
267.984	85.06
268.216	93.06
268.448	81.06
268.681	78.06
268.913	83.06
269.145	81.06
269.377	59.06
269.609	72.06
269.841	83.06
270.073	75.06
270.306	88.06
270.538	81.06
270.77	71.06
271.002	72.06
271.234	72.06
271.466	77.06
271.698	75.06
271.93	73.06
272.162	70.06
272.394	81.06
272.626	87.06
272.858	83.06
273.09	81.06
273.322	80.06
273.553	90.06
273.785	80.06
274.017	78.06
274.249	74.06
274.481	61.06
274.713	80.06
274.945	71.06
275.176	76.06
275.408	76.06
275.64	90.06
275.872	92.06
276.104	78.06
276.335	80.06
276.567	95.06
276.799	77.06
277.031	81.06
277.262	90.06
277.494	71.06
277.726	81.06
277.957	80.06
278.189	75.06
278.421	76.06
278.652	77.06
278.884	80.06
279.115	76.06
279.347	84.06
279.579	78.06
279.81	82.06
280.042	86.06
280.273	85.06
280.505	73.06
280.736	76.06
280.968	83.06
281.199	88.06
281.431	77.06
281.662	80.06
281.894	83.06
282.125	75.06
282.356	81.06
282.588	72.06
282.819	78.06
283.051	69.06
283.282	70.06
283.513	81.06
283.745	75.06
283.976	85.06
284.207	82.06
284.439	101.06
284.67	96.06
284.901	74.06
285.132	74.06
285.364	90.06
285.595	103.06
285.826	75.06
286.057	97.06
286.288	82.06
286.52	93.06
286.751	87.06
286.982	79.06
287.213	68.06
287.444	71.06
287.675	86.06
287.906	82.06
288.138	86.06
288.369	86.06
288.6	78.06
288.831	79.06
289.062	74.06
289.293	94.06
289.524	95.06
289.755	69.06
289.986	86.06
290.217	83.06
290.448	92.06
290.679	82.06
290.91	83.06
291.141	71.06
291.371	88.06
291.602	85.06
291.833	79.06
292.064	84.06
292.295	95.06
292.526	103.06
292.757	88.06
292.987	84.06
293.218	78.06
293.449	91.06
293.68	76.06
293.91	91.06
294.141	90.06
294.372	78.06
294.603	91.06
294.833	90.06
295.064	91.06
295.295	79.06
295.525	72.06
295.756	79.06
295.987	76.06
296.217	80.06
296.448	81.06
296.679	74.06
296.909	73.06
297.14	76.06
297.37	79.06
297.601	80.06
297.831	88.06
298.062	85.06
298.292	86.06
298.523	85.06
298.753	78.06
298.984	78.06
299.214	85.06
299.445	77.06
299.675	82.06
299.905	83.06
300.136	69.06
300.366	70.06
300.597	86.06
300.827	75.06
301.057	78.06
301.288	92.06
301.518	81.06
301.748	85.06
301.979	88.06
302.209	79.06
302.439	79.06
302.669	76.06
302.9	96.06
303.13	97.06
303.36	78.06
303.59	78.06
303.82	88.06
304.051	96.06
304.281	77.06
304.511	82.06
304.741	88.06
304.971	72.06
305.201	70.06
305.431	77.06
305.661	79.06
305.891	81.06
306.121	74.06
306.352	66.06
306.582	73.06
306.812	77.06
307.042	90.06
307.272	77.06
307.502	79.06
307.731	90.06
307.961	83.06
308.191	88.06
308.421	71.06
308.651	82.06
308.881	79.06
309.111	90.06
309.341	81.06
309.571	89.06
309.8	81.06
310.03	88.06
310.26	79.06
310.49	79.06
310.72	77.06
310.949	91.06
311.179	87.06
311.409	69.06
311.639	74.06
311.868	80.06
312.098	98.06
312.328	82.06
312.557	85.06
312.787	72.06
313.017	79.06
313.246	85.06
313.476	90.06
313.706	83.06
313.935	76.06
314.165	87.06
314.394	87.06
314.624	77.06
314.853	82.06
315.083	75.06
315.312	77.06
315.542	78.06
315.771	73.06
316.001	91.06
316.23	89.06
316.46	88.06
316.689	86.06
316.919	79.06
317.148	82.06
317.377	86.06
317.607	91.06
317.836	81.06
318.065	73.06
318.295	84.06
318.524	90.06
318.753	88.06
318.983	70.06
319.212	80.06
319.441	85.06
319.67	79.06
319.9	80.06
320.129	78.06
320.358	75.06
320.587	89.06
320.816	83.06
321.046	77.06
321.275	84.06
321.504	86.06
321.733	90.06
321.962	86.06
322.191	67.06
322.42	89.06
322.649	81.06
322.878	74.06
323.108	90.06
323.337	89.06
323.566	80.06
323.795	93.06
324.024	67.06
324.253	83.06
324.482	75.06
324.71	93.06
324.939	79.06
325.168	78.06
325.397	80.06
325.626	76.06
325.855	80.06
326.084	73.06
326.313	99.06
326.542	86.06
326.77	76.06
326.999	71.06
327.228	79.06
327.457	95.06
327.686	70.06
327.914	79.06
328.143	76.06
328.372	68.06
328.6	89.06
328.829	79.06
329.058	89.06
329.287	87.06
329.515	83.06
329.744	90.06
329.972	99.06
330.201	97.06
330.43	84.06
330.658	82.06
330.887	85.06
331.115	89.06
331.344	87.06
331.572	80.06
331.801	69.06
332.03	76.06
332.258	90.06
332.486	75.06
332.715	78.06
332.943	82.06
333.172	75.06
333.4	81.06
333.629	81.06
333.857	90.06
334.085	83.06
334.314	83.06
334.542	83.06
334.771	89.06
334.999	86.06
335.227	82.06
335.455	79.06
335.684	96.06
335.912	98.06
336.14	83.06
336.369	98.06
336.597	82.06
336.825	76.06
337.053	70.06
337.281	59.06
337.51	86.06
337.738	68.06
337.966	81.06
338.194	83.06
338.422	80.06
338.65	75.06
338.878	86.06
339.106	66.06
339.334	78.06
339.562	71.06
339.79	76.06
340.018	85.06
340.246	79.06
340.474	82.06
340.702	76.06
340.93	74.06
341.158	82.06
341.386	83.06
341.614	76.06
341.842	74.06
342.07	87.06
342.298	74.06
342.526	86.06
342.754	81.06
342.981	96.06
343.209	94.06
343.437	95.06
343.665	78.06
343.893	79.06
344.12	93.06
344.348	88.06
344.576	79.06
344.804	81.06
345.031	87.06
345.259	77.06
345.487	82.06
345.714	85.06
345.942	86.06
346.17	80.06
346.397	78.06
346.625	84.06
346.853	86.06
347.08	86.06
347.308	78.06
347.535	89.06
347.763	88.06
347.99	82.06
348.218	93.06
348.445	77.06
348.673	85.06
348.9	85.06
349.128	90.06
349.355	76.06
349.583	85.06
349.81	93.06
350.037	99.06
350.265	87.06
350.492	66.06
350.72	70.06
350.947	81.06
351.174	85.06
351.402	75.06
351.629	89.06
351.856	78.06
352.083	68.06
352.311	73.06
352.538	86.06
352.765	77.06
352.992	98.06
353.22	96.06
353.447	80.06
353.674	83.06
353.901	75.06
354.128	74.06
354.355	83.06
354.583	85.06
354.81	83.06
355.037	69.06
355.264	80.06
355.491	73.06
355.718	89.06
355.945	87.06
356.172	85.06
356.399	81.06
356.626	83.06
356.853	75.06
357.08	86.06
357.307	93.06
357.534	87.06
357.761	76.06
357.988	86.06
358.215	94.06
358.441	98.06
358.668	85.06
358.895	100.06
359.122	89.06
359.349	74.06
359.576	77.06
359.802	87.06
360.029	93.06
360.256	84.06
360.483	84.06
360.709	84.06
360.936	86.06
361.163	80.06
361.39	79.06
361.616	75.06
361.843	87.06
362.07	81.06
362.296	75.06
362.523	87.06
362.749	77.06
362.976	74.06
363.203	89.06
363.429	81.06
363.656	75.06
363.882	75.06
364.109	88.06
364.335	111.06
364.562	97.06
364.788	91.06
365.015	77.06
365.241	89.06
365.468	82.06
365.694	91.06
365.92	87.06
366.147	101.06
366.373	91.06
366.599	84.06
366.826	72.06
367.052	88.06
367.278	86.06
367.505	95.06
367.731	92.06
367.957	72.06
368.184	82.06
368.41	87.06
368.636	87.06
368.862	81.06
369.089	75.06
369.315	74.06
369.541	88.06
369.767	91.06
369.993	87.06
370.219	88.06
370.445	97.06
370.672	80.06
370.898	70.06
371.124	71.06
371.35	88.06
371.576	89.06
371.802	90.06
372.028	82.06
372.254	96.06
372.48	83.06
372.706	73.06
372.932	76.06
373.158	84.06
373.384	89.06
373.61	90.06
373.835	86.06
374.061	84.06
374.287	82.06
374.513	83.06
374.739	77.06
374.965	82.06
375.191	82.06
375.416	82.06
375.642	78.06
375.868	95.06
376.094	81.06
376.319	89.06
376.545	82.06
376.771	84.06
376.997	80.06
377.222	80.06
377.448	90.06
377.674	83.06
377.899	83.06
378.125	72.06
378.35	79.06
378.576	82.06
378.802	76.06
379.027	90.06
379.253	93.06
379.478	72.06
379.704	87.06
379.929	83.06
380.155	97.06
380.38	85.06
380.606	97.06
380.831	83.06
381.057	93.06
381.282	87.06
381.507	72.06
381.733	84.06
381.958	87.06
382.184	85.06
382.409	82.06
382.634	88.06
382.86	89.06
383.085	87.06
383.31	86.06
383.535	89.06
383.761	93.06
383.986	87.06
384.211	82.06
384.436	97.06
384.662	85.06
384.887	75.06
385.112	85.06
385.337	81.06
385.562	89.06
385.787	88.06
386.013	94.06
386.238	84.06
386.463	82.06
386.688	89.06
386.913	89.06
387.138	67.06
387.363	98.06
387.588	70.06
387.813	88.06
388.038	85.06
388.263	81.06
388.488	74.06
388.713	80.06
388.938	76.06
389.163	89.06
389.387	74.06
389.612	90.06
389.837	98.06
390.062	80.06
390.287	89.06
390.512	77.06
390.736	87.06
390.961	74.06
391.186	81.06
391.411	80.06
391.636	70.06
391.86	74.06
392.085	93.06
392.31	93.06
392.534	96.06
392.759	105.06
392.984	93.06
393.208	124.06
393.433	160.06
393.658	145.06
393.882	94.06
394.107	85.06
394.331	90.06
394.556	94.06
394.78	86.06
395.005	87.06
395.229	89.06
395.454	90.06
395.678	74.06
395.903	99.06
396.127	118.06
396.352	102.06
396.576	104.06
396.801	134.06
397.025	148.06
397.249	93.06
397.474	103.06
397.698	80.06
397.922	97.06
398.147	80.06
398.371	72.06
398.595	84.06
398.82	86.06
399.044	84.06
399.268	88.06
399.492	80.06
399.717	98.06
399.941	77.06
400.165	96.06
400.389	80.06
400.613	94.06
400.837	85.06
401.062	96.06
401.286	71.06
401.51	79.06
401.734	94.06
401.958	79.06
402.182	74.06
402.406	85.06
402.63	97.06
402.854	75.06
403.078	84.06
403.302	95.06
403.526	84.06
403.75	81.06
403.974	83.06
404.198	99.06
404.422	96.06
404.645	113.06
404.869	96.06
405.093	101.06
405.317	76.06
405.541	77.06
405.765	84.06
405.988	89.06
406.212	88.06
406.436	71.06
406.66	83.06
406.883	74.06
407.107	83.06
407.331	78.06
407.555	67.06
407.778	74.06
408.002	95.06
408.226	81.06
408.449	76.06
408.673	81.06
408.896	92.06
409.12	75.06
409.344	80.06
409.567	79.06
409.791	73.06
410.014	87.06
410.238	75.06
410.461	74.06
410.685	85.06
410.908	85.06
411.132	101.06
411.355	92.06
411.578	90.06
411.802	100.06
412.025	82.06
412.249	76.06
412.472	80.06
412.695	84.06
412.919	96.06
413.142	88.06
413.365	88.06
413.589	91.06
413.812	75.06
414.035	86.06
414.258	92.06
414.482	76.06
414.705	70.06
414.928	87.06
415.151	87.06
415.374	86.06
415.597	89.06
415.821	94.06
416.044	87.06
416.267	98.06
416.49	85.06
416.713	80.06
416.936	69.06
417.159	91.06
417.382	76.06
417.605	73.06
417.828	76.06
418.051	86.06
418.274	86.06
418.497	80.06
418.72	67.06
418.943	87.06
419.166	73.06
419.389	100.06
419.611	85.06
419.834	83.06
420.057	84.06
420.28	83.06
420.503	93.06
420.726	68.06
420.948	88.06
421.171	87.06
421.394	79.06
421.617	97.06
421.839	109.06
422.062	110.06
422.285	125.06
422.507	203.06
422.73	247.06
422.953	226.06
423.175	153.06
423.398	123.06
423.621	95.06
423.843	90.06
424.066	95.06
424.288	84.06
424.511	90.06
424.733	63.06
424.956	83.06
425.178	95.06
425.401	86.06
425.623	91.06
425.846	67.06
426.068	74.06
426.291	76.06
426.513	88.06
426.735	81.06
426.958	92.06
427.18	88.06
427.402	106.06
427.625	79.06
427.847	81.06
428.069	100.06
428.292	97.06
428.514	108.06
428.736	94.06
428.958	99.06
429.181	122.06
429.403	97.06
429.625	87.06
429.847	117.06
430.069	119.06
430.292	132.06
430.514	127.06
430.736	107.06
430.958	117.06
431.18	81.06
431.402	65.06
431.624	86.06
431.846	109.06
432.068	95.06
432.29	76.06
432.512	80.06
432.734	89.06
432.956	80.06
433.178	86.06
433.4	81.06
433.622	86.06
433.844	77.06
434.066	65.06
434.287	73.06
434.509	83.06
434.731	87.06
434.953	80.06
435.175	93.06
435.397	83.06
435.618	90.06
435.84	95.06
436.062	81.06
436.284	93.06
436.505	82.06
436.727	95.06
436.949	71.06
437.17	73.06
437.392	88.06
437.614	75.06
437.835	92.06
438.057	85.06
438.278	80.06
438.5	85.06
438.721	80.06
438.943	86.06
439.165	79.06
439.386	73.06
439.608	87.06
439.829	85.06
440.05	80.06
440.272	89.06
440.493	80.06
440.715	81.06
440.936	79.06
441.158	81.06
441.379	89.06
441.6	102.06
441.822	86.06
442.043	79.06
442.264	89.06
442.486	106.06
442.707	129.06
442.928	95.06
443.149	97.06
443.371	113.06
443.592	178.06
443.813	163.06
444.034	88.06
444.255	97.06
444.476	89.06
444.698	86.06
444.919	88.06
445.14	169.06
445.361	178.06
445.582	195.06
445.803	177.06
446.024	112.06
446.245	84.06
446.466	97.06
446.687	98.06
446.908	89.06
447.129	89.06
447.35	96.06
447.571	94.06
447.792	85.06
448.013	87.06
448.234	83.06
448.455	73.06
448.675	76.06
448.896	81.06
449.117	82.06
449.338	86.06
449.559	85.06
449.779	88.06
450	57.06
450.221	85.06
450.442	89.06
450.662	87.06
450.883	79.06
451.104	78.06
451.324	92.06
451.545	69.06
451.766	76.06
451.986	66.06
452.207	80.06
452.428	88.06
452.648	73.06
452.869	80.06
453.089	85.06
453.31	82.06
453.53	98.06
453.751	73.06
453.971	95.06
454.192	82.06
454.412	70.06
454.633	75.06
454.853	82.06
455.073	78.06
455.294	82.06
455.514	88.06
455.734	76.06
455.955	86.06
456.175	82.06
456.395	70.06
456.616	67.06
456.836	72.06
457.056	77.06
457.276	75.06
457.497	93.06
457.717	90.06
457.937	98.06
458.157	90.06
458.377	91.06
458.598	93.06
458.818	102.06
459.038	94.06
459.258	70.06
459.478	87.06
459.698	85.06
459.918	82.06
460.138	85.06
460.358	77.06
460.578	92.06
460.798	112.06
461.018	111.06
461.238	86.06
461.458	81.06
461.678	69.06
461.898	89.06
462.118	75.06
462.338	85.06
462.558	77.06
462.777	74.06
462.997	79.06
463.217	67.06
463.437	88.06
463.657	79.06
463.876	87.06
464.096	84.06
464.316	80.06
464.536	73.06
464.755	93.06
464.975	96.06
465.195	76.06
465.414	81.06
465.634	78.06
465.854	81.06
466.073	72.06
466.293	93.06
466.512	86.06
466.732	106.06
466.951	86.06
467.171	74.06
467.391	90.06
467.61	89.06
467.829	98.06
468.049	91.06
468.268	86.06
468.488	88.06
468.707	73.06
468.927	74.06
469.146	85.06
469.365	75.06
469.585	79.06
469.804	85.06
470.023	74.06
470.243	82.06
470.462	86.06
470.681	93.06
470.901	90.06
471.12	71.06
471.339	73.06
471.558	72.06
471.777	71.06
471.997	85.06
472.216	69.06
472.435	75.06
472.654	71.06
472.873	82.06
473.092	88.06
473.311	84.06
473.53	88.06
473.749	72.06
473.968	79.06
474.187	90.06
474.406	82.06
474.625	91.06
474.844	88.06
475.063	81.06
475.282	80.06
475.501	101.06
475.72	94.06
475.939	84.06
476.158	66.06
476.377	85.06
476.596	74.06
476.814	76.06
477.033	99.06
477.252	79.06
477.471	81.06
477.69	85.06
477.908	81.06
478.127	96.06
478.346	97.06
478.564	87.06
478.783	78.06
479.002	84.06
479.22	78.06
479.439	79.06
479.658	69.06
479.876	68.06
480.095	75.06
480.313	94.06
480.532	87.06
480.751	82.06
480.969	84.06
481.188	84.06
481.406	79.06
481.624	85.06
481.843	80.06
482.061	89.06
482.28	80.06
482.498	81.06
482.717	82.06
482.935	81.06
483.153	81.06
483.372	82.06
483.59	96.06
483.808	82.06
484.027	78.06
484.245	82.06
484.463	87.06
484.681	79.06
484.9	80.06
485.118	102.06
485.336	86.06
485.554	83.06
485.772	77.06
485.99	93.06
486.209	85.06
486.427	77.06
486.645	80.06
486.863	96.06
487.081	97.06
487.299	75.06
487.517	97.06
487.735	94.06
487.953	117.06
488.171	105.06
488.389	91.06
488.607	82.06
488.825	74.06
489.043	87.06
489.261	83.06
489.479	84.06
489.696	93.06
489.914	83.06
490.132	85.06
490.35	99.06
490.568	81.06
490.786	94.06
491.003	72.06
491.221	77.06
491.439	81.06
491.657	73.06
491.874	81.06
492.092	66.06
492.31	79.06
492.527	63.06
492.745	79.06
492.963	81.06
493.18	83.06
493.398	79.06
493.615	78.06
493.833	85.06
494.05	94.06
494.268	89.06
494.485	90.06
494.703	90.06
494.92	85.06
495.138	57.06
495.355	87.06
495.573	89.06
495.79	80.06
496.008	79.06
496.225	89.06
496.442	83.06
496.66	87.06
496.877	86.06
497.094	103.06
497.312	82.06
497.529	73.06
497.746	69.06
497.963	96.06
498.181	86.06
498.398	89.06
498.615	85.06
498.832	80.06
499.049	73.06
499.267	101.06
499.484	84.06
499.701	85.06
499.918	85.06
500.135	82.06
500.352	77.06
500.569	81.06
500.786	92.06
501.003	83.06
501.22	72.06
501.437	91.06
501.654	89.06
501.871	84.06
502.088	83.06
502.305	93.06
502.522	89.06
502.739	90.06
502.956	87.06
503.172	83.06
503.389	82.06
503.606	88.06
503.823	93.06
504.04	81.06
504.256	96.06
504.473	86.06
504.69	90.06
504.907	85.06
505.123	84.06
505.34	77.06
505.557	91.06
505.773	97.06
505.99	83.06
506.207	83.06
506.423	74.06
506.64	93.06
506.856	79.06
507.073	72.06
507.289	98.06
507.506	76.06
507.722	92.06
507.939	96.06
508.155	76.06
508.372	75.06
508.588	73.06
508.805	95.06
509.021	66.06
509.238	89.06
509.454	87.06
509.67	93.06
509.887	89.06
510.103	100.06
510.319	68.06
510.536	76.06
510.752	92.06
510.968	74.06
511.184	82.06
511.401	81.06
511.617	102.06
511.833	81.06
512.049	75.06
512.265	78.06
512.481	87.06
512.698	80.06
512.914	75.06
513.13	83.06
513.346	85.06
513.562	81.06
513.778	92.06
513.994	81.06
514.21	89.06
514.426	75.06
514.642	82.06
514.858	89.06
515.074	75.06
515.29	73.06
515.506	85.06
515.721	80.06
515.937	102.06
516.153	89.06
516.369	79.06
516.585	89.06
516.801	88.06
517.016	79.06
517.232	101.06
517.448	88.06
517.664	88.06
517.879	74.06
518.095	103.06
518.311	95.06
518.527	104.06
518.742	95.06
518.958	109.06
519.173	120.06
519.389	96.06
