Data from 2145_3_HRD10591_00050.txt Node
Date: Mon Jan 19 14:23:32 EST 2026
User: Yrep
Spectrometer: HR+D1059
Trigger mode: 1
Integration Time (sec): 1.000000E-1
Scans to average: 1
Electric dark correction enabled: true
Nonlinearity correction enabled: false
Boxcar width: 0
XAxis mode: Wavelengths
Number of Pixels in Spectrum: 2048
>>>>>Begin Spectral Data<<<<<
223.165	-16.19
223.4	-16.19
223.635	-16.19
223.869	-24.19
224.104	-18.19
224.338	-4.19
224.573	-10.19
224.808	-16.19
225.042	-12.19
225.277	7.81
225.511	18.81
225.746	1.81
225.98	1.81
226.215	8.81
226.449	10.81
226.683	15.81
226.918	20.81
227.152	14.81
227.387	37.81
227.621	40.81
227.856	46.81
228.09	32.81
228.324	51.81
228.559	55.81
228.793	65.81
229.027	49.81
229.262	63.81
229.496	65.81
229.73	79.81
229.964	81.81
230.199	74.81
230.433	73.81
230.667	80.81
230.901	77.81
231.136	72.81
231.37	83.81
231.604	83.81
231.838	92.81
232.072	71.81
232.306	75.81
232.541	75.81
232.775	93.81
233.009	83.81
233.243	97.81
233.477	73.81
233.711	83.81
233.945	79.81
234.179	76.81
234.413	80.81
234.647	79.81
234.881	77.81
235.115	68.81
235.349	79.81
235.583	69.81
235.817	76.81
236.051	78.81
236.285	73.81
236.519	71.81
236.753	61.81
236.987	72.81
237.221	90.81
237.455	65.81
237.689	66.81
237.922	66.81
238.156	65.81
238.39	55.81
238.624	69.81
238.858	69.81
239.091	75.81
239.325	62.81
239.559	83.81
239.793	57.81
240.027	76.81
240.26	72.81
240.494	64.81
240.728	59.81
240.961	87.81
241.195	75.81
241.429	81.81
241.662	58.81
241.896	81.81
242.13	75.81
242.363	69.81
242.597	81.81
242.83	83.81
243.064	82.81
243.298	83.81
243.531	87.81
243.765	75.81
243.998	73.81
244.232	68.81
244.465	77.81
244.699	86.81
244.932	56.81
245.166	74.81
245.399	65.81
245.633	85.81
245.866	68.81
246.099	72.81
246.333	66.81
246.566	80.81
246.8	73.81
247.033	65.81
247.266	75.81
247.5	69.81
247.733	79.81
247.966	68.81
248.2	75.81
248.433	71.81
248.666	80.81
248.899	66.81
249.133	80.81
249.366	83.81
249.599	75.81
249.832	77.81
250.066	74.81
250.299	76.81
250.532	72.81
250.765	69.81
250.998	71.81
251.231	68.81
251.465	77.81
251.698	77.81
251.931	80.81
252.164	76.81
252.397	84.81
252.63	87.81
252.863	76.81
253.096	73.81
253.329	65.81
253.562	63.81
253.795	70.81
254.028	79.81
254.261	79.81
254.494	78.81
254.727	79.81
254.96	76.81
255.193	75.81
255.426	64.81
255.659	81.81
255.892	80.81
256.124	84.81
256.357	81.81
256.59	91.81
256.823	69.81
257.056	73.81
257.289	70.81
257.521	82.81
257.754	67.81
257.987	81.81
258.22	78.81
258.452	81.81
258.685	76.81
258.918	70.81
259.151	75.81
259.383	83.81
259.616	78.81
259.849	90.81
260.081	86.81
260.314	88.81
260.547	83.81
260.779	82.81
261.012	86.81
261.244	82.81
261.477	86.81
261.71	68.81
261.942	72.81
262.175	82.81
262.407	69.81
262.64	80.81
262.872	86.81
263.105	81.81
263.337	72.81
263.57	78.81
263.802	81.81
264.035	72.81
264.267	71.81
264.499	88.81
264.732	92.81
264.964	84.81
265.197	82.81
265.429	85.81
265.661	82.81
265.894	85.81
266.126	92.81
266.358	90.81
266.591	80.81
266.823	79.81
267.055	63.81
267.287	74.81
267.52	77.81
267.752	78.81
267.984	76.81
268.216	69.81
268.448	74.81
268.681	75.81
268.913	84.81
269.145	69.81
269.377	77.81
269.609	73.81
269.841	83.81
270.073	77.81
270.306	73.81
270.538	76.81
270.77	88.81
271.002	76.81
271.234	59.81
271.466	85.81
271.698	84.81
271.93	73.81
272.162	74.81
272.394	84.81
272.626	66.81
272.858	82.81
273.09	77.81
273.322	92.81
273.553	79.81
273.785	81.81
274.017	69.81
274.249	67.81
274.481	69.81
274.713	78.81
274.945	80.81
275.176	87.81
275.408	79.81
275.64	83.81
275.872	82.81
276.104	80.81
276.335	86.81
276.567	68.81
276.799	79.81
277.031	82.81
277.262	86.81
277.494	86.81
277.726	74.81
277.957	66.81
278.189	79.81
278.421	83.81
278.652	82.81
278.884	78.81
279.115	84.81
279.347	72.81
279.579	86.81
279.81	88.81
280.042	84.81
280.273	91.81
280.505	80.81
280.736	71.81
280.968	89.81
281.199	74.81
281.431	85.81
281.662	73.81
281.894	85.81
282.125	72.81
282.356	72.81
282.588	87.81
282.819	82.81
283.051	76.81
283.282	82.81
283.513	84.81
283.745	71.81
283.976	78.81
284.207	63.81
284.439	79.81
284.67	75.81
284.901	73.81
285.132	70.81
285.364	101.81
285.595	84.81
285.826	72.81
286.057	85.81
286.288	81.81
286.52	81.81
286.751	87.81
286.982	82.81
287.213	85.81
287.444	75.81
287.675	82.81
287.906	67.81
288.138	84.81
288.369	75.81
288.6	86.81
288.831	86.81
289.062	73.81
289.293	83.81
289.524	74.81
289.755	102.81
289.986	82.81
290.217	75.81
290.448	72.81
290.679	83.81
290.91	86.81
291.141	67.81
291.371	91.81
291.602	75.81
291.833	90.81
292.064	78.81
292.295	82.81
292.526	87.81
292.757	93.81
292.987	87.81
293.218	73.81
293.449	81.81
293.68	85.81
293.91	87.81
294.141	84.81
294.372	84.81
294.603	82.81
294.833	84.81
295.064	81.81
295.295	76.81
295.525	82.81
295.756	70.81
295.987	82.81
296.217	91.81
296.448	88.81
296.679	90.81
296.909	69.81
297.14	81.81
297.37	76.81
297.601	80.81
297.831	80.81
298.062	79.81
298.292	89.81
298.523	83.81
298.753	85.81
298.984	93.81
299.214	85.81
299.445	89.81
299.675	83.81
299.905	81.81
300.136	83.81
300.366	78.81
300.597	75.81
300.827	93.81
301.057	81.81
301.288	81.81
301.518	78.81
301.748	83.81
301.979	78.81
302.209	81.81
302.439	79.81
302.669	82.81
302.9	80.81
303.13	79.81
303.36	81.81
303.59	81.81
303.82	81.81
304.051	80.81
304.281	79.81
304.511	83.81
304.741	74.81
304.971	97.81
305.201	97.81
305.431	72.81
305.661	81.81
305.891	84.81
306.121	81.81
306.352	86.81
306.582	86.81
306.812	85.81
307.042	86.81
307.272	82.81
307.502	81.81
307.731	86.81
307.961	85.81
308.191	97.81
308.421	83.81
308.651	76.81
308.881	78.81
309.111	74.81
309.341	93.81
309.571	90.81
309.8	74.81
310.03	77.81
310.26	77.81
310.49	88.81
310.72	80.81
310.949	83.81
311.179	89.81
311.409	81.81
311.639	86.81
311.868	87.81
312.098	85.81
312.328	77.81
312.557	92.81
312.787	94.81
313.017	88.81
313.246	97.81
313.476	82.81
313.706	93.81
313.935	87.81
314.165	95.81
314.394	92.81
314.624	81.81
314.853	92.81
315.083	78.81
315.312	83.81
315.542	89.81
315.771	99.81
316.001	81.81
316.23	91.81
316.46	89.81
316.689	73.81
316.919	68.81
317.148	74.81
317.377	95.81
317.607	87.81
317.836	91.81
318.065	90.81
318.295	90.81
318.524	83.81
318.753	87.81
318.983	83.81
319.212	84.81
319.441	90.81
319.67	96.81
319.9	93.81
320.129	84.81
320.358	83.81
320.587	83.81
320.816	82.81
321.046	96.81
321.275	86.81
321.504	81.81
321.733	103.81
321.962	103.81
322.191	89.81
322.42	90.81
322.649	96.81
322.878	76.81
323.108	93.81
323.337	84.81
323.566	82.81
323.795	85.81
324.024	81.81
324.253	96.81
324.482	79.81
324.71	81.81
324.939	87.81
325.168	97.81
325.397	87.81
325.626	85.81
325.855	73.81
326.084	72.81
326.313	86.81
326.542	75.81
326.77	74.81
326.999	86.81
327.228	93.81
327.457	69.81
327.686	90.81
327.914	95.81
328.143	84.81
328.372	66.81
328.6	69.81
328.829	84.81
329.058	89.81
329.287	80.81
329.515	95.81
329.744	84.81
329.972	74.81
330.201	83.81
330.43	84.81
330.658	77.81
330.887	93.81
331.115	83.81
331.344	78.81
331.572	88.81
331.801	81.81
332.03	88.81
332.258	83.81
332.486	79.81
332.715	80.81
332.943	91.81
333.172	89.81
333.4	67.81
333.629	84.81
333.857	77.81
334.085	76.81
334.314	80.81
334.542	107.81
334.771	102.81
334.999	96.81
335.227	89.81
335.455	86.81
335.684	99.81
335.912	101.81
336.14	87.81
336.369	90.81
336.597	89.81
336.825	89.81
337.053	85.81
337.281	71.81
337.51	82.81
337.738	91.81
337.966	82.81
338.194	80.81
338.422	85.81
338.65	81.81
338.878	82.81
339.106	109.81
339.334	85.81
339.562	72.81
339.79	85.81
340.018	90.81
340.246	85.81
340.474	72.81
340.702	92.81
340.93	83.81
341.158	95.81
341.386	81.81
341.614	86.81
341.842	78.81
342.07	82.81
342.298	85.81
342.526	76.81
342.754	84.81
342.981	80.81
343.209	100.81
343.437	81.81
343.665	74.81
343.893	74.81
344.12	87.81
344.348	88.81
344.576	71.81
344.804	85.81
345.031	91.81
345.259	77.81
345.487	85.81
345.714	81.81
345.942	87.81
346.17	83.81
346.397	73.81
346.625	81.81
346.853	81.81
347.08	90.81
347.308	89.81
347.535	67.81
347.763	75.81
347.99	84.81
348.218	84.81
348.445	81.81
348.673	78.81
348.9	93.81
349.128	104.81
349.355	85.81
349.583	80.81
349.81	83.81
350.037	76.81
350.265	77.81
350.492	75.81
350.72	81.81
350.947	86.81
351.174	79.81
351.402	70.81
351.629	93.81
351.856	86.81
352.083	87.81
352.311	98.81
352.538	61.81
352.765	82.81
352.992	81.81
353.22	74.81
353.447	91.81
353.674	88.81
353.901	77.81
354.128	89.81
354.355	83.81
354.583	82.81
354.81	88.81
355.037	91.81
355.264	78.81
355.491	76.81
355.718	85.81
355.945	82.81
356.172	76.81
356.399	80.81
356.626	85.81
356.853	80.81
357.08	99.81
357.307	84.81
357.534	77.81
357.761	92.81
357.988	91.81
358.215	90.81
358.441	81.81
358.668	98.81
358.895	68.81
359.122	73.81
359.349	94.81
359.576	85.81
359.802	83.81
360.029	87.81
360.256	80.81
360.483	80.81
360.709	88.81
360.936	94.81
361.163	76.81
361.39	86.81
361.616	93.81
361.843	87.81
362.07	83.81
362.296	89.81
362.523	83.81
362.749	88.81
362.976	110.81
363.203	113.81
363.429	92.81
363.656	98.81
363.882	105.81
364.109	102.81
364.335	103.81
364.562	124.81
364.788	97.81
365.015	73.81
365.241	85.81
365.468	94.81
365.694	78.81
365.92	80.81
366.147	95.81
366.373	81.81
366.599	69.81
366.826	91.81
367.052	87.81
367.278	90.81
367.505	87.81
367.731	90.81
367.957	77.81
368.184	93.81
368.41	84.81
368.636	78.81
368.862	74.81
369.089	79.81
369.315	79.81
369.541	81.81
369.767	87.81
369.993	100.81
370.219	68.81
370.445	90.81
370.672	93.81
370.898	89.81
371.124	85.81
371.35	73.81
371.576	79.81
371.802	77.81
372.028	88.81
372.254	103.81
372.48	100.81
372.706	84.81
372.932	99.81
373.158	97.81
373.384	87.81
373.61	97.81
373.835	94.81
374.061	90.81
374.287	79.81
374.513	81.81
374.739	91.81
374.965	95.81
375.191	79.81
375.416	79.81
375.642	89.81
375.868	87.81
376.094	80.81
376.319	85.81
376.545	93.81
376.771	90.81
376.997	87.81
377.222	84.81
377.448	87.81
377.674	96.81
377.899	92.81
378.125	86.81
378.35	78.81
378.576	89.81
378.802	93.81
379.027	84.81
379.253	88.81
379.478	78.81
379.704	79.81
379.929	79.81
380.155	65.81
380.38	90.81
380.606	83.81
380.831	95.81
381.057	91.81
381.282	76.81
381.507	95.81
381.733	83.81
381.958	101.81
382.184	87.81
382.409	96.81
382.634	94.81
382.86	91.81
383.085	81.81
383.31	96.81
383.535	89.81
383.761	95.81
383.986	77.81
384.211	91.81
384.436	95.81
384.662	82.81
384.887	65.81
385.112	89.81
385.337	90.81
385.562	75.81
385.787	83.81
386.013	65.81
386.238	89.81
386.463	89.81
386.688	102.81
386.913	87.81
387.138	80.81
387.363	99.81
387.588	87.81
387.813	104.81
388.038	90.81
388.263	89.81
388.488	96.81
388.713	98.81
388.938	75.81
389.163	80.81
389.387	65.81
389.612	87.81
389.837	96.81
390.062	94.81
390.287	84.81
390.512	90.81
390.736	76.81
390.961	75.81
391.186	85.81
391.411	87.81
391.636	97.81
391.86	88.81
392.085	83.81
392.31	90.81
392.534	107.81
392.759	107.81
392.984	110.81
393.208	177.81
393.433	211.81
393.658	168.81
393.882	122.81
394.107	82.81
394.331	103.81
394.556	92.81
394.78	93.81
395.005	94.81
395.229	82.81
395.454	82.81
395.678	109.81
395.903	118.81
396.127	128.81
396.352	137.81
396.576	123.81
396.801	162.81
397.025	215.81
397.249	138.81
397.474	91.81
397.698	102.81
397.922	84.81
398.147	92.81
398.371	98.81
398.595	83.81
398.82	89.81
399.044	89.81
399.268	81.81
399.492	79.81
399.717	75.81
399.941	79.81
400.165	103.81
400.389	91.81
400.613	70.81
400.837	79.81
401.062	77.81
401.286	90.81
401.51	77.81
401.734	77.81
401.958	80.81
402.182	97.81
402.406	82.81
402.63	89.81
402.854	89.81
403.078	83.81
403.302	79.81
403.526	83.81
403.75	97.81
403.974	87.81
404.198	102.81
404.422	133.81
404.645	139.81
404.869	109.81
405.093	89.81
405.317	86.81
405.541	80.81
405.765	85.81
405.988	85.81
406.212	85.81
406.436	90.81
406.66	87.81
406.883	75.81
407.107	80.81
407.331	88.81
407.555	101.81
407.778	107.81
408.002	94.81
408.226	83.81
408.449	101.81
408.673	104.81
408.896	92.81
409.12	76.81
409.344	84.81
409.567	91.81
409.791	96.81
410.014	99.81
410.238	112.81
410.461	90.81
410.685	83.81
410.908	83.81
411.132	101.81
411.355	75.81
411.578	89.81
411.802	81.81
412.025	81.81
412.249	87.81
412.472	66.81
412.695	82.81
412.919	70.81
413.142	75.81
413.365	93.81
413.589	83.81
413.812	83.81
414.035	75.81
414.258	85.81
414.482	87.81
414.705	82.81
414.928	90.81
415.151	83.81
415.374	81.81
415.597	75.81
415.821	87.81
416.044	74.81
416.267	94.81
416.49	75.81
416.713	83.81
416.936	73.81
417.159	91.81
417.382	77.81
417.605	81.81
417.828	72.81
418.051	84.81
418.274	97.81
418.497	83.81
418.72	88.81
418.943	76.81
419.166	90.81
419.389	89.81
419.611	70.81
419.834	87.81
420.057	85.81
420.28	91.81
420.503	81.81
420.726	94.81
420.948	79.81
421.171	93.81
421.394	112.81
421.617	112.81
421.839	115.81
422.062	135.81
422.285	158.81
422.507	264.81
422.73	351.81
422.953	340.81
423.175	215.81
423.398	138.81
423.621	122.81
423.843	99.81
424.066	90.81
424.288	93.81
424.511	93.81
424.733	81.81
424.956	98.81
425.178	81.81
425.401	97.81
425.623	86.81
425.846	85.81
426.068	84.81
426.291	104.81
426.513	74.81
426.735	90.81
426.958	93.81
427.18	89.81
427.402	90.81
427.625	68.81
427.847	96.81
428.069	98.81
428.292	117.81
428.514	125.81
428.736	116.81
428.958	128.81
429.181	128.81
429.403	89.81
429.625	99.81
429.847	111.81
430.069	145.81
430.292	174.81
430.514	152.81
430.736	123.81
430.958	137.81
431.18	119.81
431.402	82.81
431.624	101.81
431.846	125.81
432.068	128.81
432.29	91.81
432.512	97.81
432.734	72.81
432.956	90.81
433.178	94.81
433.4	86.81
433.622	86.81
433.844	75.81
434.066	73.81
434.287	84.81
434.509	81.81
434.731	83.81
434.953	88.81
435.175	67.81
435.397	81.81
435.618	99.81
435.84	81.81
436.062	95.81
436.284	86.81
436.505	70.81
436.727	66.81
436.949	82.81
437.17	85.81
437.392	77.81
437.614	75.81
437.835	77.81
438.057	78.81
438.278	90.81
438.5	94.81
438.721	98.81
438.943	82.81
439.165	79.81
439.386	75.81
439.608	81.81
439.829	79.81
440.05	84.81
440.272	83.81
440.493	83.81
440.715	73.81
440.936	81.81
441.158	78.81
441.379	91.81
441.6	81.81
441.822	90.81
442.043	87.81
442.264	85.81
442.486	121.81
442.707	161.81
442.928	117.81
443.149	112.81
443.371	152.81
443.592	254.81
443.813	199.81
444.034	123.81
444.255	79.81
444.476	83.81
444.698	89.81
444.919	105.81
445.14	207.81
445.361	221.81
445.582	289.81
445.803	254.81
446.024	98.81
446.245	85.81
446.466	79.81
446.687	74.81
446.908	79.81
447.129	85.81
447.35	90.81
447.571	85.81
447.792	69.81
448.013	85.81
448.234	84.81
448.455	87.81
448.675	65.81
448.896	73.81
449.117	82.81
449.338	76.81
449.559	81.81
449.779	85.81
450	84.81
450.221	91.81
450.442	81.81
450.662	78.81
450.883	82.81
451.104	95.81
451.324	90.81
451.545	79.81
451.766	85.81
451.986	75.81
452.207	83.81
452.428	89.81
452.648	104.81
452.869	95.81
453.089	92.81
453.31	94.81
453.53	94.81
453.751	107.81
453.971	87.81
454.192	86.81
454.412	71.81
454.633	88.81
454.853	76.81
455.073	88.81
455.294	91.81
455.514	83.81
455.734	89.81
455.955	77.81
456.175	90.81
456.395	87.81
456.616	79.81
456.836	82.81
457.056	82.81
457.276	81.81
457.497	76.81
457.717	88.81
457.937	109.81
458.157	118.81
458.377	131.81
458.598	117.81
458.818	131.81
459.038	86.81
459.258	75.81
459.478	85.81
459.698	67.81
459.918	75.81
460.138	95.81
460.358	85.81
460.578	97.81
460.798	116.81
461.018	124.81
461.238	69.81
461.458	89.81
461.678	81.81
461.898	90.81
462.118	77.81
462.338	80.81
462.558	87.81
462.777	87.81
462.997	74.81
463.217	72.81
463.437	80.81
463.657	82.81
463.876	83.81
464.096	86.81
464.316	67.81
464.536	81.81
464.755	71.81
464.975	81.81
465.195	85.81
465.414	77.81
465.634	91.81
465.854	80.81
466.073	85.81
466.293	71.81
466.512	84.81
466.732	75.81
466.951	73.81
467.171	77.81
467.391	75.81
467.61	75.81
467.829	80.81
468.049	79.81
468.268	76.81
468.488	85.81
468.707	101.81
468.927	72.81
469.146	81.81
469.365	86.81
469.585	93.81
469.804	77.81
470.023	69.81
470.243	92.81
470.462	81.81
470.681	75.81
470.901	69.81
471.12	94.81
471.339	83.81
471.558	73.81
471.777	75.81
471.997	85.81
472.216	83.81
472.435	75.81
472.654	71.81
472.873	95.81
473.092	67.81
473.311	80.81
473.53	89.81
473.749	93.81
473.968	88.81
474.187	85.81
474.406	67.81
474.625	85.81
474.844	97.81
475.063	90.81
475.282	86.81
475.501	69.81
475.72	92.81
475.939	79.81
476.158	87.81
476.377	80.81
476.596	77.81
476.814	77.81
477.033	70.81
477.252	90.81
477.471	91.81
477.69	111.81
477.908	76.81
478.127	93.81
478.346	100.81
478.564	85.81
478.783	87.81
479.002	101.81
479.22	70.81
479.439	87.81
479.658	63.81
479.876	88.81
480.095	91.81
480.313	75.81
480.532	98.81
480.751	76.81
480.969	68.81
481.188	87.81
481.406	87.81
481.624	70.81
481.843	82.81
482.061	84.81
482.28	84.81
482.498	83.81
482.717	86.81
482.935	88.81
483.153	82.81
483.372	95.81
483.59	81.81
483.808	78.81
484.027	104.81
484.245	81.81
484.463	92.81
484.681	69.81
484.9	75.81
485.118	91.81
485.336	96.81
485.554	81.81
485.772	78.81
485.99	77.81
486.209	94.81
486.427	74.81
486.645	88.81
486.863	83.81
487.081	102.81
487.299	104.81
487.517	89.81
487.735	112.81
487.953	168.81
488.171	135.81
488.389	87.81
488.607	99.81
488.825	94.81
489.043	83.81
489.261	84.81
489.479	89.81
489.696	88.81
489.914	87.81
490.132	79.81
490.35	91.81
490.568	86.81
490.786	77.81
491.003	85.81
491.221	79.81
491.439	82.81
491.657	79.81
491.874	90.81
492.092	88.81
492.31	91.81
492.527	86.81
492.745	87.81
492.963	93.81
493.18	79.81
493.398	86.81
493.615	76.81
493.833	87.81
494.05	74.81
494.268	88.81
494.485	83.81
494.703	91.81
494.92	69.81
495.138	81.81
495.355	89.81
495.573	82.81
495.79	79.81
496.008	80.81
496.225	84.81
496.442	89.81
496.66	88.81
496.877	92.81
497.094	79.81
497.312	101.81
497.529	88.81
497.746	83.81
497.963	89.81
498.181	107.81
498.398	107.81
498.615	83.81
498.832	86.81
499.049	83.81
499.267	102.81
499.484	92.81
499.701	91.81
499.918	84.81
500.135	94.81
500.352	89.81
500.569	93.81
500.786	90.81
501.003	85.81
501.22	90.81
501.437	88.81
501.654	105.81
501.871	87.81
502.088	83.81
502.305	87.81
502.522	80.81
502.739	94.81
502.956	85.81
503.172	76.81
503.389	80.81
503.606	99.81
503.823	91.81
504.04	85.81
504.256	117.81
504.473	123.81
504.69	104.81
504.907	93.81
505.123	77.81
505.34	83.81
505.557	84.81
505.773	90.81
505.99	86.81
506.207	100.81
506.423	75.81
506.64	88.81
506.856	80.81
507.073	79.81
507.289	85.81
507.506	89.81
507.722	89.81
507.939	92.81
508.155	73.81
508.372	83.81
508.588	82.81
508.805	94.81
509.021	94.81
509.238	92.81
509.454	89.81
509.67	90.81
509.887	82.81
510.103	90.81
510.319	77.81
510.536	89.81
510.752	87.81
510.968	95.81
511.184	94.81
511.401	91.81
511.617	86.81
511.833	84.81
512.049	76.81
512.265	90.81
512.481	82.81
512.698	93.81
512.914	76.81
513.13	85.81
513.346	81.81
513.562	97.81
513.778	85.81
513.994	71.81
514.21	79.81
514.426	91.81
514.642	89.81
514.858	81.81
515.074	76.81
515.29	84.81
515.506	91.81
515.721	84.81
515.937	85.81
516.153	77.81
516.369	103.81
516.585	99.81
516.801	86.81
517.016	92.81
517.232	75.81
517.448	90.81
517.664	85.81
517.879	91.81
518.095	103.81
518.311	91.81
518.527	96.81
