Data from 2145_3_HRD10591_00024.txt Node
Date: Mon Jan 19 14:23:19 EST 2026
User: Yrep
Spectrometer: HR+D1059
Trigger mode: 1
Integration Time (sec): 1.000000E-1
Scans to average: 1
Electric dark correction enabled: true
Nonlinearity correction enabled: false
Boxcar width: 0
XAxis mode: Wavelengths
Number of Pixels in Spectrum: 2048
>>>>>Begin Spectral Data<<<<<
223.165	-20.44
223.4	-20.44
223.635	-20.44
223.869	-23.44
224.104	-8.44
224.338	-11.44
224.573	-11.44
224.808	-22.44
225.042	-19.44
225.277	-13.44
225.511	5.56
225.746	16.56
225.98	11.56
226.215	4.56
226.449	21.56
226.683	15.56
226.918	29.56
227.152	25.56
227.387	44.56
227.621	40.56
227.856	37.56
228.09	58.56
228.324	52.56
228.559	47.56
228.793	60.56
229.027	67.56
229.262	68.56
229.496	69.56
229.73	66.56
229.964	64.56
230.199	71.56
230.433	79.56
230.667	77.56
230.901	70.56
231.136	95.56
231.37	71.56
231.604	82.56
231.838	77.56
232.072	74.56
232.306	79.56
232.541	85.56
232.775	74.56
233.009	86.56
233.243	78.56
233.477	81.56
233.711	79.56
233.945	85.56
234.179	85.56
234.413	91.56
234.647	83.56
234.881	80.56
235.115	75.56
235.349	74.56
235.583	70.56
235.817	85.56
236.051	95.56
236.285	76.56
236.519	84.56
236.753	84.56
236.987	76.56
237.221	80.56
237.455	68.56
237.689	89.56
237.922	77.56
238.156	74.56
238.39	78.56
238.624	85.56
238.858	74.56
239.091	79.56
239.325	67.56
239.559	80.56
239.793	82.56
240.027	90.56
240.26	79.56
240.494	78.56
240.728	90.56
240.961	94.56
241.195	70.56
241.429	80.56
241.662	69.56
241.896	78.56
242.13	73.56
242.363	73.56
242.597	79.56
242.83	92.56
243.064	80.56
243.298	92.56
243.531	85.56
243.765	91.56
243.998	84.56
244.232	82.56
244.465	70.56
244.699	74.56
244.932	76.56
245.166	86.56
245.399	74.56
245.633	86.56
245.866	87.56
246.099	98.56
246.333	86.56
246.566	75.56
246.8	89.56
247.033	84.56
247.266	81.56
247.5	72.56
247.733	72.56
247.966	76.56
248.2	84.56
248.433	77.56
248.666	79.56
248.899	78.56
249.133	82.56
249.366	84.56
249.599	95.56
249.832	81.56
250.066	74.56
250.299	80.56
250.532	88.56
250.765	79.56
250.998	80.56
251.231	76.56
251.465	86.56
251.698	81.56
251.931	75.56
252.164	93.56
252.397	80.56
252.63	86.56
252.863	78.56
253.096	79.56
253.329	85.56
253.562	92.56
253.795	92.56
254.028	85.56
254.261	64.56
254.494	80.56
254.727	96.56
254.96	78.56
255.193	70.56
255.426	76.56
255.659	86.56
255.892	104.56
256.124	74.56
256.357	88.56
256.59	94.56
256.823	80.56
257.056	86.56
257.289	82.56
257.521	91.56
257.754	78.56
257.987	82.56
258.22	87.56
258.452	78.56
258.685	87.56
258.918	79.56
259.151	90.56
259.383	72.56
259.616	80.56
259.849	93.56
260.081	89.56
260.314	79.56
260.547	82.56
260.779	68.56
261.012	81.56
261.244	82.56
261.477	80.56
261.71	70.56
261.942	81.56
262.175	84.56
262.407	85.56
262.64	98.56
262.872	89.56
263.105	93.56
263.337	79.56
263.57	88.56
263.802	80.56
264.035	91.56
264.267	77.56
264.499	72.56
264.732	78.56
264.964	96.56
265.197	82.56
265.429	86.56
265.661	92.56
265.894	89.56
266.126	90.56
266.358	91.56
266.591	71.56
266.823	81.56
267.055	88.56
267.287	93.56
267.52	89.56
267.752	92.56
267.984	68.56
268.216	83.56
268.448	94.56
268.681	94.56
268.913	69.56
269.145	88.56
269.377	88.56
269.609	99.56
269.841	86.56
270.073	91.56
270.306	80.56
270.538	80.56
270.77	64.56
271.002	79.56
271.234	85.56
271.466	105.56
271.698	86.56
271.93	85.56
272.162	94.56
272.394	94.56
272.626	87.56
272.858	69.56
273.09	95.56
273.322	90.56
273.553	91.56
273.785	93.56
274.017	78.56
274.249	102.56
274.481	94.56
274.713	83.56
274.945	85.56
275.176	86.56
275.408	83.56
275.64	80.56
275.872	97.56
276.104	95.56
276.335	88.56
276.567	84.56
276.799	85.56
277.031	84.56
277.262	83.56
277.494	90.56
277.726	99.56
277.957	98.56
278.189	86.56
278.421	86.56
278.652	78.56
278.884	86.56
279.115	77.56
279.347	83.56
279.579	77.56
279.81	82.56
280.042	89.56
280.273	88.56
280.505	91.56
280.736	74.56
280.968	76.56
281.199	92.56
281.431	98.56
281.662	81.56
281.894	89.56
282.125	88.56
282.356	64.56
282.588	69.56
282.819	85.56
283.051	77.56
283.282	69.56
283.513	91.56
283.745	79.56
283.976	85.56
284.207	94.56
284.439	94.56
284.67	98.56
284.901	80.56
285.132	92.56
285.364	88.56
285.595	98.56
285.826	78.56
286.057	91.56
286.288	74.56
286.52	94.56
286.751	90.56
286.982	89.56
287.213	75.56
287.444	87.56
287.675	91.56
287.906	91.56
288.138	91.56
288.369	100.56
288.6	82.56
288.831	92.56
289.062	102.56
289.293	83.56
289.524	88.56
289.755	91.56
289.986	89.56
290.217	86.56
290.448	78.56
290.679	77.56
290.91	77.56
291.141	89.56
291.371	98.56
291.602	86.56
291.833	90.56
292.064	84.56
292.295	80.56
292.526	91.56
292.757	98.56
292.987	86.56
293.218	103.56
293.449	91.56
293.68	81.56
293.91	86.56
294.141	86.56
294.372	87.56
294.603	74.56
294.833	90.56
295.064	94.56
295.295	102.56
295.525	87.56
295.756	72.56
295.987	91.56
296.217	97.56
296.448	79.56
296.679	96.56
296.909	91.56
297.14	87.56
297.37	98.56
297.601	94.56
297.831	98.56
298.062	87.56
298.292	95.56
298.523	99.56
298.753	94.56
298.984	94.56
299.214	94.56
299.445	94.56
299.675	103.56
299.905	110.56
300.136	106.56
300.366	95.56
300.597	108.56
300.827	101.56
301.057	93.56
301.288	102.56
301.518	92.56
301.748	95.56
301.979	87.56
302.209	94.56
302.439	100.56
302.669	86.56
302.9	89.56
303.13	86.56
303.36	84.56
303.59	83.56
303.82	76.56
304.051	84.56
304.281	80.56
304.511	93.56
304.741	101.56
304.971	87.56
305.201	90.56
305.431	101.56
305.661	93.56
305.891	93.56
306.121	95.56
306.352	94.56
306.582	94.56
306.812	91.56
307.042	90.56
307.272	93.56
307.502	97.56
307.731	90.56
307.961	100.56
308.191	113.56
308.421	107.56
308.651	82.56
308.881	95.56
309.111	88.56
309.341	109.56
309.571	99.56
309.8	103.56
310.03	96.56
310.26	98.56
310.49	65.56
310.72	86.56
310.949	92.56
311.179	95.56
311.409	90.56
311.639	88.56
311.868	85.56
312.098	82.56
312.328	100.56
312.557	92.56
312.787	87.56
313.017	80.56
313.246	90.56
313.476	89.56
313.706	87.56
313.935	92.56
314.165	93.56
314.394	94.56
314.624	85.56
314.853	95.56
315.083	90.56
315.312	85.56
315.542	100.56
315.771	91.56
316.001	86.56
316.23	97.56
316.46	99.56
316.689	91.56
316.919	96.56
317.148	92.56
317.377	91.56
317.607	105.56
317.836	93.56
318.065	103.56
318.295	107.56
318.524	104.56
318.753	98.56
318.983	91.56
319.212	80.56
319.441	88.56
319.67	90.56
319.9	94.56
320.129	100.56
320.358	91.56
320.587	92.56
320.816	92.56
321.046	93.56
321.275	98.56
321.504	95.56
321.733	102.56
321.962	92.56
322.191	102.56
322.42	90.56
322.649	97.56
322.878	92.56
323.108	103.56
323.337	93.56
323.566	74.56
323.795	107.56
324.024	92.56
324.253	109.56
324.482	90.56
324.71	100.56
324.939	100.56
325.168	99.56
325.397	99.56
325.626	75.56
325.855	80.56
326.084	80.56
326.313	97.56
326.542	96.56
326.77	94.56
326.999	93.56
327.228	97.56
327.457	97.56
327.686	86.56
327.914	82.56
328.143	94.56
328.372	90.56
328.6	98.56
328.829	94.56
329.058	91.56
329.287	90.56
329.515	88.56
329.744	91.56
329.972	107.56
330.201	98.56
330.43	111.56
330.658	114.56
330.887	91.56
331.115	94.56
331.344	103.56
331.572	99.56
331.801	98.56
332.03	104.56
332.258	84.56
332.486	100.56
332.715	109.56
332.943	98.56
333.172	87.56
333.4	89.56
333.629	96.56
333.857	81.56
334.085	100.56
334.314	107.56
334.542	123.56
334.771	93.56
334.999	107.56
335.227	90.56
335.455	95.56
335.684	98.56
335.912	109.56
336.14	119.56
336.369	94.56
336.597	90.56
336.825	103.56
337.053	97.56
337.281	89.56
337.51	95.56
337.738	94.56
337.966	88.56
338.194	100.56
338.422	85.56
338.65	103.56
338.878	95.56
339.106	95.56
339.334	90.56
339.562	106.56
339.79	88.56
340.018	92.56
340.246	89.56
340.474	87.56
340.702	98.56
340.93	90.56
341.158	90.56
341.386	106.56
341.614	95.56
341.842	101.56
342.07	95.56
342.298	106.56
342.526	104.56
342.754	94.56
342.981	92.56
343.209	83.56
343.437	105.56
343.665	90.56
343.893	99.56
344.12	106.56
344.348	102.56
344.576	99.56
344.804	105.56
345.031	95.56
345.259	97.56
345.487	100.56
345.714	104.56
345.942	82.56
346.17	106.56
346.397	86.56
346.625	90.56
346.853	101.56
347.08	98.56
347.308	109.56
347.535	98.56
347.763	94.56
347.99	107.56
348.218	99.56
348.445	90.56
348.673	86.56
348.9	92.56
349.128	92.56
349.355	85.56
349.583	107.56
349.81	99.56
350.037	94.56
350.265	95.56
350.492	107.56
350.72	91.56
350.947	95.56
351.174	102.56
351.402	86.56
351.629	86.56
351.856	93.56
352.083	93.56
352.311	91.56
352.538	86.56
352.765	91.56
352.992	91.56
353.22	106.56
353.447	95.56
353.674	92.56
353.901	87.56
354.128	89.56
354.355	100.56
354.583	105.56
354.81	81.56
355.037	91.56
355.264	104.56
355.491	86.56
355.718	94.56
355.945	106.56
356.172	104.56
356.399	88.56
356.626	95.56
356.853	97.56
357.08	96.56
357.307	103.56
357.534	107.56
357.761	96.56
357.988	105.56
358.215	97.56
358.441	106.56
358.668	115.56
358.895	102.56
359.122	103.56
359.349	95.56
359.576	106.56
359.802	114.56
360.029	94.56
360.256	87.56
360.483	94.56
360.709	93.56
360.936	90.56
361.163	101.56
361.39	95.56
361.616	100.56
361.843	94.56
362.07	116.56
362.296	120.56
362.523	121.56
362.749	128.56
362.976	150.56
363.203	176.56
363.429	128.56
363.656	108.56
363.882	130.56
364.109	154.56
364.335	167.56
364.562	164.56
364.788	137.56
365.015	109.56
365.241	107.56
365.468	96.56
365.694	110.56
365.92	107.56
366.147	92.56
366.373	92.56
366.599	90.56
366.826	78.56
367.052	104.56
367.278	99.56
367.505	83.56
367.731	106.56
367.957	103.56
368.184	79.56
368.41	92.56
368.636	94.56
368.862	96.56
369.089	94.56
369.315	104.56
369.541	90.56
369.767	94.56
369.993	106.56
370.219	78.56
370.445	105.56
370.672	101.56
370.898	106.56
371.124	92.56
371.35	89.56
371.576	85.56
371.802	102.56
372.028	95.56
372.254	101.56
372.48	90.56
372.706	81.56
372.932	81.56
373.158	101.56
373.384	106.56
373.61	124.56
373.835	127.56
374.061	98.56
374.287	94.56
374.513	87.56
374.739	109.56
374.965	114.56
375.191	98.56
375.416	95.56
375.642	100.56
375.868	114.56
376.094	100.56
376.319	104.56
376.545	103.56
376.771	98.56
376.997	102.56
377.222	86.56
377.448	100.56
377.674	92.56
377.899	97.56
378.125	87.56
378.35	107.56
378.576	89.56
378.802	81.56
379.027	90.56
379.253	97.56
379.478	87.56
379.704	91.56
379.929	86.56
380.155	91.56
380.38	95.56
380.606	84.56
380.831	110.56
381.057	95.56
381.282	96.56
381.507	100.56
381.733	109.56
381.958	108.56
382.184	112.56
382.409	94.56
382.634	102.56
382.86	119.56
383.085	92.56
383.31	98.56
383.535	107.56
383.761	100.56
383.986	117.56
384.211	96.56
384.436	98.56
384.662	94.56
384.887	102.56
385.112	108.56
385.337	111.56
385.562	99.56
385.787	110.56
386.013	111.56
386.238	105.56
386.463	102.56
386.688	105.56
386.913	89.56
387.138	107.56
387.363	90.56
387.588	88.56
387.813	109.56
388.038	117.56
388.263	109.56
388.488	95.56
388.713	101.56
388.938	110.56
389.163	106.56
389.387	105.56
389.612	107.56
389.837	80.56
390.062	86.56
390.287	87.56
390.512	105.56
390.736	110.56
390.961	97.56
391.186	101.56
391.411	97.56
391.636	96.56
391.86	94.56
392.085	111.56
392.31	102.56
392.534	133.56
392.759	175.56
392.984	220.56
393.208	397.56
393.433	576.56
393.658	450.56
393.882	198.56
394.107	146.56
394.331	157.56
394.556	169.56
394.78	149.56
395.005	122.56
395.229	118.56
395.454	107.56
395.678	136.56
395.903	167.56
396.127	185.56
396.352	222.56
396.576	247.56
396.801	399.56
397.025	470.56
397.249	262.56
397.474	163.56
397.698	134.56
397.922	114.56
398.147	101.56
398.371	90.56
398.595	84.56
398.82	99.56
399.044	106.56
399.268	98.56
399.492	94.56
399.717	84.56
399.941	112.56
400.165	95.56
400.389	112.56
400.613	93.56
400.837	83.56
401.062	97.56
401.286	93.56
401.51	102.56
401.734	100.56
401.958	90.56
402.182	94.56
402.406	89.56
402.63	96.56
402.854	96.56
403.078	89.56
403.302	95.56
403.526	101.56
403.75	104.56
403.974	116.56
404.198	168.56
404.422	296.56
404.645	347.56
404.869	278.56
405.093	190.56
405.317	112.56
405.541	106.56
405.765	100.56
405.988	99.56
406.212	100.56
406.436	92.56
406.66	103.56
406.883	92.56
407.107	88.56
407.331	108.56
407.555	114.56
407.778	132.56
408.002	137.56
408.226	105.56
408.449	105.56
408.673	95.56
408.896	95.56
409.12	87.56
409.344	109.56
409.567	115.56
409.791	117.56
410.014	125.56
410.238	120.56
410.461	102.56
410.685	100.56
410.908	95.56
411.132	102.56
411.355	82.56
411.578	88.56
411.802	87.56
412.025	90.56
412.249	101.56
412.472	98.56
412.695	95.56
412.919	94.56
413.142	96.56
413.365	107.56
413.589	85.56
413.812	97.56
414.035	100.56
414.258	91.56
414.482	99.56
414.705	100.56
414.928	87.56
415.151	98.56
415.374	98.56
415.597	95.56
415.821	88.56
416.044	107.56
416.267	101.56
416.49	107.56
416.713	106.56
416.936	89.56
417.159	102.56
417.382	103.56
417.605	104.56
417.828	91.56
418.051	105.56
418.274	94.56
418.497	96.56
418.72	95.56
418.943	95.56
419.166	99.56
419.389	99.56
419.611	109.56
419.834	93.56
420.057	103.56
420.28	112.56
420.503	103.56
420.726	106.56
420.948	94.56
421.171	126.56
421.394	145.56
421.617	163.56
421.839	184.56
422.062	208.56
422.285	310.56
422.507	556.56
422.73	803.56
422.953	702.56
423.175	388.56
423.398	233.56
423.621	172.56
423.843	139.56
424.066	139.56
424.288	126.56
424.511	111.56
424.733	106.56
424.956	96.56
425.178	97.56
425.401	105.56
425.623	109.56
425.846	108.56
426.068	94.56
426.291	100.56
426.513	89.56
426.735	96.56
426.958	88.56
427.18	107.56
427.402	100.56
427.625	102.56
427.847	105.56
428.069	138.56
428.292	212.56
428.514	248.56
428.736	180.56
428.958	242.56
429.181	231.56
429.403	134.56
429.625	140.56
429.847	216.56
430.069	310.56
430.292	355.56
430.514	326.56
430.736	253.56
430.958	250.56
431.18	144.56
431.402	104.56
431.624	123.56
431.846	224.56
432.068	254.56
432.29	120.56
432.512	103.56
432.734	98.56
432.956	86.56
433.178	109.56
433.4	96.56
433.622	102.56
433.844	83.56
434.066	90.56
434.287	80.56
434.509	85.56
434.731	87.56
434.953	79.56
435.175	73.56
435.397	108.56
435.618	92.56
435.84	95.56
436.062	96.56
436.284	113.56
436.505	82.56
436.727	88.56
436.949	75.56
437.17	86.56
437.392	86.56
437.614	89.56
437.835	101.56
438.057	95.56
438.278	86.56
438.5	105.56
438.721	102.56
438.943	95.56
439.165	88.56
439.386	99.56
439.608	90.56
439.829	90.56
440.05	92.56
440.272	79.56
440.493	81.56
440.715	99.56
440.936	75.56
441.158	79.56
441.379	79.56
441.6	98.56
441.822	115.56
442.043	112.56
442.264	145.56
442.486	222.56
442.707	335.56
442.928	196.56
443.149	175.56
443.371	303.56
443.592	550.56
443.813	456.56
444.034	193.56
444.255	118.56
444.476	101.56
444.698	114.56
444.919	116.56
445.14	297.56
445.361	411.56
445.582	692.56
445.803	553.56
446.024	202.56
446.245	110.56
446.466	122.56
446.687	82.56
446.908	98.56
447.129	83.56
447.35	91.56
447.571	93.56
447.792	91.56
448.013	77.56
448.234	91.56
448.455	101.56
448.675	91.56
448.896	80.56
449.117	90.56
449.338	94.56
449.559	100.56
449.779	84.56
450	83.56
450.221	93.56
450.442	100.56
450.662	88.56
450.883	95.56
451.104	108.56
451.324	84.56
451.545	74.56
451.766	93.56
451.986	95.56
452.207	74.56
452.428	99.56
452.648	93.56
452.869	120.56
453.089	126.56
453.31	101.56
453.53	102.56
453.751	96.56
453.971	105.56
454.192	80.56
454.412	86.56
454.633	91.56
454.853	89.56
455.073	88.56
455.294	97.56
455.514	93.56
455.734	90.56
455.955	95.56
456.175	90.56
456.395	92.56
456.616	95.56
456.836	93.56
457.056	93.56
457.276	88.56
457.497	91.56
457.717	102.56
457.937	137.56
458.157	166.56
458.377	168.56
458.598	181.56
458.818	192.56
459.038	131.56
459.258	98.56
459.478	98.56
459.698	88.56
459.918	113.56
460.138	93.56
460.358	100.56
460.578	124.56
460.798	206.56
461.018	182.56
461.238	112.56
461.458	95.56
461.678	91.56
461.898	87.56
462.118	98.56
462.338	105.56
462.558	83.56
462.777	88.56
462.997	85.56
463.217	85.56
463.437	87.56
463.657	97.56
463.876	98.56
464.096	98.56
464.316	98.56
464.536	88.56
464.755	93.56
464.975	81.56
465.195	91.56
465.414	96.56
465.634	86.56
465.854	85.56
466.073	84.56
466.293	92.56
466.512	82.56
466.732	75.56
466.951	97.56
467.171	93.56
467.391	103.56
467.61	80.56
467.829	94.56
468.049	91.56
468.268	100.56
468.488	81.56
468.707	90.56
468.927	103.56
469.146	94.56
469.365	92.56
469.585	78.56
469.804	100.56
470.023	96.56
470.243	90.56
470.462	84.56
470.681	71.56
470.901	89.56
471.12	100.56
471.339	112.56
471.558	96.56
471.777	97.56
471.997	93.56
472.216	94.56
472.435	88.56
472.654	94.56
472.873	106.56
473.092	95.56
473.311	90.56
473.53	104.56
473.749	89.56
473.968	97.56
474.187	90.56
474.406	78.56
474.625	85.56
474.844	102.56
475.063	97.56
475.282	84.56
475.501	101.56
475.72	101.56
475.939	91.56
476.158	114.56
476.377	94.56
476.596	98.56
476.814	97.56
477.033	96.56
477.252	90.56
477.471	94.56
477.69	91.56
477.908	96.56
478.127	100.56
478.346	95.56
478.564	88.56
478.783	103.56
479.002	93.56
479.22	86.56
479.439	90.56
479.658	95.56
479.876	99.56
480.095	96.56
480.313	90.56
480.532	106.56
480.751	88.56
480.969	90.56
481.188	96.56
481.406	95.56
481.624	93.56
481.843	91.56
482.061	100.56
482.28	96.56
482.498	90.56
482.717	104.56
482.935	88.56
483.153	100.56
483.372	112.56
483.59	110.56
483.808	93.56
484.027	89.56
484.245	103.56
484.463	111.56
484.681	102.56
484.9	95.56
485.118	101.56
485.336	98.56
485.554	95.56
485.772	93.56
485.99	109.56
486.209	94.56
486.427	94.56
486.645	101.56
486.863	106.56
487.081	106.56
487.299	103.56
487.517	127.56
487.735	162.56
487.953	263.56
488.171	226.56
488.389	134.56
488.607	100.56
488.825	108.56
489.043	96.56
489.261	86.56
489.479	99.56
489.696	95.56
489.914	89.56
490.132	85.56
490.35	93.56
490.568	104.56
490.786	100.56
491.003	98.56
491.221	86.56
491.439	94.56
491.657	102.56
491.874	85.56
492.092	99.56
492.31	100.56
492.527	99.56
492.745	114.56
492.963	97.56
493.18	95.56
493.398	103.56
493.615	92.56
493.833	101.56
494.05	107.56
494.268	99.56
494.485	89.56
494.703	94.56
494.92	85.56
495.138	100.56
495.355	98.56
495.573	111.56
495.79	98.56
496.008	105.56
496.225	106.56
496.442	93.56
496.66	110.56
496.877	114.56
497.094	97.56
497.312	94.56
497.529	86.56
497.746	93.56
497.963	94.56
498.181	89.56
498.398	104.56
498.615	101.56
498.832	100.56
499.049	116.56
499.267	105.56
499.484	99.56
499.701	117.56
499.918	110.56
500.135	115.56
500.352	92.56
500.569	93.56
500.786	105.56
501.003	96.56
501.22	98.56
501.437	108.56
501.654	116.56
501.871	118.56
502.088	106.56
502.305	114.56
502.522	101.56
502.739	99.56
502.956	97.56
503.172	112.56
503.389	96.56
503.606	104.56
503.823	117.56
504.04	126.56
504.256	196.56
504.473	179.56
504.69	136.56
504.907	110.56
505.123	106.56
505.34	101.56
505.557	102.56
505.773	107.56
505.99	100.56
506.207	98.56
506.423	98.56
506.64	99.56
506.856	98.56
507.073	97.56
507.289	94.56
507.506	86.56
507.722	89.56
507.939	100.56
508.155	93.56
508.372	99.56
508.588	107.56
508.805	98.56
509.021	98.56
509.238	93.56
509.454	105.56
509.67	102.56
509.887	98.56
510.103	91.56
510.319	107.56
510.536	114.56
510.752	94.56
510.968	106.56
511.184	110.56
511.401	108.56
511.617	108.56
511.833	88.56
512.049	109.56
512.265	107.56
512.481	103.56
512.698	98.56
512.914	86.56
513.13	111.56
513.346	91.56
513.562	100.56
513.778	92.56
513.994	101.56
514.21	100.56
