Data from 2145_3_HRD10591_00042.txt Node
Date: Mon Jan 19 14:23:28 EST 2026
User: Yrep
Spectrometer: HR+D1059
Trigger mode: 1
Integration Time (sec): 1.000000E-1
Scans to average: 1
Electric dark correction enabled: true
Nonlinearity correction enabled: false
Boxcar width: 0
XAxis mode: Wavelengths
Number of Pixels in Spectrum: 2048
>>>>>Begin Spectral Data<<<<<
223.165	-16.62
223.4	-16.62
223.635	-16.62
223.869	-22.62
224.104	-6.62
224.338	-0.62
224.573	-20.62
224.808	-14.62
225.042	-12.62
225.277	-10.62
225.511	-3.62
225.746	-2.62
225.98	4.38
226.215	28.38
226.449	18.38
226.683	13.38
226.918	19.38
227.152	27.38
227.387	40.38
227.621	27.38
227.856	49.38
228.09	61.38
228.324	69.38
228.559	57.38
228.793	57.38
229.027	59.38
229.262	65.38
229.496	73.38
229.73	74.38
229.964	68.38
230.199	64.38
230.433	73.38
230.667	83.38
230.901	69.38
231.136	73.38
231.37	85.38
231.604	76.38
231.838	77.38
232.072	89.38
232.306	63.38
232.541	71.38
232.775	87.38
233.009	67.38
233.243	81.38
233.477	63.38
233.711	79.38
233.945	79.38
234.179	81.38
234.413	70.38
234.647	70.38
234.881	82.38
235.115	87.38
235.349	75.38
235.583	69.38
235.817	79.38
236.051	83.38
236.285	70.38
236.519	85.38
236.753	78.38
236.987	82.38
237.221	70.38
237.455	75.38
237.689	63.38
237.922	75.38
238.156	65.38
238.39	61.38
238.624	68.38
238.858	81.38
239.091	79.38
239.325	62.38
239.559	73.38
239.793	76.38
240.027	62.38
240.26	81.38
240.494	83.38
240.728	81.38
240.961	77.38
241.195	75.38
241.429	59.38
241.662	68.38
241.896	63.38
242.13	81.38
242.363	72.38
242.597	84.38
242.83	79.38
243.064	83.38
243.298	70.38
243.531	64.38
243.765	76.38
243.998	75.38
244.232	70.38
244.465	74.38
244.699	80.38
244.932	74.38
245.166	75.38
245.399	74.38
245.633	73.38
245.866	81.38
246.099	85.38
246.333	75.38
246.566	78.38
246.8	63.38
247.033	77.38
247.266	64.38
247.5	68.38
247.733	82.38
247.966	77.38
248.2	67.38
248.433	75.38
248.666	97.38
248.899	88.38
249.133	82.38
249.366	77.38
249.599	73.38
249.832	79.38
250.066	85.38
250.299	73.38
250.532	69.38
250.765	83.38
250.998	89.38
251.231	87.38
251.465	77.38
251.698	75.38
251.931	90.38
252.164	77.38
252.397	74.38
252.63	75.38
252.863	71.38
253.096	92.38
253.329	65.38
253.562	85.38
253.795	76.38
254.028	72.38
254.261	89.38
254.494	83.38
254.727	82.38
254.96	86.38
255.193	85.38
255.426	77.38
255.659	82.38
255.892	77.38
256.124	76.38
256.357	78.38
256.59	66.38
256.823	81.38
257.056	73.38
257.289	72.38
257.521	88.38
257.754	76.38
257.987	65.38
258.22	73.38
258.452	77.38
258.685	76.38
258.918	78.38
259.151	85.38
259.383	78.38
259.616	91.38
259.849	84.38
260.081	83.38
260.314	83.38
260.547	76.38
260.779	77.38
261.012	83.38
261.244	65.38
261.477	84.38
261.71	70.38
261.942	70.38
262.175	89.38
262.407	74.38
262.64	79.38
262.872	77.38
263.105	72.38
263.337	91.38
263.57	91.38
263.802	91.38
264.035	81.38
264.267	76.38
264.499	87.38
264.732	75.38
264.964	79.38
265.197	80.38
265.429	90.38
265.661	72.38
265.894	80.38
266.126	77.38
266.358	71.38
266.591	80.38
266.823	87.38
267.055	82.38
267.287	72.38
267.52	81.38
267.752	88.38
267.984	84.38
268.216	92.38
268.448	92.38
268.681	80.38
268.913	82.38
269.145	98.38
269.377	71.38
269.609	91.38
269.841	83.38
270.073	88.38
270.306	81.38
270.538	87.38
270.77	74.38
271.002	83.38
271.234	83.38
271.466	76.38
271.698	74.38
271.93	81.38
272.162	71.38
272.394	87.38
272.626	83.38
272.858	88.38
273.09	83.38
273.322	85.38
273.553	100.38
273.785	85.38
274.017	72.38
274.249	83.38
274.481	65.38
274.713	95.38
274.945	81.38
275.176	78.38
275.408	94.38
275.64	82.38
275.872	81.38
276.104	75.38
276.335	81.38
276.567	99.38
276.799	79.38
277.031	95.38
277.262	79.38
277.494	88.38
277.726	84.38
277.957	85.38
278.189	83.38
278.421	75.38
278.652	84.38
278.884	93.38
279.115	84.38
279.347	82.38
279.579	74.38
279.81	79.38
280.042	91.38
280.273	72.38
280.505	77.38
280.736	89.38
280.968	104.38
281.199	105.38
281.431	81.38
281.662	90.38
281.894	84.38
282.125	77.38
282.356	91.38
282.588	98.38
282.819	69.38
283.051	82.38
283.282	76.38
283.513	84.38
283.745	96.38
283.976	78.38
284.207	83.38
284.439	78.38
284.67	88.38
284.901	84.38
285.132	76.38
285.364	83.38
285.595	85.38
285.826	86.38
286.057	85.38
286.288	85.38
286.52	72.38
286.751	86.38
286.982	97.38
287.213	66.38
287.444	88.38
287.675	69.38
287.906	78.38
288.138	87.38
288.369	73.38
288.6	79.38
288.831	67.38
289.062	81.38
289.293	77.38
289.524	73.38
289.755	83.38
289.986	76.38
290.217	102.38
290.448	82.38
290.679	97.38
290.91	90.38
291.141	72.38
291.371	86.38
291.602	93.38
291.833	81.38
292.064	86.38
292.295	82.38
292.526	70.38
292.757	91.38
292.987	75.38
293.218	71.38
293.449	67.38
293.68	93.38
293.91	69.38
294.141	90.38
294.372	91.38
294.603	93.38
294.833	89.38
295.064	91.38
295.295	95.38
295.525	85.38
295.756	93.38
295.987	86.38
296.217	84.38
296.448	87.38
296.679	91.38
296.909	93.38
297.14	98.38
297.37	78.38
297.601	83.38
297.831	73.38
298.062	87.38
298.292	91.38
298.523	84.38
298.753	84.38
298.984	78.38
299.214	97.38
299.445	83.38
299.675	104.38
299.905	108.38
300.136	96.38
300.366	80.38
300.597	99.38
300.827	95.38
301.057	98.38
301.288	83.38
301.518	82.38
301.748	100.38
301.979	91.38
302.209	101.38
302.439	89.38
302.669	98.38
302.9	95.38
303.13	88.38
303.36	82.38
303.59	77.38
303.82	78.38
304.051	101.38
304.281	68.38
304.511	75.38
304.741	90.38
304.971	84.38
305.201	88.38
305.431	99.38
305.661	87.38
305.891	104.38
306.121	91.38
306.352	83.38
306.582	83.38
306.812	95.38
307.042	88.38
307.272	87.38
307.502	83.38
307.731	75.38
307.961	84.38
308.191	98.38
308.421	110.38
308.651	95.38
308.881	88.38
309.111	98.38
309.341	115.38
309.571	111.38
309.8	78.38
310.03	91.38
310.26	85.38
310.49	71.38
310.72	80.38
310.949	83.38
311.179	90.38
311.409	77.38
311.639	78.38
311.868	82.38
312.098	89.38
312.328	102.38
312.557	88.38
312.787	96.38
313.017	80.38
313.246	86.38
313.476	101.38
313.706	89.38
313.935	84.38
314.165	78.38
314.394	64.38
314.624	87.38
314.853	81.38
315.083	99.38
315.312	99.38
315.542	88.38
315.771	77.38
316.001	93.38
316.23	89.38
316.46	92.38
316.689	89.38
316.919	92.38
317.148	83.38
317.377	91.38
317.607	95.38
317.836	92.38
318.065	85.38
318.295	89.38
318.524	95.38
318.753	103.38
318.983	89.38
319.212	99.38
319.441	86.38
319.67	94.38
319.9	73.38
320.129	97.38
320.358	106.38
320.587	80.38
320.816	87.38
321.046	94.38
321.275	87.38
321.504	94.38
321.733	87.38
321.962	74.38
322.191	91.38
322.42	96.38
322.649	89.38
322.878	107.38
323.108	87.38
323.337	85.38
323.566	96.38
323.795	85.38
324.024	96.38
324.253	81.38
324.482	84.38
324.71	98.38
324.939	95.38
325.168	86.38
325.397	85.38
325.626	73.38
325.855	95.38
326.084	77.38
326.313	76.38
326.542	89.38
326.77	101.38
326.999	80.38
327.228	93.38
327.457	93.38
327.686	93.38
327.914	90.38
328.143	77.38
328.372	86.38
328.6	81.38
328.829	99.38
329.058	75.38
329.287	99.38
329.515	95.38
329.744	85.38
329.972	73.38
330.201	100.38
330.43	101.38
330.658	84.38
330.887	90.38
331.115	88.38
331.344	91.38
331.572	79.38
331.801	77.38
332.03	76.38
332.258	85.38
332.486	84.38
332.715	91.38
332.943	85.38
333.172	88.38
333.4	84.38
333.629	87.38
333.857	88.38
334.085	91.38
334.314	98.38
334.542	114.38
334.771	101.38
334.999	87.38
335.227	94.38
335.455	105.38
335.684	97.38
335.912	99.38
336.14	105.38
336.369	114.38
336.597	93.38
336.825	80.38
337.053	81.38
337.281	99.38
337.51	105.38
337.738	80.38
337.966	98.38
338.194	98.38
338.422	79.38
338.65	95.38
338.878	88.38
339.106	85.38
339.334	83.38
339.562	75.38
339.79	89.38
340.018	81.38
340.246	68.38
340.474	80.38
340.702	81.38
340.93	68.38
341.158	85.38
341.386	91.38
341.614	89.38
341.842	99.38
342.07	92.38
342.298	107.38
342.526	74.38
342.754	96.38
342.981	91.38
343.209	84.38
343.437	93.38
343.665	84.38
343.893	86.38
344.12	86.38
344.348	98.38
344.576	83.38
344.804	117.38
345.031	95.38
345.259	74.38
345.487	90.38
345.714	91.38
345.942	89.38
346.17	98.38
346.397	79.38
346.625	101.38
346.853	101.38
347.08	71.38
347.308	82.38
347.535	83.38
347.763	96.38
347.99	92.38
348.218	97.38
348.445	94.38
348.673	88.38
348.9	100.38
349.128	90.38
349.355	83.38
349.583	97.38
349.81	80.38
350.037	104.38
350.265	81.38
350.492	93.38
350.72	85.38
350.947	92.38
351.174	77.38
351.402	80.38
351.629	81.38
351.856	86.38
352.083	83.38
352.311	96.38
352.538	93.38
352.765	99.38
352.992	92.38
353.22	85.38
353.447	81.38
353.674	91.38
353.901	92.38
354.128	91.38
354.355	86.38
354.583	83.38
354.81	85.38
355.037	85.38
355.264	83.38
355.491	81.38
355.718	86.38
355.945	99.38
356.172	95.38
356.399	102.38
356.626	93.38
356.853	89.38
357.08	90.38
357.307	86.38
357.534	85.38
357.761	87.38
357.988	102.38
358.215	102.38
358.441	102.38
358.668	89.38
358.895	95.38
359.122	95.38
359.349	80.38
359.576	100.38
359.802	79.38
360.029	80.38
360.256	89.38
360.483	86.38
360.709	83.38
360.936	89.38
361.163	90.38
361.39	92.38
361.616	88.38
361.843	88.38
362.07	108.38
362.296	117.38
362.523	123.38
362.749	140.38
362.976	157.38
363.203	162.38
363.429	128.38
363.656	105.38
363.882	130.38
364.109	146.38
364.335	194.38
364.562	184.38
364.788	133.38
365.015	119.38
365.241	100.38
365.468	103.38
365.694	97.38
365.92	102.38
366.147	93.38
366.373	91.38
366.599	96.38
366.826	100.38
367.052	89.38
367.278	97.38
367.505	86.38
367.731	91.38
367.957	83.38
368.184	98.38
368.41	103.38
368.636	77.38
368.862	95.38
369.089	105.38
369.315	105.38
369.541	88.38
369.767	91.38
369.993	81.38
370.219	88.38
370.445	91.38
370.672	98.38
370.898	86.38
371.124	88.38
371.35	78.38
371.576	81.38
371.802	95.38
372.028	83.38
372.254	101.38
372.48	94.38
372.706	82.38
372.932	83.38
373.158	87.38
373.384	107.38
373.61	119.38
373.835	121.38
374.061	84.38
374.287	105.38
374.513	96.38
374.739	100.38
374.965	113.38
375.191	99.38
375.416	103.38
375.642	105.38
375.868	98.38
376.094	95.38
376.319	103.38
376.545	114.38
376.771	87.38
376.997	102.38
377.222	89.38
377.448	103.38
377.674	78.38
377.899	99.38
378.125	79.38
378.35	87.38
378.576	89.38
378.802	83.38
379.027	78.38
379.253	95.38
379.478	99.38
379.704	92.38
379.929	95.38
380.155	83.38
380.38	94.38
380.606	89.38
380.831	86.38
381.057	97.38
381.282	80.38
381.507	92.38
381.733	102.38
381.958	99.38
382.184	111.38
382.409	100.38
382.634	113.38
382.86	104.38
383.085	91.38
383.31	108.38
383.535	112.38
383.761	100.38
383.986	112.38
384.211	89.38
384.436	100.38
384.662	107.38
384.887	93.38
385.112	89.38
385.337	109.38
385.562	104.38
385.787	112.38
386.013	108.38
386.238	107.38
386.463	92.38
386.688	111.38
386.913	105.38
387.138	105.38
387.363	107.38
387.588	99.38
387.813	107.38
388.038	108.38
388.263	99.38
388.488	107.38
388.713	86.38
388.938	101.38
389.163	83.38
389.387	95.38
389.612	98.38
389.837	96.38
390.062	96.38
390.287	89.38
390.512	106.38
390.736	101.38
390.961	81.38
391.186	93.38
391.411	93.38
391.636	91.38
391.86	102.38
392.085	116.38
392.31	119.38
392.534	126.38
392.759	152.38
392.984	240.38
393.208	380.38
393.433	544.38
393.658	428.38
393.882	213.38
394.107	148.38
394.331	163.38
394.556	177.38
394.78	143.38
395.005	111.38
395.229	120.38
395.454	116.38
395.678	136.38
395.903	171.38
396.127	205.38
396.352	235.38
396.576	260.38
396.801	353.38
397.025	424.38
397.249	263.38
397.474	179.38
397.698	121.38
397.922	106.38
398.147	92.38
398.371	103.38
398.595	99.38
398.82	101.38
399.044	100.38
399.268	111.38
399.492	96.38
399.717	81.38
399.941	93.38
400.165	100.38
400.389	83.38
400.613	95.38
400.837	85.38
401.062	85.38
401.286	87.38
401.51	94.38
401.734	95.38
401.958	69.38
402.182	98.38
402.406	107.38
402.63	98.38
402.854	107.38
403.078	96.38
403.302	110.38
403.526	107.38
403.75	91.38
403.974	115.38
404.198	123.38
404.422	188.38
404.645	222.38
404.869	186.38
405.093	117.38
405.317	92.38
405.541	92.38
405.765	104.38
405.988	97.38
406.212	84.38
406.436	97.38
406.66	99.38
406.883	101.38
407.107	86.38
407.331	97.38
407.555	94.38
407.778	133.38
408.002	142.38
408.226	107.38
408.449	95.38
408.673	76.38
408.896	90.38
409.12	100.38
409.344	97.38
409.567	106.38
409.791	122.38
410.014	130.38
410.238	115.38
410.461	118.38
410.685	109.38
410.908	99.38
411.132	97.38
411.355	101.38
411.578	101.38
411.802	112.38
412.025	91.38
412.249	79.38
412.472	85.38
412.695	84.38
412.919	90.38
413.142	99.38
413.365	89.38
413.589	83.38
413.812	99.38
414.035	83.38
414.258	83.38
414.482	103.38
414.705	112.38
414.928	91.38
415.151	105.38
415.374	80.38
415.597	93.38
415.821	103.38
416.044	97.38
416.267	85.38
416.49	88.38
416.713	87.38
416.936	101.38
417.159	88.38
417.382	99.38
417.605	96.38
417.828	100.38
418.051	114.38
418.274	88.38
418.497	92.38
418.72	85.38
418.943	93.38
419.166	97.38
419.389	91.38
419.611	84.38
419.834	102.38
420.057	106.38
420.28	97.38
420.503	91.38
420.726	93.38
420.948	100.38
421.171	105.38
421.394	126.38
421.617	148.38
421.839	179.38
422.062	197.38
422.285	286.38
422.507	499.38
422.73	714.38
422.953	643.38
423.175	398.38
423.398	231.38
423.621	169.38
423.843	133.38
424.066	117.38
424.288	114.38
424.511	110.38
424.733	107.38
424.956	111.38
425.178	104.38
425.401	84.38
425.623	95.38
425.846	85.38
426.068	103.38
426.291	88.38
426.513	105.38
426.735	92.38
426.958	104.38
427.18	115.38
427.402	92.38
427.625	97.38
427.847	104.38
428.069	131.38
428.292	204.38
428.514	242.38
428.736	146.38
428.958	196.38
429.181	220.38
429.403	112.38
429.625	120.38
429.847	181.38
430.069	306.38
430.292	326.38
430.514	329.38
430.736	216.38
430.958	242.38
431.18	122.38
431.402	96.38
431.624	127.38
431.846	195.38
432.068	221.38
432.29	140.38
432.512	101.38
432.734	94.38
432.956	84.38
433.178	106.38
433.4	93.38
433.622	94.38
433.844	101.38
434.066	96.38
434.287	70.38
434.509	74.38
434.731	87.38
434.953	89.38
435.175	95.38
435.397	76.38
435.618	103.38
435.84	97.38
436.062	112.38
436.284	102.38
436.505	102.38
436.727	91.38
436.949	89.38
437.17	98.38
437.392	87.38
437.614	81.38
437.835	83.38
438.057	78.38
438.278	93.38
438.5	83.38
438.721	111.38
438.943	91.38
439.165	72.38
439.386	75.38
439.608	84.38
439.829	81.38
440.05	101.38
440.272	102.38
440.493	92.38
440.715	83.38
440.936	109.38
441.158	89.38
441.379	92.38
441.6	98.38
441.822	97.38
442.043	99.38
442.264	137.38
442.486	218.38
442.707	325.38
442.928	190.38
443.149	168.38
443.371	293.38
443.592	503.38
443.813	435.38
444.034	183.38
444.255	127.38
444.476	112.38
444.698	119.38
444.919	132.38
445.14	245.38
445.361	369.38
445.582	648.38
445.803	539.38
446.024	204.38
446.245	119.38
446.466	100.38
446.687	87.38
446.908	95.38
447.129	98.38
447.35	92.38
447.571	96.38
447.792	93.38
448.013	91.38
448.234	88.38
448.455	85.38
448.675	83.38
448.896	85.38
449.117	96.38
449.338	84.38
449.559	87.38
449.779	75.38
450	90.38
450.221	84.38
450.442	93.38
450.662	90.38
450.883	78.38
451.104	80.38
451.324	87.38
451.545	81.38
451.766	104.38
451.986	93.38
452.207	83.38
452.428	95.38
452.648	100.38
452.869	136.38
453.089	129.38
453.31	111.38
453.53	107.38
453.751	106.38
453.971	88.38
454.192	78.38
454.412	72.38
454.633	87.38
454.853	88.38
455.073	89.38
455.294	90.38
455.514	80.38
455.734	80.38
455.955	84.38
456.175	91.38
456.395	89.38
456.616	85.38
456.836	93.38
457.056	97.38
457.276	87.38
457.497	97.38
457.717	107.38
457.937	143.38
458.157	179.38
458.377	195.38
458.598	189.38
458.818	216.38
459.038	120.38
459.258	99.38
459.478	97.38
459.698	89.38
459.918	87.38
460.138	93.38
460.358	98.38
460.578	108.38
460.798	172.38
461.018	176.38
461.238	92.38
461.458	99.38
461.678	85.38
461.898	89.38
462.118	87.38
462.338	86.38
462.558	84.38
462.777	78.38
462.997	81.38
463.217	95.38
463.437	88.38
463.657	82.38
463.876	96.38
464.096	89.38
464.316	81.38
464.536	73.38
464.755	91.38
464.975	90.38
465.195	84.38
465.414	88.38
465.634	87.38
465.854	76.38
466.073	61.38
466.293	81.38
466.512	98.38
466.732	92.38
466.951	85.38
467.171	93.38
467.391	100.38
467.61	81.38
467.829	95.38
468.049	91.38
468.268	79.38
468.488	82.38
468.707	96.38
468.927	92.38
469.146	86.38
469.365	81.38
469.585	75.38
469.804	102.38
470.023	83.38
470.243	95.38
470.462	87.38
470.681	87.38
470.901	88.38
471.12	96.38
471.339	76.38
471.558	83.38
471.777	83.38
471.997	93.38
472.216	93.38
472.435	86.38
472.654	93.38
472.873	91.38
473.092	99.38
473.311	81.38
473.53	75.38
473.749	83.38
473.968	92.38
474.187	81.38
474.406	92.38
474.625	85.38
474.844	84.38
475.063	86.38
475.282	89.38
475.501	77.38
475.72	101.38
475.939	93.38
476.158	96.38
476.377	89.38
476.596	75.38
476.814	73.38
477.033	94.38
477.252	97.38
477.471	89.38
477.69	89.38
477.908	85.38
478.127	108.38
478.346	96.38
478.564	97.38
478.783	103.38
479.002	94.38
479.22	75.38
479.439	86.38
479.658	88.38
479.876	90.38
480.095	81.38
480.313	88.38
480.532	100.38
480.751	95.38
480.969	102.38
481.188	102.38
481.406	103.38
481.624	107.38
481.843	91.38
482.061	100.38
482.28	99.38
482.498	85.38
482.717	85.38
482.935	108.38
483.153	88.38
483.372	92.38
483.59	98.38
483.808	92.38
484.027	101.38
484.245	103.38
484.463	104.38
484.681	93.38
484.9	100.38
485.118	90.38
485.336	93.38
485.554	97.38
485.772	107.38
485.99	84.38
486.209	93.38
486.427	92.38
486.645	101.38
486.863	86.38
487.081	92.38
487.299	107.38
487.517	97.38
487.735	173.38
487.953	288.38
488.171	264.38
488.389	119.38
488.607	106.38
488.825	105.38
489.043	91.38
489.261	90.38
489.479	96.38
489.696	94.38
489.914	87.38
490.132	97.38
490.35	100.38
490.568	97.38
490.786	104.38
491.003	101.38
491.221	98.38
491.439	81.38
491.657	85.38
491.874	87.38
492.092	98.38
492.31	92.38
492.527	88.38
492.745	77.38
492.963	79.38
493.18	95.38
493.398	87.38
493.615	96.38
493.833	87.38
494.05	87.38
494.268	91.38
494.485	88.38
494.703	95.38
494.92	84.38
495.138	81.38
495.355	77.38
495.573	87.38
495.79	90.38
496.008	89.38
496.225	98.38
496.442	115.38
496.66	108.38
496.877	99.38
497.094	103.38
497.312	99.38
497.529	86.38
497.746	90.38
497.963	98.38
498.181	111.38
498.398	111.38
498.615	106.38
498.832	97.38
499.049	103.38
499.267	127.38
499.484	85.38
499.701	98.38
499.918	98.38
500.135	120.38
500.352	93.38
500.569	94.38
500.786	82.38
501.003	117.38
501.22	92.38
501.437	97.38
501.654	108.38
501.871	97.38
502.088	93.38
502.305	87.38
502.522	83.38
502.739	92.38
502.956	96.38
503.172	93.38
503.389	88.38
503.606	86.38
503.823	116.38
504.04	119.38
504.256	191.38
504.473	199.38
504.69	117.38
504.907	105.38
505.123	94.38
505.34	90.38
505.557	103.38
505.773	87.38
505.99	89.38
506.207	105.38
506.423	97.38
506.64	98.38
506.856	85.38
507.073	97.38
507.289	91.38
507.506	96.38
507.722	83.38
507.939	95.38
508.155	90.38
508.372	85.38
508.588	98.38
508.805	93.38
509.021	89.38
509.238	88.38
509.454	87.38
509.67	85.38
509.887	90.38
510.103	108.38
510.319	89.38
510.536	98.38
510.752	100.38
510.968	100.38
511.184	84.38
511.401	89.38
511.617	93.38
511.833	91.38
512.049	83.38
512.265	89.38
512.481	102.38
512.698	104.38
512.914	102.38
513.13	92.38
513.346	66.38
513.562	90.38
513.778	80.38
513.994	89.38
514.21	86.38
514.426	85.38
514.642	99.38
514.858	88.38
515.074	87.38
515.29	75.38
515.506	97.38
515.721	109.38
