Data from 2145_3_HRD10591_00002.txt Node
Date: Mon Jan 19 14:23:11 EST 2026
User: Yrep
Spectrometer: HR+D1059
Trigger mode: 1
Integration Time (sec): 1.000000E-1
Scans to average: 1
Electric dark correction enabled: true
Nonlinearity correction enabled: false
Boxcar width: 0
XAxis mode: Wavelengths
Number of Pixels in Spectrum: 2048
>>>>>Begin Spectral Data<<<<<
223.165	-16.88
223.4	-16.88
223.635	-16.88
223.869	-6.88
224.104	-13.88
224.338	-21.88
224.573	-21.88
224.808	-9.88
225.042	-4.88
225.277	-18.88
225.511	-0.88
225.746	-0.88
225.98	6.12
226.215	4.12
226.449	22.12
226.683	24.12
226.918	20.12
227.152	40.12
227.387	43.12
227.621	41.12
227.856	37.12
228.09	49.12
228.324	49.12
228.559	62.12
228.793	59.12
229.027	62.12
229.262	73.12
229.496	79.12
229.73	86.12
229.964	69.12
230.199	75.12
230.433	66.12
230.667	68.12
230.901	94.12
231.136	83.12
231.37	80.12
231.604	78.12
231.838	70.12
232.072	79.12
232.306	71.12
232.541	85.12
232.775	93.12
233.009	86.12
233.243	94.12
233.477	92.12
233.711	80.12
233.945	86.12
234.179	82.12
234.413	79.12
234.647	85.12
234.881	67.12
235.115	74.12
235.349	76.12
235.583	85.12
235.817	77.12
236.051	82.12
236.285	91.12
236.519	73.12
236.753	91.12
236.987	68.12
237.221	84.12
237.455	64.12
237.689	79.12
237.922	89.12
238.156	72.12
238.39	65.12
238.624	78.12
238.858	73.12
239.091	65.12
239.325	85.12
239.559	77.12
239.793	74.12
240.027	79.12
240.26	71.12
240.494	71.12
240.728	75.12
240.961	69.12
241.195	74.12
241.429	87.12
241.662	75.12
241.896	91.12
242.13	97.12
242.363	71.12
242.597	79.12
242.83	78.12
243.064	83.12
243.298	69.12
243.531	84.12
243.765	92.12
243.998	80.12
244.232	71.12
244.465	82.12
244.699	78.12
244.932	79.12
245.166	77.12
245.399	90.12
245.633	85.12
245.866	91.12
246.099	74.12
246.333	76.12
246.566	75.12
246.8	79.12
247.033	75.12
247.266	86.12
247.5	79.12
247.733	85.12
247.966	89.12
248.2	74.12
248.433	85.12
248.666	89.12
248.899	74.12
249.133	93.12
249.366	75.12
249.599	85.12
249.832	88.12
250.066	94.12
250.299	75.12
250.532	75.12
250.765	77.12
250.998	87.12
251.231	82.12
251.465	76.12
251.698	79.12
251.931	88.12
252.164	84.12
252.397	83.12
252.63	83.12
252.863	79.12
253.096	84.12
253.329	83.12
253.562	89.12
253.795	74.12
254.028	80.12
254.261	85.12
254.494	94.12
254.727	83.12
254.96	77.12
255.193	84.12
255.426	86.12
255.659	93.12
255.892	67.12
256.124	89.12
256.357	83.12
256.59	83.12
256.823	81.12
257.056	88.12
257.289	82.12
257.521	82.12
257.754	89.12
257.987	77.12
258.22	85.12
258.452	95.12
258.685	89.12
258.918	83.12
259.151	80.12
259.383	79.12
259.616	81.12
259.849	81.12
260.081	85.12
260.314	92.12
260.547	89.12
260.779	91.12
261.012	74.12
261.244	87.12
261.477	107.12
261.71	87.12
261.942	89.12
262.175	86.12
262.407	81.12
262.64	91.12
262.872	88.12
263.105	90.12
263.337	81.12
263.57	73.12
263.802	91.12
264.035	83.12
264.267	81.12
264.499	87.12
264.732	89.12
264.964	85.12
265.197	92.12
265.429	80.12
265.661	91.12
265.894	85.12
266.126	85.12
266.358	93.12
266.591	88.12
266.823	93.12
267.055	84.12
267.287	80.12
267.52	82.12
267.752	99.12
267.984	85.12
268.216	85.12
268.448	76.12
268.681	94.12
268.913	91.12
269.145	93.12
269.377	100.12
269.609	84.12
269.841	83.12
270.073	104.12
270.306	89.12
270.538	92.12
270.77	99.12
271.002	101.12
271.234	87.12
271.466	92.12
271.698	92.12
271.93	74.12
272.162	84.12
272.394	85.12
272.626	79.12
272.858	103.12
273.09	88.12
273.322	99.12
273.553	79.12
273.785	85.12
274.017	93.12
274.249	90.12
274.481	84.12
274.713	83.12
274.945	93.12
275.176	92.12
275.408	84.12
275.64	93.12
275.872	89.12
276.104	98.12
276.335	73.12
276.567	88.12
276.799	73.12
277.031	88.12
277.262	87.12
277.494	92.12
277.726	92.12
277.957	69.12
278.189	93.12
278.421	83.12
278.652	89.12
278.884	102.12
279.115	82.12
279.347	91.12
279.579	78.12
279.81	97.12
280.042	77.12
280.273	76.12
280.505	82.12
280.736	85.12
280.968	89.12
281.199	82.12
281.431	81.12
281.662	98.12
281.894	88.12
282.125	88.12
282.356	82.12
282.588	80.12
282.819	77.12
283.051	87.12
283.282	69.12
283.513	92.12
283.745	109.12
283.976	98.12
284.207	91.12
284.439	76.12
284.67	91.12
284.901	97.12
285.132	93.12
285.364	94.12
285.595	89.12
285.826	70.12
286.057	90.12
286.288	102.12
286.52	89.12
286.751	93.12
286.982	91.12
287.213	87.12
287.444	93.12
287.675	92.12
287.906	90.12
288.138	89.12
288.369	94.12
288.6	93.12
288.831	88.12
289.062	89.12
289.293	101.12
289.524	97.12
289.755	94.12
289.986	76.12
290.217	113.12
290.448	95.12
290.679	105.12
290.91	92.12
291.141	100.12
291.371	93.12
291.602	88.12
291.833	76.12
292.064	81.12
292.295	78.12
292.526	93.12
292.757	89.12
292.987	102.12
293.218	83.12
293.449	85.12
293.68	71.12
293.91	74.12
294.141	85.12
294.372	89.12
294.603	94.12
294.833	102.12
295.064	75.12
295.295	97.12
295.525	89.12
295.756	78.12
295.987	86.12
296.217	92.12
296.448	86.12
296.679	89.12
296.909	82.12
297.14	101.12
297.37	91.12
297.601	93.12
297.831	70.12
298.062	92.12
298.292	101.12
298.523	98.12
298.753	99.12
298.984	98.12
299.214	103.12
299.445	109.12
299.675	104.12
299.905	91.12
300.136	91.12
300.366	86.12
300.597	118.12
300.827	86.12
301.057	94.12
301.288	91.12
301.518	102.12
301.748	86.12
301.979	99.12
302.209	100.12
302.439	96.12
302.669	101.12
302.9	101.12
303.13	103.12
303.36	92.12
303.59	92.12
303.82	91.12
304.051	102.12
304.281	90.12
304.511	93.12
304.741	82.12
304.971	87.12
305.201	98.12
305.431	99.12
305.661	96.12
305.891	95.12
306.121	90.12
306.352	84.12
306.582	78.12
306.812	85.12
307.042	91.12
307.272	91.12
307.502	93.12
307.731	96.12
307.961	95.12
308.191	104.12
308.421	112.12
308.651	93.12
308.881	97.12
309.111	104.12
309.341	121.12
309.571	126.12
309.8	103.12
310.03	95.12
310.26	99.12
310.49	85.12
310.72	87.12
310.949	96.12
311.179	98.12
311.409	86.12
311.639	85.12
311.868	106.12
312.098	83.12
312.328	84.12
312.557	110.12
312.787	96.12
313.017	109.12
313.246	88.12
313.476	89.12
313.706	90.12
313.935	95.12
314.165	101.12
314.394	84.12
314.624	98.12
314.853	87.12
315.083	85.12
315.312	94.12
315.542	98.12
315.771	91.12
316.001	102.12
316.23	99.12
316.46	81.12
316.689	89.12
316.919	90.12
317.148	94.12
317.377	109.12
317.607	96.12
317.836	95.12
318.065	97.12
318.295	95.12
318.524	101.12
318.753	95.12
318.983	92.12
319.212	87.12
319.441	87.12
319.67	95.12
319.9	94.12
320.129	97.12
320.358	87.12
320.587	92.12
320.816	87.12
321.046	86.12
321.275	101.12
321.504	88.12
321.733	98.12
321.962	79.12
322.191	103.12
322.42	99.12
322.649	106.12
322.878	85.12
323.108	94.12
323.337	97.12
323.566	93.12
323.795	95.12
324.024	100.12
324.253	85.12
324.482	91.12
324.71	90.12
324.939	97.12
325.168	91.12
325.397	93.12
325.626	85.12
325.855	94.12
326.084	89.12
326.313	87.12
326.542	83.12
326.77	102.12
326.999	97.12
327.228	102.12
327.457	108.12
327.686	100.12
327.914	87.12
328.143	85.12
328.372	98.12
328.6	81.12
328.829	91.12
329.058	93.12
329.287	79.12
329.515	95.12
329.744	98.12
329.972	113.12
330.201	114.12
330.43	95.12
330.658	94.12
330.887	77.12
331.115	100.12
331.344	77.12
331.572	93.12
331.801	98.12
332.03	76.12
332.258	80.12
332.486	105.12
332.715	93.12
332.943	90.12
333.172	90.12
333.4	91.12
333.629	82.12
333.857	83.12
334.085	103.12
334.314	95.12
334.542	91.12
334.771	105.12
334.999	103.12
335.227	95.12
335.455	91.12
335.684	108.12
335.912	115.12
336.14	105.12
336.369	113.12
336.597	115.12
336.825	100.12
337.053	103.12
337.281	109.12
337.51	94.12
337.738	102.12
337.966	93.12
338.194	87.12
338.422	98.12
338.65	96.12
338.878	83.12
339.106	91.12
339.334	102.12
339.562	94.12
339.79	104.12
340.018	77.12
340.246	87.12
340.474	89.12
340.702	86.12
340.93	89.12
341.158	93.12
341.386	93.12
341.614	76.12
341.842	78.12
342.07	104.12
342.298	93.12
342.526	87.12
342.754	100.12
342.981	91.12
343.209	94.12
343.437	95.12
343.665	90.12
343.893	117.12
344.12	100.12
344.348	94.12
344.576	106.12
344.804	114.12
345.031	101.12
345.259	112.12
345.487	95.12
345.714	94.12
345.942	93.12
346.17	85.12
346.397	91.12
346.625	101.12
346.853	106.12
347.08	91.12
347.308	91.12
347.535	109.12
347.763	100.12
347.99	89.12
348.218	96.12
348.445	72.12
348.673	91.12
348.9	99.12
349.128	103.12
349.355	90.12
349.583	79.12
349.81	97.12
350.037	100.12
350.265	90.12
350.492	89.12
350.72	87.12
350.947	96.12
351.174	78.12
351.402	108.12
351.629	97.12
351.856	95.12
352.083	94.12
352.311	99.12
352.538	89.12
352.765	93.12
352.992	92.12
353.22	95.12
353.447	115.12
353.674	78.12
353.901	87.12
354.128	101.12
354.355	88.12
354.583	94.12
354.81	105.12
355.037	88.12
355.264	95.12
355.491	92.12
355.718	93.12
355.945	93.12
356.172	80.12
356.399	86.12
356.626	107.12
356.853	109.12
357.08	96.12
357.307	106.12
357.534	105.12
357.761	88.12
357.988	117.12
358.215	125.12
358.441	109.12
358.668	115.12
358.895	77.12
359.122	89.12
359.349	96.12
359.576	108.12
359.802	90.12
360.029	85.12
360.256	85.12
360.483	101.12
360.709	99.12
360.936	122.12
361.163	107.12
361.39	101.12
361.616	98.12
361.843	101.12
362.07	110.12
362.296	128.12
362.523	116.12
362.749	138.12
362.976	144.12
363.203	154.12
363.429	136.12
363.656	126.12
363.882	128.12
364.109	161.12
364.335	171.12
364.562	172.12
364.788	141.12
365.015	104.12
365.241	95.12
365.468	115.12
365.694	105.12
365.92	99.12
366.147	93.12
366.373	78.12
366.599	77.12
366.826	103.12
367.052	87.12
367.278	88.12
367.505	93.12
367.731	95.12
367.957	101.12
368.184	94.12
368.41	92.12
368.636	94.12
368.862	106.12
369.089	90.12
369.315	88.12
369.541	97.12
369.767	113.12
369.993	89.12
370.219	97.12
370.445	107.12
370.672	101.12
370.898	97.12
371.124	102.12
371.35	95.12
371.576	99.12
371.802	98.12
372.028	118.12
372.254	115.12
372.48	92.12
372.706	88.12
372.932	85.12
373.158	105.12
373.384	119.12
373.61	129.12
373.835	115.12
374.061	95.12
374.287	100.12
374.513	103.12
374.739	130.12
374.965	123.12
375.191	119.12
375.416	115.12
375.642	107.12
375.868	120.12
376.094	104.12
376.319	107.12
376.545	114.12
376.771	103.12
376.997	97.12
377.222	94.12
377.448	96.12
377.674	99.12
377.899	92.12
378.125	79.12
378.35	98.12
378.576	98.12
378.802	102.12
379.027	92.12
379.253	96.12
379.478	90.12
379.704	110.12
379.929	95.12
380.155	110.12
380.38	97.12
380.606	93.12
380.831	83.12
381.057	80.12
381.282	96.12
381.507	114.12
381.733	105.12
381.958	105.12
382.184	125.12
382.409	103.12
382.634	117.12
382.86	117.12
383.085	120.12
383.31	110.12
383.535	119.12
383.761	119.12
383.986	108.12
384.211	127.12
384.436	99.12
384.662	97.12
384.887	84.12
385.112	101.12
385.337	102.12
385.562	99.12
385.787	114.12
386.013	115.12
386.238	106.12
386.463	97.12
386.688	110.12
386.913	105.12
387.138	94.12
387.363	103.12
387.588	100.12
387.813	102.12
388.038	109.12
388.263	105.12
388.488	114.12
388.713	113.12
388.938	102.12
389.163	98.12
389.387	106.12
389.612	95.12
389.837	81.12
390.062	109.12
390.287	100.12
390.512	106.12
390.736	105.12
390.961	101.12
391.186	93.12
391.411	107.12
391.636	98.12
391.86	109.12
392.085	121.12
392.31	118.12
392.534	142.12
392.759	164.12
392.984	246.12
393.208	400.12
393.433	543.12
393.658	424.12
393.882	197.12
394.107	157.12
394.331	194.12
394.556	189.12
394.78	154.12
395.005	135.12
395.229	117.12
395.454	109.12
395.678	142.12
395.903	183.12
396.127	245.12
396.352	268.12
396.576	275.12
396.801	390.12
397.025	449.12
397.249	247.12
397.474	158.12
397.698	131.12
397.922	120.12
398.147	102.12
398.371	109.12
398.595	96.12
398.82	101.12
399.044	109.12
399.268	99.12
399.492	91.12
399.717	111.12
399.941	84.12
400.165	99.12
400.389	95.12
400.613	90.12
400.837	83.12
401.062	97.12
401.286	94.12
401.51	93.12
401.734	96.12
401.958	100.12
402.182	85.12
402.406	107.12
402.63	107.12
402.854	89.12
403.078	105.12
403.302	100.12
403.526	87.12
403.75	107.12
403.974	115.12
404.198	159.12
404.422	255.12
404.645	287.12
404.869	238.12
405.093	174.12
405.317	125.12
405.541	92.12
405.765	99.12
405.988	100.12
406.212	105.12
406.436	109.12
406.66	106.12
406.883	107.12
407.107	108.12
407.331	117.12
407.555	129.12
407.778	153.12
408.002	148.12
408.226	98.12
408.449	98.12
408.673	100.12
408.896	103.12
409.12	109.12
409.344	117.12
409.567	121.12
409.791	121.12
410.014	125.12
410.238	131.12
410.461	108.12
410.685	101.12
410.908	95.12
411.132	98.12
411.355	107.12
411.578	101.12
411.802	97.12
412.025	85.12
412.249	93.12
412.472	94.12
412.695	91.12
412.919	105.12
413.142	95.12
413.365	93.12
413.589	96.12
413.812	101.12
414.035	94.12
414.258	94.12
414.482	93.12
414.705	104.12
414.928	86.12
415.151	93.12
415.374	97.12
415.597	103.12
415.821	99.12
416.044	90.12
416.267	100.12
416.49	93.12
416.713	111.12
416.936	103.12
417.159	90.12
417.382	92.12
417.605	91.12
417.828	106.12
418.051	103.12
418.274	103.12
418.497	94.12
418.72	104.12
418.943	109.12
419.166	104.12
419.389	85.12
419.611	92.12
419.834	105.12
420.057	102.12
420.28	115.12
420.503	108.12
420.726	113.12
420.948	119.12
421.171	139.12
421.394	138.12
421.617	178.12
421.839	181.12
422.062	213.12
422.285	294.12
422.507	503.12
422.73	671.12
422.953	616.12
423.175	362.12
423.398	233.12
423.621	173.12
423.843	137.12
424.066	126.12
424.288	109.12
424.511	98.12
424.733	113.12
424.956	103.12
425.178	104.12
425.401	98.12
425.623	105.12
425.846	110.12
426.068	106.12
426.291	102.12
426.513	98.12
426.735	102.12
426.958	104.12
427.18	105.12
427.402	102.12
427.625	116.12
427.847	103.12
428.069	129.12
428.292	202.12
428.514	217.12
428.736	161.12
428.958	203.12
429.181	210.12
429.403	131.12
429.625	128.12
429.847	207.12
430.069	291.12
430.292	355.12
430.514	316.12
430.736	231.12
430.958	243.12
431.18	144.12
431.402	121.12
431.624	137.12
431.846	195.12
432.068	229.12
432.29	146.12
432.512	104.12
432.734	100.12
432.956	102.12
433.178	88.12
433.4	94.12
433.622	93.12
433.844	104.12
434.066	94.12
434.287	94.12
434.509	90.12
434.731	100.12
434.953	89.12
435.175	88.12
435.397	99.12
435.618	96.12
435.84	100.12
436.062	98.12
436.284	90.12
436.505	87.12
436.727	81.12
436.949	94.12
437.17	86.12
437.392	105.12
437.614	93.12
437.835	93.12
438.057	101.12
438.278	101.12
438.5	101.12
438.721	95.12
438.943	102.12
439.165	98.12
439.386	86.12
439.608	102.12
439.829	94.12
440.05	91.12
440.272	93.12
440.493	84.12
440.715	109.12
440.936	85.12
441.158	105.12
441.379	109.12
441.6	107.12
441.822	99.12
442.043	120.12
442.264	141.12
442.486	232.12
442.707	322.12
442.928	203.12
443.149	172.12
443.371	294.12
443.592	527.12
443.813	427.12
444.034	184.12
444.255	136.12
444.476	110.12
444.698	135.12
444.919	133.12
445.14	275.12
445.361	401.12
445.582	626.12
445.803	495.12
446.024	211.12
446.245	118.12
446.466	97.12
446.687	103.12
446.908	109.12
447.129	102.12
447.35	105.12
447.571	98.12
447.792	93.12
448.013	99.12
448.234	93.12
448.455	92.12
448.675	102.12
448.896	89.12
449.117	95.12
449.338	100.12
449.559	85.12
449.779	103.12
450	97.12
450.221	93.12
450.442	99.12
450.662	88.12
450.883	101.12
451.104	95.12
451.324	97.12
451.545	87.12
451.766	88.12
451.986	95.12
452.207	101.12
452.428	90.12
452.648	124.12
452.869	126.12
453.089	110.12
453.31	128.12
453.53	125.12
453.751	106.12
453.971	99.12
454.192	110.12
454.412	115.12
454.633	97.12
454.853	83.12
455.073	84.12
455.294	97.12
455.514	98.12
455.734	89.12
455.955	75.12
456.175	76.12
456.395	91.12
456.616	93.12
456.836	93.12
457.056	101.12
457.276	106.12
457.497	102.12
457.717	111.12
457.937	141.12
458.157	174.12
458.377	179.12
458.598	180.12
458.818	196.12
459.038	131.12
459.258	119.12
459.478	101.12
459.698	99.12
459.918	108.12
460.138	107.12
460.358	105.12
460.578	122.12
460.798	183.12
461.018	183.12
461.238	118.12
461.458	86.12
461.678	102.12
461.898	85.12
462.118	89.12
462.338	84.12
462.558	102.12
462.777	93.12
462.997	83.12
463.217	91.12
463.437	77.12
463.657	94.12
463.876	94.12
464.096	96.12
464.316	97.12
464.536	94.12
464.755	96.12
464.975	93.12
465.195	96.12
465.414	107.12
465.634	89.12
465.854	80.12
466.073	88.12
466.293	93.12
466.512	103.12
466.732	100.12
466.951	92.12
467.171	80.12
467.391	91.12
467.61	89.12
467.829	97.12
468.049	102.12
468.268	102.12
468.488	107.12
468.707	106.12
468.927	109.12
469.146	97.12
469.365	103.12
469.585	89.12
469.804	110.12
470.023	101.12
470.243	97.12
470.462	86.12
470.681	91.12
470.901	90.12
471.12	101.12
471.339	91.12
471.558	91.12
471.777	95.12
471.997	108.12
472.216	98.12
472.435	88.12
472.654	101.12
472.873	105.12
473.092	90.12
473.311	107.12
473.53	92.12
473.749	102.12
473.968	110.12
474.187	106.12
474.406	100.12
474.625	91.12
474.844	93.12
475.063	88.12
475.282	110.12
475.501	107.12
475.72	94.12
475.939	110.12
476.158	94.12
476.377	104.12
476.596	98.12
476.814	89.12
477.033	102.12
477.252	83.12
477.471	97.12
477.69	102.12
477.908	103.12
478.127	107.12
478.346	89.12
478.564	100.12
478.783	99.12
479.002	96.12
479.22	103.12
479.439	97.12
479.658	105.12
479.876	107.12
480.095	115.12
480.313	118.12
480.532	105.12
480.751	106.12
480.969	97.12
481.188	102.12
481.406	105.12
481.624	110.12
481.843	89.12
482.061	113.12
482.28	102.12
482.498	104.12
482.717	105.12
482.935	96.12
483.153	106.12
483.372	104.12
483.59	102.12
483.808	98.12
484.027	99.12
484.245	115.12
484.463	109.12
484.681	101.12
484.9	99.12
485.118	97.12
485.336	100.12
485.554	105.12
485.772	113.12
485.99	107.12
486.209	102.12
486.427	86.12
486.645	110.12
486.863	96.12
487.081	106.12
487.299	128.12
487.517	134.12
487.735	162.12
487.953	279.12
488.171	246.12
488.389	139.12
488.607	105.12
488.825	111.12
489.043	106.12
489.261	107.12
489.479	105.12
489.696	109.12
489.914	93.12
490.132	107.12
490.35	104.12
490.568	100.12
490.786	92.12
491.003	106.12
491.221	109.12
491.439	105.12
491.657	105.12
491.874	102.12
492.092	109.12
492.31	104.12
492.527	92.12
492.745	79.12
492.963	91.12
493.18	96.12
493.398	111.12
493.615	119.12
493.833	109.12
494.05	83.12
494.268	99.12
494.485	95.12
494.703	104.12
494.92	105.12
495.138	95.12
495.355	108.12
495.573	91.12
495.79	95.12
496.008	107.12
496.225	101.12
496.442	106.12
496.66	101.12
496.877	100.12
497.094	104.12
497.312	108.12
497.529	116.12
497.746	110.12
497.963	98.12
498.181	115.12
498.398	142.12
498.615	103.12
498.832	97.12
499.049	116.12
499.267	131.12
499.484	114.12
499.701	105.12
499.918	105.12
500.135	134.12
500.352	109.12
500.569	84.12
500.786	118.12
501.003	104.12
501.22	101.12
501.437	113.12
501.654	113.12
501.871	116.12
502.088	108.12
502.305	110.12
502.522	102.12
502.739	93.12
502.956	87.12
503.172	93.12
503.389	114.12
503.606	119.12
503.823	126.12
504.04	155.12
504.256	166.12
504.473	201.12
504.69	137.12
504.907	111.12
505.123	115.12
505.34	100.12
505.557	116.12
505.773	102.12
505.99	103.12
506.207	98.12
506.423	99.12
506.64	100.12
506.856	93.12
507.073	108.12
507.289	104.12
507.506	101.12
507.722	107.12
507.939	106.12
508.155	88.12
508.372	101.12
508.588	102.12
508.805	94.12
509.021	93.12
509.238	105.12
509.454	89.12
509.67	94.12
509.887	104.12
510.103	101.12
510.319	101.12
510.536	104.12
510.752	118.12
510.968	107.12
511.184	113.12
511.401	108.12
511.617	117.12
511.833	99.12
512.049	100.12
512.265	99.12
512.481	102.12
512.698	113.12
