Data from 2145_3_HRD10591_00030.txt Node
Date: Mon Jan 19 14:23:22 EST 2026
User: Yrep
Spectrometer: HR+D1059
Trigger mode: 1
Integration Time (sec): 1.000000E-1
Scans to average: 1
Electric dark correction enabled: true
Nonlinearity correction enabled: false
Boxcar width: 0
XAxis mode: Wavelengths
Number of Pixels in Spectrum: 2048
>>>>>Begin Spectral Data<<<<<
223.165	-26.56
223.4	-26.56
223.635	-26.56
223.869	-22.56
224.104	-23.56
224.338	-4.56
224.573	-0.56
224.808	-1.56
225.042	-11.56
225.277	-9.56
225.511	-2.56
225.746	8.44
225.98	9.44
226.215	13.44
226.449	11.44
226.683	9.44
226.918	18.44
227.152	32.44
227.387	26.44
227.621	26.44
227.856	54.44
228.09	50.44
228.324	36.44
228.559	54.44
228.793	54.44
229.027	58.44
229.262	72.44
229.496	61.44
229.73	60.44
229.964	60.44
230.199	74.44
230.433	77.44
230.667	72.44
230.901	68.44
231.136	73.44
231.37	74.44
231.604	77.44
231.838	78.44
232.072	70.44
232.306	72.44
232.541	70.44
232.775	74.44
233.009	69.44
233.243	73.44
233.477	82.44
233.711	76.44
233.945	59.44
234.179	70.44
234.413	84.44
234.647	75.44
234.881	72.44
235.115	71.44
235.349	87.44
235.583	82.44
235.817	76.44
236.051	67.44
236.285	67.44
236.519	88.44
236.753	58.44
236.987	95.44
237.221	78.44
237.455	76.44
237.689	78.44
237.922	82.44
238.156	75.44
238.39	78.44
238.624	62.44
238.858	77.44
239.091	66.44
239.325	64.44
239.559	90.44
239.793	69.44
240.027	74.44
240.26	74.44
240.494	89.44
240.728	71.44
240.961	87.44
241.195	86.44
241.429	70.44
241.662	69.44
241.896	77.44
242.13	68.44
242.363	77.44
242.597	73.44
242.83	73.44
243.064	82.44
243.298	71.44
243.531	88.44
243.765	65.44
243.998	71.44
244.232	78.44
244.465	72.44
244.699	71.44
244.932	72.44
245.166	70.44
245.399	69.44
245.633	60.44
245.866	80.44
246.099	85.44
246.333	81.44
246.566	67.44
246.8	81.44
247.033	64.44
247.266	72.44
247.5	77.44
247.733	64.44
247.966	69.44
248.2	85.44
248.433	78.44
248.666	67.44
248.899	78.44
249.133	66.44
249.366	73.44
249.599	81.44
249.832	92.44
250.066	80.44
250.299	78.44
250.532	81.44
250.765	83.44
250.998	67.44
251.231	73.44
251.465	71.44
251.698	77.44
251.931	81.44
252.164	87.44
252.397	90.44
252.63	84.44
252.863	81.44
253.096	81.44
253.329	83.44
253.562	67.44
253.795	74.44
254.028	72.44
254.261	74.44
254.494	81.44
254.727	78.44
254.96	72.44
255.193	66.44
255.426	77.44
255.659	81.44
255.892	87.44
256.124	96.44
256.357	70.44
256.59	90.44
256.823	62.44
257.056	81.44
257.289	70.44
257.521	61.44
257.754	72.44
257.987	84.44
258.22	84.44
258.452	80.44
258.685	75.44
258.918	64.44
259.151	93.44
259.383	76.44
259.616	72.44
259.849	75.44
260.081	64.44
260.314	72.44
260.547	82.44
260.779	74.44
261.012	73.44
261.244	79.44
261.477	82.44
261.71	80.44
261.942	88.44
262.175	78.44
262.407	77.44
262.64	78.44
262.872	83.44
263.105	88.44
263.337	82.44
263.57	73.44
263.802	80.44
264.035	72.44
264.267	81.44
264.499	76.44
264.732	95.44
264.964	83.44
265.197	83.44
265.429	92.44
265.661	81.44
265.894	74.44
266.126	80.44
266.358	89.44
266.591	70.44
266.823	76.44
267.055	70.44
267.287	83.44
267.52	90.44
267.752	72.44
267.984	77.44
268.216	68.44
268.448	64.44
268.681	78.44
268.913	87.44
269.145	76.44
269.377	81.44
269.609	73.44
269.841	81.44
270.073	77.44
270.306	88.44
270.538	87.44
270.77	97.44
271.002	81.44
271.234	72.44
271.466	80.44
271.698	83.44
271.93	89.44
272.162	100.44
272.394	75.44
272.626	84.44
272.858	71.44
273.09	77.44
273.322	84.44
273.553	75.44
273.785	92.44
274.017	82.44
274.249	81.44
274.481	95.44
274.713	80.44
274.945	84.44
275.176	71.44
275.408	76.44
275.64	83.44
275.872	84.44
276.104	92.44
276.335	72.44
276.567	83.44
276.799	75.44
277.031	76.44
277.262	84.44
277.494	88.44
277.726	79.44
277.957	81.44
278.189	78.44
278.421	66.44
278.652	75.44
278.884	94.44
279.115	89.44
279.347	84.44
279.579	75.44
279.81	78.44
280.042	81.44
280.273	73.44
280.505	69.44
280.736	93.44
280.968	80.44
281.199	84.44
281.431	87.44
281.662	80.44
281.894	84.44
282.125	93.44
282.356	84.44
282.588	78.44
282.819	86.44
283.051	73.44
283.282	86.44
283.513	95.44
283.745	89.44
283.976	80.44
284.207	82.44
284.439	93.44
284.67	77.44
284.901	99.44
285.132	65.44
285.364	100.44
285.595	90.44
285.826	90.44
286.057	86.44
286.288	82.44
286.52	86.44
286.751	81.44
286.982	70.44
287.213	74.44
287.444	82.44
287.675	95.44
287.906	92.44
288.138	90.44
288.369	82.44
288.6	88.44
288.831	75.44
289.062	82.44
289.293	83.44
289.524	80.44
289.755	84.44
289.986	82.44
290.217	78.44
290.448	93.44
290.679	84.44
290.91	80.44
291.141	80.44
291.371	83.44
291.602	77.44
291.833	86.44
292.064	82.44
292.295	88.44
292.526	96.44
292.757	79.44
292.987	89.44
293.218	75.44
293.449	82.44
293.68	64.44
293.91	92.44
294.141	88.44
294.372	85.44
294.603	92.44
294.833	80.44
295.064	75.44
295.295	85.44
295.525	75.44
295.756	89.44
295.987	84.44
296.217	81.44
296.448	87.44
296.679	86.44
296.909	94.44
297.14	73.44
297.37	100.44
297.601	76.44
297.831	95.44
298.062	80.44
298.292	85.44
298.523	91.44
298.753	101.44
298.984	90.44
299.214	80.44
299.445	79.44
299.675	97.44
299.905	89.44
300.136	94.44
300.366	90.44
300.597	92.44
300.827	94.44
301.057	80.44
301.288	80.44
301.518	77.44
301.748	79.44
301.979	91.44
302.209	91.44
302.439	90.44
302.669	97.44
302.9	82.44
303.13	88.44
303.36	88.44
303.59	73.44
303.82	95.44
304.051	76.44
304.281	84.44
304.511	109.44
304.741	88.44
304.971	98.44
305.201	90.44
305.431	80.44
305.661	84.44
305.891	73.44
306.121	92.44
306.352	88.44
306.582	80.44
306.812	98.44
307.042	88.44
307.272	75.44
307.502	89.44
307.731	94.44
307.961	90.44
308.191	100.44
308.421	106.44
308.651	90.44
308.881	100.44
309.111	102.44
309.341	106.44
309.571	105.44
309.8	80.44
310.03	80.44
310.26	90.44
310.49	87.44
310.72	78.44
310.949	75.44
311.179	80.44
311.409	76.44
311.639	91.44
311.868	82.44
312.098	68.44
312.328	92.44
312.557	90.44
312.787	71.44
313.017	77.44
313.246	91.44
313.476	90.44
313.706	88.44
313.935	74.44
314.165	94.44
314.394	88.44
314.624	84.44
314.853	79.44
315.083	87.44
315.312	82.44
315.542	96.44
315.771	97.44
316.001	101.44
316.23	106.44
316.46	81.44
316.689	65.44
316.919	96.44
317.148	98.44
317.377	87.44
317.607	91.44
317.836	105.44
318.065	92.44
318.295	100.44
318.524	82.44
318.753	80.44
318.983	87.44
319.212	93.44
319.441	82.44
319.67	87.44
319.9	84.44
320.129	100.44
320.358	88.44
320.587	94.44
320.816	72.44
321.046	89.44
321.275	95.44
321.504	86.44
321.733	94.44
321.962	84.44
322.191	89.44
322.42	93.44
322.649	88.44
322.878	102.44
323.108	78.44
323.337	78.44
323.566	88.44
323.795	101.44
324.024	82.44
324.253	80.44
324.482	78.44
324.71	88.44
324.939	78.44
325.168	75.44
325.397	94.44
325.626	81.44
325.855	83.44
326.084	80.44
326.313	92.44
326.542	101.44
326.77	81.44
326.999	80.44
327.228	87.44
327.457	95.44
327.686	82.44
327.914	84.44
328.143	89.44
328.372	96.44
328.6	84.44
328.829	92.44
329.058	70.44
329.287	87.44
329.515	84.44
329.744	80.44
329.972	109.44
330.201	106.44
330.43	80.44
330.658	88.44
330.887	79.44
331.115	78.44
331.344	85.44
331.572	90.44
331.801	79.44
332.03	81.44
332.258	81.44
332.486	94.44
332.715	92.44
332.943	88.44
333.172	88.44
333.4	84.44
333.629	80.44
333.857	96.44
334.085	93.44
334.314	94.44
334.542	108.44
334.771	102.44
334.999	91.44
335.227	102.44
335.455	94.44
335.684	108.44
335.912	101.44
336.14	106.44
336.369	104.44
336.597	92.44
336.825	89.44
337.053	88.44
337.281	82.44
337.51	83.44
337.738	85.44
337.966	87.44
338.194	97.44
338.422	89.44
338.65	94.44
338.878	80.44
339.106	80.44
339.334	94.44
339.562	88.44
339.79	79.44
340.018	88.44
340.246	79.44
340.474	77.44
340.702	101.44
340.93	74.44
341.158	71.44
341.386	93.44
341.614	85.44
341.842	83.44
342.07	87.44
342.298	93.44
342.526	73.44
342.754	94.44
342.981	99.44
343.209	100.44
343.437	94.44
343.665	95.44
343.893	85.44
344.12	89.44
344.348	97.44
344.576	118.44
344.804	126.44
345.031	105.44
345.259	96.44
345.487	94.44
345.714	85.44
345.942	89.44
346.17	96.44
346.397	84.44
346.625	85.44
346.853	101.44
347.08	91.44
347.308	96.44
347.535	92.44
347.763	89.44
347.99	84.44
348.218	84.44
348.445	94.44
348.673	88.44
348.9	92.44
349.128	103.44
349.355	94.44
349.583	82.44
349.81	90.44
350.037	94.44
350.265	84.44
350.492	90.44
350.72	90.44
350.947	85.44
351.174	103.44
351.402	93.44
351.629	78.44
351.856	80.44
352.083	69.44
352.311	104.44
352.538	90.44
352.765	110.44
352.992	96.44
353.22	91.44
353.447	89.44
353.674	92.44
353.901	101.44
354.128	95.44
354.355	96.44
354.583	95.44
354.81	99.44
355.037	97.44
355.264	88.44
355.491	96.44
355.718	91.44
355.945	86.44
356.172	92.44
356.399	86.44
356.626	89.44
356.853	77.44
357.08	101.44
357.307	103.44
357.534	96.44
357.761	92.44
357.988	98.44
358.215	95.44
358.441	84.44
358.668	80.44
358.895	104.44
359.122	96.44
359.349	85.44
359.576	94.44
359.802	93.44
360.029	84.44
360.256	74.44
360.483	84.44
360.709	92.44
360.936	101.44
361.163	100.44
361.39	96.44
361.616	97.44
361.843	115.44
362.07	105.44
362.296	124.44
362.523	137.44
362.749	144.44
362.976	145.44
363.203	153.44
363.429	114.44
363.656	120.44
363.882	126.44
364.109	139.44
364.335	174.44
364.562	176.44
364.788	149.44
365.015	104.44
365.241	99.44
365.468	109.44
365.694	99.44
365.92	105.44
366.147	91.44
366.373	88.44
366.599	88.44
366.826	78.44
367.052	90.44
367.278	89.44
367.505	91.44
367.731	100.44
367.957	93.44
368.184	92.44
368.41	97.44
368.636	94.44
368.862	97.44
369.089	98.44
369.315	94.44
369.541	100.44
369.767	89.44
369.993	90.44
370.219	101.44
370.445	104.44
370.672	97.44
370.898	88.44
371.124	80.44
371.35	78.44
371.576	112.44
371.802	105.44
372.028	100.44
372.254	110.44
372.48	90.44
372.706	84.44
372.932	85.44
373.158	113.44
373.384	110.44
373.61	105.44
373.835	112.44
374.061	96.44
374.287	101.44
374.513	102.44
374.739	113.44
374.965	97.44
375.191	95.44
375.416	109.44
375.642	107.44
375.868	80.44
376.094	93.44
376.319	87.44
376.545	91.44
376.771	92.44
376.997	99.44
377.222	96.44
377.448	93.44
377.674	83.44
377.899	87.44
378.125	77.44
378.35	92.44
378.576	81.44
378.802	91.44
379.027	85.44
379.253	82.44
379.478	87.44
379.704	96.44
379.929	102.44
380.155	80.44
380.38	79.44
380.606	98.44
380.831	96.44
381.057	98.44
381.282	89.44
381.507	78.44
381.733	102.44
381.958	102.44
382.184	122.44
382.409	103.44
382.634	96.44
382.86	97.44
383.085	101.44
383.31	100.44
383.535	110.44
383.761	96.44
383.986	103.44
384.211	100.44
384.436	96.44
384.662	90.44
384.887	105.44
385.112	96.44
385.337	102.44
385.562	94.44
385.787	81.44
386.013	104.44
386.238	115.44
386.463	100.44
386.688	105.44
386.913	99.44
387.138	100.44
387.363	104.44
387.588	109.44
387.813	91.44
388.038	90.44
388.263	101.44
388.488	78.44
388.713	95.44
388.938	106.44
389.163	89.44
389.387	72.44
389.612	97.44
389.837	92.44
390.062	91.44
390.287	109.44
390.512	100.44
390.736	95.44
390.961	96.44
391.186	102.44
391.411	95.44
391.636	102.44
391.86	103.44
392.085	112.44
392.31	114.44
392.534	131.44
392.759	152.44
392.984	250.44
393.208	456.44
393.433	646.44
393.658	483.44
393.882	212.44
394.107	148.44
394.331	156.44
394.556	172.44
394.78	126.44
395.005	120.44
395.229	120.44
395.454	117.44
395.678	140.44
395.903	185.44
396.127	220.44
396.352	258.44
396.576	302.44
396.801	480.44
397.025	517.44
397.249	270.44
397.474	167.44
397.698	138.44
397.922	112.44
398.147	102.44
398.371	82.44
398.595	95.44
398.82	82.44
399.044	93.44
399.268	92.44
399.492	103.44
399.717	113.44
399.941	92.44
400.165	100.44
400.389	88.44
400.613	87.44
400.837	90.44
401.062	87.44
401.286	96.44
401.51	90.44
401.734	103.44
401.958	92.44
402.182	91.44
402.406	98.44
402.63	87.44
402.854	106.44
403.078	100.44
403.302	108.44
403.526	106.44
403.75	124.44
403.974	142.44
404.198	210.44
404.422	356.44
404.645	440.44
404.869	374.44
405.093	222.44
405.317	124.44
405.541	100.44
405.765	100.44
405.988	94.44
406.212	97.44
406.436	85.44
406.66	92.44
406.883	115.44
407.107	90.44
407.331	104.44
407.555	127.44
407.778	135.44
408.002	137.44
408.226	114.44
408.449	111.44
408.673	90.44
408.896	102.44
409.12	101.44
409.344	110.44
409.567	123.44
409.791	118.44
410.014	131.44
410.238	114.44
410.461	100.44
410.685	114.44
410.908	105.44
411.132	98.44
411.355	101.44
411.578	98.44
411.802	89.44
412.025	88.44
412.249	92.44
412.472	102.44
412.695	103.44
412.919	100.44
413.142	92.44
413.365	87.44
413.589	89.44
413.812	93.44
414.035	99.44
414.258	87.44
414.482	96.44
414.705	88.44
414.928	85.44
415.151	82.44
415.374	101.44
415.597	92.44
415.821	99.44
416.044	96.44
416.267	97.44
416.49	85.44
416.713	88.44
416.936	97.44
417.159	94.44
417.382	83.44
417.605	72.44
417.828	105.44
418.051	89.44
418.274	96.44
418.497	95.44
418.72	97.44
418.943	91.44
419.166	102.44
419.389	91.44
419.611	96.44
419.834	101.44
420.057	85.44
420.28	116.44
420.503	113.44
420.726	101.44
420.948	105.44
421.171	116.44
421.394	144.44
421.617	170.44
421.839	190.44
422.062	246.44
422.285	374.44
422.507	674.44
422.73	933.44
422.953	835.44
423.175	466.44
423.398	270.44
423.621	195.44
423.843	142.44
424.066	138.44
424.288	120.44
424.511	96.44
424.733	110.44
424.956	94.44
425.178	92.44
425.401	116.44
425.623	98.44
425.846	100.44
426.068	89.44
426.291	103.44
426.513	98.44
426.735	87.44
426.958	86.44
427.18	111.44
427.402	104.44
427.625	105.44
427.847	121.44
428.069	140.44
428.292	222.44
428.514	286.44
428.736	201.44
428.958	270.44
429.181	268.44
429.403	125.44
429.625	140.44
429.847	231.44
430.069	374.44
430.292	448.44
430.514	409.44
430.736	282.44
430.958	283.44
431.18	145.44
431.402	120.44
431.624	147.44
431.846	223.44
432.068	285.44
432.29	137.44
432.512	103.44
432.734	98.44
432.956	95.44
433.178	92.44
433.4	78.44
433.622	106.44
433.844	88.44
434.066	89.44
434.287	93.44
434.509	82.44
434.731	89.44
434.953	87.44
435.175	86.44
435.397	88.44
435.618	93.44
435.84	104.44
436.062	99.44
436.284	95.44
436.505	87.44
436.727	92.44
436.949	96.44
437.17	102.44
437.392	110.44
437.614	104.44
437.835	89.44
438.057	93.44
438.278	100.44
438.5	116.44
438.721	102.44
438.943	93.44
439.165	96.44
439.386	91.44
439.608	90.44
439.829	102.44
440.05	84.44
440.272	78.44
440.493	108.44
440.715	99.44
440.936	100.44
441.158	99.44
441.379	89.44
441.6	95.44
441.822	111.44
442.043	120.44
442.264	164.44
442.486	260.44
442.707	379.44
442.928	252.44
443.149	212.44
443.371	360.44
443.592	656.44
443.813	524.44
444.034	200.44
444.255	128.44
444.476	132.44
444.698	123.44
444.919	147.44
445.14	271.44
445.361	477.44
445.582	823.44
445.803	673.44
446.024	255.44
446.245	134.44
446.466	118.44
446.687	92.44
446.908	91.44
447.129	101.44
447.35	108.44
447.571	69.44
447.792	103.44
448.013	75.44
448.234	88.44
448.455	88.44
448.675	88.44
448.896	84.44
449.117	94.44
449.338	90.44
449.559	103.44
449.779	87.44
450	95.44
450.221	91.44
450.442	82.44
450.662	88.44
450.883	84.44
451.104	103.44
451.324	97.44
451.545	97.44
451.766	94.44
451.986	93.44
452.207	96.44
452.428	97.44
452.648	100.44
452.869	105.44
453.089	114.44
453.31	111.44
453.53	98.44
453.751	86.44
453.971	99.44
454.192	88.44
454.412	108.44
454.633	85.44
454.853	78.44
455.073	93.44
455.294	85.44
455.514	101.44
455.734	99.44
455.955	89.44
456.175	86.44
456.395	80.44
456.616	100.44
456.836	83.44
457.056	92.44
457.276	84.44
457.497	95.44
457.717	119.44
457.937	133.44
458.157	189.44
458.377	212.44
458.598	186.44
458.818	191.44
459.038	150.44
459.258	108.44
459.478	99.44
459.698	82.44
459.918	85.44
460.138	96.44
460.358	85.44
460.578	139.44
460.798	207.44
461.018	210.44
461.238	116.44
461.458	82.44
461.678	108.44
461.898	96.44
462.118	94.44
462.338	103.44
462.558	80.44
462.777	89.44
462.997	82.44
463.217	90.44
463.437	95.44
463.657	90.44
463.876	89.44
464.096	84.44
464.316	95.44
464.536	81.44
464.755	81.44
464.975	85.44
465.195	81.44
465.414	79.44
465.634	92.44
465.854	105.44
466.073	89.44
466.293	85.44
466.512	90.44
466.732	88.44
466.951	93.44
467.171	91.44
467.391	108.44
467.61	86.44
467.829	104.44
468.049	101.44
468.268	95.44
468.488	92.44
468.707	98.44
468.927	99.44
469.146	94.44
469.365	100.44
469.585	91.44
469.804	95.44
470.023	84.44
470.243	92.44
470.462	79.44
470.681	98.44
470.901	75.44
471.12	78.44
471.339	79.44
471.558	94.44
471.777	99.44
471.997	90.44
472.216	78.44
472.435	88.44
472.654	109.44
472.873	108.44
473.092	103.44
473.311	88.44
473.53	96.44
473.749	102.44
473.968	105.44
474.187	88.44
474.406	96.44
474.625	105.44
474.844	102.44
475.063	86.44
475.282	96.44
475.501	101.44
475.72	96.44
475.939	93.44
476.158	90.44
476.377	99.44
476.596	105.44
476.814	98.44
477.033	97.44
477.252	104.44
477.471	93.44
477.69	100.44
477.908	97.44
478.127	94.44
478.346	85.44
478.564	96.44
478.783	90.44
479.002	91.44
479.22	101.44
479.439	88.44
479.658	91.44
479.876	90.44
480.095	97.44
480.313	96.44
480.532	105.44
480.751	102.44
480.969	97.44
481.188	102.44
481.406	112.44
481.624	92.44
481.843	90.44
482.061	97.44
482.28	96.44
482.498	101.44
482.717	105.44
482.935	97.44
483.153	102.44
483.372	101.44
483.59	94.44
483.808	97.44
484.027	105.44
484.245	105.44
484.463	106.44
484.681	110.44
484.9	96.44
485.118	85.44
485.336	102.44
485.554	98.44
485.772	113.44
485.99	101.44
486.209	93.44
486.427	84.44
486.645	99.44
486.863	92.44
487.081	103.44
487.299	115.44
487.517	142.44
487.735	169.44
487.953	280.44
488.171	265.44
488.389	156.44
488.607	105.44
488.825	110.44
489.043	96.44
489.261	113.44
489.479	102.44
489.696	92.44
489.914	103.44
490.132	102.44
490.35	88.44
490.568	108.44
490.786	100.44
491.003	110.44
491.221	94.44
491.439	92.44
491.657	87.44
491.874	91.44
492.092	93.44
492.31	100.44
492.527	85.44
492.745	90.44
492.963	88.44
493.18	114.44
493.398	92.44
493.615	90.44
493.833	100.44
494.05	92.44
494.268	96.44
494.485	103.44
494.703	108.44
494.92	103.44
495.138	98.44
495.355	96.44
495.573	97.44
495.79	108.44
496.008	97.44
496.225	102.44
496.442	109.44
496.66	106.44
496.877	93.44
497.094	115.44
497.312	90.44
497.529	88.44
497.746	114.44
497.963	101.44
498.181	103.44
498.398	110.44
498.615	107.44
498.832	93.44
499.049	93.44
499.267	105.44
499.484	105.44
499.701	103.44
499.918	100.44
500.135	111.44
500.352	106.44
500.569	102.44
500.786	120.44
501.003	113.44
501.22	100.44
501.437	104.44
501.654	89.44
501.871	105.44
502.088	108.44
502.305	103.44
502.522	116.44
502.739	100.44
502.956	94.44
503.172	103.44
503.389	117.44
503.606	113.44
503.823	109.44
504.04	148.44
504.256	188.44
504.473	194.44
504.69	133.44
504.907	127.44
505.123	93.44
505.34	112.44
505.557	104.44
505.773	109.44
505.99	110.44
506.207	84.44
506.423	90.44
506.64	111.44
506.856	102.44
507.073	91.44
507.289	97.44
507.506	99.44
507.722	101.44
507.939	78.44
508.155	105.44
508.372	92.44
508.588	96.44
508.805	87.44
509.021	108.44
509.238	80.44
509.454	95.44
509.67	99.44
509.887	95.44
510.103	83.44
510.319	95.44
510.536	96.44
510.752	112.44
510.968	102.44
511.184	118.44
511.401	112.44
511.617	122.44
511.833	110.44
512.049	115.44
512.265	108.44
512.481	109.44
512.698	92.44
512.914	106.44
513.13	95.44
513.346	98.44
513.562	103.44
513.778	114.44
513.994	87.44
514.21	102.44
514.426	87.44
514.642	92.44
