Data from 2145_3_HRD10591_00031.txt Node
Date: Mon Jan 19 14:23:22 EST 2026
User: Yrep
Spectrometer: HR+D1059
Trigger mode: 1
Integration Time (sec): 1.000000E-1
Scans to average: 1
Electric dark correction enabled: true
Nonlinearity correction enabled: false
Boxcar width: 0
XAxis mode: Wavelengths
Number of Pixels in Spectrum: 2048
>>>>>Begin Spectral Data<<<<<
223.165	-19.69
223.4	-19.69
223.635	-19.69
223.869	-14.69
224.104	-25.69
224.338	-16.69
224.573	-15.69
224.808	-6.69
225.042	-2.69
225.277	-9.69
225.511	-3.69
225.746	7.31
225.98	2.31
226.215	3.31
226.449	16.31
226.683	20.31
226.918	29.31
227.152	36.31
227.387	38.31
227.621	34.31
227.856	59.31
228.09	55.31
228.324	54.31
228.559	58.31
228.793	40.31
229.027	53.31
229.262	69.31
229.496	76.31
229.73	66.31
229.964	74.31
230.199	74.31
230.433	86.31
230.667	66.31
230.901	82.31
231.136	73.31
231.37	97.31
231.604	89.31
231.838	71.31
232.072	79.31
232.306	83.31
232.541	77.31
232.775	80.31
233.009	79.31
233.243	83.31
233.477	76.31
233.711	88.31
233.945	83.31
234.179	86.31
234.413	84.31
234.647	83.31
234.881	86.31
235.115	65.31
235.349	74.31
235.583	67.31
235.817	85.31
236.051	68.31
236.285	72.31
236.519	67.31
236.753	67.31
236.987	105.31
237.221	77.31
237.455	73.31
237.689	71.31
237.922	65.31
238.156	77.31
238.39	72.31
238.624	84.31
238.858	89.31
239.091	77.31
239.325	71.31
239.559	83.31
239.793	91.31
240.027	69.31
240.26	73.31
240.494	72.31
240.728	92.31
240.961	79.31
241.195	75.31
241.429	77.31
241.662	79.31
241.896	67.31
242.13	58.31
242.363	76.31
242.597	83.31
242.83	96.31
243.064	79.31
243.298	87.31
243.531	59.31
243.765	74.31
243.998	76.31
244.232	74.31
244.465	91.31
244.699	78.31
244.932	78.31
245.166	78.31
245.399	70.31
245.633	86.31
245.866	73.31
246.099	76.31
246.333	82.31
246.566	72.31
246.8	70.31
247.033	73.31
247.266	73.31
247.5	88.31
247.733	78.31
247.966	70.31
248.2	93.31
248.433	87.31
248.666	77.31
248.899	77.31
249.133	86.31
249.366	85.31
249.599	82.31
249.832	83.31
250.066	85.31
250.299	64.31
250.532	68.31
250.765	61.31
250.998	88.31
251.231	94.31
251.465	82.31
251.698	97.31
251.931	63.31
252.164	73.31
252.397	74.31
252.63	92.31
252.863	93.31
253.096	78.31
253.329	93.31
253.562	80.31
253.795	84.31
254.028	79.31
254.261	94.31
254.494	81.31
254.727	82.31
254.96	79.31
255.193	80.31
255.426	81.31
255.659	84.31
255.892	79.31
256.124	66.31
256.357	81.31
256.59	77.31
256.823	82.31
257.056	86.31
257.289	85.31
257.521	93.31
257.754	81.31
257.987	83.31
258.22	77.31
258.452	74.31
258.685	72.31
258.918	76.31
259.151	78.31
259.383	76.31
259.616	77.31
259.849	88.31
260.081	68.31
260.314	66.31
260.547	82.31
260.779	90.31
261.012	76.31
261.244	77.31
261.477	79.31
261.71	70.31
261.942	74.31
262.175	97.31
262.407	65.31
262.64	85.31
262.872	80.31
263.105	84.31
263.337	84.31
263.57	70.31
263.802	83.31
264.035	94.31
264.267	86.31
264.499	70.31
264.732	91.31
264.964	89.31
265.197	97.31
265.429	79.31
265.661	99.31
265.894	79.31
266.126	82.31
266.358	76.31
266.591	82.31
266.823	75.31
267.055	76.31
267.287	78.31
267.52	84.31
267.752	82.31
267.984	70.31
268.216	70.31
268.448	75.31
268.681	87.31
268.913	77.31
269.145	75.31
269.377	71.31
269.609	75.31
269.841	67.31
270.073	84.31
270.306	74.31
270.538	86.31
270.77	88.31
271.002	80.31
271.234	82.31
271.466	75.31
271.698	66.31
271.93	89.31
272.162	89.31
272.394	81.31
272.626	80.31
272.858	75.31
273.09	68.31
273.322	82.31
273.553	75.31
273.785	87.31
274.017	74.31
274.249	89.31
274.481	76.31
274.713	84.31
274.945	90.31
275.176	83.31
275.408	76.31
275.64	85.31
275.872	69.31
276.104	77.31
276.335	79.31
276.567	86.31
276.799	65.31
277.031	74.31
277.262	92.31
277.494	107.31
277.726	91.31
277.957	91.31
278.189	77.31
278.421	70.31
278.652	75.31
278.884	74.31
279.115	91.31
279.347	82.31
279.579	85.31
279.81	79.31
280.042	81.31
280.273	93.31
280.505	73.31
280.736	76.31
280.968	87.31
281.199	79.31
281.431	77.31
281.662	92.31
281.894	90.31
282.125	86.31
282.356	77.31
282.588	84.31
282.819	74.31
283.051	83.31
283.282	96.31
283.513	89.31
283.745	89.31
283.976	100.31
284.207	94.31
284.439	87.31
284.67	90.31
284.901	78.31
285.132	83.31
285.364	82.31
285.595	84.31
285.826	76.31
286.057	93.31
286.288	78.31
286.52	85.31
286.751	72.31
286.982	80.31
287.213	72.31
287.444	86.31
287.675	88.31
287.906	78.31
288.138	74.31
288.369	81.31
288.6	88.31
288.831	87.31
289.062	85.31
289.293	89.31
289.524	80.31
289.755	80.31
289.986	81.31
290.217	88.31
290.448	81.31
290.679	77.31
290.91	84.31
291.141	80.31
291.371	94.31
291.602	78.31
291.833	73.31
292.064	92.31
292.295	87.31
292.526	95.31
292.757	88.31
292.987	68.31
293.218	89.31
293.449	84.31
293.68	88.31
293.91	71.31
294.141	79.31
294.372	97.31
294.603	87.31
294.833	73.31
295.064	84.31
295.295	76.31
295.525	99.31
295.756	82.31
295.987	80.31
296.217	91.31
296.448	88.31
296.679	96.31
296.909	86.31
297.14	88.31
297.37	83.31
297.601	81.31
297.831	78.31
298.062	88.31
298.292	86.31
298.523	76.31
298.753	84.31
298.984	89.31
299.214	70.31
299.445	73.31
299.675	91.31
299.905	98.31
300.136	96.31
300.366	97.31
300.597	96.31
300.827	90.31
301.057	88.31
301.288	82.31
301.518	85.31
301.748	78.31
301.979	116.31
302.209	92.31
302.439	84.31
302.669	96.31
302.9	92.31
303.13	92.31
303.36	89.31
303.59	98.31
303.82	96.31
304.051	92.31
304.281	84.31
304.511	88.31
304.741	83.31
304.971	92.31
305.201	97.31
305.431	70.31
305.661	77.31
305.891	85.31
306.121	84.31
306.352	89.31
306.582	76.31
306.812	84.31
307.042	79.31
307.272	76.31
307.502	75.31
307.731	93.31
307.961	101.31
308.191	89.31
308.421	84.31
308.651	89.31
308.881	107.31
309.111	101.31
309.341	103.31
309.571	87.31
309.8	83.31
310.03	89.31
310.26	96.31
310.49	85.31
310.72	94.31
310.949	88.31
311.179	84.31
311.409	95.31
311.639	91.31
311.868	82.31
312.098	82.31
312.328	92.31
312.557	95.31
312.787	85.31
313.017	91.31
313.246	95.31
313.476	78.31
313.706	89.31
313.935	76.31
314.165	96.31
314.394	82.31
314.624	86.31
314.853	82.31
315.083	89.31
315.312	76.31
315.542	94.31
315.771	91.31
316.001	92.31
316.23	92.31
316.46	88.31
316.689	86.31
316.919	101.31
317.148	73.31
317.377	82.31
317.607	82.31
317.836	72.31
318.065	101.31
318.295	99.31
318.524	93.31
318.753	84.31
318.983	85.31
319.212	94.31
319.441	72.31
319.67	91.31
319.9	83.31
320.129	94.31
320.358	88.31
320.587	78.31
320.816	86.31
321.046	94.31
321.275	86.31
321.504	84.31
321.733	89.31
321.962	87.31
322.191	90.31
322.42	91.31
322.649	97.31
322.878	81.31
323.108	93.31
323.337	86.31
323.566	84.31
323.795	101.31
324.024	91.31
324.253	85.31
324.482	101.31
324.71	90.31
324.939	76.31
325.168	84.31
325.397	90.31
325.626	81.31
325.855	84.31
326.084	90.31
326.313	86.31
326.542	97.31
326.77	98.31
326.999	86.31
327.228	98.31
327.457	94.31
327.686	76.31
327.914	85.31
328.143	90.31
328.372	99.31
328.6	92.31
328.829	70.31
329.058	87.31
329.287	82.31
329.515	101.31
329.744	90.31
329.972	99.31
330.201	88.31
330.43	78.31
330.658	86.31
330.887	83.31
331.115	93.31
331.344	76.31
331.572	73.31
331.801	84.31
332.03	90.31
332.258	100.31
332.486	90.31
332.715	100.31
332.943	76.31
333.172	84.31
333.4	82.31
333.629	88.31
333.857	82.31
334.085	83.31
334.314	93.31
334.542	89.31
334.771	89.31
334.999	82.31
335.227	91.31
335.455	82.31
335.684	86.31
335.912	84.31
336.14	85.31
336.369	82.31
336.597	92.31
336.825	78.31
337.053	90.31
337.281	82.31
337.51	79.31
337.738	102.31
337.966	97.31
338.194	85.31
338.422	91.31
338.65	89.31
338.878	85.31
339.106	89.31
339.334	102.31
339.562	81.31
339.79	84.31
340.018	79.31
340.246	89.31
340.474	66.31
340.702	88.31
340.93	83.31
341.158	102.31
341.386	93.31
341.614	77.31
341.842	81.31
342.07	100.31
342.298	81.31
342.526	78.31
342.754	78.31
342.981	87.31
343.209	88.31
343.437	89.31
343.665	80.31
343.893	99.31
344.12	103.31
344.348	94.31
344.576	103.31
344.804	100.31
345.031	92.31
345.259	84.31
345.487	90.31
345.714	92.31
345.942	81.31
346.17	81.31
346.397	102.31
346.625	100.31
346.853	86.31
347.08	83.31
347.308	85.31
347.535	82.31
347.763	86.31
347.99	90.31
348.218	88.31
348.445	80.31
348.673	97.31
348.9	87.31
349.128	107.31
349.355	103.31
349.583	82.31
349.81	75.31
350.037	87.31
350.265	77.31
350.492	88.31
350.72	78.31
350.947	83.31
351.174	88.31
351.402	77.31
351.629	93.31
351.856	88.31
352.083	87.31
352.311	91.31
352.538	82.31
352.765	83.31
352.992	100.31
353.22	95.31
353.447	85.31
353.674	99.31
353.901	97.31
354.128	90.31
354.355	97.31
354.583	83.31
354.81	84.31
355.037	94.31
355.264	100.31
355.491	89.31
355.718	86.31
355.945	80.31
356.172	77.31
356.399	101.31
356.626	100.31
356.853	91.31
357.08	89.31
357.307	91.31
357.534	88.31
357.761	92.31
357.988	78.31
358.215	94.31
358.441	104.31
358.668	82.31
358.895	88.31
359.122	88.31
359.349	89.31
359.576	97.31
359.802	92.31
360.029	74.31
360.256	84.31
360.483	88.31
360.709	102.31
360.936	104.31
361.163	82.31
361.39	89.31
361.616	99.31
361.843	94.31
362.07	84.31
362.296	94.31
362.523	104.31
362.749	102.31
362.976	119.31
363.203	114.31
363.429	106.31
363.656	102.31
363.882	104.31
364.109	109.31
364.335	125.31
364.562	114.31
364.788	88.31
365.015	92.31
365.241	87.31
365.468	88.31
365.694	84.31
365.92	84.31
366.147	98.31
366.373	91.31
366.599	88.31
366.826	82.31
367.052	96.31
367.278	82.31
367.505	85.31
367.731	98.31
367.957	83.31
368.184	85.31
368.41	89.31
368.636	83.31
368.862	86.31
369.089	79.31
369.315	80.31
369.541	81.31
369.767	89.31
369.993	84.31
370.219	86.31
370.445	84.31
370.672	88.31
370.898	81.31
371.124	93.31
371.35	98.31
371.576	98.31
371.802	90.31
372.028	82.31
372.254	81.31
372.48	83.31
372.706	94.31
372.932	92.31
373.158	81.31
373.384	93.31
373.61	107.31
373.835	99.31
374.061	85.31
374.287	88.31
374.513	86.31
374.739	100.31
374.965	94.31
375.191	106.31
375.416	97.31
375.642	79.31
375.868	75.31
376.094	93.31
376.319	88.31
376.545	90.31
376.771	75.31
376.997	82.31
377.222	76.31
377.448	86.31
377.674	67.31
377.899	90.31
378.125	92.31
378.35	82.31
378.576	80.31
378.802	87.31
379.027	97.31
379.253	92.31
379.478	89.31
379.704	88.31
379.929	71.31
380.155	85.31
380.38	84.31
380.606	90.31
380.831	106.31
381.057	86.31
381.282	88.31
381.507	96.31
381.733	85.31
381.958	97.31
382.184	91.31
382.409	96.31
382.634	98.31
382.86	100.31
383.085	83.31
383.31	98.31
383.535	102.31
383.761	97.31
383.986	110.31
384.211	85.31
384.436	86.31
384.662	86.31
384.887	88.31
385.112	87.31
385.337	74.31
385.562	97.31
385.787	90.31
386.013	107.31
386.238	86.31
386.463	72.31
386.688	102.31
386.913	83.31
387.138	81.31
387.363	89.31
387.588	81.31
387.813	87.31
388.038	93.31
388.263	93.31
388.488	88.31
388.713	90.31
388.938	90.31
389.163	86.31
389.387	91.31
389.612	76.31
389.837	98.31
390.062	88.31
390.287	88.31
390.512	99.31
390.736	85.31
390.961	88.31
391.186	78.31
391.411	98.31
391.636	84.31
391.86	85.31
392.085	100.31
392.31	87.31
392.534	108.31
392.759	109.31
392.984	130.31
393.208	214.31
393.433	291.31
393.658	229.31
393.882	136.31
394.107	113.31
394.331	116.31
394.556	114.31
394.78	105.31
395.005	89.31
395.229	92.31
395.454	95.31
395.678	100.31
395.903	117.31
396.127	138.31
396.352	150.31
396.576	169.31
396.801	232.31
397.025	250.31
397.249	139.31
397.474	109.31
397.698	91.31
397.922	94.31
398.147	94.31
398.371	82.31
398.595	85.31
398.82	86.31
399.044	81.31
399.268	91.31
399.492	96.31
399.717	108.31
399.941	93.31
400.165	93.31
400.389	98.31
400.613	93.31
400.837	84.31
401.062	79.31
401.286	89.31
401.51	81.31
401.734	78.31
401.958	85.31
402.182	73.31
402.406	96.31
402.63	91.31
402.854	98.31
403.078	84.31
403.302	96.31
403.526	79.31
403.75	104.31
403.974	116.31
404.198	154.31
404.422	213.31
404.645	271.31
404.869	226.31
405.093	150.31
405.317	112.31
405.541	84.31
405.765	98.31
405.988	94.31
406.212	87.31
406.436	90.31
406.66	96.31
406.883	77.31
407.107	96.31
407.331	83.31
407.555	87.31
407.778	93.31
408.002	105.31
408.226	87.31
408.449	76.31
408.673	88.31
408.896	83.31
409.12	87.31
409.344	87.31
409.567	73.31
409.791	97.31
410.014	101.31
410.238	85.31
410.461	93.31
410.685	104.31
410.908	90.31
411.132	88.31
411.355	85.31
411.578	83.31
411.802	89.31
412.025	102.31
412.249	76.31
412.472	83.31
412.695	89.31
412.919	98.31
413.142	99.31
413.365	89.31
413.589	80.31
413.812	94.31
414.035	88.31
414.258	73.31
414.482	88.31
414.705	73.31
414.928	81.31
415.151	101.31
415.374	91.31
415.597	96.31
415.821	83.31
416.044	87.31
416.267	77.31
416.49	78.31
416.713	92.31
416.936	85.31
417.159	94.31
417.382	88.31
417.605	78.31
417.828	82.31
418.051	81.31
418.274	80.31
418.497	71.31
418.72	82.31
418.943	88.31
419.166	84.31
419.389	75.31
419.611	95.31
419.834	91.31
420.057	92.31
420.28	102.31
420.503	96.31
420.726	84.31
420.948	93.31
421.171	112.31
421.394	124.31
421.617	119.31
421.839	116.31
422.062	134.31
422.285	216.31
422.507	354.31
422.73	525.31
422.953	481.31
423.175	263.31
423.398	164.31
423.621	130.31
423.843	101.31
424.066	104.31
424.288	93.31
424.511	109.31
424.733	97.31
424.956	85.31
425.178	99.31
425.401	103.31
425.623	91.31
425.846	87.31
426.068	74.31
426.291	96.31
426.513	93.31
426.735	99.31
426.958	91.31
427.18	90.31
427.402	83.31
427.625	79.31
427.847	103.31
428.069	114.31
428.292	152.31
428.514	156.31
428.736	138.31
428.958	144.31
429.181	149.31
429.403	119.31
429.625	116.31
429.847	154.31
430.069	204.31
430.292	240.31
430.514	226.31
430.736	160.31
430.958	156.31
431.18	119.31
431.402	110.31
431.624	124.31
431.846	140.31
432.068	149.31
432.29	116.31
432.512	97.31
432.734	74.31
432.956	92.31
433.178	88.31
433.4	82.31
433.622	97.31
433.844	87.31
434.066	88.31
434.287	85.31
434.509	94.31
434.731	98.31
434.953	75.31
435.175	89.31
435.397	88.31
435.618	101.31
435.84	92.31
436.062	85.31
436.284	72.31
436.505	90.31
436.727	81.31
436.949	86.31
437.17	88.31
437.392	84.31
437.614	92.31
437.835	82.31
438.057	89.31
438.278	98.31
438.5	94.31
438.721	80.31
438.943	84.31
439.165	95.31
439.386	92.31
439.608	92.31
439.829	85.31
440.05	86.31
440.272	82.31
440.493	91.31
440.715	99.31
440.936	104.31
441.158	99.31
441.379	98.31
441.6	85.31
441.822	99.31
442.043	94.31
442.264	109.31
442.486	153.31
442.707	211.31
442.928	153.31
443.149	138.31
443.371	192.31
443.592	342.31
443.813	284.31
444.034	132.31
444.255	96.31
444.476	79.31
444.698	106.31
444.919	104.31
445.14	218.31
445.361	242.31
445.582	407.31
445.803	314.31
446.024	161.31
446.245	104.31
446.466	97.31
446.687	83.31
446.908	86.31
447.129	78.31
447.35	88.31
447.571	74.31
447.792	88.31
448.013	93.31
448.234	86.31
448.455	75.31
448.675	96.31
448.896	89.31
449.117	104.31
449.338	84.31
449.559	85.31
449.779	80.31
450	85.31
450.221	91.31
450.442	70.31
450.662	85.31
450.883	83.31
451.104	92.31
451.324	100.31
451.545	94.31
451.766	86.31
451.986	93.31
452.207	91.31
452.428	89.31
452.648	95.31
452.869	115.31
453.089	86.31
453.31	76.31
453.53	80.31
453.751	104.31
453.971	77.31
454.192	82.31
454.412	72.31
454.633	77.31
454.853	85.31
455.073	89.31
455.294	86.31
455.514	85.31
455.734	79.31
455.955	86.31
456.175	78.31
456.395	91.31
456.616	80.31
456.836	99.31
457.056	86.31
457.276	80.31
457.497	77.31
457.717	89.31
457.937	116.31
458.157	119.31
458.377	128.31
458.598	132.31
458.818	137.31
459.038	107.31
459.258	89.31
459.478	85.31
459.698	78.31
459.918	80.31
460.138	88.31
460.358	96.31
460.578	122.31
460.798	154.31
461.018	125.31
461.238	85.31
461.458	81.31
461.678	77.31
461.898	94.31
462.118	92.31
462.338	83.31
462.558	90.31
462.777	84.31
462.997	90.31
463.217	86.31
463.437	83.31
463.657	81.31
463.876	89.31
464.096	81.31
464.316	89.31
464.536	81.31
464.755	93.31
464.975	75.31
465.195	84.31
465.414	76.31
465.634	84.31
465.854	89.31
466.073	80.31
466.293	81.31
466.512	99.31
466.732	84.31
466.951	86.31
467.171	86.31
467.391	88.31
467.61	87.31
467.829	84.31
468.049	94.31
468.268	74.31
468.488	94.31
468.707	92.31
468.927	105.31
469.146	88.31
469.365	89.31
469.585	83.31
469.804	83.31
470.023	94.31
470.243	82.31
470.462	88.31
470.681	87.31
470.901	85.31
471.12	97.31
471.339	86.31
471.558	81.31
471.777	90.31
471.997	73.31
472.216	76.31
472.435	88.31
472.654	88.31
472.873	89.31
473.092	92.31
473.311	89.31
473.53	91.31
473.749	79.31
473.968	89.31
474.187	86.31
474.406	84.31
474.625	93.31
474.844	85.31
475.063	89.31
475.282	92.31
475.501	93.31
475.72	106.31
475.939	84.31
476.158	77.31
476.377	97.31
476.596	90.31
476.814	93.31
477.033	104.31
477.252	78.31
477.471	87.31
477.69	99.31
477.908	84.31
478.127	95.31
478.346	85.31
478.564	97.31
478.783	86.31
479.002	79.31
479.22	86.31
479.439	96.31
479.658	100.31
479.876	96.31
480.095	94.31
480.313	102.31
480.532	84.31
480.751	103.31
480.969	103.31
481.188	98.31
481.406	92.31
481.624	101.31
481.843	101.31
482.061	89.31
482.28	92.31
482.498	78.31
482.717	92.31
482.935	91.31
483.153	91.31
483.372	91.31
483.59	93.31
483.808	96.31
484.027	89.31
484.245	82.31
484.463	92.31
484.681	84.31
484.9	94.31
485.118	98.31
485.336	98.31
485.554	93.31
485.772	85.31
485.99	86.31
486.209	87.31
486.427	96.31
486.645	105.31
486.863	86.31
487.081	84.31
487.299	101.31
487.517	109.31
487.735	108.31
487.953	166.31
488.171	149.31
488.389	115.31
488.607	94.31
488.825	97.31
489.043	86.31
489.261	89.31
489.479	81.31
489.696	88.31
489.914	77.31
490.132	86.31
490.35	88.31
490.568	80.31
490.786	94.31
491.003	99.31
491.221	96.31
491.439	100.31
491.657	97.31
491.874	101.31
492.092	83.31
492.31	88.31
492.527	92.31
492.745	93.31
492.963	98.31
493.18	94.31
493.398	110.31
493.615	90.31
493.833	79.31
494.05	89.31
494.268	94.31
494.485	94.31
494.703	101.31
494.92	93.31
495.138	98.31
495.355	87.31
495.573	90.31
495.79	87.31
496.008	91.31
496.225	93.31
496.442	96.31
496.66	105.31
496.877	104.31
497.094	99.31
497.312	88.31
497.529	84.31
497.746	89.31
497.963	92.31
498.181	104.31
498.398	93.31
498.615	95.31
498.832	95.31
499.049	92.31
499.267	82.31
499.484	100.31
499.701	81.31
499.918	98.31
500.135	76.31
500.352	94.31
500.569	91.31
500.786	100.31
501.003	92.31
501.22	78.31
501.437	90.31
501.654	87.31
501.871	96.31
502.088	87.31
502.305	87.31
502.522	98.31
502.739	106.31
502.956	93.31
503.172	94.31
503.389	107.31
503.606	85.31
503.823	97.31
504.04	122.31
504.256	123.31
504.473	137.31
504.69	107.31
504.907	107.31
505.123	94.31
505.34	92.31
505.557	92.31
505.773	99.31
505.99	92.31
506.207	90.31
506.423	89.31
506.64	89.31
506.856	97.31
507.073	102.31
507.289	81.31
507.506	89.31
507.722	77.31
507.939	92.31
508.155	100.31
508.372	109.31
508.588	104.31
508.805	88.31
509.021	100.31
509.238	96.31
509.454	105.31
509.67	98.31
509.887	89.31
510.103	110.31
510.319	92.31
510.536	100.31
510.752	102.31
510.968	96.31
511.184	86.31
511.401	86.31
511.617	97.31
511.833	121.31
512.049	86.31
512.265	90.31
512.481	101.31
512.698	93.31
512.914	92.31
513.13	93.31
513.346	99.31
513.562	90.31
513.778	106.31
513.994	104.31
514.21	94.31
514.426	88.31
514.642	98.31
514.858	100.31
515.074	85.31
515.29	94.31
515.506	97.31
515.721	93.31
515.937	102.31
516.153	99.31
516.369	87.31
516.585	99.31
516.801	93.31
517.016	86.31
517.232	102.31
517.448	99.31
