Data from 2145_3_HRD10591_00043.txt Node
Date: Mon Jan 19 14:23:28 EST 2026
User: Yrep
Spectrometer: HR+D1059
Trigger mode: 1
Integration Time (sec): 1.000000E-1
Scans to average: 1
Electric dark correction enabled: true
Nonlinearity correction enabled: false
Boxcar width: 0
XAxis mode: Wavelengths
Number of Pixels in Spectrum: 2048
>>>>>Begin Spectral Data<<<<<
223.165	-14.06
223.4	-14.06
223.635	-14.06
223.869	-9.06
224.104	-14.06
224.338	-11.06
224.573	-24.06
224.808	-17.06
225.042	-5.06
225.277	-2.06
225.511	0.94
225.746	-8.06
225.98	-5.06
226.215	12.94
226.449	24.94
226.683	22.94
226.918	20.94
227.152	26.94
227.387	31.94
227.621	40.94
227.856	49.94
228.09	48.94
228.324	47.94
228.559	47.94
228.793	51.94
229.027	59.94
229.262	63.94
229.496	51.94
229.73	60.94
229.964	50.94
230.199	79.94
230.433	90.94
230.667	74.94
230.901	73.94
231.136	66.94
231.37	75.94
231.604	89.94
231.838	82.94
232.072	78.94
232.306	76.94
232.541	70.94
232.775	77.94
233.009	67.94
233.243	68.94
233.477	82.94
233.711	81.94
233.945	96.94
234.179	77.94
234.413	70.94
234.647	73.94
234.881	85.94
235.115	86.94
235.349	78.94
235.583	75.94
235.817	82.94
236.051	94.94
236.285	75.94
236.519	83.94
236.753	66.94
236.987	72.94
237.221	74.94
237.455	74.94
237.689	72.94
237.922	75.94
238.156	60.94
238.39	85.94
238.624	86.94
238.858	75.94
239.091	70.94
239.325	76.94
239.559	80.94
239.793	76.94
240.027	77.94
240.26	89.94
240.494	84.94
240.728	71.94
240.961	75.94
241.195	78.94
241.429	74.94
241.662	89.94
241.896	65.94
242.13	74.94
242.363	82.94
242.597	76.94
242.83	75.94
243.064	83.94
243.298	70.94
243.531	81.94
243.765	78.94
243.998	84.94
244.232	66.94
244.465	84.94
244.699	75.94
244.932	74.94
245.166	82.94
245.399	82.94
245.633	60.94
245.866	71.94
246.099	56.94
246.333	63.94
246.566	66.94
246.8	70.94
247.033	72.94
247.266	88.94
247.5	80.94
247.733	74.94
247.966	60.94
248.2	73.94
248.433	89.94
248.666	74.94
248.899	83.94
249.133	86.94
249.366	74.94
249.599	85.94
249.832	84.94
250.066	86.94
250.299	80.94
250.532	79.94
250.765	70.94
250.998	70.94
251.231	82.94
251.465	75.94
251.698	72.94
251.931	75.94
252.164	79.94
252.397	84.94
252.63	84.94
252.863	83.94
253.096	81.94
253.329	92.94
253.562	86.94
253.795	68.94
254.028	70.94
254.261	76.94
254.494	81.94
254.727	74.94
254.96	81.94
255.193	87.94
255.426	86.94
255.659	90.94
255.892	93.94
256.124	85.94
256.357	79.94
256.59	83.94
256.823	84.94
257.056	75.94
257.289	74.94
257.521	81.94
257.754	80.94
257.987	89.94
258.22	79.94
258.452	72.94
258.685	74.94
258.918	87.94
259.151	76.94
259.383	85.94
259.616	80.94
259.849	93.94
260.081	87.94
260.314	86.94
260.547	84.94
260.779	81.94
261.012	75.94
261.244	72.94
261.477	83.94
261.71	64.94
261.942	77.94
262.175	75.94
262.407	89.94
262.64	71.94
262.872	89.94
263.105	66.94
263.337	71.94
263.57	83.94
263.802	86.94
264.035	82.94
264.267	76.94
264.499	92.94
264.732	85.94
264.964	91.94
265.197	80.94
265.429	86.94
265.661	80.94
265.894	77.94
266.126	90.94
266.358	84.94
266.591	89.94
266.823	64.94
267.055	81.94
267.287	70.94
267.52	75.94
267.752	66.94
267.984	88.94
268.216	79.94
268.448	71.94
268.681	90.94
268.913	86.94
269.145	87.94
269.377	82.94
269.609	88.94
269.841	92.94
270.073	76.94
270.306	81.94
270.538	70.94
270.77	78.94
271.002	84.94
271.234	77.94
271.466	79.94
271.698	78.94
271.93	82.94
272.162	86.94
272.394	82.94
272.626	78.94
272.858	80.94
273.09	88.94
273.322	88.94
273.553	77.94
273.785	86.94
274.017	87.94
274.249	77.94
274.481	84.94
274.713	83.94
274.945	81.94
275.176	87.94
275.408	75.94
275.64	74.94
275.872	74.94
276.104	71.94
276.335	75.94
276.567	78.94
276.799	68.94
277.031	87.94
277.262	92.94
277.494	89.94
277.726	87.94
277.957	82.94
278.189	78.94
278.421	85.94
278.652	81.94
278.884	88.94
279.115	77.94
279.347	94.94
279.579	75.94
279.81	71.94
280.042	94.94
280.273	82.94
280.505	80.94
280.736	81.94
280.968	94.94
281.199	81.94
281.431	90.94
281.662	86.94
281.894	92.94
282.125	82.94
282.356	80.94
282.588	95.94
282.819	89.94
283.051	77.94
283.282	66.94
283.513	80.94
283.745	83.94
283.976	67.94
284.207	75.94
284.439	87.94
284.67	89.94
284.901	70.94
285.132	86.94
285.364	86.94
285.595	76.94
285.826	96.94
286.057	85.94
286.288	82.94
286.52	84.94
286.751	78.94
286.982	91.94
287.213	82.94
287.444	88.94
287.675	96.94
287.906	94.94
288.138	92.94
288.369	91.94
288.6	95.94
288.831	92.94
289.062	79.94
289.293	92.94
289.524	85.94
289.755	80.94
289.986	89.94
290.217	77.94
290.448	84.94
290.679	83.94
290.91	94.94
291.141	86.94
291.371	90.94
291.602	83.94
291.833	93.94
292.064	75.94
292.295	85.94
292.526	74.94
292.757	72.94
292.987	86.94
293.218	86.94
293.449	91.94
293.68	73.94
293.91	86.94
294.141	89.94
294.372	82.94
294.603	78.94
294.833	87.94
295.064	96.94
295.295	88.94
295.525	81.94
295.756	93.94
295.987	77.94
296.217	97.94
296.448	92.94
296.679	88.94
296.909	105.94
297.14	90.94
297.37	78.94
297.601	74.94
297.831	82.94
298.062	91.94
298.292	75.94
298.523	90.94
298.753	92.94
298.984	80.94
299.214	76.94
299.445	96.94
299.675	93.94
299.905	83.94
300.136	80.94
300.366	88.94
300.597	78.94
300.827	98.94
301.057	98.94
301.288	80.94
301.518	95.94
301.748	86.94
301.979	96.94
302.209	87.94
302.439	77.94
302.669	85.94
302.9	81.94
303.13	82.94
303.36	87.94
303.59	79.94
303.82	87.94
304.051	86.94
304.281	88.94
304.511	86.94
304.741	89.94
304.971	74.94
305.201	72.94
305.431	86.94
305.661	79.94
305.891	87.94
306.121	92.94
306.352	74.94
306.582	95.94
306.812	81.94
307.042	82.94
307.272	75.94
307.502	80.94
307.731	77.94
307.961	90.94
308.191	97.94
308.421	82.94
308.651	78.94
308.881	101.94
309.111	99.94
309.341	113.94
309.571	98.94
309.8	94.94
310.03	84.94
310.26	92.94
310.49	110.94
310.72	78.94
310.949	72.94
311.179	77.94
311.409	82.94
311.639	83.94
311.868	92.94
312.098	96.94
312.328	77.94
312.557	92.94
312.787	82.94
313.017	76.94
313.246	77.94
313.476	85.94
313.706	74.94
313.935	91.94
314.165	97.94
314.394	101.94
314.624	83.94
314.853	104.94
315.083	76.94
315.312	77.94
315.542	86.94
315.771	88.94
316.001	106.94
316.23	82.94
316.46	66.94
316.689	83.94
316.919	91.94
317.148	86.94
317.377	94.94
317.607	88.94
317.836	84.94
318.065	108.94
318.295	102.94
318.524	106.94
318.753	82.94
318.983	102.94
319.212	86.94
319.441	79.94
319.67	87.94
319.9	81.94
320.129	86.94
320.358	82.94
320.587	97.94
320.816	83.94
321.046	95.94
321.275	109.94
321.504	94.94
321.733	98.94
321.962	89.94
322.191	88.94
322.42	81.94
322.649	85.94
322.878	90.94
323.108	86.94
323.337	96.94
323.566	96.94
323.795	83.94
324.024	98.94
324.253	95.94
324.482	98.94
324.71	91.94
324.939	90.94
325.168	86.94
325.397	105.94
325.626	80.94
325.855	85.94
326.084	76.94
326.313	98.94
326.542	77.94
326.77	85.94
326.999	87.94
327.228	94.94
327.457	80.94
327.686	92.94
327.914	73.94
328.143	89.94
328.372	92.94
328.6	87.94
328.829	76.94
329.058	80.94
329.287	87.94
329.515	90.94
329.744	96.94
329.972	84.94
330.201	95.94
330.43	96.94
330.658	93.94
330.887	100.94
331.115	88.94
331.344	77.94
331.572	84.94
331.801	86.94
332.03	90.94
332.258	91.94
332.486	95.94
332.715	76.94
332.943	82.94
333.172	71.94
333.4	86.94
333.629	95.94
333.857	94.94
334.085	97.94
334.314	84.94
334.542	87.94
334.771	108.94
334.999	89.94
335.227	102.94
335.455	104.94
335.684	107.94
335.912	96.94
336.14	104.94
336.369	92.94
336.597	95.94
336.825	83.94
337.053	83.94
337.281	103.94
337.51	99.94
337.738	91.94
337.966	97.94
338.194	94.94
338.422	99.94
338.65	86.94
338.878	90.94
339.106	84.94
339.334	83.94
339.562	95.94
339.79	107.94
340.018	91.94
340.246	69.94
340.474	95.94
340.702	96.94
340.93	96.94
341.158	88.94
341.386	102.94
341.614	88.94
341.842	87.94
342.07	84.94
342.298	76.94
342.526	88.94
342.754	83.94
342.981	80.94
343.209	99.94
343.437	98.94
343.665	94.94
343.893	100.94
344.12	102.94
344.348	94.94
344.576	90.94
344.804	115.94
345.031	83.94
345.259	85.94
345.487	86.94
345.714	94.94
345.942	76.94
346.17	84.94
346.397	95.94
346.625	88.94
346.853	86.94
347.08	80.94
347.308	91.94
347.535	88.94
347.763	82.94
347.99	91.94
348.218	99.94
348.445	95.94
348.673	87.94
348.9	87.94
349.128	101.94
349.355	86.94
349.583	87.94
349.81	96.94
350.037	84.94
350.265	92.94
350.492	99.94
350.72	107.94
350.947	86.94
351.174	81.94
351.402	85.94
351.629	85.94
351.856	94.94
352.083	96.94
352.311	89.94
352.538	90.94
352.765	95.94
352.992	102.94
353.22	94.94
353.447	83.94
353.674	88.94
353.901	87.94
354.128	96.94
354.355	91.94
354.583	90.94
354.81	88.94
355.037	69.94
355.264	95.94
355.491	80.94
355.718	96.94
355.945	84.94
356.172	85.94
356.399	91.94
356.626	98.94
356.853	98.94
357.08	85.94
357.307	83.94
357.534	88.94
357.761	94.94
357.988	103.94
358.215	102.94
358.441	96.94
358.668	91.94
358.895	95.94
359.122	84.94
359.349	81.94
359.576	95.94
359.802	84.94
360.029	95.94
360.256	93.94
360.483	103.94
360.709	80.94
360.936	105.94
361.163	100.94
361.39	97.94
361.616	97.94
361.843	96.94
362.07	101.94
362.296	124.94
362.523	131.94
362.749	138.94
362.976	150.94
363.203	154.94
363.429	135.94
363.656	128.94
363.882	113.94
364.109	158.94
364.335	173.94
364.562	189.94
364.788	141.94
365.015	120.94
365.241	104.94
365.468	116.94
365.694	103.94
365.92	103.94
366.147	82.94
366.373	80.94
366.599	94.94
366.826	87.94
367.052	78.94
367.278	99.94
367.505	76.94
367.731	86.94
367.957	86.94
368.184	83.94
368.41	81.94
368.636	97.94
368.862	99.94
369.089	87.94
369.315	95.94
369.541	87.94
369.767	86.94
369.993	97.94
370.219	85.94
370.445	95.94
370.672	86.94
370.898	98.94
371.124	98.94
371.35	95.94
371.576	101.94
371.802	95.94
372.028	95.94
372.254	85.94
372.48	86.94
372.706	86.94
372.932	98.94
373.158	94.94
373.384	125.94
373.61	130.94
373.835	116.94
374.061	102.94
374.287	94.94
374.513	99.94
374.739	111.94
374.965	84.94
375.191	101.94
375.416	98.94
375.642	98.94
375.868	90.94
376.094	98.94
376.319	91.94
376.545	95.94
376.771	83.94
376.997	90.94
377.222	92.94
377.448	72.94
377.674	81.94
377.899	85.94
378.125	90.94
378.35	90.94
378.576	87.94
378.802	91.94
379.027	96.94
379.253	106.94
379.478	86.94
379.704	92.94
379.929	82.94
380.155	91.94
380.38	91.94
380.606	85.94
380.831	110.94
381.057	97.94
381.282	90.94
381.507	112.94
381.733	94.94
381.958	99.94
382.184	86.94
382.409	90.94
382.634	113.94
382.86	123.94
383.085	98.94
383.31	102.94
383.535	104.94
383.761	95.94
383.986	115.94
384.211	101.94
384.436	105.94
384.662	104.94
384.887	95.94
385.112	108.94
385.337	98.94
385.562	111.94
385.787	100.94
386.013	110.94
386.238	99.94
386.463	112.94
386.688	116.94
386.913	103.94
387.138	103.94
387.363	105.94
387.588	105.94
387.813	97.94
388.038	115.94
388.263	103.94
388.488	96.94
388.713	102.94
388.938	84.94
389.163	86.94
389.387	103.94
389.612	95.94
389.837	96.94
390.062	96.94
390.287	103.94
390.512	95.94
390.736	93.94
390.961	90.94
391.186	104.94
391.411	103.94
391.636	99.94
391.86	105.94
392.085	104.94
392.31	114.94
392.534	124.94
392.759	166.94
392.984	203.94
393.208	332.94
393.433	435.94
393.658	348.94
393.882	188.94
394.107	147.94
394.331	152.94
394.556	168.94
394.78	135.94
395.005	98.94
395.229	113.94
395.454	117.94
395.678	132.94
395.903	166.94
396.127	187.94
396.352	228.94
396.576	231.94
396.801	331.94
397.025	354.94
397.249	208.94
397.474	174.94
397.698	132.94
397.922	103.94
398.147	92.94
398.371	92.94
398.595	95.94
398.82	94.94
399.044	101.94
399.268	96.94
399.492	91.94
399.717	106.94
399.941	96.94
400.165	92.94
400.389	85.94
400.613	98.94
400.837	97.94
401.062	94.94
401.286	94.94
401.51	87.94
401.734	93.94
401.958	73.94
402.182	103.94
402.406	86.94
402.63	96.94
402.854	98.94
403.078	113.94
403.302	82.94
403.526	103.94
403.75	110.94
403.974	110.94
404.198	140.94
404.422	206.94
404.645	240.94
404.869	198.94
405.093	129.94
405.317	89.94
405.541	96.94
405.765	94.94
405.988	100.94
406.212	104.94
406.436	107.94
406.66	112.94
406.883	95.94
407.107	97.94
407.331	104.94
407.555	114.94
407.778	125.94
408.002	112.94
408.226	95.94
408.449	88.94
408.673	75.94
408.896	92.94
409.12	114.94
409.344	105.94
409.567	113.94
409.791	140.94
410.014	130.94
410.238	97.94
410.461	106.94
410.685	75.94
410.908	99.94
411.132	108.94
411.355	91.94
411.578	102.94
411.802	89.94
412.025	88.94
412.249	101.94
412.472	84.94
412.695	75.94
412.919	80.94
413.142	92.94
413.365	92.94
413.589	84.94
413.812	108.94
414.035	92.94
414.258	89.94
414.482	88.94
414.705	96.94
414.928	97.94
415.151	95.94
415.374	97.94
415.597	92.94
415.821	87.94
416.044	94.94
416.267	99.94
416.49	98.94
416.713	93.94
416.936	98.94
417.159	99.94
417.382	92.94
417.605	90.94
417.828	86.94
418.051	84.94
418.274	101.94
418.497	94.94
418.72	91.94
418.943	73.94
419.166	91.94
419.389	104.94
419.611	94.94
419.834	110.94
420.057	105.94
420.28	104.94
420.503	88.94
420.726	118.94
420.948	110.94
421.171	100.94
421.394	131.94
421.617	170.94
421.839	176.94
422.062	208.94
422.285	302.94
422.507	488.94
422.73	600.94
422.953	566.94
423.175	396.94
423.398	223.94
423.621	151.94
423.843	146.94
424.066	128.94
424.288	136.94
424.511	114.94
424.733	113.94
424.956	112.94
425.178	105.94
425.401	88.94
425.623	110.94
425.846	100.94
426.068	100.94
426.291	101.94
426.513	82.94
426.735	99.94
426.958	100.94
427.18	95.94
427.402	91.94
427.625	83.94
427.847	102.94
428.069	137.94
428.292	183.94
428.514	206.94
428.736	147.94
428.958	201.94
429.181	188.94
429.403	126.94
429.625	130.94
429.847	189.94
430.069	268.94
430.292	312.94
430.514	288.94
430.736	229.94
430.958	202.94
431.18	124.94
431.402	112.94
431.624	114.94
431.846	171.94
432.068	212.94
432.29	130.94
432.512	99.94
432.734	87.94
432.956	100.94
433.178	103.94
433.4	102.94
433.622	84.94
433.844	72.94
434.066	94.94
434.287	92.94
434.509	88.94
434.731	98.94
434.953	95.94
435.175	84.94
435.397	102.94
435.618	102.94
435.84	101.94
436.062	105.94
436.284	94.94
436.505	100.94
436.727	105.94
436.949	88.94
437.17	86.94
437.392	95.94
437.614	87.94
437.835	76.94
438.057	104.94
438.278	103.94
438.5	110.94
438.721	95.94
438.943	85.94
439.165	95.94
439.386	85.94
439.608	98.94
439.829	90.94
440.05	91.94
440.272	98.94
440.493	99.94
440.715	98.94
440.936	97.94
441.158	93.94
441.379	101.94
441.6	102.94
441.822	89.94
442.043	107.94
442.264	130.94
442.486	229.94
442.707	310.94
442.928	204.94
443.149	176.94
443.371	275.94
443.592	482.94
443.813	386.94
444.034	169.94
444.255	133.94
444.476	105.94
444.698	138.94
444.919	120.94
445.14	252.94
445.361	355.94
445.582	572.94
445.803	498.94
446.024	212.94
446.245	133.94
446.466	105.94
446.687	97.94
446.908	109.94
447.129	87.94
447.35	106.94
447.571	99.94
447.792	80.94
448.013	89.94
448.234	95.94
448.455	94.94
448.675	86.94
448.896	86.94
449.117	80.94
449.338	88.94
449.559	90.94
449.779	86.94
450	95.94
450.221	94.94
450.442	90.94
450.662	91.94
450.883	85.94
451.104	94.94
451.324	98.94
451.545	89.94
451.766	98.94
451.986	100.94
452.207	105.94
452.428	107.94
452.648	107.94
452.869	115.94
453.089	108.94
453.31	107.94
453.53	96.94
453.751	126.94
453.971	90.94
454.192	92.94
454.412	79.94
454.633	97.94
454.853	92.94
455.073	92.94
455.294	88.94
455.514	103.94
455.734	95.94
455.955	103.94
456.175	75.94
456.395	91.94
456.616	91.94
456.836	84.94
457.056	102.94
457.276	91.94
457.497	80.94
457.717	108.94
457.937	137.94
458.157	167.94
458.377	180.94
458.598	170.94
458.818	198.94
459.038	130.94
459.258	96.94
459.478	85.94
459.698	88.94
459.918	82.94
460.138	91.94
460.358	110.94
460.578	122.94
460.798	179.94
461.018	170.94
461.238	91.94
461.458	82.94
461.678	94.94
461.898	81.94
462.118	90.94
462.338	97.94
462.558	83.94
462.777	86.94
462.997	91.94
463.217	91.94
463.437	84.94
463.657	88.94
463.876	90.94
464.096	87.94
464.316	96.94
464.536	90.94
464.755	80.94
464.975	98.94
465.195	98.94
465.414	95.94
465.634	86.94
465.854	94.94
466.073	99.94
466.293	87.94
466.512	104.94
466.732	96.94
466.951	91.94
467.171	94.94
467.391	98.94
467.61	100.94
467.829	98.94
468.049	88.94
468.268	96.94
468.488	98.94
468.707	97.94
468.927	98.94
469.146	89.94
469.365	95.94
469.585	92.94
469.804	89.94
470.023	86.94
470.243	87.94
470.462	93.94
470.681	90.94
470.901	92.94
471.12	76.94
471.339	87.94
471.558	86.94
471.777	91.94
471.997	82.94
472.216	91.94
472.435	99.94
472.654	95.94
472.873	101.94
473.092	80.94
473.311	88.94
473.53	89.94
473.749	87.94
473.968	95.94
474.187	104.94
474.406	83.94
474.625	91.94
474.844	104.94
475.063	87.94
475.282	94.94
475.501	93.94
475.72	102.94
475.939	84.94
476.158	82.94
476.377	87.94
476.596	86.94
476.814	103.94
477.033	90.94
477.252	89.94
477.471	99.94
477.69	83.94
477.908	91.94
478.127	88.94
478.346	90.94
478.564	88.94
478.783	102.94
479.002	93.94
479.22	86.94
479.439	88.94
479.658	87.94
479.876	100.94
480.095	103.94
480.313	101.94
480.532	95.94
480.751	95.94
480.969	97.94
481.188	112.94
481.406	112.94
481.624	86.94
481.843	93.94
482.061	84.94
482.28	100.94
482.498	98.94
482.717	107.94
482.935	86.94
483.153	96.94
483.372	94.94
483.59	100.94
483.808	100.94
484.027	94.94
484.245	103.94
484.463	116.94
484.681	110.94
484.9	83.94
485.118	104.94
485.336	87.94
485.554	76.94
485.772	102.94
485.99	91.94
486.209	84.94
486.427	89.94
486.645	97.94
486.863	90.94
487.081	102.94
487.299	108.94
487.517	113.94
487.735	169.94
487.953	257.94
488.171	235.94
488.389	127.94
488.607	106.94
488.825	90.94
489.043	101.94
489.261	106.94
489.479	89.94
489.696	100.94
489.914	99.94
490.132	102.94
490.35	110.94
490.568	88.94
490.786	107.94
491.003	98.94
491.221	102.94
491.439	85.94
491.657	90.94
491.874	92.94
492.092	102.94
492.31	97.94
492.527	76.94
492.745	98.94
492.963	87.94
493.18	98.94
493.398	84.94
493.615	88.94
493.833	83.94
494.05	89.94
494.268	96.94
494.485	96.94
494.703	94.94
494.92	94.94
495.138	80.94
495.355	91.94
495.573	79.94
495.79	93.94
496.008	104.94
496.225	106.94
496.442	102.94
496.66	126.94
496.877	101.94
497.094	94.94
497.312	105.94
497.529	89.94
497.746	87.94
497.963	102.94
498.181	115.94
498.398	112.94
498.615	110.94
498.832	92.94
499.049	102.94
499.267	128.94
499.484	102.94
499.701	88.94
499.918	103.94
500.135	108.94
500.352	102.94
500.569	93.94
500.786	108.94
501.003	101.94
501.22	98.94
501.437	97.94
501.654	116.94
501.871	95.94
502.088	88.94
502.305	96.94
502.522	94.94
502.739	96.94
502.956	76.94
503.172	99.94
503.389	94.94
503.606	99.94
503.823	124.94
504.04	146.94
504.256	166.94
504.473	199.94
504.69	144.94
504.907	114.94
505.123	101.94
505.34	96.94
505.557	107.94
505.773	106.94
505.99	99.94
506.207	86.94
506.423	94.94
506.64	90.94
506.856	83.94
507.073	104.94
507.289	91.94
507.506	92.94
507.722	99.94
507.939	87.94
508.155	89.94
508.372	99.94
508.588	98.94
508.805	97.94
509.021	96.94
509.238	88.94
509.454	86.94
509.67	92.94
509.887	74.94
510.103	104.94
510.319	102.94
510.536	107.94
510.752	86.94
510.968	86.94
511.184	79.94
511.401	106.94
511.617	96.94
511.833	95.94
512.049	86.94
512.265	94.94
512.481	95.94
512.698	94.94
512.914	87.94
513.13	88.94
513.346	84.94
513.562	89.94
513.778	92.94
513.994	83.94
514.21	86.94
514.426	104.94
514.642	99.94
514.858	81.94
515.074	92.94
515.29	89.94
515.506	93.94
515.721	85.94
