Data from 2145_3_HRD10591_00007.txt Node
Date: Mon Jan 19 14:23:13 EST 2026
User: Yrep
Spectrometer: HR+D1059
Trigger mode: 1
Integration Time (sec): 1.000000E-1
Scans to average: 1
Electric dark correction enabled: true
Nonlinearity correction enabled: false
Boxcar width: 0
XAxis mode: Wavelengths
Number of Pixels in Spectrum: 2048
>>>>>Begin Spectral Data<<<<<
223.165	-22
223.4	-22
223.635	-22
223.869	-26
224.104	-15
224.338	-21
224.573	-19
224.808	-14
225.042	-9
225.277	-7
225.511	2
225.746	5
225.98	-4
226.215	10
226.449	20
226.683	18
226.918	30
227.152	52
227.387	42
227.621	50
227.856	36
228.09	50
228.324	66
228.559	57
228.793	50
229.027	65
229.262	70
229.496	70
229.73	73
229.964	71
230.199	65
230.433	76
230.667	62
230.901	73
231.136	75
231.37	75
231.604	78
231.838	85
232.072	78
232.306	78
232.541	75
232.775	84
233.009	79
233.243	75
233.477	72
233.711	72
233.945	86
234.179	80
234.413	79
234.647	93
234.881	84
235.115	76
235.349	80
235.583	78
235.817	74
236.051	78
236.285	90
236.519	82
236.753	82
236.987	74
237.221	70
237.455	72
237.689	81
237.922	77
238.156	73
238.39	77
238.624	78
238.858	84
239.091	71
239.325	92
239.559	98
239.793	75
240.027	71
240.26	85
240.494	63
240.728	74
240.961	70
241.195	70
241.429	84
241.662	84
241.896	80
242.13	76
242.363	77
242.597	70
242.83	76
243.064	74
243.298	74
243.531	78
243.765	62
243.998	77
244.232	66
244.465	77
244.699	74
244.932	84
245.166	76
245.399	62
245.633	76
245.866	73
246.099	56
246.333	77
246.566	77
246.8	72
247.033	69
247.266	68
247.5	72
247.733	69
247.966	74
248.2	72
248.433	70
248.666	78
248.899	80
249.133	79
249.366	90
249.599	84
249.832	81
250.066	94
250.299	85
250.532	81
250.765	76
250.998	86
251.231	74
251.465	70
251.698	72
251.931	68
252.164	79
252.397	89
252.63	66
252.863	77
253.096	74
253.329	83
253.562	78
253.795	71
254.028	85
254.261	93
254.494	85
254.727	88
254.96	74
255.193	81
255.426	84
255.659	76
255.892	75
256.124	66
256.357	84
256.59	76
256.823	82
257.056	90
257.289	71
257.521	86
257.754	80
257.987	77
258.22	84
258.452	79
258.685	85
258.918	76
259.151	91
259.383	95
259.616	91
259.849	65
260.081	84
260.314	85
260.547	81
260.779	73
261.012	70
261.244	88
261.477	82
261.71	82
261.942	76
262.175	72
262.407	78
262.64	82
262.872	84
263.105	65
263.337	80
263.57	72
263.802	76
264.035	89
264.267	65
264.499	84
264.732	92
264.964	83
265.197	78
265.429	82
265.661	70
265.894	78
266.126	82
266.358	80
266.591	77
266.823	72
267.055	79
267.287	91
267.52	71
267.752	71
267.984	71
268.216	97
268.448	90
268.681	64
268.913	80
269.145	76
269.377	82
269.609	92
269.841	76
270.073	85
270.306	69
270.538	95
270.77	79
271.002	85
271.234	84
271.466	84
271.698	83
271.93	84
272.162	66
272.394	75
272.626	82
272.858	79
273.09	74
273.322	67
273.553	84
273.785	77
274.017	90
274.249	81
274.481	91
274.713	84
274.945	81
275.176	73
275.408	86
275.64	90
275.872	74
276.104	76
276.335	70
276.567	84
276.799	76
277.031	90
277.262	61
277.494	76
277.726	72
277.957	73
278.189	77
278.421	70
278.652	84
278.884	82
279.115	82
279.347	89
279.579	76
279.81	96
280.042	92
280.273	54
280.505	92
280.736	91
280.968	88
281.199	80
281.431	68
281.662	80
281.894	72
282.125	89
282.356	79
282.588	92
282.819	83
283.051	84
283.282	87
283.513	82
283.745	72
283.976	74
284.207	84
284.439	92
284.67	73
284.901	83
285.132	99
285.364	87
285.595	68
285.826	84
286.057	82
286.288	93
286.52	77
286.751	76
286.982	90
287.213	86
287.444	87
287.675	83
287.906	80
288.138	85
288.369	78
288.6	76
288.831	85
289.062	85
289.293	83
289.524	79
289.755	81
289.986	82
290.217	87
290.448	96
290.679	82
290.91	82
291.141	94
291.371	79
291.602	78
291.833	74
292.064	89
292.295	80
292.526	82
292.757	69
292.987	72
293.218	75
293.449	81
293.68	84
293.91	84
294.141	94
294.372	100
294.603	81
294.833	68
295.064	74
295.295	76
295.525	76
295.756	94
295.987	88
296.217	83
296.448	70
296.679	82
296.909	84
297.14	88
297.37	72
297.601	82
297.831	78
298.062	94
298.292	94
298.523	95
298.753	68
298.984	89
299.214	86
299.445	89
299.675	82
299.905	77
300.136	92
300.366	85
300.597	78
300.827	84
301.057	71
301.288	74
301.518	76
301.748	87
301.979	107
302.209	66
302.439	84
302.669	67
302.9	96
303.13	74
303.36	77
303.59	95
303.82	86
304.051	80
304.281	86
304.511	82
304.741	73
304.971	81
305.201	77
305.431	85
305.661	85
305.891	90
306.121	78
306.352	81
306.582	90
306.812	90
307.042	80
307.272	75
307.502	77
307.731	80
307.961	84
308.191	85
308.421	85
308.651	85
308.881	75
309.111	92
309.341	97
309.571	79
309.8	77
310.03	76
310.26	70
310.49	85
310.72	75
310.949	80
311.179	74
311.409	80
311.639	91
311.868	73
312.098	84
312.328	78
312.557	84
312.787	64
313.017	79
313.246	90
313.476	77
313.706	84
313.935	84
314.165	77
314.394	94
314.624	81
314.853	78
315.083	93
315.312	83
315.542	74
315.771	86
316.001	89
316.23	78
316.46	84
316.689	79
316.919	74
317.148	74
317.377	94
317.607	93
317.836	82
318.065	69
318.295	83
318.524	76
318.753	73
318.983	86
319.212	90
319.441	97
319.67	70
319.9	79
320.129	94
320.358	89
320.587	97
320.816	90
321.046	79
321.275	75
321.504	91
321.733	76
321.962	78
322.191	80
322.42	85
322.649	83
322.878	90
323.108	72
323.337	72
323.566	88
323.795	82
324.024	88
324.253	84
324.482	82
324.71	93
324.939	84
325.168	84
325.397	84
325.626	81
325.855	82
326.084	84
326.313	75
326.542	72
326.77	80
326.999	91
327.228	84
327.457	85
327.686	86
327.914	96
328.143	74
328.372	84
328.6	89
328.829	90
329.058	84
329.287	81
329.515	80
329.744	91
329.972	79
330.201	81
330.43	73
330.658	84
330.887	78
331.115	82
331.344	92
331.572	78
331.801	80
332.03	78
332.258	75
332.486	85
332.715	88
332.943	84
333.172	81
333.4	78
333.629	86
333.857	93
334.085	87
334.314	91
334.542	83
334.771	93
334.999	84
335.227	77
335.455	67
335.684	83
335.912	76
336.14	67
336.369	84
336.597	75
336.825	73
337.053	85
337.281	72
337.51	76
337.738	76
337.966	90
338.194	83
338.422	70
338.65	74
338.878	84
339.106	81
339.334	82
339.562	85
339.79	64
340.018	74
340.246	73
340.474	95
340.702	76
340.93	87
341.158	84
341.386	90
341.614	83
341.842	83
342.07	68
342.298	77
342.526	88
342.754	76
342.981	75
343.209	83
343.437	102
343.665	87
343.893	85
344.12	84
344.348	79
344.576	89
344.804	95
345.031	77
345.259	87
345.487	61
345.714	81
345.942	85
346.17	95
346.397	91
346.625	87
346.853	88
347.08	78
347.308	99
347.535	92
347.763	77
347.99	82
348.218	91
348.445	77
348.673	78
348.9	92
349.128	96
349.355	92
349.583	86
349.81	69
350.037	79
350.265	84
350.492	90
350.72	86
350.947	84
351.174	70
351.402	83
351.629	82
351.856	78
352.083	61
352.311	86
352.538	85
352.765	87
352.992	82
353.22	77
353.447	79
353.674	75
353.901	87
354.128	85
354.355	82
354.583	76
354.81	85
355.037	80
355.264	70
355.491	78
355.718	70
355.945	75
356.172	85
356.399	78
356.626	71
356.853	99
357.08	102
357.307	78
357.534	85
357.761	75
357.988	97
358.215	93
358.441	69
358.668	77
358.895	94
359.122	85
359.349	72
359.576	85
359.802	74
360.029	96
360.256	86
360.483	80
360.709	88
360.936	102
361.163	90
361.39	94
361.616	90
361.843	88
362.07	73
362.296	80
362.523	81
362.749	88
362.976	84
363.203	86
363.429	86
363.656	90
363.882	89
364.109	80
364.335	88
364.562	92
364.788	86
365.015	84
365.241	74
365.468	75
365.694	85
365.92	77
366.147	90
366.373	75
366.599	90
366.826	107
367.052	88
367.278	90
367.505	91
367.731	86
367.957	80
368.184	89
368.41	83
368.636	80
368.862	91
369.089	72
369.315	86
369.541	74
369.767	92
369.993	74
370.219	94
370.445	78
370.672	92
370.898	85
371.124	82
371.35	68
371.576	64
371.802	73
372.028	82
372.254	84
372.48	87
372.706	82
372.932	79
373.158	74
373.384	74
373.61	73
373.835	85
374.061	87
374.287	81
374.513	93
374.739	80
374.965	89
375.191	78
375.416	83
375.642	74
375.868	82
376.094	95
376.319	88
376.545	88
376.771	74
376.997	75
377.222	78
377.448	88
377.674	88
377.899	92
378.125	93
378.35	90
378.576	86
378.802	77
379.027	72
379.253	87
379.478	82
379.704	83
379.929	84
380.155	75
380.38	89
380.606	79
380.831	75
381.057	92
381.282	66
381.507	74
381.733	97
381.958	83
382.184	90
382.409	87
382.634	85
382.86	87
383.085	88
383.31	81
383.535	87
383.761	86
383.986	92
384.211	67
384.436	78
384.662	93
384.887	90
385.112	70
385.337	80
385.562	71
385.787	85
386.013	72
386.238	74
386.463	75
386.688	94
386.913	90
387.138	93
387.363	79
387.588	79
387.813	74
388.038	85
388.263	80
388.488	77
388.713	92
388.938	84
389.163	88
389.387	89
389.612	90
389.837	81
390.062	76
390.287	72
390.512	75
390.736	85
390.961	79
391.186	78
391.411	83
391.636	68
391.86	79
392.085	81
392.31	81
392.534	79
392.759	85
392.984	88
393.208	100
393.433	86
393.658	76
393.882	90
394.107	73
394.331	90
394.556	78
394.78	89
395.005	78
395.229	85
395.454	76
395.678	90
395.903	80
396.127	82
396.352	87
396.576	81
396.801	75
397.025	86
397.249	83
397.474	85
397.698	89
397.922	71
398.147	74
398.371	83
398.595	83
398.82	89
399.044	82
399.268	74
399.492	76
399.717	85
399.941	88
400.165	83
400.389	80
400.613	87
400.837	85
401.062	76
401.286	70
401.51	82
401.734	91
401.958	72
402.182	88
402.406	76
402.63	81
402.854	90
403.078	93
403.302	70
403.526	87
403.75	79
403.974	92
404.198	84
404.422	69
404.645	78
404.869	76
405.093	84
405.317	79
405.541	90
405.765	79
405.988	78
406.212	81
406.436	88
406.66	91
406.883	82
407.107	72
407.331	79
407.555	70
407.778	84
408.002	92
408.226	93
408.449	85
408.673	75
408.896	82
409.12	78
409.344	84
409.567	79
409.791	85
410.014	72
410.238	89
410.461	70
410.685	79
410.908	82
411.132	85
411.355	77
411.578	80
411.802	76
412.025	74
412.249	77
412.472	78
412.695	78
412.919	90
413.142	66
413.365	88
413.589	78
413.812	94
414.035	87
414.258	77
414.482	83
414.705	84
414.928	83
415.151	93
415.374	99
415.597	97
415.821	86
416.044	78
416.267	72
416.49	76
416.713	79
416.936	95
417.159	84
417.382	81
417.605	68
417.828	80
418.051	88
418.274	74
418.497	84
418.72	79
418.943	84
419.166	86
419.389	76
419.611	68
419.834	74
420.057	86
420.28	68
420.503	92
420.726	69
420.948	82
421.171	86
421.394	88
421.617	72
421.839	84
422.062	82
422.285	84
422.507	83
422.73	88
422.953	80
423.175	83
423.398	83
423.621	81
423.843	96
424.066	84
424.288	76
424.511	77
424.733	79
424.956	73
425.178	72
425.401	75
425.623	86
425.846	94
426.068	86
426.291	87
426.513	70
426.735	87
426.958	86
427.18	88
427.402	80
427.625	89
427.847	81
428.069	91
428.292	81
428.514	70
428.736	68
428.958	78
429.181	89
429.403	77
429.625	80
429.847	68
430.069	76
430.292	101
430.514	69
430.736	71
430.958	91
431.18	80
431.402	72
431.624	78
431.846	90
432.068	74
432.29	91
432.512	91
432.734	87
432.956	83
433.178	73
433.4	76
433.622	78
433.844	88
434.066	84
434.287	77
434.509	72
434.731	77
434.953	81
435.175	87
435.397	72
435.618	73
435.84	91
436.062	81
436.284	83
436.505	70
436.727	84
436.949	68
437.17	88
437.392	82
437.614	96
437.835	75
438.057	86
438.278	84
438.5	88
438.721	82
438.943	91
439.165	67
439.386	82
439.608	77
439.829	99
440.05	97
440.272	72
440.493	83
440.715	92
440.936	76
441.158	82
441.379	91
441.6	80
441.822	82
442.043	70
442.264	78
442.486	86
442.707	86
442.928	75
443.149	84
443.371	76
443.592	77
443.813	77
444.034	82
444.255	77
444.476	87
444.698	84
444.919	92
445.14	168
445.361	121
445.582	77
445.803	90
446.024	80
446.245	89
446.466	84
446.687	85
446.908	79
447.129	84
447.35	71
447.571	77
447.792	74
448.013	82
448.234	79
448.455	83
448.675	94
448.896	91
449.117	89
449.338	75
449.559	80
449.779	82
450	86
450.221	71
450.442	77
450.662	83
450.883	78
451.104	70
451.324	84
451.545	88
451.766	81
451.986	82
452.207	84
452.428	76
452.648	68
452.869	87
453.089	81
453.31	78
453.53	86
453.751	79
453.971	77
454.192	79
454.412	74
454.633	84
454.853	84
455.073	83
455.294	83
455.514	72
455.734	80
455.955	82
456.175	76
456.395	77
456.616	73
456.836	77
457.056	69
457.276	87
457.497	74
457.717	83
457.937	80
458.157	97
458.377	89
458.598	76
458.818	83
459.038	87
459.258	88
459.478	73
459.698	74
459.918	80
460.138	71
460.358	80
460.578	83
460.798	74
461.018	74
461.238	76
461.458	83
461.678	84
461.898	72
462.118	84
462.338	70
462.558	95
462.777	82
462.997	96
463.217	90
463.437	82
463.657	84
463.876	79
464.096	76
464.316	82
464.536	94
464.755	92
464.975	75
465.195	72
465.414	78
465.634	78
465.854	91
466.073	82
466.293	74
466.512	70
466.732	82
466.951	80
467.171	81
467.391	87
467.61	71
467.829	88
468.049	85
468.268	64
468.488	77
468.707	80
468.927	86
469.146	80
469.365	81
469.585	88
469.804	88
470.023	87
470.243	74
470.462	89
470.681	75
470.901	91
471.12	84
471.339	81
471.558	93
471.777	96
471.997	83
472.216	98
472.435	77
472.654	80
472.873	90
473.092	84
473.311	77
473.53	90
473.749	92
473.968	92
474.187	79
474.406	69
474.625	74
474.844	96
475.063	84
475.282	88
475.501	80
475.72	79
475.939	84
476.158	74
476.377	85
476.596	75
476.814	91
477.033	86
477.252	76
477.471	82
477.69	88
477.908	98
478.127	71
478.346	83
478.564	80
478.783	78
479.002	70
479.22	82
479.439	74
479.658	88
479.876	84
480.095	84
480.313	80
480.532	84
480.751	73
480.969	86
481.188	78
481.406	93
481.624	88
481.843	80
482.061	89
482.28	82
482.498	74
482.717	82
482.935	77
483.153	90
483.372	73
483.59	83
483.808	80
484.027	82
484.245	76
484.463	78
484.681	93
484.9	95
485.118	69
485.336	77
485.554	83
485.772	83
485.99	86
486.209	83
486.427	81
486.645	92
486.863	71
487.081	78
487.299	89
487.517	77
487.735	85
487.953	86
488.171	86
488.389	91
488.607	81
488.825	83
489.043	78
489.261	92
489.479	70
489.696	79
489.914	82
490.132	67
490.35	90
490.568	85
490.786	90
491.003	80
491.221	77
491.439	83
491.657	83
491.874	77
492.092	90
492.31	93
492.527	81
492.745	78
492.963	96
493.18	60
493.398	76
493.615	81
493.833	83
494.05	78
494.268	83
494.485	90
494.703	84
494.92	73
495.138	87
495.355	83
495.573	83
495.79	96
496.008	86
496.225	84
496.442	79
496.66	96
496.877	85
497.094	88
497.312	88
497.529	97
497.746	76
497.963	81
498.181	78
498.398	70
498.615	86
498.832	90
499.049	70
499.267	71
499.484	82
499.701	96
499.918	80
500.135	74
500.352	84
500.569	74
500.786	76
501.003	100
501.22	95
501.437	84
501.654	93
501.871	79
502.088	79
502.305	90
502.522	79
502.739	77
502.956	92
503.172	86
503.389	71
503.606	90
503.823	82
504.04	78
504.256	79
504.473	87
504.69	81
504.907	86
505.123	93
505.34	86
505.557	78
505.773	89
505.99	86
506.207	74
506.423	75
506.64	86
506.856	76
507.073	93
507.289	91
507.506	84
507.722	86
507.939	86
508.155	81
508.372	76
508.588	82
508.805	84
509.021	93
509.238	85
509.454	81
509.67	70
509.887	83
510.103	90
510.319	90
510.536	93
510.752	90
510.968	83
511.184	78
511.401	82
511.617	85
511.833	87
512.049	92
512.265	76
512.481	75
512.698	94
512.914	87
513.13	78
513.346	78
513.562	74
513.778	73
513.994	94
514.21	82
514.426	79
514.642	83
514.858	91
515.074	86
515.29	82
515.506	86
515.721	77
515.937	90
516.153	72
516.369	78
516.585	90
516.801	87
517.016	90
517.232	77
517.448	87
517.664	86
517.879	88
518.095	88
518.311	77
518.527	79
518.742	84
518.958	82
519.173	82
519.389	89
519.605	81
519.82	81
520.036	84
520.251	84
520.467	81
520.682	88
520.898	86
521.113	80
521.329	88
521.544	88
521.76	98
521.975	88
522.19	98
522.406	86
522.621	88
522.836	63
523.052	82
523.267	82
523.482	88
523.698	69
523.913	72
524.128	76
524.343	88
524.559	90
524.774	73
524.989	72
525.204	87
525.419	88
525.634	89
525.849	93
526.064	89
526.28	101
526.495	82
526.71	95
526.925	89
527.14	79
527.355	90
527.57	79
527.785	84
527.999	88
528.214	84
528.429	93
528.644	77
528.859	86
529.074	75
529.289	74
529.503	79
529.718	70
529.933	80
530.148	76
530.363	86
530.577	94
530.792	82
531.007	95
531.221	77
531.436	81
531.651	86
531.865	95
532.08	81
532.295	82
532.509	85
532.724	89
532.938	83
533.153	97
533.367	92
533.582	77
533.796	85
534.011	80
534.225	82
534.44	71
534.654	96
534.868	79
535.083	82
535.297	94
535.511	86
535.726	89
535.94	80
536.154	99
536.369	90
536.583	73
536.797	88
537.011	79
537.225	87
537.44	77
537.654	92
537.868	77
538.082	81
538.296	100
538.51	84
538.724	88
538.938	75
539.153	79
539.367	77
539.581	80
539.795	86
540.009	86
540.222	77
540.436	76
540.65	83
540.864	76
541.078	86
541.292	92
541.506	87
541.72	89
541.934	82
542.147	91
542.361	77
542.575	89
542.789	86
543.002	86
543.216	89
543.43	78
543.644	90
543.857	74
544.071	80
544.285	83
544.498	84
544.712	72
544.925	82
545.139	78
545.352	77
545.566	82
545.779	84
545.993	85
546.206	91
546.42	76
546.633	72
546.847	73
547.06	92
547.274	84
547.487	88
547.7	89
547.914	80
548.127	85
548.34	92
548.554	89
548.767	85
548.98	98
549.193	77
549.407	79
549.62	96
549.833	77
550.046	75
550.259	84
550.473	85
550.686	86
550.899	77
551.112	93
551.325	78
551.538	76
551.751	84
551.964	84
552.177	85
552.39	91
552.603	87
552.816	94
553.029	93
553.242	102
553.455	82
553.667	83
553.88	76
554.093	74
554.306	73
554.519	90
554.732	86
554.944	94
555.157	86
555.37	98
555.583	86
555.795	83
556.008	91
556.221	74
556.433	83
556.646	87
556.859	86
557.071	86
557.284	91
557.496	84
557.709	82
557.921	73
558.134	72
558.346	86
558.559	84
558.771	77
558.984	80
559.196	90
559.409	90
559.621	88
559.833	91
560.046	86
560.258	89
560.47	88
560.683	100
560.895	86
561.107	72
561.32	78
561.532	75
561.744	92
561.956	79
562.168	89
562.381	81
562.593	79
562.805	78
563.017	86
563.229	69
563.441	67
563.653	90
563.865	81
564.077	87
564.289	88
564.501	93
564.713	80
564.925	94
565.137	92
565.349	89
565.561	96
565.773	99
565.985	88
566.197	74
566.408	92
566.62	68
566.832	84
567.044	84
567.255	82
567.467	91
567.679	68
567.891	86
568.102	82
568.314	81
568.526	80
568.737	77
568.949	80
569.161	84
569.372	76
569.584	73
569.795	88
570.007	80
570.218	80
570.43	86
570.641	82
570.853	79
571.064	78
571.276	88
571.487	89
571.698	96
571.91	72
572.121	83
572.333	84
572.544	77
572.755	92
572.966	78
573.178	88
573.389	70
573.6	81
573.811	78
574.023	91
574.234	88
574.445	93
574.656	82
574.867	74
575.078	81
575.289	80
575.501	76
575.712	93
575.923	90
576.134	90
576.345	86
576.556	91
576.767	75
576.978	90
577.188	84
577.399	84
577.61	77
577.821	70
578.032	74
578.243	74
578.454	83
578.665	80
578.875	87
579.086	80
579.297	92
579.508	77
579.718	79
579.929	80
580.14	82
580.35	86
580.561	93
580.772	79
580.982	94
581.193	78
581.403	82
581.614	86
581.825	89
582.035	92
582.246	79
582.456	94
582.667	71
582.877	88
583.087	78
583.298	89
583.508	92
583.719	91
583.929	77
584.139	86
584.35	77
584.56	67
584.77	84
584.981	76
585.191	87
585.401	86
585.611	78
585.821	89
586.032	90
586.242	82
586.452	86
586.662	88
586.872	89
587.082	70
587.292	76
587.502	72
587.713	74
587.923	83
588.133	95
588.343	85
588.553	91
588.762	83
588.972	79
589.182	78
589.392	76
589.602	88
589.812	81
590.022	76
590.232	84
590.441	83
590.651	76
590.861	72
